Data from Circ_2012_H10_HRD10591_00086.txt Node
Date: Wed Jan 03 10:06:07 EST 2024
User: Yrep
Spectrometer: HR+D1059
Trigger mode: 1
Integration Time (sec): 1.000000E-1
Scans to average: 1
Electric dark correction enabled: true
Nonlinearity correction enabled: false
Boxcar width: 0
XAxis mode: Wavelengths
Number of Pixels in Spectrum: 2048
>>>>>Begin Spectral Data<<<<<
223.165	-32.69
223.4	-32.69
223.635	-32.69
223.869	-16.69
224.104	-28.69
224.338	-27.69
224.573	-3.69
224.808	-4.69
225.042	-1.69
225.277	-13.69
225.511	3.31
225.746	-5.69
225.98	-3.69
226.215	10.31
226.449	29.31
226.683	36.31
226.918	25.31
227.152	34.31
227.387	43.31
227.621	40.31
227.856	48.31
228.09	39.31
228.324	55.31
228.559	55.31
228.793	65.31
229.027	69.31
229.262	69.31
229.496	66.31
229.73	94.31
229.964	80.31
230.199	83.31
230.433	95.31
230.667	77.31
230.901	72.31
231.136	83.31
231.37	77.31
231.604	83.31
231.838	85.31
232.072	71.31
232.306	69.31
232.541	86.31
232.775	80.31
233.009	79.31
233.243	85.31
233.477	83.31
233.711	71.31
233.945	88.31
234.179	90.31
234.413	79.31
234.647	82.31
234.881	78.31
235.115	81.31
235.349	79.31
235.583	77.31
235.817	90.31
236.051	91.31
236.285	79.31
236.519	78.31
236.753	74.31
236.987	81.31
237.221	85.31
237.455	85.31
237.689	78.31
237.922	70.31
238.156	85.31
238.39	74.31
238.624	73.31
238.858	68.31
239.091	85.31
239.325	70.31
239.559	77.31
239.793	78.31
240.027	88.31
240.26	74.31
240.494	81.31
240.728	79.31
240.961	74.31
241.195	75.31
241.429	72.31
241.662	93.31
241.896	78.31
242.13	76.31
242.363	62.31
242.597	89.31
242.83	82.31
243.064	72.31
243.298	72.31
243.531	72.31
243.765	89.31
243.998	81.31
244.232	75.31
244.465	87.31
244.699	83.31
244.932	73.31
245.166	86.31
245.399	78.31
245.633	76.31
245.866	80.31
246.099	70.31
246.333	67.31
246.566	70.31
246.8	80.31
247.033	77.31
247.266	69.31
247.5	96.31
247.733	77.31
247.966	80.31
248.2	81.31
248.433	89.31
248.666	80.31
248.899	97.31
249.133	79.31
249.366	101.31
249.599	86.31
249.832	72.31
250.066	85.31
250.299	81.31
250.532	77.31
250.765	98.31
250.998	83.31
251.231	88.31
251.465	90.31
251.698	68.31
251.931	78.31
252.164	73.31
252.397	69.31
252.63	72.31
252.863	77.31
253.096	80.31
253.329	67.31
253.562	76.31
253.795	71.31
254.028	77.31
254.261	73.31
254.494	74.31
254.727	77.31
254.96	83.31
255.193	77.31
255.426	77.31
255.659	84.31
255.892	79.31
256.124	73.31
256.357	86.31
256.59	86.31
256.823	72.31
257.056	76.31
257.289	92.31
257.521	96.31
257.754	87.31
257.987	78.31
258.22	78.31
258.452	95.31
258.685	88.31
258.918	92.31
259.151	89.31
259.383	92.31
259.616	75.31
259.849	86.31
260.081	73.31
260.314	73.31
260.547	72.31
260.779	85.31
261.012	79.31
261.244	78.31
261.477	85.31
261.71	104.31
261.942	97.31
262.175	112.31
262.407	76.31
262.64	94.31
262.872	99.31
263.105	84.31
263.337	84.31
263.57	93.31
263.802	88.31
264.035	85.31
264.267	74.31
264.499	89.31
264.732	89.31
264.964	84.31
265.197	77.31
265.429	95.31
265.661	74.31
265.894	86.31
266.126	88.31
266.358	88.31
266.591	91.31
266.823	78.31
267.055	74.31
267.287	77.31
267.52	90.31
267.752	86.31
267.984	85.31
268.216	79.31
268.448	71.31
268.681	81.31
268.913	80.31
269.145	90.31
269.377	81.31
269.609	83.31
269.841	78.31
270.073	90.31
270.306	93.31
270.538	75.31
270.77	80.31
271.002	89.31
271.234	76.31
271.466	86.31
271.698	92.31
271.93	82.31
272.162	79.31
272.394	86.31
272.626	83.31
272.858	86.31
273.09	89.31
273.322	88.31
273.553	82.31
273.785	89.31
274.017	87.31
274.249	86.31
274.481	78.31
274.713	85.31
274.945	94.31
275.176	89.31
275.408	82.31
275.64	86.31
275.872	85.31
276.104	87.31
276.335	91.31
276.567	90.31
276.799	98.31
277.031	100.31
277.262	94.31
277.494	95.31
277.726	92.31
277.957	79.31
278.189	83.31
278.421	104.31
278.652	93.31
278.884	92.31
279.115	80.31
279.347	97.31
279.579	84.31
279.81	84.31
280.042	105.31
280.273	89.31
280.505	93.31
280.736	87.31
280.968	92.31
281.199	84.31
281.431	93.31
281.662	76.31
281.894	92.31
282.125	103.31
282.356	106.31
282.588	136.31
282.819	113.31
283.051	103.31
283.282	81.31
283.513	87.31
283.745	84.31
283.976	81.31
284.207	75.31
284.439	84.31
284.67	90.31
284.901	86.31
285.132	75.31
285.364	82.31
285.595	77.31
285.826	97.31
286.057	92.31
286.288	90.31
286.52	87.31
286.751	68.31
286.982	90.31
287.213	88.31
287.444	100.31
287.675	85.31
287.906	94.31
288.138	91.31
288.369	85.31
288.6	94.31
288.831	85.31
289.062	78.31
289.293	90.31
289.524	86.31
289.755	80.31
289.986	74.31
290.217	88.31
290.448	87.31
290.679	73.31
290.91	73.31
291.141	84.31
291.371	88.31
291.602	99.31
291.833	83.31
292.064	85.31
292.295	92.31
292.526	89.31
292.757	90.31
292.987	94.31
293.218	88.31
293.449	83.31
293.68	93.31
293.91	96.31
294.141	82.31
294.372	90.31
294.603	84.31
294.833	89.31
295.064	88.31
295.295	83.31
295.525	94.31
295.756	119.31
295.987	109.31
296.217	118.31
296.448	123.31
296.679	95.31
296.909	98.31
297.14	102.31
297.37	81.31
297.601	79.31
297.831	89.31
298.062	84.31
298.292	78.31
298.523	93.31
298.753	92.31
298.984	91.31
299.214	99.31
299.445	83.31
299.675	94.31
299.905	87.31
300.136	78.31
300.366	76.31
300.597	95.31
300.827	80.31
301.057	103.31
301.288	102.31
301.518	99.31
301.748	91.31
301.979	87.31
302.209	93.31
302.439	101.31
302.669	96.31
302.9	100.31
303.13	99.31
303.36	106.31
303.59	93.31
303.82	94.31
304.051	108.31
304.281	86.31
304.511	87.31
304.741	77.31
304.971	96.31
305.201	80.31
305.431	83.31
305.661	84.31
305.891	85.31
306.121	86.31
306.352	111.31
306.582	98.31
306.812	96.31
307.042	107.31
307.272	87.31
307.502	104.31
307.731	93.31
307.961	87.31
308.191	89.31
308.421	96.31
308.651	76.31
308.881	82.31
309.111	85.31
309.341	90.31
309.571	90.31
309.8	96.31
310.03	104.31
310.26	92.31
310.49	96.31
310.72	106.31
310.949	110.31
311.179	114.31
311.409	94.31
311.639	96.31
311.868	99.31
312.098	98.31
312.328	91.31
312.557	103.31
312.787	114.31
313.017	98.31
313.246	91.31
313.476	82.31
313.706	98.31
313.935	95.31
314.165	88.31
314.394	94.31
314.624	93.31
314.853	72.31
315.083	88.31
315.312	86.31
315.542	95.31
315.771	78.31
316.001	96.31
316.23	88.31
316.46	80.31
316.689	107.31
316.919	92.31
317.148	83.31
317.377	90.31
317.607	102.31
317.836	68.31
318.065	91.31
318.295	81.31
318.524	86.31
318.753	98.31
318.983	97.31
319.212	101.31
319.441	104.31
319.67	98.31
319.9	84.31
320.129	97.31
320.358	102.31
320.587	92.31
320.816	93.31
321.046	93.31
321.275	97.31
321.504	80.31
321.733	88.31
321.962	98.31
322.191	99.31
322.42	108.31
322.649	109.31
322.878	104.31
323.108	115.31
323.337	123.31
323.566	118.31
323.795	155.31
324.024	184.31
324.253	369.31
324.482	834.31
324.71	1625.31
324.939	2158.31
325.168	822.31
325.397	235.31
325.626	151.31
325.855	125.31
326.084	127.31
326.313	124.31
326.542	161.31
326.77	237.31
326.999	456.31
327.228	928.31
327.457	1678.31
327.686	1350.31
327.914	362.31
328.143	199.31
328.372	165.31
328.6	118.31
328.829	120.31
329.058	123.31
329.287	128.31
329.515	101.31
329.744	104.31
329.972	108.31
330.201	149.31
330.43	187.31
330.658	156.31
330.887	135.31
331.115	119.31
331.344	89.31
331.572	108.31
331.801	110.31
332.03	96.31
332.258	85.31
332.486	92.31
332.715	94.31
332.943	88.31
333.172	85.31
333.4	88.31
333.629	108.31
333.857	121.31
334.085	130.31
334.314	145.31
334.542	197.31
334.771	173.31
334.999	114.31
335.227	107.31
335.455	105.31
335.684	99.31
335.912	103.31
336.14	104.31
336.369	97.31
336.597	97.31
336.825	87.31
337.053	78.31
337.281	87.31
337.51	98.31
337.738	105.31
337.966	84.31
338.194	90.31
338.422	88.31
338.65	99.31
338.878	82.31
339.106	90.31
339.334	73.31
339.562	83.31
339.79	84.31
340.018	83.31
340.246	95.31
340.474	90.31
340.702	85.31
340.93	99.31
341.158	87.31
341.386	105.31
341.614	95.31
341.842	74.31
342.07	99.31
342.298	100.31
342.526	102.31
342.754	96.31
342.981	89.31
343.209	93.31
343.437	120.31
343.665	85.31
343.893	76.31
344.12	94.31
344.348	94.31
344.576	86.31
344.804	84.31
345.031	95.31
345.259	102.31
345.487	90.31
345.714	99.31
345.942	99.31
346.17	111.31
346.397	98.31
346.625	87.31
346.853	73.31
347.08	95.31
347.308	95.31
347.535	99.31
347.763	99.31
347.99	100.31
348.218	106.31
348.445	97.31
348.673	98.31
348.9	88.31
349.128	98.31
349.355	102.31
349.583	103.31
349.81	85.31
350.037	77.31
350.265	93.31
350.492	91.31
350.72	108.31
350.947	86.31
351.174	104.31
351.402	101.31
351.629	99.31
351.856	96.31
352.083	102.31
352.311	99.31
352.538	103.31
352.765	102.31
352.992	121.31
353.22	110.31
353.447	106.31
353.674	100.31
353.901	82.31
354.128	91.31
354.355	94.31
354.583	85.31
354.81	89.31
355.037	101.31
355.264	97.31
355.491	87.31
355.718	96.31
355.945	109.31
356.172	102.31
356.399	103.31
356.626	107.31
356.853	89.31
357.08	85.31
357.307	94.31
357.534	102.31
357.761	101.31
357.988	107.31
358.215	101.31
358.441	99.31
358.668	88.31
358.895	88.31
359.122	86.31
359.349	86.31
359.576	103.31
359.802	95.31
360.029	116.31
360.256	96.31
360.483	102.31
360.709	84.31
360.936	101.31
361.163	101.31
361.39	85.31
361.616	100.31
361.843	92.31
362.07	93.31
362.296	101.31
362.523	85.31
362.749	82.31
362.976	92.31
363.203	89.31
363.429	94.31
363.656	102.31
363.882	90.31
364.109	81.31
364.335	91.31
364.562	92.31
364.788	86.31
365.015	100.31
365.241	103.31
365.468	95.31
365.694	107.31
365.92	92.31
366.147	86.31
366.373	86.31
366.599	80.31
366.826	79.31
367.052	92.31
367.278	88.31
367.505	82.31
367.731	94.31
367.957	87.31
368.184	97.31
368.41	88.31
368.636	92.31
368.862	111.31
369.089	114.31
369.315	88.31
369.541	88.31
369.767	83.31
369.993	93.31
370.219	105.31
370.445	102.31
370.672	78.31
370.898	96.31
371.124	89.31
371.35	80.31
371.576	86.31
371.802	77.31
372.028	77.31
372.254	84.31
372.48	74.31
372.706	90.31
372.932	95.31
373.158	96.31
373.384	80.31
373.61	94.31
373.835	86.31
374.061	95.31
374.287	87.31
374.513	103.31
374.739	88.31
374.965	87.31
375.191	86.31
375.416	89.31
375.642	103.31
375.868	94.31
376.094	102.31
376.319	91.31
376.545	81.31
376.771	89.31
376.997	78.31
377.222	81.31
377.448	77.31
377.674	99.31
377.899	84.31
378.125	87.31
378.35	84.31
378.576	88.31
378.802	84.31
379.027	91.31
379.253	91.31
379.478	66.31
379.704	84.31
379.929	96.31
380.155	97.31
380.38	94.31
380.606	87.31
380.831	90.31
381.057	98.31
381.282	98.31
381.507	89.31
381.733	102.31
381.958	105.31
382.184	105.31
382.409	103.31
382.634	93.31
382.86	106.31
383.085	99.31
383.31	108.31
383.535	110.31
383.761	94.31
383.986	95.31
384.211	95.31
384.436	90.31
384.662	86.31
384.887	102.31
385.112	109.31
385.337	112.31
385.562	108.31
385.787	110.31
386.013	109.31
386.238	110.31
386.463	100.31
386.688	118.31
386.913	104.31
387.138	109.31
387.363	111.31
387.588	99.31
387.813	104.31
388.038	95.31
388.263	108.31
388.488	97.31
388.713	110.31
388.938	106.31
389.163	104.31
389.387	93.31
389.612	98.31
389.837	95.31
390.062	94.31
390.287	102.31
390.512	93.31
390.736	85.31
390.961	102.31
391.186	102.31
391.411	98.31
391.636	95.31
391.86	90.31
392.085	85.31
392.31	98.31
392.534	85.31
392.759	91.31
392.984	86.31
393.208	83.31
393.433	82.31
393.658	80.31
393.882	86.31
394.107	80.31
394.331	101.31
394.556	81.31
394.78	100.31
395.005	91.31
395.229	115.31
395.454	89.31
395.678	80.31
395.903	72.31
396.127	105.31
396.352	93.31
396.576	82.31
396.801	79.31
397.025	91.31
397.249	92.31
397.474	100.31
397.698	85.31
397.922	94.31
398.147	86.31
398.371	77.31
398.595	91.31
398.82	91.31
399.044	90.31
399.268	95.31
399.492	89.31
399.717	96.31
399.941	100.31
400.165	92.31
400.389	89.31
400.613	84.31
400.837	84.31
401.062	95.31
401.286	91.31
401.51	94.31
401.734	90.31
401.958	89.31
402.182	128.31
402.406	148.31
402.63	106.31
402.854	89.31
403.078	106.31
403.302	98.31
403.526	72.31
403.75	80.31
403.974	100.31
404.198	91.31
404.422	87.31
404.645	97.31
404.869	100.31
405.093	89.31
405.317	96.31
405.541	94.31
405.765	92.31
405.988	123.31
406.212	159.31
406.436	213.31
406.66	147.31
406.883	89.31
407.107	94.31
407.331	90.31
407.555	95.31
407.778	104.31
408.002	94.31
408.226	101.31
408.449	98.31
408.673	92.31
408.896	83.31
409.12	83.31
409.344	99.31
409.567	80.31
409.791	64.31
410.014	82.31
410.238	98.31
410.461	95.31
410.685	98.31
410.908	104.31
411.132	102.31
411.355	97.31
411.578	100.31
411.802	82.31
412.025	83.31
412.249	87.31
412.472	102.31
412.695	94.31
412.919	93.31
413.142	87.31
413.365	88.31
413.589	88.31
413.812	91.31
414.035	84.31
414.258	93.31
414.482	82.31
414.705	79.31
414.928	94.31
415.151	94.31
415.374	91.31
415.597	81.31
415.821	84.31
416.044	88.31
416.267	83.31
416.49	98.31
416.713	80.31
416.936	83.31
417.159	86.31
417.382	84.31
417.605	86.31
417.828	87.31
418.051	94.31
418.274	87.31
418.497	88.31
418.72	90.31
418.943	72.31
419.166	84.31
419.389	86.31
419.611	94.31
419.834	90.31
420.057	79.31
420.28	88.31
420.503	90.31
420.726	82.31
420.948	79.31
421.171	91.31
421.394	92.31
421.617	94.31
421.839	94.31
422.062	89.31
422.285	84.31
422.507	94.31
422.73	94.31
422.953	84.31
423.175	93.31
423.398	78.31
423.621	83.31
423.843	86.31
424.066	77.31
424.288	90.31
424.511	90.31
424.733	87.31
424.956	95.31
425.178	80.31
425.401	101.31
425.623	105.31
425.846	98.31
426.068	75.31
426.291	95.31
426.513	75.31
426.735	88.31
426.958	83.31
427.18	102.31
427.402	132.31
427.625	167.31
427.847	134.31
428.069	107.31
428.292	88.31
428.514	83.31
428.736	81.31
428.958	92.31
429.181	86.31
429.403	77.31
429.625	91.31
429.847	86.31
430.069	92.31
430.292	79.31
430.514	79.31
430.736	87.31
430.958	92.31
431.18	76.31
431.402	94.31
431.624	89.31
431.846	90.31
432.068	83.31
432.29	86.31
432.512	103.31
432.734	95.31
432.956	84.31
433.178	81.31
433.4	88.31
433.622	99.31
433.844	100.31
434.066	94.31
434.287	91.31
434.509	71.31
434.731	88.31
434.953	83.31
435.175	90.31
435.397	97.31
435.618	90.31
435.84	92.31
436.062	109.31
436.284	116.31
436.505	97.31
436.727	103.31
436.949	91.31
437.17	81.31
437.392	93.31
437.614	87.31
437.835	101.31
438.057	115.31
438.278	100.31
438.5	102.31
438.721	121.31
438.943	103.31
439.165	78.31
439.386	79.31
439.608	95.31
439.829	90.31
440.05	118.31
440.272	138.31
440.493	102.31
440.715	79.31
440.936	94.31
441.158	80.31
441.379	95.31
441.6	104.31
441.822	89.31
442.043	98.31
442.264	94.31
442.486	91.31
442.707	88.31
442.928	115.31
443.149	119.31
443.371	122.31
443.592	104.31
443.813	97.31
444.034	98.31
444.255	98.31
444.476	91.31
444.698	92.31
444.919	84.31
445.14	140.31
445.361	123.31
445.582	109.31
445.803	114.31
446.024	113.31
446.245	126.31
446.466	105.31
446.687	86.31
446.908	94.31
447.129	93.31
447.35	94.31
447.571	100.31
447.792	98.31
448.013	107.31
448.234	105.31
448.455	98.31
448.675	111.31
448.896	111.31
449.117	94.31
449.338	85.31
449.559	122.31
449.779	125.31
450	80.31
450.221	87.31
450.442	74.31
450.662	90.31
450.883	103.31
451.104	95.31
451.324	93.31
451.545	90.31
451.766	92.31
451.986	84.31
452.207	87.31
452.428	86.31
452.648	96.31
452.869	102.31
453.089	98.31
453.31	106.31
453.53	93.31
453.751	91.31
453.971	93.31
454.192	108.31
454.412	104.31
454.633	90.31
454.853	99.31
455.073	80.31
455.294	83.31
455.514	87.31
455.734	83.31
455.955	94.31
456.175	77.31
456.395	90.31
456.616	90.31
456.836	74.31
457.056	93.31
457.276	93.31
457.497	72.31
457.717	85.31
457.937	76.31
458.157	90.31
458.377	82.31
458.598	129.31
458.818	134.31
459.038	124.31
459.258	98.31
459.478	88.31
459.698	89.31
459.918	91.31
460.138	79.31
460.358	89.31
460.578	95.31
460.798	88.31
461.018	96.31
461.238	84.31
461.458	90.31
461.678	88.31
461.898	85.31
462.118	89.31
462.338	86.31
462.558	82.31
462.777	70.31
462.997	90.31
463.217	92.31
463.437	75.31
463.657	85.31
463.876	88.31
464.096	104.31
464.316	99.31
464.536	93.31
464.755	82.31
464.975	116.31
465.195	136.31
465.414	159.31
465.634	98.31
465.854	104.31
466.073	96.31
466.293	80.31
466.512	94.31
466.732	91.31
466.951	77.31
467.171	98.31
467.391	99.31
467.61	86.31
467.829	82.31
468.049	115.31
468.268	146.31
468.488	96.31
468.707	74.31
468.927	92.31
469.146	96.31
469.365	80.31
469.585	96.31
469.804	96.31
470.023	92.31
470.243	76.31
470.462	89.31
470.681	117.31
470.901	84.31
471.12	79.31
471.339	88.31
471.558	83.31
471.777	94.31
471.997	114.31
472.216	154.31
472.435	223.31
472.654	117.31
472.873	99.31
473.092	92.31
473.311	88.31
473.53	85.31
473.749	71.31
473.968	95.31
474.187	107.31
474.406	79.31
474.625	83.31
474.844	90.31
475.063	97.31
475.282	85.31
475.501	89.31
475.72	80.31
475.939	82.31
476.158	78.31
476.377	70.31
476.596	84.31
476.814	86.31
477.033	92.31
477.252	103.31
477.471	86.31
477.69	84.31
477.908	92.31
478.127	98.31
478.346	86.31
478.564	84.31
478.783	84.31
479.002	84.31
479.22	88.31
479.439	99.31
479.658	112.31
479.876	105.31
480.095	88.31
480.313	93.31
480.532	87.31
480.751	115.31
480.969	164.31
481.188	346.31
481.406	239.31
481.624	115.31
481.843	84.31
482.061	98.31
482.28	78.31
482.498	83.31
482.717	102.31
482.935	80.31
483.153	85.31
483.372	88.31
483.59	87.31
483.808	90.31
484.027	94.31
484.245	84.31
484.463	86.31
484.681	95.31
484.9	92.31
485.118	95.31
485.336	94.31
485.554	89.31
485.772	99.31
485.99	104.31
486.209	111.31
486.427	92.31
486.645	111.31
486.863	100.31
487.081	86.31
487.299	102.31
487.517	103.31
487.735	95.31
487.953	86.31
488.171	94.31
488.389	87.31
488.607	94.31
488.825	90.31
489.043	86.31
489.261	88.31
489.479	83.31
489.696	79.31
489.914	82.31
490.132	84.31
490.35	83.31
490.568	97.31
490.786	75.31
491.003	95.31
491.221	92.31
491.439	84.31
491.657	94.31
491.874	92.31
492.092	91.31
492.31	93.31
492.527	88.31
492.745	91.31
492.963	89.31
493.18	94.31
493.398	95.31
493.615	100.31
493.833	95.31
494.05	84.31
494.268	69.31
494.485	90.31
494.703	85.31
494.92	75.31
495.138	95.31
495.355	82.31
495.573	96.31
495.79	84.31
496.008	103.31
496.225	100.31
496.442	86.31
496.66	90.31
496.877	94.31
497.094	94.31
497.312	93.31
497.529	93.31
497.746	80.31
497.963	84.31
498.181	95.31
498.398	101.31
498.615	106.31
498.832	104.31
499.049	93.31
499.267	84.31
499.484	97.31
499.701	98.31
499.918	90.31
500.135	92.31
500.352	91.31
500.569	96.31
500.786	92.31
501.003	88.31
501.22	90.31
501.437	92.31
501.654	99.31
501.871	93.31
502.088	80.31
502.305	87.31
502.522	84.31
502.739	90.31
502.956	89.31
503.172	95.31
503.389	92.31
503.606	104.31
503.823	88.31
504.04	89.31
504.256	82.31
504.473	87.31
504.69	89.31
504.907	84.31
505.123	91.31
505.34	83.31
505.557	92.31
505.773	75.31
505.99	75.31
506.207	103.31
506.423	71.31
506.64	79.31
506.856	99.31
507.073	98.31
507.289	85.31
507.506	96.31
507.722	94.31
507.939	102.31
508.155	98.31
508.372	92.31
508.588	75.31
508.805	92.31
509.021	92.31
509.238	103.31
509.454	109.31
509.67	94.31
509.887	100.31
510.103	114.31
510.319	199.31
510.536	682.31
510.752	2279.31
510.968	655.31
511.184	154.31
511.401	105.31
511.617	90.31
511.833	92.31
512.049	101.31
512.265	74.31
512.481	90.31
512.698	78.31
512.914	92.31
513.13	97.31
513.346	86.31
513.562	80.31
513.778	93.31
513.994	100.31
514.21	107.31
514.426	127.31
514.642	133.31
514.858	128.31
515.074	141.31
515.29	415.31
515.506	1312.31
515.721	498.31
515.937	145.31
