Data from Circ_2012_H10_HRD10591_00053.txt Node
Date: Wed Jan 03 10:06:01 EST 2024
User: Yrep
Spectrometer: HR+D1059
Trigger mode: 1
Integration Time (sec): 1.000000E-1
Scans to average: 1
Electric dark correction enabled: true
Nonlinearity correction enabled: false
Boxcar width: 0
XAxis mode: Wavelengths
Number of Pixels in Spectrum: 2048
>>>>>Begin Spectral Data<<<<<
223.165	-14.62
223.4	-14.62
223.635	-14.62
223.869	-14.62
224.104	-7.62
224.338	-31.62
224.573	-12.62
224.808	-4.62
225.042	-6.62
225.277	-0.62
225.511	-4.62
225.746	6.38
225.98	3.38
226.215	8.38
226.449	22.38
226.683	15.38
226.918	17.38
227.152	24.38
227.387	35.38
227.621	46.38
227.856	29.38
228.09	24.38
228.324	53.38
228.559	54.38
228.793	63.38
229.027	73.38
229.262	68.38
229.496	60.38
229.73	93.38
229.964	74.38
230.199	81.38
230.433	65.38
230.667	70.38
230.901	84.38
231.136	78.38
231.37	63.38
231.604	86.38
231.838	81.38
232.072	72.38
232.306	81.38
232.541	87.38
232.775	79.38
233.009	87.38
233.243	82.38
233.477	72.38
233.711	83.38
233.945	83.38
234.179	76.38
234.413	81.38
234.647	93.38
234.881	76.38
235.115	70.38
235.349	67.38
235.583	61.38
235.817	78.38
236.051	72.38
236.285	82.38
236.519	87.38
236.753	82.38
236.987	82.38
237.221	77.38
237.455	83.38
237.689	77.38
237.922	72.38
238.156	81.38
238.39	78.38
238.624	84.38
238.858	66.38
239.091	86.38
239.325	84.38
239.559	71.38
239.793	61.38
240.027	86.38
240.26	64.38
240.494	67.38
240.728	80.38
240.961	88.38
241.195	77.38
241.429	82.38
241.662	71.38
241.896	85.38
242.13	79.38
242.363	69.38
242.597	69.38
242.83	79.38
243.064	75.38
243.298	77.38
243.531	72.38
243.765	78.38
243.998	71.38
244.232	79.38
244.465	87.38
244.699	89.38
244.932	85.38
245.166	85.38
245.399	72.38
245.633	81.38
245.866	71.38
246.099	79.38
246.333	66.38
246.566	84.38
246.8	85.38
247.033	74.38
247.266	70.38
247.5	78.38
247.733	77.38
247.966	71.38
248.2	94.38
248.433	74.38
248.666	86.38
248.899	87.38
249.133	75.38
249.366	104.38
249.599	87.38
249.832	84.38
250.066	85.38
250.299	93.38
250.532	83.38
250.765	85.38
250.998	75.38
251.231	70.38
251.465	73.38
251.698	67.38
251.931	77.38
252.164	69.38
252.397	84.38
252.63	69.38
252.863	76.38
253.096	75.38
253.329	82.38
253.562	95.38
253.795	72.38
254.028	84.38
254.261	65.38
254.494	76.38
254.727	95.38
254.96	78.38
255.193	80.38
255.426	84.38
255.659	72.38
255.892	81.38
256.124	72.38
256.357	82.38
256.59	87.38
256.823	86.38
257.056	87.38
257.289	90.38
257.521	71.38
257.754	81.38
257.987	76.38
258.22	80.38
258.452	88.38
258.685	84.38
258.918	103.38
259.151	86.38
259.383	105.38
259.616	89.38
259.849	63.38
260.081	83.38
260.314	83.38
260.547	73.38
260.779	75.38
261.012	83.38
261.244	96.38
261.477	86.38
261.71	84.38
261.942	86.38
262.175	93.38
262.407	74.38
262.64	81.38
262.872	93.38
263.105	84.38
263.337	86.38
263.57	77.38
263.802	86.38
264.035	84.38
264.267	74.38
264.499	78.38
264.732	87.38
264.964	81.38
265.197	78.38
265.429	94.38
265.661	76.38
265.894	70.38
266.126	72.38
266.358	91.38
266.591	82.38
266.823	73.38
267.055	69.38
267.287	88.38
267.52	78.38
267.752	90.38
267.984	89.38
268.216	98.38
268.448	82.38
268.681	79.38
268.913	87.38
269.145	94.38
269.377	83.38
269.609	95.38
269.841	87.38
270.073	74.38
270.306	74.38
270.538	94.38
270.77	74.38
271.002	79.38
271.234	84.38
271.466	86.38
271.698	67.38
271.93	75.38
272.162	87.38
272.394	97.38
272.626	78.38
272.858	76.38
273.09	89.38
273.322	84.38
273.553	85.38
273.785	83.38
274.017	80.38
274.249	94.38
274.481	96.38
274.713	77.38
274.945	88.38
275.176	86.38
275.408	71.38
275.64	81.38
275.872	84.38
276.104	82.38
276.335	89.38
276.567	89.38
276.799	115.38
277.031	99.38
277.262	90.38
277.494	89.38
277.726	91.38
277.957	66.38
278.189	82.38
278.421	92.38
278.652	80.38
278.884	88.38
279.115	84.38
279.347	95.38
279.579	89.38
279.81	77.38
280.042	93.38
280.273	93.38
280.505	80.38
280.736	84.38
280.968	87.38
281.199	88.38
281.431	79.38
281.662	77.38
281.894	84.38
282.125	93.38
282.356	111.38
282.588	141.38
282.819	117.38
283.051	89.38
283.282	88.38
283.513	92.38
283.745	71.38
283.976	88.38
284.207	92.38
284.439	86.38
284.67	91.38
284.901	84.38
285.132	79.38
285.364	75.38
285.595	89.38
285.826	86.38
286.057	79.38
286.288	97.38
286.52	85.38
286.751	88.38
286.982	80.38
287.213	90.38
287.444	87.38
287.675	82.38
287.906	78.38
288.138	86.38
288.369	86.38
288.6	85.38
288.831	77.38
289.062	79.38
289.293	93.38
289.524	75.38
289.755	88.38
289.986	100.38
290.217	90.38
290.448	78.38
290.679	81.38
290.91	99.38
291.141	84.38
291.371	83.38
291.602	85.38
291.833	98.38
292.064	79.38
292.295	72.38
292.526	78.38
292.757	69.38
292.987	76.38
293.218	101.38
293.449	85.38
293.68	87.38
293.91	85.38
294.141	90.38
294.372	90.38
294.603	75.38
294.833	81.38
295.064	81.38
295.295	84.38
295.525	93.38
295.756	93.38
295.987	108.38
296.217	134.38
296.448	126.38
296.679	102.38
296.909	86.38
297.14	91.38
297.37	74.38
297.601	83.38
297.831	84.38
298.062	75.38
298.292	93.38
298.523	84.38
298.753	82.38
298.984	89.38
299.214	85.38
299.445	89.38
299.675	86.38
299.905	83.38
300.136	85.38
300.366	100.38
300.597	83.38
300.827	88.38
301.057	86.38
301.288	97.38
301.518	85.38
301.748	83.38
301.979	87.38
302.209	90.38
302.439	86.38
302.669	90.38
302.9	85.38
303.13	97.38
303.36	93.38
303.59	98.38
303.82	114.38
304.051	84.38
304.281	92.38
304.511	82.38
304.741	80.38
304.971	82.38
305.201	103.38
305.431	89.38
305.661	74.38
305.891	92.38
306.121	103.38
306.352	101.38
306.582	97.38
306.812	97.38
307.042	80.38
307.272	91.38
307.502	101.38
307.731	107.38
307.961	88.38
308.191	90.38
308.421	103.38
308.651	99.38
308.881	90.38
309.111	99.38
309.341	105.38
309.571	114.38
309.8	78.38
310.03	87.38
310.26	87.38
310.49	107.38
310.72	103.38
310.949	104.38
311.179	95.38
311.409	101.38
311.639	78.38
311.868	85.38
312.098	99.38
312.328	95.38
312.557	104.38
312.787	90.38
313.017	124.38
313.246	86.38
313.476	106.38
313.706	85.38
313.935	79.38
314.165	86.38
314.394	102.38
314.624	76.38
314.853	91.38
315.083	89.38
315.312	87.38
315.542	78.38
315.771	100.38
316.001	85.38
316.23	83.38
316.46	78.38
316.689	99.38
316.919	89.38
317.148	99.38
317.377	87.38
317.607	96.38
317.836	92.38
318.065	87.38
318.295	85.38
318.524	94.38
318.753	94.38
318.983	101.38
319.212	103.38
319.441	122.38
319.67	106.38
319.9	104.38
320.129	85.38
320.358	87.38
320.587	96.38
320.816	85.38
321.046	83.38
321.275	77.38
321.504	110.38
321.733	94.38
321.962	84.38
322.191	98.38
322.42	97.38
322.649	101.38
322.878	108.38
323.108	117.38
323.337	110.38
323.566	118.38
323.795	137.38
324.024	191.38
324.253	380.38
324.482	757.38
324.71	1513.38
324.939	2026.38
325.168	760.38
325.397	225.38
325.626	141.38
325.855	132.38
326.084	127.38
326.313	133.38
326.542	153.38
326.77	223.38
326.999	398.38
327.228	863.38
327.457	1543.38
327.686	1239.38
327.914	336.38
328.143	186.38
328.372	155.38
328.6	120.38
328.829	119.38
329.058	108.38
329.287	118.38
329.515	105.38
329.744	115.38
329.972	107.38
330.201	135.38
330.43	154.38
330.658	141.38
330.887	131.38
331.115	96.38
331.344	87.38
331.572	96.38
331.801	92.38
332.03	105.38
332.258	82.38
332.486	97.38
332.715	90.38
332.943	105.38
333.172	92.38
333.4	93.38
333.629	109.38
333.857	119.38
334.085	107.38
334.314	116.38
334.542	144.38
334.771	141.38
334.999	94.38
335.227	78.38
335.455	98.38
335.684	80.38
335.912	93.38
336.14	101.38
336.369	98.38
336.597	85.38
336.825	92.38
337.053	91.38
337.281	99.38
337.51	89.38
337.738	95.38
337.966	83.38
338.194	81.38
338.422	93.38
338.65	82.38
338.878	89.38
339.106	91.38
339.334	76.38
339.562	76.38
339.79	80.38
340.018	92.38
340.246	81.38
340.474	98.38
340.702	98.38
340.93	94.38
341.158	94.38
341.386	95.38
341.614	109.38
341.842	99.38
342.07	92.38
342.298	79.38
342.526	88.38
342.754	92.38
342.981	88.38
343.209	91.38
343.437	95.38
343.665	85.38
343.893	77.38
344.12	88.38
344.348	92.38
344.576	89.38
344.804	95.38
345.031	100.38
345.259	94.38
345.487	83.38
345.714	88.38
345.942	100.38
346.17	105.38
346.397	97.38
346.625	87.38
346.853	95.38
347.08	91.38
347.308	103.38
347.535	98.38
347.763	106.38
347.99	101.38
348.218	89.38
348.445	99.38
348.673	93.38
348.9	95.38
349.128	91.38
349.355	105.38
349.583	96.38
349.81	94.38
350.037	88.38
350.265	87.38
350.492	84.38
350.72	90.38
350.947	96.38
351.174	89.38
351.402	108.38
351.629	110.38
351.856	108.38
352.083	91.38
352.311	99.38
352.538	99.38
352.765	102.38
352.992	118.38
353.22	109.38
353.447	111.38
353.674	103.38
353.901	90.38
354.128	95.38
354.355	95.38
354.583	101.38
354.81	91.38
355.037	96.38
355.264	90.38
355.491	85.38
355.718	89.38
355.945	98.38
356.172	94.38
356.399	103.38
356.626	102.38
356.853	85.38
357.08	82.38
357.307	108.38
357.534	89.38
357.761	89.38
357.988	98.38
358.215	92.38
358.441	95.38
358.668	91.38
358.895	82.38
359.122	89.38
359.349	81.38
359.576	95.38
359.802	104.38
360.029	105.38
360.256	98.38
360.483	83.38
360.709	88.38
360.936	90.38
361.163	86.38
361.39	92.38
361.616	97.38
361.843	84.38
362.07	102.38
362.296	80.38
362.523	86.38
362.749	94.38
362.976	91.38
363.203	87.38
363.429	95.38
363.656	89.38
363.882	87.38
364.109	88.38
364.335	87.38
364.562	96.38
364.788	91.38
365.015	92.38
365.241	95.38
365.468	90.38
365.694	101.38
365.92	96.38
366.147	72.38
366.373	92.38
366.599	87.38
366.826	75.38
367.052	85.38
367.278	87.38
367.505	80.38
367.731	93.38
367.957	91.38
368.184	78.38
368.41	109.38
368.636	98.38
368.862	112.38
369.089	102.38
369.315	93.38
369.541	84.38
369.767	73.38
369.993	89.38
370.219	80.38
370.445	89.38
370.672	94.38
370.898	90.38
371.124	83.38
371.35	85.38
371.576	80.38
371.802	87.38
372.028	77.38
372.254	75.38
372.48	91.38
372.706	85.38
372.932	102.38
373.158	82.38
373.384	92.38
373.61	76.38
373.835	76.38
374.061	84.38
374.287	85.38
374.513	100.38
374.739	92.38
374.965	94.38
375.191	88.38
375.416	100.38
375.642	71.38
375.868	83.38
376.094	78.38
376.319	89.38
376.545	89.38
376.771	83.38
376.997	99.38
377.222	88.38
377.448	89.38
377.674	93.38
377.899	97.38
378.125	82.38
378.35	75.38
378.576	78.38
378.802	92.38
379.027	92.38
379.253	99.38
379.478	88.38
379.704	95.38
379.929	86.38
380.155	82.38
380.38	83.38
380.606	97.38
380.831	101.38
381.057	97.38
381.282	92.38
381.507	99.38
381.733	87.38
381.958	87.38
382.184	96.38
382.409	96.38
382.634	104.38
382.86	87.38
383.085	92.38
383.31	99.38
383.535	87.38
383.761	105.38
383.986	97.38
384.211	107.38
384.436	104.38
384.662	96.38
384.887	108.38
385.112	114.38
385.337	110.38
385.562	100.38
385.787	97.38
386.013	108.38
386.238	115.38
386.463	115.38
386.688	93.38
386.913	107.38
387.138	109.38
387.363	91.38
387.588	87.38
387.813	107.38
388.038	89.38
388.263	114.38
388.488	114.38
388.713	102.38
388.938	115.38
389.163	92.38
389.387	91.38
389.612	79.38
389.837	90.38
390.062	91.38
390.287	100.38
390.512	94.38
390.736	90.38
390.961	83.38
391.186	100.38
391.411	90.38
391.636	97.38
391.86	79.38
392.085	85.38
392.31	86.38
392.534	84.38
392.759	91.38
392.984	83.38
393.208	89.38
393.433	90.38
393.658	78.38
393.882	87.38
394.107	87.38
394.331	85.38
394.556	91.38
394.78	103.38
395.005	91.38
395.229	85.38
395.454	90.38
395.678	87.38
395.903	93.38
396.127	88.38
396.352	79.38
396.576	77.38
396.801	81.38
397.025	93.38
397.249	77.38
397.474	84.38
397.698	101.38
397.922	82.38
398.147	84.38
398.371	93.38
398.595	100.38
398.82	78.38
399.044	82.38
399.268	94.38
399.492	92.38
399.717	86.38
399.941	92.38
400.165	97.38
400.389	93.38
400.613	84.38
400.837	71.38
401.062	94.38
401.286	81.38
401.51	91.38
401.734	83.38
401.958	94.38
402.182	101.38
402.406	144.38
402.63	105.38
402.854	74.38
403.078	77.38
403.302	86.38
403.526	81.38
403.75	84.38
403.974	79.38
404.198	75.38
404.422	83.38
404.645	80.38
404.869	83.38
405.093	84.38
405.317	103.38
405.541	86.38
405.765	95.38
405.988	110.38
406.212	155.38
406.436	224.38
406.66	137.38
406.883	99.38
407.107	107.38
407.331	97.38
407.555	94.38
407.778	93.38
408.002	94.38
408.226	109.38
408.449	86.38
408.673	93.38
408.896	75.38
409.12	93.38
409.344	89.38
409.567	93.38
409.791	83.38
410.014	119.38
410.238	86.38
410.461	93.38
410.685	87.38
410.908	89.38
411.132	106.38
411.355	98.38
411.578	86.38
411.802	80.38
412.025	86.38
412.249	81.38
412.472	90.38
412.695	95.38
412.919	72.38
413.142	85.38
413.365	98.38
413.589	92.38
413.812	83.38
414.035	97.38
414.258	76.38
414.482	77.38
414.705	84.38
414.928	85.38
415.151	101.38
415.374	92.38
415.597	84.38
415.821	84.38
416.044	84.38
416.267	76.38
416.49	98.38
416.713	89.38
416.936	80.38
417.159	95.38
417.382	91.38
417.605	89.38
417.828	86.38
418.051	113.38
418.274	91.38
418.497	77.38
418.72	83.38
418.943	80.38
419.166	67.38
419.389	88.38
419.611	82.38
419.834	69.38
420.057	77.38
420.28	87.38
420.503	78.38
420.726	91.38
420.948	85.38
421.171	74.38
421.394	107.38
421.617	90.38
421.839	95.38
422.062	89.38
422.285	88.38
422.507	97.38
422.73	87.38
422.953	79.38
423.175	83.38
423.398	86.38
423.621	100.38
423.843	95.38
424.066	89.38
424.288	89.38
424.511	89.38
424.733	85.38
424.956	93.38
425.178	98.38
425.401	92.38
425.623	92.38
425.846	86.38
426.068	75.38
426.291	83.38
426.513	90.38
426.735	85.38
426.958	103.38
427.18	115.38
427.402	138.38
427.625	144.38
427.847	123.38
428.069	117.38
428.292	90.38
428.514	85.38
428.736	84.38
428.958	94.38
429.181	95.38
429.403	90.38
429.625	82.38
429.847	89.38
430.069	98.38
430.292	82.38
430.514	70.38
430.736	89.38
430.958	90.38
431.18	83.38
431.402	91.38
431.624	89.38
431.846	88.38
432.068	85.38
432.29	75.38
432.512	90.38
432.734	92.38
432.956	92.38
433.178	95.38
433.4	89.38
433.622	85.38
433.844	84.38
434.066	91.38
434.287	101.38
434.509	85.38
434.731	89.38
434.953	91.38
435.175	75.38
435.397	91.38
435.618	88.38
435.84	104.38
436.062	122.38
436.284	107.38
436.505	104.38
436.727	92.38
436.949	100.38
437.17	80.38
437.392	78.38
437.614	100.38
437.835	104.38
438.057	125.38
438.278	110.38
438.5	97.38
438.721	104.38
438.943	93.38
439.165	96.38
439.386	83.38
439.608	91.38
439.829	108.38
440.05	111.38
440.272	130.38
440.493	89.38
440.715	83.38
440.936	94.38
441.158	87.38
441.379	88.38
441.6	78.38
441.822	88.38
442.043	79.38
442.264	101.38
442.486	104.38
442.707	101.38
442.928	93.38
443.149	122.38
443.371	121.38
443.592	100.38
443.813	110.38
444.034	118.38
444.255	98.38
444.476	79.38
444.698	94.38
444.919	91.38
445.14	119.38
445.361	122.38
445.582	113.38
445.803	124.38
446.024	132.38
446.245	132.38
446.466	109.38
446.687	78.38
446.908	90.38
447.129	83.38
447.35	92.38
447.571	88.38
447.792	93.38
448.013	93.38
448.234	104.38
448.455	85.38
448.675	93.38
448.896	98.38
449.117	95.38
449.338	106.38
449.559	112.38
449.779	123.38
450	78.38
450.221	93.38
450.442	98.38
450.662	98.38
450.883	96.38
451.104	100.38
451.324	94.38
451.545	79.38
451.766	75.38
451.986	88.38
452.207	77.38
452.428	92.38
452.648	104.38
452.869	104.38
453.089	122.38
453.31	93.38
453.53	105.38
453.751	85.38
453.971	100.38
454.192	118.38
454.412	90.38
454.633	91.38
454.853	86.38
455.073	88.38
455.294	77.38
455.514	98.38
455.734	89.38
455.955	82.38
456.175	89.38
456.395	69.38
456.616	71.38
456.836	84.38
457.056	84.38
457.276	96.38
457.497	72.38
457.717	86.38
457.937	75.38
458.157	79.38
458.377	82.38
458.598	100.38
458.818	138.38
459.038	159.38
459.258	117.38
459.478	88.38
459.698	79.38
459.918	78.38
460.138	76.38
460.358	74.38
460.578	89.38
460.798	83.38
461.018	84.38
461.238	84.38
461.458	86.38
461.678	99.38
461.898	100.38
462.118	80.38
462.338	86.38
462.558	78.38
462.777	84.38
462.997	70.38
463.217	87.38
463.437	86.38
463.657	73.38
463.876	86.38
464.096	90.38
464.316	93.38
464.536	92.38
464.755	102.38
464.975	114.38
465.195	137.38
465.414	149.38
465.634	84.38
465.854	78.38
466.073	91.38
466.293	78.38
466.512	88.38
466.732	101.38
466.951	80.38
467.171	92.38
467.391	100.38
467.61	108.38
467.829	96.38
468.049	94.38
468.268	108.38
468.488	85.38
468.707	94.38
468.927	74.38
469.146	75.38
469.365	78.38
469.585	98.38
469.804	85.38
470.023	95.38
470.243	97.38
470.462	91.38
470.681	104.38
470.901	95.38
471.12	86.38
471.339	90.38
471.558	85.38
471.777	95.38
471.997	91.38
472.216	121.38
472.435	175.38
472.654	114.38
472.873	77.38
473.092	88.38
473.311	91.38
473.53	83.38
473.749	85.38
473.968	103.38
474.187	93.38
474.406	99.38
474.625	102.38
474.844	104.38
475.063	88.38
475.282	92.38
475.501	78.38
475.72	80.38
475.939	81.38
476.158	83.38
476.377	92.38
476.596	85.38
476.814	93.38
477.033	95.38
477.252	98.38
477.471	99.38
477.69	98.38
477.908	89.38
478.127	90.38
478.346	98.38
478.564	102.38
478.783	100.38
479.002	102.38
479.22	83.38
479.439	104.38
479.658	117.38
479.876	108.38
480.095	89.38
480.313	97.38
480.532	89.38
480.751	96.38
480.969	127.38
481.188	251.38
481.406	190.38
481.624	85.38
481.843	92.38
482.061	93.38
482.28	69.38
482.498	96.38
482.717	89.38
482.935	85.38
483.153	92.38
483.372	88.38
483.59	87.38
483.808	88.38
484.027	89.38
484.245	90.38
484.463	92.38
484.681	93.38
484.9	79.38
485.118	83.38
485.336	95.38
485.554	93.38
485.772	100.38
485.99	87.38
486.209	108.38
486.427	106.38
486.645	113.38
486.863	98.38
487.081	97.38
487.299	96.38
487.517	93.38
487.735	111.38
487.953	100.38
488.171	88.38
488.389	92.38
488.607	107.38
488.825	98.38
489.043	89.38
489.261	98.38
489.479	96.38
489.696	98.38
489.914	92.38
490.132	87.38
490.35	98.38
490.568	99.38
490.786	95.38
491.003	100.38
491.221	83.38
491.439	91.38
491.657	99.38
491.874	88.38
492.092	81.38
492.31	112.38
492.527	94.38
492.745	86.38
492.963	76.38
493.18	84.38
493.398	105.38
493.615	89.38
493.833	99.38
494.05	78.38
494.268	88.38
494.485	78.38
494.703	81.38
494.92	75.38
495.138	89.38
495.355	82.38
495.573	85.38
495.79	91.38
496.008	103.38
496.225	60.38
496.442	88.38
496.66	93.38
496.877	95.38
497.094	97.38
497.312	89.38
497.529	102.38
497.746	88.38
497.963	77.38
498.181	87.38
498.398	87.38
498.615	114.38
498.832	106.38
499.049	97.38
499.267	93.38
499.484	84.38
499.701	78.38
499.918	82.38
500.135	90.38
500.352	96.38
500.569	89.38
500.786	102.38
501.003	90.38
501.22	97.38
501.437	94.38
501.654	81.38
501.871	113.38
502.088	90.38
502.305	97.38
502.522	88.38
502.739	91.38
502.956	97.38
503.172	85.38
503.389	89.38
503.606	100.38
503.823	96.38
504.04	97.38
504.256	98.38
504.473	106.38
504.69	100.38
504.907	84.38
505.123	98.38
505.34	89.38
505.557	93.38
505.773	91.38
505.99	93.38
506.207	93.38
506.423	86.38
506.64	95.38
506.856	78.38
507.073	103.38
507.289	94.38
507.506	102.38
507.722	90.38
507.939	99.38
508.155	93.38
508.372	93.38
508.588	95.38
508.805	102.38
509.021	98.38
509.238	103.38
509.454	98.38
509.67	87.38
509.887	103.38
510.103	135.38
510.319	208.38
510.536	694.38
510.752	2323.38
510.968	669.38
511.184	165.38
511.401	101.38
511.617	95.38
511.833	100.38
512.049	95.38
512.265	90.38
512.481	93.38
512.698	101.38
512.914	81.38
513.13	91.38
513.346	91.38
513.562	94.38
513.778	102.38
513.994	95.38
514.21	102.38
514.426	120.38
514.642	111.38
514.858	109.38
515.074	176.38
515.29	421.38
515.506	1347.38
515.721	527.38
515.937	150.38
516.153	98.38
