Data from Circ_2012_H10_HRD10591_00090.txt Node
Date: Wed Jan 03 10:06:08 EST 2024
User: Yrep
Spectrometer: HR+D1059
Trigger mode: 1
Integration Time (sec): 1.000000E-1
Scans to average: 1
Electric dark correction enabled: true
Nonlinearity correction enabled: false
Boxcar width: 0
XAxis mode: Wavelengths
Number of Pixels in Spectrum: 2048
>>>>>Begin Spectral Data<<<<<
223.165	-7.62
223.4	-7.62
223.635	-7.62
223.869	-16.62
224.104	-26.62
224.338	-4.62
224.573	-24.62
224.808	-26.62
225.042	-10.62
225.277	-8.62
225.511	-3.62
225.746	16.38
225.98	-0.62
226.215	6.38
226.449	16.38
226.683	29.38
226.918	22.38
227.152	39.38
227.387	48.38
227.621	40.38
227.856	33.38
228.09	52.38
228.324	40.38
228.559	69.38
228.793	71.38
229.027	63.38
229.262	71.38
229.496	80.38
229.73	83.38
229.964	94.38
230.199	85.38
230.433	64.38
230.667	70.38
230.901	82.38
231.136	83.38
231.37	81.38
231.604	91.38
231.838	87.38
232.072	84.38
232.306	89.38
232.541	81.38
232.775	89.38
233.009	93.38
233.243	84.38
233.477	82.38
233.711	76.38
233.945	78.38
234.179	85.38
234.413	81.38
234.647	90.38
234.881	59.38
235.115	59.38
235.349	79.38
235.583	84.38
235.817	73.38
236.051	79.38
236.285	80.38
236.519	71.38
236.753	97.38
236.987	77.38
237.221	88.38
237.455	98.38
237.689	81.38
237.922	77.38
238.156	83.38
238.39	76.38
238.624	78.38
238.858	90.38
239.091	78.38
239.325	66.38
239.559	69.38
239.793	79.38
240.027	81.38
240.26	86.38
240.494	88.38
240.728	89.38
240.961	75.38
241.195	81.38
241.429	90.38
241.662	75.38
241.896	90.38
242.13	68.38
242.363	67.38
242.597	72.38
242.83	68.38
243.064	75.38
243.298	88.38
243.531	87.38
243.765	84.38
243.998	86.38
244.232	89.38
244.465	80.38
244.699	81.38
244.932	63.38
245.166	75.38
245.399	62.38
245.633	70.38
245.866	93.38
246.099	87.38
246.333	84.38
246.566	83.38
246.8	87.38
247.033	92.38
247.266	87.38
247.5	98.38
247.733	84.38
247.966	96.38
248.2	78.38
248.433	87.38
248.666	85.38
248.899	74.38
249.133	75.38
249.366	91.38
249.599	87.38
249.832	94.38
250.066	88.38
250.299	89.38
250.532	85.38
250.765	79.38
250.998	61.38
251.231	79.38
251.465	82.38
251.698	91.38
251.931	80.38
252.164	70.38
252.397	86.38
252.63	86.38
252.863	86.38
253.096	72.38
253.329	74.38
253.562	71.38
253.795	86.38
254.028	75.38
254.261	86.38
254.494	90.38
254.727	82.38
254.96	80.38
255.193	63.38
255.426	96.38
255.659	72.38
255.892	96.38
256.124	77.38
256.357	85.38
256.59	88.38
256.823	80.38
257.056	76.38
257.289	72.38
257.521	81.38
257.754	74.38
257.987	91.38
258.22	97.38
258.452	88.38
258.685	91.38
258.918	91.38
259.151	81.38
259.383	83.38
259.616	79.38
259.849	100.38
260.081	74.38
260.314	78.38
260.547	75.38
260.779	78.38
261.012	85.38
261.244	83.38
261.477	89.38
261.71	91.38
261.942	112.38
262.175	107.38
262.407	90.38
262.64	89.38
262.872	70.38
263.105	77.38
263.337	94.38
263.57	85.38
263.802	73.38
264.035	71.38
264.267	92.38
264.499	77.38
264.732	85.38
264.964	88.38
265.197	87.38
265.429	77.38
265.661	73.38
265.894	91.38
266.126	100.38
266.358	75.38
266.591	77.38
266.823	86.38
267.055	81.38
267.287	77.38
267.52	83.38
267.752	67.38
267.984	70.38
268.216	77.38
268.448	89.38
268.681	91.38
268.913	92.38
269.145	82.38
269.377	96.38
269.609	99.38
269.841	100.38
270.073	88.38
270.306	80.38
270.538	83.38
270.77	82.38
271.002	82.38
271.234	86.38
271.466	91.38
271.698	89.38
271.93	90.38
272.162	87.38
272.394	94.38
272.626	83.38
272.858	99.38
273.09	89.38
273.322	93.38
273.553	80.38
273.785	97.38
274.017	89.38
274.249	89.38
274.481	87.38
274.713	92.38
274.945	91.38
275.176	82.38
275.408	85.38
275.64	88.38
275.872	81.38
276.104	85.38
276.335	91.38
276.567	87.38
276.799	112.38
277.031	106.38
277.262	101.38
277.494	100.38
277.726	81.38
277.957	74.38
278.189	86.38
278.421	93.38
278.652	80.38
278.884	88.38
279.115	91.38
279.347	86.38
279.579	78.38
279.81	93.38
280.042	92.38
280.273	99.38
280.505	94.38
280.736	77.38
280.968	81.38
281.199	87.38
281.431	89.38
281.662	78.38
281.894	89.38
282.125	101.38
282.356	106.38
282.588	141.38
282.819	120.38
283.051	95.38
283.282	88.38
283.513	87.38
283.745	85.38
283.976	87.38
284.207	89.38
284.439	90.38
284.67	94.38
284.901	93.38
285.132	84.38
285.364	81.38
285.595	83.38
285.826	79.38
286.057	93.38
286.288	86.38
286.52	96.38
286.751	88.38
286.982	81.38
287.213	83.38
287.444	98.38
287.675	93.38
287.906	85.38
288.138	79.38
288.369	89.38
288.6	89.38
288.831	88.38
289.062	83.38
289.293	68.38
289.524	95.38
289.755	90.38
289.986	85.38
290.217	75.38
290.448	79.38
290.679	78.38
290.91	110.38
291.141	92.38
291.371	95.38
291.602	89.38
291.833	85.38
292.064	88.38
292.295	83.38
292.526	85.38
292.757	82.38
292.987	75.38
293.218	82.38
293.449	76.38
293.68	74.38
293.91	95.38
294.141	92.38
294.372	108.38
294.603	94.38
294.833	79.38
295.064	84.38
295.295	93.38
295.525	88.38
295.756	109.38
295.987	100.38
296.217	131.38
296.448	120.38
296.679	88.38
296.909	88.38
297.14	93.38
297.37	80.38
297.601	89.38
297.831	78.38
298.062	97.38
298.292	99.38
298.523	100.38
298.753	93.38
298.984	86.38
299.214	90.38
299.445	109.38
299.675	90.38
299.905	92.38
300.136	93.38
300.366	94.38
300.597	98.38
300.827	82.38
301.057	103.38
301.288	109.38
301.518	98.38
301.748	90.38
301.979	86.38
302.209	95.38
302.439	70.38
302.669	80.38
302.9	88.38
303.13	101.38
303.36	84.38
303.59	111.38
303.82	106.38
304.051	102.38
304.281	91.38
304.511	86.38
304.741	83.38
304.971	103.38
305.201	87.38
305.431	97.38
305.661	100.38
305.891	94.38
306.121	90.38
306.352	93.38
306.582	109.38
306.812	96.38
307.042	93.38
307.272	95.38
307.502	99.38
307.731	99.38
307.961	87.38
308.191	87.38
308.421	85.38
308.651	91.38
308.881	78.38
309.111	85.38
309.341	104.38
309.571	97.38
309.8	99.38
310.03	97.38
310.26	96.38
310.49	97.38
310.72	103.38
310.949	95.38
311.179	94.38
311.409	91.38
311.639	100.38
311.868	94.38
312.098	115.38
312.328	99.38
312.557	94.38
312.787	108.38
313.017	80.38
313.246	89.38
313.476	100.38
313.706	99.38
313.935	91.38
314.165	100.38
314.394	112.38
314.624	92.38
314.853	81.38
315.083	93.38
315.312	94.38
315.542	87.38
315.771	90.38
316.001	87.38
316.23	95.38
316.46	96.38
316.689	80.38
316.919	98.38
317.148	94.38
317.377	92.38
317.607	104.38
317.836	89.38
318.065	81.38
318.295	90.38
318.524	73.38
318.753	76.38
318.983	91.38
319.212	104.38
319.441	106.38
319.67	96.38
319.9	92.38
320.129	94.38
320.358	86.38
320.587	97.38
320.816	95.38
321.046	104.38
321.275	94.38
321.504	97.38
321.733	86.38
321.962	91.38
322.191	106.38
322.42	89.38
322.649	95.38
322.878	111.38
323.108	104.38
323.337	127.38
323.566	133.38
323.795	161.38
324.024	215.38
324.253	366.38
324.482	844.38
324.71	1690.38
324.939	2203.38
325.168	795.38
325.397	244.38
325.626	155.38
325.855	131.38
326.084	115.38
326.313	118.38
326.542	152.38
326.77	236.38
326.999	481.38
327.228	954.38
327.457	1688.38
327.686	1340.38
327.914	380.38
328.143	203.38
328.372	187.38
328.6	144.38
328.829	107.38
329.058	132.38
329.287	152.38
329.515	116.38
329.744	94.38
329.972	127.38
330.201	137.38
330.43	185.38
330.658	150.38
330.887	148.38
331.115	129.38
331.344	111.38
331.572	115.38
331.801	107.38
332.03	110.38
332.258	97.38
332.486	106.38
332.715	100.38
332.943	107.38
333.172	104.38
333.4	110.38
333.629	113.38
333.857	116.38
334.085	129.38
334.314	165.38
334.542	214.38
334.771	187.38
334.999	117.38
335.227	101.38
335.455	91.38
335.684	89.38
335.912	102.38
336.14	109.38
336.369	87.38
336.597	91.38
336.825	97.38
337.053	98.38
337.281	98.38
337.51	96.38
337.738	81.38
337.966	107.38
338.194	100.38
338.422	106.38
338.65	91.38
338.878	102.38
339.106	105.38
339.334	92.38
339.562	89.38
339.79	103.38
340.018	78.38
340.246	94.38
340.474	87.38
340.702	80.38
340.93	106.38
341.158	85.38
341.386	99.38
341.614	91.38
341.842	116.38
342.07	94.38
342.298	88.38
342.526	93.38
342.754	89.38
342.981	99.38
343.209	99.38
343.437	108.38
343.665	92.38
343.893	83.38
344.12	72.38
344.348	72.38
344.576	94.38
344.804	93.38
345.031	99.38
345.259	95.38
345.487	103.38
345.714	90.38
345.942	85.38
346.17	86.38
346.397	80.38
346.625	89.38
346.853	91.38
347.08	106.38
347.308	91.38
347.535	89.38
347.763	80.38
347.99	106.38
348.218	104.38
348.445	104.38
348.673	100.38
348.9	91.38
349.128	104.38
349.355	106.38
349.583	98.38
349.81	80.38
350.037	93.38
350.265	103.38
350.492	102.38
350.72	96.38
350.947	98.38
351.174	97.38
351.402	96.38
351.629	100.38
351.856	95.38
352.083	101.38
352.311	104.38
352.538	112.38
352.765	102.38
352.992	117.38
353.22	107.38
353.447	110.38
353.674	97.38
353.901	100.38
354.128	82.38
354.355	99.38
354.583	105.38
354.81	101.38
355.037	101.38
355.264	101.38
355.491	68.38
355.718	80.38
355.945	90.38
356.172	99.38
356.399	93.38
356.626	99.38
356.853	76.38
357.08	94.38
357.307	98.38
357.534	85.38
357.761	90.38
357.988	93.38
358.215	100.38
358.441	108.38
358.668	97.38
358.895	80.38
359.122	85.38
359.349	100.38
359.576	77.38
359.802	105.38
360.029	111.38
360.256	121.38
360.483	90.38
360.709	101.38
360.936	86.38
361.163	88.38
361.39	94.38
361.616	90.38
361.843	98.38
362.07	100.38
362.296	101.38
362.523	97.38
362.749	77.38
362.976	85.38
363.203	93.38
363.429	87.38
363.656	87.38
363.882	87.38
364.109	83.38
364.335	90.38
364.562	96.38
364.788	89.38
365.015	97.38
365.241	97.38
365.468	104.38
365.694	102.38
365.92	89.38
366.147	108.38
366.373	97.38
366.599	101.38
366.826	84.38
367.052	86.38
367.278	88.38
367.505	100.38
367.731	99.38
367.957	100.38
368.184	101.38
368.41	95.38
368.636	102.38
368.862	111.38
369.089	93.38
369.315	93.38
369.541	101.38
369.767	91.38
369.993	91.38
370.219	103.38
370.445	93.38
370.672	90.38
370.898	93.38
371.124	91.38
371.35	98.38
371.576	84.38
371.802	77.38
372.028	79.38
372.254	86.38
372.48	80.38
372.706	78.38
372.932	102.38
373.158	92.38
373.384	97.38
373.61	86.38
373.835	79.38
374.061	85.38
374.287	100.38
374.513	81.38
374.739	96.38
374.965	83.38
375.191	80.38
375.416	87.38
375.642	81.38
375.868	88.38
376.094	90.38
376.319	102.38
376.545	90.38
376.771	104.38
376.997	83.38
377.222	91.38
377.448	103.38
377.674	90.38
377.899	91.38
378.125	94.38
378.35	106.38
378.576	84.38
378.802	95.38
379.027	81.38
379.253	89.38
379.478	86.38
379.704	96.38
379.929	99.38
380.155	102.38
380.38	94.38
380.606	102.38
380.831	92.38
381.057	91.38
381.282	79.38
381.507	92.38
381.733	109.38
381.958	79.38
382.184	92.38
382.409	99.38
382.634	98.38
382.86	92.38
383.085	110.38
383.31	93.38
383.535	104.38
383.761	92.38
383.986	92.38
384.211	92.38
384.436	93.38
384.662	86.38
384.887	94.38
385.112	96.38
385.337	93.38
385.562	100.38
385.787	112.38
386.013	107.38
386.238	103.38
386.463	99.38
386.688	104.38
386.913	104.38
387.138	105.38
387.363	84.38
387.588	96.38
387.813	104.38
388.038	90.38
388.263	110.38
388.488	108.38
388.713	85.38
388.938	99.38
389.163	93.38
389.387	100.38
389.612	106.38
389.837	81.38
390.062	89.38
390.287	84.38
390.512	94.38
390.736	97.38
390.961	87.38
391.186	95.38
391.411	104.38
391.636	100.38
391.86	85.38
392.085	95.38
392.31	94.38
392.534	71.38
392.759	83.38
392.984	78.38
393.208	97.38
393.433	85.38
393.658	80.38
393.882	81.38
394.107	74.38
394.331	81.38
394.556	86.38
394.78	93.38
395.005	107.38
395.229	90.38
395.454	96.38
395.678	69.38
395.903	94.38
396.127	93.38
396.352	100.38
396.576	86.38
396.801	89.38
397.025	90.38
397.249	93.38
397.474	84.38
397.698	88.38
397.922	89.38
398.147	87.38
398.371	71.38
398.595	80.38
398.82	81.38
399.044	64.38
399.268	95.38
399.492	91.38
399.717	72.38
399.941	91.38
400.165	95.38
400.389	85.38
400.613	96.38
400.837	86.38
401.062	77.38
401.286	78.38
401.51	96.38
401.734	96.38
401.958	91.38
402.182	116.38
402.406	159.38
402.63	101.38
402.854	93.38
403.078	69.38
403.302	93.38
403.526	94.38
403.75	93.38
403.974	79.38
404.198	87.38
404.422	88.38
404.645	94.38
404.869	88.38
405.093	91.38
405.317	96.38
405.541	103.38
405.765	94.38
405.988	113.38
406.212	164.38
406.436	216.38
406.66	120.38
406.883	78.38
407.107	107.38
407.331	91.38
407.555	99.38
407.778	112.38
408.002	90.38
408.226	97.38
408.449	84.38
408.673	79.38
408.896	84.38
409.12	96.38
409.344	94.38
409.567	80.38
409.791	84.38
410.014	75.38
410.238	87.38
410.461	97.38
410.685	89.38
410.908	97.38
411.132	99.38
411.355	101.38
411.578	89.38
411.802	98.38
412.025	97.38
412.249	113.38
412.472	105.38
412.695	105.38
412.919	107.38
413.142	93.38
413.365	79.38
413.589	83.38
413.812	88.38
414.035	77.38
414.258	77.38
414.482	78.38
414.705	94.38
414.928	79.38
415.151	89.38
415.374	87.38
415.597	107.38
415.821	97.38
416.044	99.38
416.267	97.38
416.49	97.38
416.713	84.38
416.936	93.38
417.159	78.38
417.382	81.38
417.605	80.38
417.828	84.38
418.051	92.38
418.274	94.38
418.497	109.38
418.72	96.38
418.943	80.38
419.166	89.38
419.389	99.38
419.611	88.38
419.834	81.38
420.057	99.38
420.28	89.38
420.503	72.38
420.726	87.38
420.948	83.38
421.171	95.38
421.394	90.38
421.617	79.38
421.839	82.38
422.062	102.38
422.285	88.38
422.507	108.38
422.73	100.38
422.953	90.38
423.175	93.38
423.398	102.38
423.621	83.38
423.843	91.38
424.066	80.38
424.288	85.38
424.511	88.38
424.733	92.38
424.956	117.38
425.178	96.38
425.401	105.38
425.623	107.38
425.846	108.38
426.068	92.38
426.291	87.38
426.513	91.38
426.735	99.38
426.958	102.38
427.18	92.38
427.402	128.38
427.625	148.38
427.847	128.38
428.069	124.38
428.292	87.38
428.514	85.38
428.736	89.38
428.958	104.38
429.181	92.38
429.403	91.38
429.625	93.38
429.847	89.38
430.069	101.38
430.292	93.38
430.514	77.38
430.736	71.38
430.958	83.38
431.18	99.38
431.402	87.38
431.624	81.38
431.846	88.38
432.068	115.38
432.29	88.38
432.512	88.38
432.734	78.38
432.956	91.38
433.178	88.38
433.4	94.38
433.622	97.38
433.844	89.38
434.066	84.38
434.287	86.38
434.509	89.38
434.731	80.38
434.953	79.38
435.175	95.38
435.397	107.38
435.618	89.38
435.84	101.38
436.062	124.38
436.284	121.38
436.505	107.38
436.727	105.38
436.949	92.38
437.17	94.38
437.392	84.38
437.614	94.38
437.835	107.38
438.057	115.38
438.278	102.38
438.5	111.38
438.721	120.38
438.943	114.38
439.165	92.38
439.386	87.38
439.608	80.38
439.829	91.38
440.05	111.38
440.272	133.38
440.493	105.38
440.715	103.38
440.936	81.38
441.158	97.38
441.379	76.38
441.6	90.38
441.822	90.38
442.043	102.38
442.264	89.38
442.486	113.38
442.707	93.38
442.928	113.38
443.149	128.38
443.371	120.38
443.592	110.38
443.813	115.38
444.034	99.38
444.255	103.38
444.476	84.38
444.698	87.38
444.919	92.38
445.14	129.38
445.361	128.38
445.582	103.38
445.803	136.38
446.024	126.38
446.245	119.38
446.466	102.38
446.687	99.38
446.908	91.38
447.129	86.38
447.35	75.38
447.571	92.38
447.792	91.38
448.013	96.38
448.234	110.38
448.455	92.38
448.675	115.38
448.896	115.38
449.117	97.38
449.338	98.38
449.559	139.38
449.779	128.38
450	91.38
450.221	93.38
450.442	92.38
450.662	77.38
450.883	107.38
451.104	108.38
451.324	92.38
451.545	91.38
451.766	86.38
451.986	80.38
452.207	77.38
452.428	87.38
452.648	94.38
452.869	118.38
453.089	101.38
453.31	106.38
453.53	88.38
453.751	94.38
453.971	110.38
454.192	104.38
454.412	91.38
454.633	79.38
454.853	88.38
455.073	83.38
455.294	90.38
455.514	98.38
455.734	75.38
455.955	72.38
456.175	85.38
456.395	94.38
456.616	95.38
456.836	83.38
457.056	87.38
457.276	81.38
457.497	85.38
457.717	80.38
457.937	81.38
458.157	81.38
458.377	97.38
458.598	104.38
458.818	135.38
459.038	145.38
459.258	118.38
459.478	87.38
459.698	80.38
459.918	67.38
460.138	84.38
460.358	96.38
460.578	85.38
460.798	89.38
461.018	79.38
461.238	72.38
461.458	87.38
461.678	78.38
461.898	87.38
462.118	93.38
462.338	85.38
462.558	85.38
462.777	93.38
462.997	96.38
463.217	85.38
463.437	91.38
463.657	85.38
463.876	91.38
464.096	78.38
464.316	85.38
464.536	101.38
464.755	84.38
464.975	102.38
465.195	157.38
465.414	163.38
465.634	94.38
465.854	101.38
466.073	87.38
466.293	88.38
466.512	76.38
466.732	89.38
466.951	92.38
467.171	104.38
467.391	96.38
467.61	86.38
467.829	108.38
468.049	119.38
468.268	117.38
468.488	92.38
468.707	86.38
468.927	86.38
469.146	89.38
469.365	86.38
469.585	83.38
469.804	92.38
470.023	94.38
470.243	94.38
470.462	99.38
470.681	104.38
470.901	88.38
471.12	80.38
471.339	94.38
471.558	79.38
471.777	98.38
471.997	97.38
472.216	163.38
472.435	250.38
472.654	133.38
472.873	94.38
473.092	96.38
473.311	79.38
473.53	91.38
473.749	85.38
473.968	105.38
474.187	106.38
474.406	93.38
474.625	86.38
474.844	76.38
475.063	97.38
475.282	92.38
475.501	72.38
475.72	101.38
475.939	100.38
476.158	91.38
476.377	81.38
476.596	75.38
476.814	88.38
477.033	101.38
477.252	95.38
477.471	88.38
477.69	95.38
477.908	84.38
478.127	73.38
478.346	96.38
478.564	93.38
478.783	94.38
479.002	89.38
479.22	95.38
479.439	113.38
479.658	101.38
479.876	92.38
480.095	90.38
480.313	100.38
480.532	102.38
480.751	106.38
480.969	181.38
481.188	401.38
481.406	267.38
481.624	117.38
481.843	69.38
482.061	95.38
482.28	81.38
482.498	90.38
482.717	96.38
482.935	79.38
483.153	92.38
483.372	96.38
483.59	96.38
483.808	93.38
484.027	88.38
484.245	107.38
484.463	97.38
484.681	94.38
484.9	88.38
485.118	80.38
485.336	93.38
485.554	96.38
485.772	105.38
485.99	97.38
486.209	88.38
486.427	90.38
486.645	107.38
486.863	114.38
487.081	90.38
487.299	93.38
487.517	95.38
487.735	77.38
487.953	81.38
488.171	93.38
488.389	108.38
488.607	88.38
488.825	95.38
489.043	89.38
489.261	96.38
489.479	94.38
489.696	82.38
489.914	103.38
490.132	81.38
490.35	85.38
490.568	89.38
490.786	97.38
491.003	92.38
491.221	86.38
491.439	98.38
491.657	90.38
491.874	89.38
492.092	103.38
492.31	99.38
492.527	95.38
492.745	88.38
492.963	92.38
493.18	104.38
493.398	97.38
493.615	94.38
493.833	102.38
494.05	99.38
494.268	89.38
494.485	98.38
494.703	85.38
494.92	90.38
495.138	88.38
495.355	89.38
495.573	96.38
495.79	84.38
496.008	82.38
496.225	96.38
496.442	91.38
496.66	102.38
496.877	83.38
497.094	94.38
497.312	90.38
497.529	92.38
497.746	82.38
497.963	96.38
498.181	81.38
498.398	85.38
498.615	119.38
498.832	101.38
499.049	90.38
499.267	79.38
499.484	87.38
499.701	96.38
499.918	101.38
500.135	96.38
500.352	94.38
500.569	96.38
500.786	100.38
501.003	105.38
501.22	101.38
501.437	73.38
501.654	90.38
501.871	104.38
502.088	104.38
502.305	89.38
502.522	99.38
502.739	93.38
502.956	84.38
503.172	86.38
503.389	89.38
503.606	108.38
503.823	101.38
504.04	83.38
504.256	72.38
504.473	87.38
504.69	91.38
504.907	100.38
505.123	105.38
505.34	101.38
505.557	97.38
505.773	82.38
505.99	85.38
506.207	91.38
506.423	104.38
506.64	98.38
506.856	96.38
507.073	81.38
507.289	99.38
507.506	87.38
507.722	96.38
507.939	94.38
508.155	102.38
508.372	93.38
508.588	103.38
508.805	89.38
509.021	96.38
509.238	114.38
509.454	97.38
509.67	101.38
509.887	97.38
510.103	136.38
510.319	226.38
510.536	765.38
510.752	2479.38
510.968	737.38
511.184	170.38
511.401	115.38
511.617	89.38
511.833	86.38
512.049	100.38
512.265	100.38
512.481	87.38
512.698	91.38
512.914	101.38
513.13	88.38
513.346	80.38
513.562	74.38
513.778	104.38
513.994	103.38
514.21	104.38
514.426	116.38
514.642	120.38
514.858	104.38
515.074	159.38
515.29	439.38
