Data from Circ_2012_H10_HRD10591_00042.txt Node
Date: Wed Jan 03 10:05:58 EST 2024
User: Yrep
Spectrometer: HR+D1059
Trigger mode: 1
Integration Time (sec): 1.000000E-1
Scans to average: 1
Electric dark correction enabled: true
Nonlinearity correction enabled: false
Boxcar width: 0
XAxis mode: Wavelengths
Number of Pixels in Spectrum: 2048
>>>>>Begin Spectral Data<<<<<
223.165	-11.5
223.4	-11.5
223.635	-11.5
223.869	-21.5
224.104	-19.5
224.338	-18.5
224.573	-11.5
224.808	-2.5
225.042	-8.5
225.277	-9.5
225.511	-3.5
225.746	0.5
225.98	0.5
226.215	14.5
226.449	4.5
226.683	27.5
226.918	26.5
227.152	32.5
227.387	28.5
227.621	23.5
227.856	35.5
228.09	51.5
228.324	43.5
228.559	42.5
228.793	62.5
229.027	64.5
229.262	73.5
229.496	66.5
229.73	91.5
229.964	68.5
230.199	75.5
230.433	74.5
230.667	74.5
230.901	64.5
231.136	62.5
231.37	92.5
231.604	75.5
231.838	81.5
232.072	72.5
232.306	70.5
232.541	77.5
232.775	76.5
233.009	75.5
233.243	71.5
233.477	82.5
233.711	70.5
233.945	82.5
234.179	81.5
234.413	62.5
234.647	68.5
234.881	56.5
235.115	77.5
235.349	72.5
235.583	73.5
235.817	68.5
236.051	70.5
236.285	74.5
236.519	71.5
236.753	90.5
236.987	80.5
237.221	97.5
237.455	70.5
237.689	77.5
237.922	72.5
238.156	70.5
238.39	73.5
238.624	53.5
238.858	71.5
239.091	70.5
239.325	86.5
239.559	66.5
239.793	79.5
240.027	75.5
240.26	84.5
240.494	77.5
240.728	74.5
240.961	67.5
241.195	84.5
241.429	79.5
241.662	66.5
241.896	60.5
242.13	72.5
242.363	83.5
242.597	78.5
242.83	78.5
243.064	72.5
243.298	80.5
243.531	80.5
243.765	85.5
243.998	81.5
244.232	84.5
244.465	82.5
244.699	85.5
244.932	96.5
245.166	86.5
245.399	83.5
245.633	80.5
245.866	68.5
246.099	78.5
246.333	64.5
246.566	80.5
246.8	66.5
247.033	68.5
247.266	74.5
247.5	78.5
247.733	83.5
247.966	69.5
248.2	76.5
248.433	78.5
248.666	74.5
248.899	80.5
249.133	84.5
249.366	80.5
249.599	94.5
249.832	84.5
250.066	78.5
250.299	78.5
250.532	76.5
250.765	66.5
250.998	85.5
251.231	74.5
251.465	70.5
251.698	70.5
251.931	91.5
252.164	79.5
252.397	76.5
252.63	80.5
252.863	60.5
253.096	72.5
253.329	76.5
253.562	78.5
253.795	89.5
254.028	84.5
254.261	77.5
254.494	75.5
254.727	75.5
254.96	70.5
255.193	88.5
255.426	75.5
255.659	85.5
255.892	83.5
256.124	78.5
256.357	93.5
256.59	70.5
256.823	77.5
257.056	86.5
257.289	85.5
257.521	68.5
257.754	64.5
257.987	78.5
258.22	82.5
258.452	85.5
258.685	75.5
258.918	84.5
259.151	80.5
259.383	81.5
259.616	86.5
259.849	79.5
260.081	78.5
260.314	76.5
260.547	82.5
260.779	82.5
261.012	80.5
261.244	81.5
261.477	90.5
261.71	87.5
261.942	122.5
262.175	119.5
262.407	77.5
262.64	91.5
262.872	75.5
263.105	89.5
263.337	82.5
263.57	75.5
263.802	72.5
264.035	80.5
264.267	88.5
264.499	90.5
264.732	85.5
264.964	79.5
265.197	77.5
265.429	88.5
265.661	81.5
265.894	85.5
266.126	84.5
266.358	76.5
266.591	93.5
266.823	78.5
267.055	86.5
267.287	94.5
267.52	78.5
267.752	69.5
267.984	79.5
268.216	73.5
268.448	80.5
268.681	98.5
268.913	91.5
269.145	78.5
269.377	90.5
269.609	81.5
269.841	86.5
270.073	83.5
270.306	86.5
270.538	74.5
270.77	85.5
271.002	84.5
271.234	97.5
271.466	86.5
271.698	88.5
271.93	78.5
272.162	80.5
272.394	81.5
272.626	93.5
272.858	77.5
273.09	83.5
273.322	79.5
273.553	87.5
273.785	76.5
274.017	72.5
274.249	93.5
274.481	72.5
274.713	82.5
274.945	84.5
275.176	92.5
275.408	103.5
275.64	75.5
275.872	86.5
276.104	78.5
276.335	92.5
276.567	109.5
276.799	112.5
277.031	121.5
277.262	107.5
277.494	73.5
277.726	79.5
277.957	88.5
278.189	74.5
278.421	94.5
278.652	82.5
278.884	83.5
279.115	79.5
279.347	81.5
279.579	98.5
279.81	92.5
280.042	81.5
280.273	82.5
280.505	83.5
280.736	87.5
280.968	83.5
281.199	94.5
281.431	86.5
281.662	81.5
281.894	76.5
282.125	105.5
282.356	132.5
282.588	138.5
282.819	109.5
283.051	99.5
283.282	83.5
283.513	84.5
283.745	83.5
283.976	87.5
284.207	84.5
284.439	103.5
284.67	86.5
284.901	92.5
285.132	90.5
285.364	70.5
285.595	86.5
285.826	83.5
286.057	83.5
286.288	75.5
286.52	87.5
286.751	99.5
286.982	86.5
287.213	92.5
287.444	82.5
287.675	74.5
287.906	93.5
288.138	85.5
288.369	107.5
288.6	87.5
288.831	84.5
289.062	91.5
289.293	88.5
289.524	82.5
289.755	81.5
289.986	100.5
290.217	86.5
290.448	84.5
290.679	73.5
290.91	86.5
291.141	76.5
291.371	90.5
291.602	90.5
291.833	85.5
292.064	84.5
292.295	85.5
292.526	90.5
292.757	86.5
292.987	84.5
293.218	75.5
293.449	94.5
293.68	84.5
293.91	87.5
294.141	84.5
294.372	83.5
294.603	83.5
294.833	85.5
295.064	81.5
295.295	85.5
295.525	91.5
295.756	95.5
295.987	114.5
296.217	144.5
296.448	140.5
296.679	103.5
296.909	91.5
297.14	89.5
297.37	85.5
297.601	81.5
297.831	89.5
298.062	91.5
298.292	72.5
298.523	80.5
298.753	86.5
298.984	96.5
299.214	88.5
299.445	90.5
299.675	79.5
299.905	98.5
300.136	93.5
300.366	81.5
300.597	85.5
300.827	99.5
301.057	74.5
301.288	105.5
301.518	90.5
301.748	105.5
301.979	106.5
302.209	81.5
302.439	85.5
302.669	87.5
302.9	97.5
303.13	90.5
303.36	83.5
303.59	98.5
303.82	107.5
304.051	97.5
304.281	93.5
304.511	84.5
304.741	89.5
304.971	82.5
305.201	95.5
305.431	84.5
305.661	87.5
305.891	98.5
306.121	101.5
306.352	109.5
306.582	105.5
306.812	73.5
307.042	93.5
307.272	93.5
307.502	101.5
307.731	96.5
307.961	88.5
308.191	93.5
308.421	93.5
308.651	72.5
308.881	82.5
309.111	90.5
309.341	101.5
309.571	100.5
309.8	87.5
310.03	99.5
310.26	96.5
310.49	103.5
310.72	90.5
310.949	112.5
311.179	91.5
311.409	83.5
311.639	82.5
311.868	81.5
312.098	96.5
312.328	106.5
312.557	93.5
312.787	108.5
313.017	96.5
313.246	96.5
313.476	88.5
313.706	88.5
313.935	102.5
314.165	90.5
314.394	106.5
314.624	101.5
314.853	97.5
315.083	95.5
315.312	88.5
315.542	81.5
315.771	97.5
316.001	86.5
316.23	96.5
316.46	91.5
316.689	86.5
316.919	84.5
317.148	98.5
317.377	107.5
317.607	101.5
317.836	95.5
318.065	92.5
318.295	86.5
318.524	87.5
318.753	91.5
318.983	100.5
319.212	103.5
319.441	111.5
319.67	107.5
319.9	111.5
320.129	88.5
320.358	100.5
320.587	97.5
320.816	114.5
321.046	105.5
321.275	105.5
321.504	88.5
321.733	105.5
321.962	98.5
322.191	102.5
322.42	114.5
322.649	126.5
322.878	111.5
323.108	129.5
323.337	130.5
323.566	146.5
323.795	172.5
324.024	232.5
324.253	452.5
324.482	986.5
324.71	2062.5
324.939	2680.5
325.168	989.5
325.397	266.5
325.626	152.5
325.855	129.5
326.084	121.5
326.313	132.5
326.542	160.5
326.77	265.5
326.999	545.5
327.228	1128.5
327.457	2069.5
327.686	1605.5
327.914	438.5
328.143	216.5
328.372	168.5
328.6	130.5
328.829	136.5
329.058	134.5
329.287	145.5
329.515	119.5
329.744	112.5
329.972	115.5
330.201	111.5
330.43	147.5
330.658	147.5
330.887	149.5
331.115	137.5
331.344	112.5
331.572	100.5
331.801	113.5
332.03	105.5
332.258	98.5
332.486	105.5
332.715	92.5
332.943	89.5
333.172	101.5
333.4	96.5
333.629	106.5
333.857	113.5
334.085	113.5
334.314	118.5
334.542	160.5
334.771	157.5
334.999	98.5
335.227	103.5
335.455	88.5
335.684	103.5
335.912	97.5
336.14	100.5
336.369	101.5
336.597	113.5
336.825	93.5
337.053	82.5
337.281	86.5
337.51	94.5
337.738	79.5
337.966	104.5
338.194	88.5
338.422	96.5
338.65	103.5
338.878	90.5
339.106	85.5
339.334	92.5
339.562	89.5
339.79	86.5
340.018	93.5
340.246	90.5
340.474	101.5
340.702	83.5
340.93	88.5
341.158	89.5
341.386	108.5
341.614	112.5
341.842	93.5
342.07	90.5
342.298	93.5
342.526	88.5
342.754	81.5
342.981	89.5
343.209	89.5
343.437	101.5
343.665	91.5
343.893	87.5
344.12	76.5
344.348	84.5
344.576	90.5
344.804	91.5
345.031	102.5
345.259	106.5
345.487	87.5
345.714	93.5
345.942	97.5
346.17	99.5
346.397	88.5
346.625	97.5
346.853	80.5
347.08	81.5
347.308	102.5
347.535	105.5
347.763	91.5
347.99	105.5
348.218	117.5
348.445	98.5
348.673	107.5
348.9	101.5
349.128	101.5
349.355	90.5
349.583	99.5
349.81	99.5
350.037	83.5
350.265	98.5
350.492	92.5
350.72	92.5
350.947	96.5
351.174	116.5
351.402	120.5
351.629	94.5
351.856	99.5
352.083	101.5
352.311	101.5
352.538	102.5
352.765	114.5
352.992	128.5
353.22	113.5
353.447	104.5
353.674	97.5
353.901	96.5
354.128	106.5
354.355	84.5
354.583	111.5
354.81	98.5
355.037	95.5
355.264	93.5
355.491	97.5
355.718	78.5
355.945	94.5
356.172	97.5
356.399	98.5
356.626	73.5
356.853	97.5
357.08	96.5
357.307	93.5
357.534	97.5
357.761	91.5
357.988	86.5
358.215	82.5
358.441	101.5
358.668	103.5
358.895	108.5
359.122	103.5
359.349	89.5
359.576	94.5
359.802	116.5
360.029	107.5
360.256	113.5
360.483	105.5
360.709	88.5
360.936	86.5
361.163	90.5
361.39	92.5
361.616	99.5
361.843	87.5
362.07	89.5
362.296	88.5
362.523	101.5
362.749	82.5
362.976	107.5
363.203	100.5
363.429	91.5
363.656	87.5
363.882	88.5
364.109	84.5
364.335	90.5
364.562	92.5
364.788	88.5
365.015	83.5
365.241	87.5
365.468	124.5
365.694	104.5
365.92	93.5
366.147	103.5
366.373	84.5
366.599	90.5
366.826	89.5
367.052	95.5
367.278	85.5
367.505	88.5
367.731	88.5
367.957	91.5
368.184	92.5
368.41	87.5
368.636	108.5
368.862	118.5
369.089	128.5
369.315	96.5
369.541	86.5
369.767	87.5
369.993	83.5
370.219	86.5
370.445	88.5
370.672	97.5
370.898	86.5
371.124	82.5
371.35	89.5
371.576	93.5
371.802	94.5
372.028	82.5
372.254	76.5
372.48	85.5
372.706	82.5
372.932	83.5
373.158	87.5
373.384	86.5
373.61	100.5
373.835	86.5
374.061	84.5
374.287	100.5
374.513	100.5
374.739	81.5
374.965	91.5
375.191	108.5
375.416	80.5
375.642	72.5
375.868	92.5
376.094	94.5
376.319	73.5
376.545	91.5
376.771	99.5
376.997	90.5
377.222	95.5
377.448	88.5
377.674	82.5
377.899	93.5
378.125	83.5
378.35	93.5
378.576	96.5
378.802	80.5
379.027	88.5
379.253	95.5
379.478	93.5
379.704	84.5
379.929	92.5
380.155	88.5
380.38	97.5
380.606	93.5
380.831	93.5
381.057	90.5
381.282	91.5
381.507	97.5
381.733	89.5
381.958	100.5
382.184	100.5
382.409	101.5
382.634	99.5
382.86	97.5
383.085	85.5
383.31	93.5
383.535	95.5
383.761	94.5
383.986	103.5
384.211	96.5
384.436	99.5
384.662	100.5
384.887	113.5
385.112	100.5
385.337	97.5
385.562	88.5
385.787	91.5
386.013	117.5
386.238	128.5
386.463	107.5
386.688	115.5
386.913	86.5
387.138	98.5
387.363	123.5
387.588	81.5
387.813	104.5
388.038	113.5
388.263	113.5
388.488	104.5
388.713	86.5
388.938	93.5
389.163	93.5
389.387	96.5
389.612	89.5
389.837	83.5
390.062	77.5
390.287	106.5
390.512	88.5
390.736	87.5
390.961	84.5
391.186	104.5
391.411	93.5
391.636	83.5
391.86	92.5
392.085	80.5
392.31	98.5
392.534	91.5
392.759	84.5
392.984	95.5
393.208	82.5
393.433	88.5
393.658	101.5
393.882	82.5
394.107	77.5
394.331	87.5
394.556	87.5
394.78	86.5
395.005	73.5
395.229	85.5
395.454	94.5
395.678	83.5
395.903	83.5
396.127	91.5
396.352	86.5
396.576	104.5
396.801	84.5
397.025	88.5
397.249	81.5
397.474	87.5
397.698	84.5
397.922	79.5
398.147	76.5
398.371	68.5
398.595	77.5
398.82	80.5
399.044	92.5
399.268	91.5
399.492	91.5
399.717	73.5
399.941	106.5
400.165	85.5
400.389	92.5
400.613	84.5
400.837	87.5
401.062	67.5
401.286	81.5
401.51	72.5
401.734	95.5
401.958	107.5
402.182	139.5
402.406	168.5
402.63	115.5
402.854	94.5
403.078	78.5
403.302	97.5
403.526	81.5
403.75	103.5
403.974	91.5
404.198	90.5
404.422	88.5
404.645	90.5
404.869	94.5
405.093	90.5
405.317	102.5
405.541	98.5
405.765	107.5
405.988	108.5
406.212	179.5
406.436	253.5
406.66	140.5
406.883	104.5
407.107	107.5
407.331	89.5
407.555	89.5
407.778	92.5
408.002	91.5
408.226	99.5
408.449	91.5
408.673	86.5
408.896	101.5
409.12	98.5
409.344	101.5
409.567	80.5
409.791	87.5
410.014	96.5
410.238	95.5
410.461	83.5
410.685	78.5
410.908	91.5
411.132	105.5
411.355	103.5
411.578	90.5
411.802	71.5
412.025	73.5
412.249	87.5
412.472	94.5
412.695	95.5
412.919	104.5
413.142	85.5
413.365	98.5
413.589	85.5
413.812	72.5
414.035	86.5
414.258	84.5
414.482	83.5
414.705	85.5
414.928	77.5
415.151	87.5
415.374	99.5
415.597	81.5
415.821	89.5
416.044	92.5
416.267	69.5
416.49	91.5
416.713	87.5
416.936	70.5
417.159	82.5
417.382	96.5
417.605	92.5
417.828	88.5
418.051	92.5
418.274	84.5
418.497	86.5
418.72	84.5
418.943	86.5
419.166	77.5
419.389	85.5
419.611	97.5
419.834	95.5
420.057	87.5
420.28	70.5
420.503	74.5
420.726	77.5
420.948	96.5
421.171	100.5
421.394	104.5
421.617	90.5
421.839	82.5
422.062	74.5
422.285	97.5
422.507	96.5
422.73	113.5
422.953	92.5
423.175	105.5
423.398	90.5
423.621	84.5
423.843	81.5
424.066	77.5
424.288	94.5
424.511	95.5
424.733	100.5
424.956	99.5
425.178	99.5
425.401	115.5
425.623	102.5
425.846	80.5
426.068	100.5
426.291	87.5
426.513	84.5
426.735	80.5
426.958	90.5
427.18	104.5
427.402	123.5
427.625	166.5
427.847	132.5
428.069	122.5
428.292	97.5
428.514	96.5
428.736	77.5
428.958	82.5
429.181	99.5
429.403	80.5
429.625	99.5
429.847	76.5
430.069	94.5
430.292	93.5
430.514	77.5
430.736	80.5
430.958	92.5
431.18	78.5
431.402	98.5
431.624	89.5
431.846	75.5
432.068	70.5
432.29	92.5
432.512	87.5
432.734	91.5
432.956	85.5
433.178	98.5
433.4	94.5
433.622	87.5
433.844	88.5
434.066	78.5
434.287	98.5
434.509	93.5
434.731	83.5
434.953	92.5
435.175	103.5
435.397	88.5
435.618	89.5
435.84	108.5
436.062	120.5
436.284	117.5
436.505	102.5
436.727	96.5
436.949	98.5
437.17	84.5
437.392	88.5
437.614	100.5
437.835	107.5
438.057	133.5
438.278	114.5
438.5	105.5
438.721	122.5
438.943	86.5
439.165	87.5
439.386	85.5
439.608	100.5
439.829	105.5
440.05	134.5
440.272	155.5
440.493	103.5
440.715	92.5
440.936	71.5
441.158	84.5
441.379	92.5
441.6	88.5
441.822	103.5
442.043	84.5
442.264	100.5
442.486	97.5
442.707	82.5
442.928	100.5
443.149	139.5
443.371	148.5
443.592	114.5
443.813	120.5
444.034	105.5
444.255	98.5
444.476	93.5
444.698	86.5
444.919	75.5
445.14	130.5
445.361	132.5
445.582	120.5
445.803	137.5
446.024	132.5
446.245	122.5
446.466	126.5
446.687	97.5
446.908	105.5
447.129	84.5
447.35	84.5
447.571	85.5
447.792	104.5
448.013	107.5
448.234	99.5
448.455	109.5
448.675	109.5
448.896	125.5
449.117	100.5
449.338	114.5
449.559	124.5
449.779	122.5
450	92.5
450.221	86.5
450.442	81.5
450.662	88.5
450.883	96.5
451.104	105.5
451.324	94.5
451.545	102.5
451.766	77.5
451.986	95.5
452.207	84.5
452.428	93.5
452.648	105.5
452.869	110.5
453.089	106.5
453.31	119.5
453.53	89.5
453.751	100.5
453.971	100.5
454.192	104.5
454.412	78.5
454.633	82.5
454.853	75.5
455.073	90.5
455.294	93.5
455.514	87.5
455.734	78.5
455.955	88.5
456.175	74.5
456.395	80.5
456.616	105.5
456.836	93.5
457.056	93.5
457.276	82.5
457.497	105.5
457.717	98.5
457.937	88.5
458.157	80.5
458.377	90.5
458.598	95.5
458.818	161.5
459.038	182.5
459.258	126.5
459.478	89.5
459.698	76.5
459.918	94.5
460.138	86.5
460.358	83.5
460.578	96.5
460.798	93.5
461.018	96.5
461.238	94.5
461.458	92.5
461.678	91.5
461.898	86.5
462.118	87.5
462.338	90.5
462.558	78.5
462.777	76.5
462.997	83.5
463.217	86.5
463.437	82.5
463.657	90.5
463.876	90.5
464.096	93.5
464.316	98.5
464.536	84.5
464.755	109.5
464.975	120.5
465.195	183.5
465.414	178.5
465.634	98.5
465.854	89.5
466.073	83.5
466.293	97.5
466.512	86.5
466.732	81.5
466.951	86.5
467.171	102.5
467.391	85.5
467.61	92.5
467.829	100.5
468.049	94.5
468.268	100.5
468.488	101.5
468.707	79.5
468.927	87.5
469.146	65.5
469.365	82.5
469.585	89.5
469.804	97.5
470.023	81.5
470.243	94.5
470.462	104.5
470.681	101.5
470.901	82.5
471.12	80.5
471.339	96.5
471.558	83.5
471.777	99.5
471.997	96.5
472.216	123.5
472.435	178.5
472.654	102.5
472.873	96.5
473.092	76.5
473.311	85.5
473.53	89.5
473.749	81.5
473.968	74.5
474.187	108.5
474.406	99.5
474.625	83.5
474.844	83.5
475.063	67.5
475.282	89.5
475.501	74.5
475.72	75.5
475.939	83.5
476.158	83.5
476.377	93.5
476.596	82.5
476.814	92.5
477.033	80.5
477.252	86.5
477.471	87.5
477.69	96.5
477.908	93.5
478.127	94.5
478.346	98.5
478.564	87.5
478.783	90.5
479.002	113.5
479.22	85.5
479.439	105.5
479.658	105.5
479.876	89.5
480.095	89.5
480.313	89.5
480.532	86.5
480.751	85.5
480.969	134.5
481.188	257.5
481.406	183.5
481.624	106.5
481.843	85.5
482.061	81.5
482.28	79.5
482.498	88.5
482.717	80.5
482.935	94.5
483.153	83.5
483.372	96.5
483.59	78.5
483.808	88.5
484.027	88.5
484.245	86.5
484.463	84.5
484.681	93.5
484.9	99.5
485.118	100.5
485.336	93.5
485.554	103.5
485.772	111.5
485.99	94.5
486.209	93.5
486.427	98.5
486.645	105.5
486.863	123.5
487.081	110.5
487.299	86.5
487.517	101.5
487.735	101.5
487.953	103.5
488.171	100.5
488.389	101.5
488.607	108.5
488.825	88.5
489.043	84.5
489.261	91.5
489.479	108.5
489.696	88.5
489.914	88.5
490.132	91.5
490.35	87.5
490.568	84.5
490.786	84.5
491.003	102.5
491.221	82.5
491.439	81.5
491.657	100.5
491.874	99.5
492.092	82.5
492.31	83.5
492.527	83.5
492.745	85.5
492.963	87.5
493.18	92.5
493.398	89.5
493.615	103.5
493.833	96.5
494.05	99.5
494.268	87.5
494.485	88.5
494.703	80.5
494.92	88.5
495.138	81.5
495.355	87.5
495.573	75.5
495.79	91.5
496.008	83.5
496.225	94.5
496.442	84.5
496.66	91.5
496.877	88.5
497.094	98.5
497.312	81.5
497.529	87.5
497.746	93.5
497.963	95.5
498.181	94.5
498.398	97.5
498.615	101.5
498.832	104.5
499.049	107.5
499.267	86.5
499.484	89.5
499.701	94.5
499.918	77.5
500.135	90.5
500.352	88.5
500.569	89.5
500.786	87.5
501.003	72.5
501.22	90.5
501.437	85.5
501.654	91.5
501.871	102.5
502.088	94.5
502.305	91.5
502.522	80.5
502.739	82.5
502.956	94.5
503.172	74.5
503.389	85.5
503.606	107.5
503.823	85.5
504.04	92.5
504.256	85.5
504.473	90.5
504.69	73.5
504.907	86.5
505.123	97.5
505.34	92.5
505.557	75.5
505.773	94.5
505.99	86.5
506.207	90.5
506.423	86.5
506.64	78.5
506.856	81.5
507.073	100.5
507.289	76.5
507.506	101.5
507.722	112.5
507.939	96.5
508.155	96.5
508.372	100.5
508.588	96.5
508.805	86.5
509.021	86.5
509.238	102.5
509.454	104.5
509.67	108.5
509.887	118.5
510.103	142.5
510.319	206.5
510.536	849.5
510.752	2804.5
510.968	769.5
511.184	167.5
511.401	117.5
511.617	92.5
511.833	69.5
512.049	101.5
512.265	87.5
512.481	87.5
512.698	90.5
512.914	97.5
513.13	88.5
513.346	91.5
513.562	92.5
513.778	117.5
513.994	95.5
514.21	106.5
514.426	108.5
514.642	130.5
514.858	117.5
515.074	181.5
515.29	537.5
515.506	1782.5
515.721	642.5
515.937	160.5
516.153	112.5
516.369	91.5
516.585	93.5
516.801	97.5
517.016	101.5
517.232	92.5
517.448	91.5
517.664	83.5
517.879	85.5
518.095	86.5
518.311	99.5
518.527	103.5
518.742	100.5
518.958	76.5
519.173	94.5
519.389	77.5
519.605	93.5
519.82	96.5
520.036	109.5
520.251	130.5
520.467	105.5
520.682	103.5
520.898	119.5
521.113	119.5
521.329	143.5
521.544	218.5
521.76	628.5
521.975	2846.5
522.19	1795.5
522.406	372.5
522.621	126.5
522.836	106.5
523.052	97.5
523.267	86.5
523.482	96.5
523.698	113.5
523.913	129.5
524.128	78.5
524.343	88.5
524.559	88.5
524.774	81.5
524.989	89.5
525.204	119.5
525.419	94.5
525.634	96.5
525.849	93.5
526.064	77.5
526.28	78.5
526.495	90.5
526.71	88.5
526.925	96.5
527.14	77.5
527.355	106.5
527.57	84.5
527.785	89.5
527.999	87.5
528.214	92.5
528.429	86.5
528.644	86.5
528.859	87.5
529.074	107.5
529.289	123.5
529.503	208.5
529.718	101.5
529.933	91.5
530.148	93.5
530.363	89.5
530.577	73.5
530.792	86.5
531.007	77.5
531.221	100.5
531.436	98.5
531.651	87.5
531.865	92.5
532.08	101.5
532.295	93.5
532.509	88.5
532.724	75.5
532.938	90.5
533.153	93.5
533.367	107.5
533.582	100.5
533.796	86.5
534.011	97.5
534.225	96.5
534.44	86.5
534.654	73.5
534.868	109.5
535.083	105.5
