Data from Circ_2012_H10_HRD10591_00076.txt Node
Date: Wed Jan 03 10:06:05 EST 2024
User: Yrep
Spectrometer: HR+D1059
Trigger mode: 1
Integration Time (sec): 1.000000E-1
Scans to average: 1
Electric dark correction enabled: true
Nonlinearity correction enabled: false
Boxcar width: 0
XAxis mode: Wavelengths
Number of Pixels in Spectrum: 2048
>>>>>Begin Spectral Data<<<<<
223.165	-29.5
223.4	-29.5
223.635	-29.5
223.869	-25.5
224.104	-15.5
224.338	-9.5
224.573	-18.5
224.808	2.5
225.042	-3.5
225.277	-13.5
225.511	-6.5
225.746	-3.5
225.98	2.5
226.215	23.5
226.449	14.5
226.683	14.5
226.918	25.5
227.152	42.5
227.387	36.5
227.621	33.5
227.856	52.5
228.09	58.5
228.324	40.5
228.559	65.5
228.793	60.5
229.027	51.5
229.262	62.5
229.496	70.5
229.73	82.5
229.964	82.5
230.199	73.5
230.433	69.5
230.667	78.5
230.901	67.5
231.136	69.5
231.37	73.5
231.604	85.5
231.838	79.5
232.072	83.5
232.306	73.5
232.541	86.5
232.775	74.5
233.009	85.5
233.243	87.5
233.477	83.5
233.711	73.5
233.945	82.5
234.179	89.5
234.413	78.5
234.647	78.5
234.881	80.5
235.115	71.5
235.349	83.5
235.583	68.5
235.817	71.5
236.051	82.5
236.285	68.5
236.519	82.5
236.753	66.5
236.987	78.5
237.221	73.5
237.455	88.5
237.689	65.5
237.922	77.5
238.156	74.5
238.39	88.5
238.624	64.5
238.858	70.5
239.091	76.5
239.325	60.5
239.559	72.5
239.793	75.5
240.027	80.5
240.26	81.5
240.494	67.5
240.728	78.5
240.961	77.5
241.195	70.5
241.429	77.5
241.662	61.5
241.896	84.5
242.13	80.5
242.363	84.5
242.597	72.5
242.83	69.5
243.064	61.5
243.298	58.5
243.531	65.5
243.765	77.5
243.998	87.5
244.232	79.5
244.465	84.5
244.699	82.5
244.932	72.5
245.166	78.5
245.399	85.5
245.633	84.5
245.866	60.5
246.099	89.5
246.333	78.5
246.566	79.5
246.8	73.5
247.033	73.5
247.266	86.5
247.5	84.5
247.733	80.5
247.966	98.5
248.2	84.5
248.433	72.5
248.666	71.5
248.899	73.5
249.133	77.5
249.366	96.5
249.599	100.5
249.832	83.5
250.066	73.5
250.299	77.5
250.532	85.5
250.765	64.5
250.998	80.5
251.231	59.5
251.465	82.5
251.698	77.5
251.931	75.5
252.164	86.5
252.397	82.5
252.63	73.5
252.863	80.5
253.096	70.5
253.329	65.5
253.562	81.5
253.795	77.5
254.028	79.5
254.261	91.5
254.494	82.5
254.727	83.5
254.96	84.5
255.193	73.5
255.426	74.5
255.659	85.5
255.892	78.5
256.124	62.5
256.357	77.5
256.59	96.5
256.823	93.5
257.056	94.5
257.289	77.5
257.521	65.5
257.754	83.5
257.987	68.5
258.22	88.5
258.452	86.5
258.685	78.5
258.918	98.5
259.151	76.5
259.383	89.5
259.616	84.5
259.849	89.5
260.081	89.5
260.314	87.5
260.547	85.5
260.779	88.5
261.012	85.5
261.244	64.5
261.477	77.5
261.71	96.5
261.942	102.5
262.175	106.5
262.407	85.5
262.64	66.5
262.872	71.5
263.105	91.5
263.337	88.5
263.57	78.5
263.802	86.5
264.035	88.5
264.267	77.5
264.499	82.5
264.732	68.5
264.964	75.5
265.197	69.5
265.429	71.5
265.661	84.5
265.894	88.5
266.126	91.5
266.358	79.5
266.591	88.5
266.823	79.5
267.055	86.5
267.287	74.5
267.52	82.5
267.752	71.5
267.984	102.5
268.216	86.5
268.448	77.5
268.681	74.5
268.913	73.5
269.145	91.5
269.377	89.5
269.609	83.5
269.841	89.5
270.073	74.5
270.306	74.5
270.538	84.5
270.77	83.5
271.002	93.5
271.234	77.5
271.466	70.5
271.698	93.5
271.93	90.5
272.162	91.5
272.394	96.5
272.626	77.5
272.858	67.5
273.09	72.5
273.322	77.5
273.553	83.5
273.785	72.5
274.017	74.5
274.249	81.5
274.481	84.5
274.713	82.5
274.945	78.5
275.176	88.5
275.408	85.5
275.64	88.5
275.872	83.5
276.104	83.5
276.335	84.5
276.567	96.5
276.799	94.5
277.031	88.5
277.262	101.5
277.494	77.5
277.726	87.5
277.957	83.5
278.189	86.5
278.421	87.5
278.652	81.5
278.884	88.5
279.115	84.5
279.347	85.5
279.579	93.5
279.81	98.5
280.042	88.5
280.273	102.5
280.505	81.5
280.736	82.5
280.968	86.5
281.199	79.5
281.431	86.5
281.662	99.5
281.894	82.5
282.125	97.5
282.356	114.5
282.588	134.5
282.819	113.5
283.051	98.5
283.282	85.5
283.513	89.5
283.745	97.5
283.976	70.5
284.207	86.5
284.439	82.5
284.67	75.5
284.901	90.5
285.132	90.5
285.364	82.5
285.595	98.5
285.826	83.5
286.057	95.5
286.288	89.5
286.52	88.5
286.751	90.5
286.982	75.5
287.213	87.5
287.444	79.5
287.675	106.5
287.906	86.5
288.138	78.5
288.369	82.5
288.6	85.5
288.831	95.5
289.062	74.5
289.293	76.5
289.524	88.5
289.755	81.5
289.986	86.5
290.217	79.5
290.448	97.5
290.679	91.5
290.91	84.5
291.141	73.5
291.371	84.5
291.602	86.5
291.833	84.5
292.064	74.5
292.295	90.5
292.526	88.5
292.757	89.5
292.987	90.5
293.218	68.5
293.449	80.5
293.68	68.5
293.91	89.5
294.141	85.5
294.372	85.5
294.603	81.5
294.833	89.5
295.064	88.5
295.295	90.5
295.525	92.5
295.756	94.5
295.987	121.5
296.217	146.5
296.448	113.5
296.679	85.5
296.909	81.5
297.14	76.5
297.37	89.5
297.601	84.5
297.831	79.5
298.062	62.5
298.292	88.5
298.523	86.5
298.753	82.5
298.984	78.5
299.214	89.5
299.445	92.5
299.675	84.5
299.905	74.5
300.136	81.5
300.366	78.5
300.597	73.5
300.827	91.5
301.057	90.5
301.288	100.5
301.518	93.5
301.748	88.5
301.979	101.5
302.209	88.5
302.439	83.5
302.669	81.5
302.9	94.5
303.13	67.5
303.36	96.5
303.59	82.5
303.82	103.5
304.051	82.5
304.281	87.5
304.511	85.5
304.741	93.5
304.971	99.5
305.201	80.5
305.431	88.5
305.661	92.5
305.891	97.5
306.121	99.5
306.352	113.5
306.582	99.5
306.812	85.5
307.042	107.5
307.272	92.5
307.502	89.5
307.731	89.5
307.961	90.5
308.191	87.5
308.421	78.5
308.651	76.5
308.881	78.5
309.111	89.5
309.341	98.5
309.571	78.5
309.8	79.5
310.03	85.5
310.26	102.5
310.49	99.5
310.72	75.5
310.949	101.5
311.179	103.5
311.409	85.5
311.639	82.5
311.868	98.5
312.098	94.5
312.328	111.5
312.557	96.5
312.787	92.5
313.017	88.5
313.246	77.5
313.476	85.5
313.706	78.5
313.935	91.5
314.165	98.5
314.394	91.5
314.624	95.5
314.853	87.5
315.083	94.5
315.312	74.5
315.542	87.5
315.771	86.5
316.001	88.5
316.23	78.5
316.46	94.5
316.689	67.5
316.919	86.5
317.148	97.5
317.377	99.5
317.607	90.5
317.836	108.5
318.065	91.5
318.295	84.5
318.524	82.5
318.753	103.5
318.983	78.5
319.212	83.5
319.441	77.5
319.67	101.5
319.9	107.5
320.129	83.5
320.358	65.5
320.587	100.5
320.816	92.5
321.046	95.5
321.275	87.5
321.504	79.5
321.733	92.5
321.962	101.5
322.191	87.5
322.42	90.5
322.649	112.5
322.878	100.5
323.108	113.5
323.337	112.5
323.566	131.5
323.795	150.5
324.024	185.5
324.253	364.5
324.482	772.5
324.71	1516.5
324.939	1972.5
325.168	739.5
325.397	225.5
325.626	142.5
325.855	114.5
326.084	127.5
326.313	125.5
326.542	154.5
326.77	225.5
326.999	442.5
327.228	860.5
327.457	1580.5
327.686	1237.5
327.914	332.5
328.143	197.5
328.372	140.5
328.6	137.5
328.829	109.5
329.058	105.5
329.287	131.5
329.515	119.5
329.744	122.5
329.972	124.5
330.201	121.5
330.43	155.5
330.658	126.5
330.887	137.5
331.115	109.5
331.344	103.5
331.572	102.5
331.801	107.5
332.03	94.5
332.258	92.5
332.486	84.5
332.715	78.5
332.943	85.5
333.172	103.5
333.4	92.5
333.629	102.5
333.857	118.5
334.085	118.5
334.314	138.5
334.542	161.5
334.771	153.5
334.999	119.5
335.227	107.5
335.455	90.5
335.684	85.5
335.912	94.5
336.14	102.5
336.369	78.5
336.597	97.5
336.825	90.5
337.053	86.5
337.281	92.5
337.51	99.5
337.738	91.5
337.966	85.5
338.194	100.5
338.422	84.5
338.65	79.5
338.878	86.5
339.106	96.5
339.334	84.5
339.562	77.5
339.79	79.5
340.018	93.5
340.246	91.5
340.474	90.5
340.702	92.5
340.93	92.5
341.158	99.5
341.386	79.5
341.614	105.5
341.842	83.5
342.07	92.5
342.298	91.5
342.526	82.5
342.754	103.5
342.981	80.5
343.209	91.5
343.437	75.5
343.665	97.5
343.893	84.5
344.12	75.5
344.348	86.5
344.576	92.5
344.804	84.5
345.031	93.5
345.259	89.5
345.487	87.5
345.714	98.5
345.942	92.5
346.17	83.5
346.397	81.5
346.625	77.5
346.853	93.5
347.08	91.5
347.308	107.5
347.535	85.5
347.763	95.5
347.99	94.5
348.218	95.5
348.445	91.5
348.673	97.5
348.9	101.5
349.128	82.5
349.355	99.5
349.583	95.5
349.81	86.5
350.037	89.5
350.265	96.5
350.492	97.5
350.72	98.5
350.947	102.5
351.174	113.5
351.402	105.5
351.629	95.5
351.856	93.5
352.083	88.5
352.311	88.5
352.538	92.5
352.765	110.5
352.992	106.5
353.22	107.5
353.447	96.5
353.674	92.5
353.901	87.5
354.128	97.5
354.355	104.5
354.583	98.5
354.81	91.5
355.037	108.5
355.264	89.5
355.491	110.5
355.718	86.5
355.945	88.5
356.172	96.5
356.399	88.5
356.626	90.5
356.853	88.5
357.08	89.5
357.307	93.5
357.534	112.5
357.761	85.5
357.988	96.5
358.215	93.5
358.441	84.5
358.668	94.5
358.895	77.5
359.122	74.5
359.349	94.5
359.576	73.5
359.802	92.5
360.029	106.5
360.256	105.5
360.483	81.5
360.709	83.5
360.936	88.5
361.163	82.5
361.39	78.5
361.616	85.5
361.843	94.5
362.07	89.5
362.296	89.5
362.523	82.5
362.749	89.5
362.976	82.5
363.203	84.5
363.429	87.5
363.656	72.5
363.882	88.5
364.109	89.5
364.335	76.5
364.562	85.5
364.788	105.5
365.015	92.5
365.241	91.5
365.468	104.5
365.694	91.5
365.92	93.5
366.147	86.5
366.373	89.5
366.599	80.5
366.826	84.5
367.052	80.5
367.278	95.5
367.505	94.5
367.731	93.5
367.957	88.5
368.184	83.5
368.41	105.5
368.636	104.5
368.862	115.5
369.089	101.5
369.315	94.5
369.541	85.5
369.767	92.5
369.993	88.5
370.219	86.5
370.445	84.5
370.672	97.5
370.898	105.5
371.124	90.5
371.35	79.5
371.576	55.5
371.802	83.5
372.028	97.5
372.254	85.5
372.48	80.5
372.706	74.5
372.932	107.5
373.158	78.5
373.384	82.5
373.61	88.5
373.835	89.5
374.061	92.5
374.287	100.5
374.513	76.5
374.739	89.5
374.965	89.5
375.191	84.5
375.416	81.5
375.642	83.5
375.868	94.5
376.094	77.5
376.319	86.5
376.545	85.5
376.771	85.5
376.997	80.5
377.222	84.5
377.448	105.5
377.674	84.5
377.899	86.5
378.125	81.5
378.35	82.5
378.576	79.5
378.802	83.5
379.027	86.5
379.253	95.5
379.478	91.5
379.704	96.5
379.929	94.5
380.155	107.5
380.38	90.5
380.606	95.5
380.831	82.5
381.057	90.5
381.282	80.5
381.507	93.5
381.733	96.5
381.958	93.5
382.184	90.5
382.409	92.5
382.634	86.5
382.86	96.5
383.085	101.5
383.31	82.5
383.535	97.5
383.761	81.5
383.986	101.5
384.211	101.5
384.436	98.5
384.662	98.5
384.887	107.5
385.112	82.5
385.337	84.5
385.562	97.5
385.787	88.5
386.013	103.5
386.238	107.5
386.463	106.5
386.688	108.5
386.913	106.5
387.138	84.5
387.363	89.5
387.588	84.5
387.813	99.5
388.038	97.5
388.263	109.5
388.488	98.5
388.713	88.5
388.938	93.5
389.163	85.5
389.387	86.5
389.612	100.5
389.837	91.5
390.062	82.5
390.287	85.5
390.512	91.5
390.736	83.5
390.961	93.5
391.186	98.5
391.411	93.5
391.636	78.5
391.86	93.5
392.085	88.5
392.31	69.5
392.534	93.5
392.759	83.5
392.984	78.5
393.208	85.5
393.433	97.5
393.658	83.5
393.882	81.5
394.107	85.5
394.331	85.5
394.556	82.5
394.78	88.5
395.005	89.5
395.229	80.5
395.454	72.5
395.678	83.5
395.903	78.5
396.127	76.5
396.352	71.5
396.576	77.5
396.801	87.5
397.025	78.5
397.249	88.5
397.474	86.5
397.698	96.5
397.922	87.5
398.147	85.5
398.371	71.5
398.595	74.5
398.82	81.5
399.044	75.5
399.268	73.5
399.492	97.5
399.717	86.5
399.941	101.5
400.165	97.5
400.389	96.5
400.613	89.5
400.837	71.5
401.062	85.5
401.286	84.5
401.51	99.5
401.734	78.5
401.958	86.5
402.182	108.5
402.406	164.5
402.63	109.5
402.854	68.5
403.078	85.5
403.302	82.5
403.526	89.5
403.75	85.5
403.974	84.5
404.198	83.5
404.422	72.5
404.645	72.5
404.869	85.5
405.093	92.5
405.317	88.5
405.541	102.5
405.765	102.5
405.988	105.5
406.212	160.5
406.436	199.5
406.66	129.5
406.883	100.5
407.107	100.5
407.331	91.5
407.555	95.5
407.778	87.5
408.002	98.5
408.226	90.5
408.449	89.5
408.673	74.5
408.896	81.5
409.12	102.5
409.344	85.5
409.567	92.5
409.791	86.5
410.014	73.5
410.238	94.5
410.461	76.5
410.685	95.5
410.908	94.5
411.132	106.5
411.355	97.5
411.578	79.5
411.802	90.5
412.025	87.5
412.249	96.5
412.472	108.5
412.695	101.5
412.919	81.5
413.142	87.5
413.365	84.5
413.589	96.5
413.812	82.5
414.035	67.5
414.258	97.5
414.482	83.5
414.705	92.5
414.928	92.5
415.151	96.5
415.374	83.5
415.597	81.5
415.821	77.5
416.044	92.5
416.267	82.5
416.49	72.5
416.713	82.5
416.936	83.5
417.159	75.5
417.382	86.5
417.605	94.5
417.828	80.5
418.051	88.5
418.274	89.5
418.497	77.5
418.72	84.5
418.943	84.5
419.166	87.5
419.389	73.5
419.611	84.5
419.834	93.5
420.057	88.5
420.28	75.5
420.503	98.5
420.726	88.5
420.948	79.5
421.171	85.5
421.394	91.5
421.617	67.5
421.839	92.5
422.062	91.5
422.285	86.5
422.507	82.5
422.73	82.5
422.953	78.5
423.175	80.5
423.398	93.5
423.621	74.5
423.843	86.5
424.066	85.5
424.288	84.5
424.511	80.5
424.733	90.5
424.956	99.5
425.178	88.5
425.401	100.5
425.623	89.5
425.846	90.5
426.068	81.5
426.291	83.5
426.513	87.5
426.735	72.5
426.958	97.5
427.18	112.5
427.402	117.5
427.625	161.5
427.847	104.5
428.069	116.5
428.292	85.5
428.514	76.5
428.736	83.5
428.958	90.5
429.181	89.5
429.403	70.5
429.625	78.5
429.847	92.5
430.069	88.5
430.292	96.5
430.514	91.5
430.736	97.5
430.958	84.5
431.18	82.5
431.402	97.5
431.624	80.5
431.846	76.5
432.068	80.5
432.29	82.5
432.512	85.5
432.734	67.5
432.956	95.5
433.178	89.5
433.4	86.5
433.622	80.5
433.844	91.5
434.066	92.5
434.287	79.5
434.509	89.5
434.731	90.5
434.953	77.5
435.175	88.5
435.397	91.5
435.618	82.5
435.84	93.5
436.062	123.5
436.284	115.5
436.505	101.5
436.727	96.5
436.949	85.5
437.17	84.5
437.392	76.5
437.614	98.5
437.835	111.5
438.057	103.5
438.278	113.5
438.5	97.5
438.721	112.5
438.943	95.5
439.165	78.5
439.386	89.5
439.608	81.5
439.829	105.5
440.05	108.5
440.272	133.5
440.493	82.5
440.715	79.5
440.936	94.5
441.158	99.5
441.379	88.5
441.6	83.5
441.822	97.5
442.043	93.5
442.264	92.5
442.486	86.5
442.707	86.5
442.928	107.5
443.149	117.5
443.371	120.5
443.592	94.5
443.813	108.5
444.034	91.5
444.255	76.5
444.476	88.5
444.698	82.5
444.919	84.5
445.14	113.5
445.361	111.5
445.582	116.5
445.803	128.5
446.024	119.5
446.245	126.5
446.466	97.5
446.687	84.5
446.908	93.5
447.129	99.5
447.35	81.5
447.571	89.5
447.792	85.5
448.013	107.5
448.234	106.5
448.455	96.5
448.675	106.5
448.896	107.5
449.117	103.5
449.338	96.5
449.559	118.5
449.779	129.5
450	88.5
450.221	81.5
450.442	92.5
450.662	89.5
450.883	105.5
451.104	102.5
451.324	101.5
451.545	91.5
451.766	91.5
451.986	75.5
452.207	84.5
452.428	91.5
452.648	101.5
452.869	107.5
453.089	108.5
453.31	114.5
453.53	93.5
453.751	86.5
453.971	99.5
454.192	103.5
454.412	87.5
454.633	90.5
454.853	90.5
455.073	76.5
455.294	66.5
455.514	92.5
455.734	85.5
455.955	83.5
456.175	94.5
456.395	72.5
456.616	77.5
456.836	93.5
457.056	81.5
457.276	100.5
457.497	85.5
457.717	91.5
457.937	78.5
458.157	78.5
458.377	91.5
458.598	84.5
458.818	140.5
459.038	134.5
459.258	111.5
459.478	91.5
459.698	84.5
459.918	69.5
460.138	77.5
460.358	85.5
460.578	95.5
460.798	95.5
461.018	89.5
461.238	86.5
461.458	83.5
461.678	65.5
461.898	84.5
462.118	93.5
462.338	81.5
462.558	79.5
462.777	77.5
462.997	75.5
463.217	90.5
463.437	77.5
463.657	66.5
463.876	76.5
464.096	88.5
464.316	78.5
464.536	92.5
464.755	76.5
464.975	106.5
465.195	157.5
465.414	144.5
465.634	96.5
465.854	108.5
466.073	100.5
466.293	99.5
466.512	83.5
466.732	93.5
466.951	88.5
467.171	76.5
467.391	93.5
467.61	100.5
467.829	101.5
468.049	104.5
468.268	105.5
468.488	86.5
468.707	75.5
468.927	86.5
469.146	66.5
469.365	66.5
469.585	91.5
469.804	83.5
470.023	96.5
470.243	98.5
470.462	99.5
470.681	102.5
470.901	98.5
471.12	78.5
471.339	88.5
471.558	82.5
471.777	85.5
471.997	108.5
472.216	130.5
472.435	192.5
472.654	103.5
472.873	77.5
473.092	97.5
473.311	93.5
473.53	93.5
473.749	79.5
473.968	88.5
474.187	95.5
474.406	94.5
474.625	88.5
474.844	81.5
475.063	90.5
475.282	82.5
475.501	91.5
475.72	86.5
475.939	93.5
476.158	79.5
476.377	92.5
476.596	90.5
476.814	95.5
477.033	79.5
477.252	85.5
477.471	92.5
477.69	93.5
477.908	93.5
478.127	91.5
478.346	89.5
478.564	88.5
478.783	95.5
479.002	91.5
479.22	87.5
479.439	93.5
479.658	106.5
479.876	97.5
480.095	86.5
480.313	94.5
480.532	80.5
480.751	100.5
480.969	137.5
481.188	312.5
481.406	227.5
481.624	101.5
481.843	89.5
482.061	66.5
482.28	78.5
482.498	94.5
482.717	82.5
482.935	83.5
483.153	82.5
483.372	81.5
483.59	80.5
483.808	95.5
484.027	89.5
484.245	85.5
484.463	84.5
484.681	89.5
484.9	85.5
485.118	77.5
485.336	85.5
485.554	89.5
485.772	92.5
485.99	91.5
486.209	105.5
486.427	84.5
486.645	93.5
486.863	93.5
487.081	87.5
487.299	83.5
487.517	85.5
487.735	72.5
487.953	95.5
488.171	103.5
488.389	88.5
488.607	86.5
488.825	99.5
489.043	89.5
489.261	92.5
489.479	90.5
489.696	79.5
489.914	76.5
490.132	90.5
490.35	85.5
490.568	92.5
490.786	78.5
491.003	102.5
491.221	85.5
491.439	82.5
491.657	81.5
491.874	94.5
492.092	101.5
492.31	91.5
492.527	92.5
492.745	79.5
492.963	85.5
493.18	93.5
493.398	87.5
493.615	97.5
493.833	83.5
494.05	88.5
494.268	90.5
494.485	84.5
494.703	92.5
494.92	84.5
495.138	92.5
495.355	90.5
495.573	95.5
495.79	88.5
496.008	95.5
496.225	85.5
496.442	94.5
496.66	82.5
496.877	84.5
497.094	86.5
497.312	83.5
497.529	83.5
497.746	84.5
497.963	96.5
498.181	100.5
498.398	94.5
498.615	105.5
498.832	102.5
499.049	94.5
499.267	84.5
499.484	82.5
499.701	85.5
499.918	86.5
500.135	84.5
500.352	84.5
500.569	78.5
500.786	88.5
501.003	95.5
501.22	87.5
501.437	104.5
501.654	101.5
501.871	106.5
502.088	94.5
502.305	89.5
502.522	94.5
502.739	89.5
502.956	96.5
503.172	94.5
503.389	92.5
503.606	93.5
503.823	85.5
504.04	89.5
504.256	93.5
504.473	86.5
504.69	82.5
504.907	103.5
505.123	77.5
505.34	84.5
505.557	94.5
505.773	91.5
505.99	83.5
506.207	87.5
506.423	91.5
506.64	93.5
506.856	88.5
507.073	82.5
507.289	96.5
507.506	92.5
507.722	115.5
507.939	90.5
508.155	80.5
508.372	82.5
508.588	85.5
508.805	77.5
509.021	85.5
509.238	88.5
509.454	109.5
509.67	99.5
509.887	93.5
510.103	128.5
510.319	197.5
510.536	727.5
510.752	2372.5
510.968	684.5
511.184	145.5
511.401	95.5
511.617	105.5
511.833	101.5
512.049	89.5
512.265	91.5
512.481	100.5
512.698	93.5
512.914	85.5
513.13	100.5
513.346	96.5
513.562	84.5
513.778	90.5
513.994	78.5
514.21	90.5
514.426	101.5
514.642	138.5
514.858	108.5
515.074	164.5
515.29	420.5
515.506	1367.5
515.721	521.5
515.937	147.5
516.153	101.5
516.369	100.5
516.585	94.5
516.801	98.5
517.016	89.5
517.232	86.5
517.448	80.5
517.664	82.5
517.879	91.5
518.095	86.5
518.311	83.5
518.527	84.5
518.742	84.5
518.958	86.5
519.173	89.5
519.389	97.5
519.605	91.5
519.82	95.5
520.036	108.5
520.251	118.5
520.467	107.5
520.682	102.5
520.898	97.5
521.113	114.5
521.329	125.5
521.544	203.5
521.76	510.5
521.975	2233.5
522.19	1413.5
522.406	292.5
522.621	108.5
522.836	98.5
523.052	89.5
523.267	76.5
523.482	90.5
523.698	94.5
523.913	119.5
524.128	109.5
524.343	93.5
524.559	88.5
524.774	80.5
524.989	97.5
525.204	100.5
525.419	104.5
525.634	94.5
525.849	73.5
526.064	94.5
526.28	93.5
526.495	78.5
526.71	83.5
526.925	81.5
527.14	63.5
527.355	86.5
527.57	85.5
527.785	81.5
527.999	74.5
528.214	86.5
528.429	82.5
528.644	86.5
528.859	91.5
529.074	98.5
529.289	120.5
529.503	165.5
529.718	97.5
529.933	81.5
530.148	86.5
530.363	97.5
530.577	93.5
530.792	82.5
531.007	88.5
531.221	89.5
531.436	86.5
531.651	94.5
531.865	82.5
532.08	82.5
532.295	81.5
532.509	82.5
532.724	98.5
532.938	89.5
533.153	86.5
533.367	91.5
533.582	84.5
533.796	101.5
534.011	96.5
534.225	79.5
534.44	77.5
534.654	85.5
534.868	89.5
535.083	97.5
535.297	105.5
535.511	110.5
535.726	107.5
535.94	94.5
536.154	97.5
536.369	98.5
536.583	94.5
