Data from Circ_2012_H10_HRD10591_00044.txt Node
Date: Wed Jan 03 10:05:59 EST 2024
User: Yrep
Spectrometer: HR+D1059
Trigger mode: 1
Integration Time (sec): 1.000000E-1
Scans to average: 1
Electric dark correction enabled: true
Nonlinearity correction enabled: false
Boxcar width: 0
XAxis mode: Wavelengths
Number of Pixels in Spectrum: 2048
>>>>>Begin Spectral Data<<<<<
223.165	-31.5
223.4	-31.5
223.635	-31.5
223.869	-13.5
224.104	-13.5
224.338	-10.5
224.573	-10.5
224.808	-19.5
225.042	-5.5
225.277	2.5
225.511	-4.5
225.746	4.5
225.98	1.5
226.215	13.5
226.449	14.5
226.683	17.5
226.918	31.5
227.152	23.5
227.387	35.5
227.621	28.5
227.856	56.5
228.09	42.5
228.324	52.5
228.559	50.5
228.793	43.5
229.027	52.5
229.262	61.5
229.496	75.5
229.73	82.5
229.964	77.5
230.199	72.5
230.433	82.5
230.667	72.5
230.901	59.5
231.136	76.5
231.37	83.5
231.604	73.5
231.838	72.5
232.072	73.5
232.306	85.5
232.541	77.5
232.775	80.5
233.009	91.5
233.243	72.5
233.477	91.5
233.711	66.5
233.945	86.5
234.179	91.5
234.413	84.5
234.647	84.5
234.881	92.5
235.115	67.5
235.349	87.5
235.583	80.5
235.817	74.5
236.051	65.5
236.285	73.5
236.519	75.5
236.753	84.5
236.987	77.5
237.221	97.5
237.455	87.5
237.689	77.5
237.922	70.5
238.156	69.5
238.39	64.5
238.624	75.5
238.858	75.5
239.091	78.5
239.325	73.5
239.559	79.5
239.793	69.5
240.027	67.5
240.26	73.5
240.494	75.5
240.728	75.5
240.961	68.5
241.195	77.5
241.429	73.5
241.662	70.5
241.896	73.5
242.13	74.5
242.363	81.5
242.597	68.5
242.83	86.5
243.064	98.5
243.298	86.5
243.531	80.5
243.765	72.5
243.998	71.5
244.232	74.5
244.465	86.5
244.699	74.5
244.932	93.5
245.166	77.5
245.399	75.5
245.633	84.5
245.866	72.5
246.099	74.5
246.333	77.5
246.566	70.5
246.8	72.5
247.033	84.5
247.266	83.5
247.5	80.5
247.733	85.5
247.966	79.5
248.2	83.5
248.433	73.5
248.666	75.5
248.899	93.5
249.133	84.5
249.366	87.5
249.599	93.5
249.832	82.5
250.066	92.5
250.299	83.5
250.532	74.5
250.765	76.5
250.998	85.5
251.231	69.5
251.465	78.5
251.698	76.5
251.931	75.5
252.164	70.5
252.397	85.5
252.63	66.5
252.863	68.5
253.096	74.5
253.329	89.5
253.562	84.5
253.795	58.5
254.028	76.5
254.261	84.5
254.494	77.5
254.727	99.5
254.96	88.5
255.193	69.5
255.426	85.5
255.659	81.5
255.892	88.5
256.124	83.5
256.357	86.5
256.59	88.5
256.823	74.5
257.056	82.5
257.289	82.5
257.521	88.5
257.754	77.5
257.987	83.5
258.22	72.5
258.452	84.5
258.685	78.5
258.918	94.5
259.151	87.5
259.383	87.5
259.616	69.5
259.849	76.5
260.081	73.5
260.314	78.5
260.547	91.5
260.779	84.5
261.012	81.5
261.244	72.5
261.477	89.5
261.71	99.5
261.942	91.5
262.175	116.5
262.407	82.5
262.64	88.5
262.872	80.5
263.105	84.5
263.337	92.5
263.57	82.5
263.802	68.5
264.035	72.5
264.267	68.5
264.499	77.5
264.732	82.5
264.964	72.5
265.197	80.5
265.429	84.5
265.661	70.5
265.894	82.5
266.126	81.5
266.358	84.5
266.591	81.5
266.823	76.5
267.055	71.5
267.287	85.5
267.52	81.5
267.752	91.5
267.984	73.5
268.216	76.5
268.448	79.5
268.681	70.5
268.913	90.5
269.145	91.5
269.377	93.5
269.609	78.5
269.841	96.5
270.073	80.5
270.306	72.5
270.538	84.5
270.77	78.5
271.002	97.5
271.234	82.5
271.466	84.5
271.698	76.5
271.93	78.5
272.162	82.5
272.394	75.5
272.626	89.5
272.858	98.5
273.09	81.5
273.322	86.5
273.553	82.5
273.785	67.5
274.017	72.5
274.249	83.5
274.481	86.5
274.713	91.5
274.945	82.5
275.176	90.5
275.408	80.5
275.64	78.5
275.872	81.5
276.104	90.5
276.335	99.5
276.567	106.5
276.799	121.5
277.031	101.5
277.262	82.5
277.494	91.5
277.726	79.5
277.957	83.5
278.189	78.5
278.421	98.5
278.652	86.5
278.884	94.5
279.115	86.5
279.347	100.5
279.579	82.5
279.81	79.5
280.042	75.5
280.273	93.5
280.505	85.5
280.736	79.5
280.968	99.5
281.199	90.5
281.431	88.5
281.662	90.5
281.894	95.5
282.125	102.5
282.356	116.5
282.588	154.5
282.819	112.5
283.051	88.5
283.282	109.5
283.513	97.5
283.745	76.5
283.976	88.5
284.207	76.5
284.439	85.5
284.67	84.5
284.901	82.5
285.132	82.5
285.364	88.5
285.595	74.5
285.826	84.5
286.057	92.5
286.288	83.5
286.52	84.5
286.751	84.5
286.982	67.5
287.213	84.5
287.444	83.5
287.675	92.5
287.906	93.5
288.138	91.5
288.369	95.5
288.6	94.5
288.831	91.5
289.062	83.5
289.293	88.5
289.524	78.5
289.755	77.5
289.986	88.5
290.217	84.5
290.448	97.5
290.679	88.5
290.91	94.5
291.141	91.5
291.371	99.5
291.602	79.5
291.833	69.5
292.064	92.5
292.295	86.5
292.526	87.5
292.757	78.5
292.987	90.5
293.218	90.5
293.449	83.5
293.68	69.5
293.91	86.5
294.141	83.5
294.372	87.5
294.603	101.5
294.833	85.5
295.064	93.5
295.295	93.5
295.525	92.5
295.756	101.5
295.987	122.5
296.217	147.5
296.448	121.5
296.679	99.5
296.909	85.5
297.14	85.5
297.37	87.5
297.601	79.5
297.831	82.5
298.062	87.5
298.292	86.5
298.523	92.5
298.753	84.5
298.984	90.5
299.214	92.5
299.445	80.5
299.675	92.5
299.905	86.5
300.136	87.5
300.366	98.5
300.597	92.5
300.827	97.5
301.057	97.5
301.288	104.5
301.518	100.5
301.748	93.5
301.979	106.5
302.209	87.5
302.439	103.5
302.669	101.5
302.9	106.5
303.13	79.5
303.36	100.5
303.59	65.5
303.82	119.5
304.051	106.5
304.281	100.5
304.511	92.5
304.741	82.5
304.971	97.5
305.201	88.5
305.431	78.5
305.661	89.5
305.891	83.5
306.121	91.5
306.352	103.5
306.582	94.5
306.812	93.5
307.042	87.5
307.272	98.5
307.502	97.5
307.731	91.5
307.961	95.5
308.191	95.5
308.421	72.5
308.651	91.5
308.881	96.5
309.111	91.5
309.341	94.5
309.571	89.5
309.8	88.5
310.03	96.5
310.26	104.5
310.49	89.5
310.72	76.5
310.949	98.5
311.179	106.5
311.409	111.5
311.639	101.5
311.868	95.5
312.098	88.5
312.328	95.5
312.557	96.5
312.787	108.5
313.017	97.5
313.246	91.5
313.476	84.5
313.706	104.5
313.935	96.5
314.165	103.5
314.394	93.5
314.624	87.5
314.853	96.5
315.083	105.5
315.312	76.5
315.542	77.5
315.771	97.5
316.001	90.5
316.23	98.5
316.46	85.5
316.689	79.5
316.919	91.5
317.148	98.5
317.377	94.5
317.607	96.5
317.836	93.5
318.065	93.5
318.295	98.5
318.524	92.5
318.753	87.5
318.983	97.5
319.212	96.5
319.441	107.5
319.67	98.5
319.9	103.5
320.129	96.5
320.358	96.5
320.587	98.5
320.816	102.5
321.046	98.5
321.275	114.5
321.504	103.5
321.733	107.5
321.962	115.5
322.191	92.5
322.42	104.5
322.649	103.5
322.878	106.5
323.108	122.5
323.337	115.5
323.566	136.5
323.795	152.5
324.024	209.5
324.253	424.5
324.482	902.5
324.71	1815.5
324.939	2368.5
325.168	865.5
325.397	251.5
325.626	150.5
325.855	133.5
326.084	120.5
326.313	129.5
326.542	164.5
326.77	228.5
326.999	480.5
327.228	979.5
327.457	1783.5
327.686	1410.5
327.914	396.5
328.143	189.5
328.372	172.5
328.6	138.5
328.829	121.5
329.058	135.5
329.287	127.5
329.515	112.5
329.744	110.5
329.972	110.5
330.201	126.5
330.43	148.5
330.658	131.5
330.887	141.5
331.115	137.5
331.344	96.5
331.572	92.5
331.801	96.5
332.03	110.5
332.258	84.5
332.486	96.5
332.715	83.5
332.943	85.5
333.172	92.5
333.4	78.5
333.629	124.5
333.857	130.5
334.085	104.5
334.314	110.5
334.542	133.5
334.771	144.5
334.999	102.5
335.227	93.5
335.455	102.5
335.684	101.5
335.912	101.5
336.14	102.5
336.369	99.5
336.597	102.5
336.825	87.5
337.053	96.5
337.281	85.5
337.51	91.5
337.738	106.5
337.966	98.5
338.194	86.5
338.422	110.5
338.65	92.5
338.878	89.5
339.106	94.5
339.334	93.5
339.562	97.5
339.79	88.5
340.018	85.5
340.246	80.5
340.474	92.5
340.702	91.5
340.93	100.5
341.158	78.5
341.386	92.5
341.614	84.5
341.842	80.5
342.07	92.5
342.298	83.5
342.526	87.5
342.754	85.5
342.981	79.5
343.209	84.5
343.437	101.5
343.665	74.5
343.893	99.5
344.12	95.5
344.348	97.5
344.576	101.5
344.804	74.5
345.031	101.5
345.259	92.5
345.487	106.5
345.714	89.5
345.942	88.5
346.17	98.5
346.397	96.5
346.625	105.5
346.853	104.5
347.08	93.5
347.308	93.5
347.535	99.5
347.763	103.5
347.99	93.5
348.218	105.5
348.445	120.5
348.673	101.5
348.9	104.5
349.128	82.5
349.355	80.5
349.583	81.5
349.81	90.5
350.037	94.5
350.265	89.5
350.492	93.5
350.72	94.5
350.947	111.5
351.174	120.5
351.402	107.5
351.629	100.5
351.856	106.5
352.083	100.5
352.311	101.5
352.538	108.5
352.765	101.5
352.992	109.5
353.22	127.5
353.447	117.5
353.674	112.5
353.901	94.5
354.128	103.5
354.355	99.5
354.583	97.5
354.81	99.5
355.037	88.5
355.264	97.5
355.491	94.5
355.718	91.5
355.945	92.5
356.172	104.5
356.399	95.5
356.626	91.5
356.853	92.5
357.08	99.5
357.307	99.5
357.534	97.5
357.761	95.5
357.988	108.5
358.215	83.5
358.441	101.5
358.668	81.5
358.895	88.5
359.122	87.5
359.349	98.5
359.576	86.5
359.802	98.5
360.029	109.5
360.256	111.5
360.483	94.5
360.709	85.5
360.936	86.5
361.163	89.5
361.39	76.5
361.616	98.5
361.843	84.5
362.07	91.5
362.296	83.5
362.523	87.5
362.749	96.5
362.976	71.5
363.203	88.5
363.429	93.5
363.656	94.5
363.882	84.5
364.109	91.5
364.335	87.5
364.562	91.5
364.788	106.5
365.015	88.5
365.241	105.5
365.468	114.5
365.694	105.5
365.92	97.5
366.147	91.5
366.373	92.5
366.599	76.5
366.826	89.5
367.052	95.5
367.278	82.5
367.505	94.5
367.731	100.5
367.957	95.5
368.184	85.5
368.41	102.5
368.636	113.5
368.862	117.5
369.089	107.5
369.315	88.5
369.541	97.5
369.767	93.5
369.993	79.5
370.219	97.5
370.445	80.5
370.672	85.5
370.898	86.5
371.124	102.5
371.35	86.5
371.576	94.5
371.802	77.5
372.028	89.5
372.254	99.5
372.48	73.5
372.706	82.5
372.932	91.5
373.158	94.5
373.384	93.5
373.61	92.5
373.835	95.5
374.061	84.5
374.287	89.5
374.513	85.5
374.739	72.5
374.965	88.5
375.191	88.5
375.416	77.5
375.642	84.5
375.868	96.5
376.094	97.5
376.319	86.5
376.545	91.5
376.771	102.5
376.997	82.5
377.222	80.5
377.448	93.5
377.674	92.5
377.899	100.5
378.125	90.5
378.35	91.5
378.576	95.5
378.802	84.5
379.027	96.5
379.253	95.5
379.478	96.5
379.704	93.5
379.929	80.5
380.155	100.5
380.38	94.5
380.606	89.5
380.831	77.5
381.057	97.5
381.282	74.5
381.507	100.5
381.733	109.5
381.958	82.5
382.184	86.5
382.409	90.5
382.634	106.5
382.86	93.5
383.085	101.5
383.31	89.5
383.535	91.5
383.761	89.5
383.986	88.5
384.211	105.5
384.436	103.5
384.662	113.5
384.887	88.5
385.112	91.5
385.337	98.5
385.562	90.5
385.787	109.5
386.013	112.5
386.238	112.5
386.463	109.5
386.688	119.5
386.913	95.5
387.138	104.5
387.363	96.5
387.588	95.5
387.813	118.5
388.038	109.5
388.263	105.5
388.488	107.5
388.713	93.5
388.938	97.5
389.163	98.5
389.387	91.5
389.612	95.5
389.837	78.5
390.062	102.5
390.287	86.5
390.512	85.5
390.736	93.5
390.961	87.5
391.186	81.5
391.411	101.5
391.636	96.5
391.86	91.5
392.085	88.5
392.31	83.5
392.534	92.5
392.759	91.5
392.984	84.5
393.208	84.5
393.433	87.5
393.658	77.5
393.882	82.5
394.107	79.5
394.331	94.5
394.556	81.5
394.78	88.5
395.005	91.5
395.229	91.5
395.454	78.5
395.678	80.5
395.903	83.5
396.127	99.5
396.352	79.5
396.576	86.5
396.801	88.5
397.025	87.5
397.249	88.5
397.474	83.5
397.698	91.5
397.922	84.5
398.147	95.5
398.371	84.5
398.595	78.5
398.82	100.5
399.044	98.5
399.268	89.5
399.492	85.5
399.717	89.5
399.941	93.5
400.165	80.5
400.389	92.5
400.613	96.5
400.837	84.5
401.062	77.5
401.286	85.5
401.51	91.5
401.734	84.5
401.958	82.5
402.182	133.5
402.406	162.5
402.63	120.5
402.854	97.5
403.078	91.5
403.302	78.5
403.526	86.5
403.75	90.5
403.974	88.5
404.198	89.5
404.422	109.5
404.645	84.5
404.869	89.5
405.093	91.5
405.317	77.5
405.541	84.5
405.765	111.5
405.988	114.5
406.212	167.5
406.436	231.5
406.66	150.5
406.883	74.5
407.107	97.5
407.331	98.5
407.555	94.5
407.778	104.5
408.002	86.5
408.226	92.5
408.449	101.5
408.673	91.5
408.896	78.5
409.12	97.5
409.344	89.5
409.567	78.5
409.791	89.5
410.014	78.5
410.238	89.5
410.461	92.5
410.685	89.5
410.908	89.5
411.132	102.5
411.355	88.5
411.578	98.5
411.802	85.5
412.025	81.5
412.249	98.5
412.472	83.5
412.695	85.5
412.919	73.5
413.142	94.5
413.365	88.5
413.589	74.5
413.812	76.5
414.035	91.5
414.258	84.5
414.482	75.5
414.705	90.5
414.928	97.5
415.151	84.5
415.374	90.5
415.597	80.5
415.821	89.5
416.044	97.5
416.267	81.5
416.49	73.5
416.713	87.5
416.936	93.5
417.159	89.5
417.382	80.5
417.605	89.5
417.828	88.5
418.051	81.5
418.274	96.5
418.497	87.5
418.72	77.5
418.943	89.5
419.166	102.5
419.389	105.5
419.611	115.5
419.834	90.5
420.057	98.5
420.28	90.5
420.503	85.5
420.726	92.5
420.948	99.5
421.171	93.5
421.394	90.5
421.617	81.5
421.839	93.5
422.062	85.5
422.285	99.5
422.507	107.5
422.73	96.5
422.953	86.5
423.175	89.5
423.398	79.5
423.621	61.5
423.843	90.5
424.066	92.5
424.288	92.5
424.511	92.5
424.733	96.5
424.956	89.5
425.178	94.5
425.401	77.5
425.623	106.5
425.846	96.5
426.068	75.5
426.291	93.5
426.513	92.5
426.735	91.5
426.958	97.5
427.18	105.5
427.402	121.5
427.625	159.5
427.847	136.5
428.069	105.5
428.292	80.5
428.514	80.5
428.736	91.5
428.958	78.5
429.181	87.5
429.403	83.5
429.625	85.5
429.847	90.5
430.069	101.5
430.292	91.5
430.514	95.5
430.736	90.5
430.958	65.5
431.18	82.5
431.402	87.5
431.624	93.5
431.846	87.5
432.068	83.5
432.29	92.5
432.512	84.5
432.734	81.5
432.956	91.5
433.178	100.5
433.4	95.5
433.622	93.5
433.844	90.5
434.066	93.5
434.287	84.5
434.509	90.5
434.731	89.5
434.953	94.5
435.175	88.5
435.397	84.5
435.618	83.5
435.84	106.5
436.062	133.5
436.284	114.5
436.505	96.5
436.727	106.5
436.949	85.5
437.17	94.5
437.392	94.5
437.614	94.5
437.835	117.5
438.057	129.5
438.278	114.5
438.5	103.5
438.721	126.5
438.943	99.5
439.165	77.5
439.386	107.5
439.608	85.5
439.829	107.5
440.05	109.5
440.272	152.5
440.493	97.5
440.715	95.5
440.936	90.5
441.158	85.5
441.379	85.5
441.6	91.5
441.822	115.5
442.043	104.5
442.264	109.5
442.486	87.5
442.707	116.5
442.928	116.5
443.149	124.5
443.371	131.5
443.592	109.5
443.813	108.5
444.034	108.5
444.255	93.5
444.476	78.5
444.698	90.5
444.919	83.5
445.14	105.5
445.361	111.5
445.582	112.5
445.803	145.5
446.024	134.5
446.245	129.5
446.466	108.5
446.687	91.5
446.908	68.5
447.129	90.5
447.35	89.5
447.571	112.5
447.792	96.5
448.013	110.5
448.234	116.5
448.455	107.5
448.675	102.5
448.896	107.5
449.117	99.5
449.338	107.5
449.559	134.5
449.779	128.5
450	93.5
450.221	81.5
450.442	97.5
450.662	76.5
450.883	93.5
451.104	105.5
451.324	88.5
451.545	86.5
451.766	92.5
451.986	82.5
452.207	87.5
452.428	90.5
452.648	99.5
452.869	116.5
453.089	103.5
453.31	128.5
453.53	92.5
453.751	79.5
453.971	85.5
454.192	112.5
454.412	104.5
454.633	72.5
454.853	80.5
455.073	74.5
455.294	85.5
455.514	93.5
455.734	84.5
455.955	72.5
456.175	94.5
456.395	86.5
456.616	76.5
456.836	80.5
457.056	75.5
457.276	83.5
457.497	83.5
457.717	77.5
457.937	83.5
458.157	86.5
458.377	90.5
458.598	109.5
458.818	143.5
459.038	165.5
459.258	110.5
459.478	83.5
459.698	95.5
459.918	81.5
460.138	86.5
460.358	80.5
460.578	78.5
460.798	81.5
461.018	78.5
461.238	75.5
461.458	72.5
461.678	84.5
461.898	91.5
462.118	88.5
462.338	75.5
462.558	85.5
462.777	87.5
462.997	86.5
463.217	80.5
463.437	83.5
463.657	87.5
463.876	75.5
464.096	88.5
464.316	94.5
464.536	90.5
464.755	87.5
464.975	115.5
465.195	154.5
465.414	161.5
465.634	88.5
465.854	91.5
466.073	83.5
466.293	84.5
466.512	89.5
466.732	82.5
466.951	83.5
467.171	92.5
467.391	106.5
467.61	114.5
467.829	89.5
468.049	92.5
468.268	86.5
468.488	82.5
468.707	73.5
468.927	87.5
469.146	93.5
469.365	91.5
469.585	85.5
469.804	92.5
470.023	97.5
470.243	84.5
470.462	93.5
470.681	113.5
470.901	78.5
471.12	85.5
471.339	103.5
471.558	95.5
471.777	84.5
471.997	81.5
472.216	112.5
472.435	162.5
472.654	105.5
472.873	93.5
473.092	84.5
473.311	100.5
473.53	81.5
473.749	97.5
473.968	105.5
474.187	91.5
474.406	89.5
474.625	91.5
474.844	90.5
475.063	78.5
475.282	78.5
475.501	79.5
475.72	72.5
475.939	82.5
476.158	90.5
476.377	82.5
476.596	91.5
476.814	101.5
477.033	89.5
477.252	88.5
477.471	90.5
477.69	87.5
477.908	101.5
478.127	98.5
478.346	86.5
478.564	99.5
478.783	102.5
479.002	100.5
479.22	88.5
479.439	80.5
479.658	96.5
479.876	91.5
480.095	89.5
480.313	89.5
480.532	71.5
480.751	97.5
480.969	124.5
481.188	209.5
481.406	182.5
481.624	103.5
481.843	95.5
482.061	101.5
482.28	79.5
482.498	88.5
482.717	81.5
482.935	76.5
483.153	79.5
483.372	84.5
483.59	92.5
483.808	98.5
484.027	92.5
484.245	101.5
484.463	76.5
484.681	88.5
484.9	76.5
485.118	88.5
485.336	93.5
485.554	98.5
485.772	86.5
485.99	99.5
486.209	103.5
486.427	98.5
486.645	111.5
486.863	98.5
487.081	92.5
487.299	85.5
487.517	100.5
487.735	82.5
487.953	105.5
488.171	97.5
488.389	107.5
488.607	105.5
488.825	83.5
489.043	88.5
489.261	83.5
489.479	101.5
489.696	101.5
489.914	89.5
490.132	93.5
490.35	80.5
490.568	88.5
490.786	93.5
491.003	93.5
491.221	78.5
491.439	85.5
491.657	105.5
491.874	84.5
492.092	77.5
492.31	88.5
492.527	97.5
492.745	92.5
492.963	91.5
493.18	92.5
493.398	85.5
493.615	108.5
493.833	82.5
494.05	86.5
494.268	79.5
494.485	97.5
494.703	90.5
494.92	85.5
495.138	85.5
495.355	84.5
495.573	93.5
495.79	89.5
496.008	106.5
496.225	90.5
496.442	99.5
496.66	107.5
496.877	87.5
497.094	85.5
497.312	88.5
497.529	83.5
497.746	84.5
497.963	95.5
498.181	86.5
498.398	86.5
498.615	123.5
498.832	107.5
499.049	77.5
499.267	88.5
499.484	87.5
499.701	84.5
499.918	103.5
500.135	73.5
500.352	81.5
500.569	89.5
500.786	81.5
501.003	83.5
501.22	86.5
501.437	84.5
501.654	88.5
501.871	100.5
502.088	91.5
502.305	93.5
502.522	74.5
502.739	86.5
502.956	91.5
503.172	87.5
503.389	100.5
503.606	109.5
503.823	92.5
504.04	83.5
504.256	82.5
504.473	84.5
504.69	81.5
504.907	92.5
505.123	90.5
505.34	88.5
505.557	89.5
505.773	99.5
505.99	93.5
506.207	93.5
506.423	90.5
506.64	89.5
506.856	92.5
507.073	77.5
507.289	82.5
507.506	88.5
507.722	108.5
507.939	107.5
508.155	99.5
508.372	85.5
508.588	81.5
508.805	114.5
509.021	96.5
509.238	107.5
509.454	89.5
509.67	100.5
509.887	107.5
510.103	142.5
510.319	212.5
510.536	799.5
510.752	2748.5
510.968	767.5
511.184	180.5
511.401	120.5
511.617	105.5
511.833	88.5
512.049	97.5
512.265	79.5
512.481	97.5
512.698	104.5
512.914	81.5
513.13	90.5
513.346	86.5
513.562	82.5
513.778	99.5
513.994	91.5
514.21	95.5
514.426	118.5
514.642	139.5
514.858	130.5
515.074	165.5
515.29	476.5
515.506	1634.5
515.721	622.5
515.937	166.5
516.153	107.5
516.369	100.5
516.585	93.5
516.801	94.5
517.016	84.5
517.232	92.5
517.448	84.5
517.664	94.5
517.879	101.5
518.095	92.5
518.311	104.5
518.527	71.5
518.742	97.5
518.958	90.5
519.173	90.5
519.389	90.5
519.605	88.5
519.82	98.5
520.036	98.5
520.251	113.5
520.467	114.5
520.682	92.5
520.898	105.5
521.113	119.5
521.329	139.5
521.544	198.5
521.76	610.5
521.975	2701.5
522.19	1690.5
522.406	346.5
522.621	124.5
522.836	109.5
523.052	99.5
523.267	94.5
523.482	81.5
523.698	105.5
523.913	130.5
524.128	100.5
524.343	97.5
524.559	95.5
524.774	89.5
524.989	102.5
525.204	92.5
525.419	92.5
525.634	69.5
525.849	94.5
526.064	87.5
526.28	85.5
526.495	83.5
526.71	82.5
526.925	78.5
527.14	87.5
527.355	85.5
527.57	78.5
527.785	78.5
527.999	83.5
528.214	85.5
528.429	90.5
528.644	92.5
528.859	75.5
529.074	86.5
529.289	141.5
529.503	168.5
529.718	100.5
529.933	78.5
530.148	95.5
530.363	72.5
530.577	79.5
530.792	70.5
531.007	98.5
531.221	92.5
531.436	98.5
531.651	97.5
531.865	86.5
532.08	68.5
532.295	83.5
532.509	81.5
532.724	76.5
532.938	83.5
533.153	92.5
533.367	93.5
533.582	77.5
533.796	104.5
534.011	96.5
534.225	79.5
534.44	96.5
534.654	82.5
534.868	80.5
535.083	86.5
535.297	87.5
535.511	116.5
