Data from Circ_2012_H10_HRD10591_00048.txt Node
Date: Wed Jan 03 10:06:00 EST 2024
User: Yrep
Spectrometer: HR+D1059
Trigger mode: 1
Integration Time (sec): 1.000000E-1
Scans to average: 1
Electric dark correction enabled: true
Nonlinearity correction enabled: false
Boxcar width: 0
XAxis mode: Wavelengths
Number of Pixels in Spectrum: 2048
>>>>>Begin Spectral Data<<<<<
223.165	-3.75
223.4	-3.75
223.635	-3.75
223.869	-22.75
224.104	-18.75
224.338	-7.75
224.573	-21.75
224.808	-27.75
225.042	-0.75
225.277	-2.75
225.511	8.25
225.746	-5.75
225.98	-4.75
226.215	9.25
226.449	23.25
226.683	18.25
226.918	22.25
227.152	35.25
227.387	33.25
227.621	28.25
227.856	59.25
228.09	54.25
228.324	50.25
228.559	61.25
228.793	68.25
229.027	60.25
229.262	64.25
229.496	76.25
229.73	90.25
229.964	92.25
230.199	81.25
230.433	76.25
230.667	67.25
230.901	86.25
231.136	79.25
231.37	73.25
231.604	93.25
231.838	60.25
232.072	84.25
232.306	78.25
232.541	74.25
232.775	75.25
233.009	79.25
233.243	68.25
233.477	88.25
233.711	82.25
233.945	67.25
234.179	73.25
234.413	82.25
234.647	78.25
234.881	61.25
235.115	61.25
235.349	77.25
235.583	63.25
235.817	70.25
236.051	76.25
236.285	88.25
236.519	74.25
236.753	81.25
236.987	83.25
237.221	81.25
237.455	82.25
237.689	80.25
237.922	84.25
238.156	76.25
238.39	68.25
238.624	79.25
238.858	79.25
239.091	82.25
239.325	77.25
239.559	78.25
239.793	64.25
240.027	82.25
240.26	71.25
240.494	70.25
240.728	74.25
240.961	65.25
241.195	71.25
241.429	77.25
241.662	82.25
241.896	67.25
242.13	91.25
242.363	81.25
242.597	71.25
242.83	87.25
243.064	58.25
243.298	74.25
243.531	76.25
243.765	75.25
243.998	82.25
244.232	72.25
244.465	86.25
244.699	78.25
244.932	77.25
245.166	82.25
245.399	91.25
245.633	76.25
245.866	77.25
246.099	72.25
246.333	78.25
246.566	80.25
246.8	78.25
247.033	69.25
247.266	70.25
247.5	91.25
247.733	68.25
247.966	93.25
248.2	80.25
248.433	73.25
248.666	89.25
248.899	72.25
249.133	76.25
249.366	95.25
249.599	100.25
249.832	80.25
250.066	84.25
250.299	74.25
250.532	81.25
250.765	75.25
250.998	85.25
251.231	82.25
251.465	65.25
251.698	76.25
251.931	77.25
252.164	83.25
252.397	78.25
252.63	85.25
252.863	74.25
253.096	85.25
253.329	73.25
253.562	80.25
253.795	76.25
254.028	76.25
254.261	69.25
254.494	84.25
254.727	84.25
254.96	77.25
255.193	81.25
255.426	75.25
255.659	90.25
255.892	79.25
256.124	84.25
256.357	85.25
256.59	88.25
256.823	75.25
257.056	79.25
257.289	78.25
257.521	64.25
257.754	74.25
257.987	77.25
258.22	93.25
258.452	78.25
258.685	86.25
258.918	83.25
259.151	70.25
259.383	74.25
259.616	72.25
259.849	82.25
260.081	85.25
260.314	79.25
260.547	87.25
260.779	79.25
261.012	88.25
261.244	86.25
261.477	81.25
261.71	87.25
261.942	97.25
262.175	101.25
262.407	93.25
262.64	89.25
262.872	84.25
263.105	77.25
263.337	81.25
263.57	85.25
263.802	89.25
264.035	82.25
264.267	98.25
264.499	77.25
264.732	81.25
264.964	78.25
265.197	84.25
265.429	85.25
265.661	86.25
265.894	90.25
266.126	100.25
266.358	82.25
266.591	89.25
266.823	86.25
267.055	80.25
267.287	91.25
267.52	76.25
267.752	77.25
267.984	74.25
268.216	82.25
268.448	85.25
268.681	74.25
268.913	89.25
269.145	77.25
269.377	95.25
269.609	87.25
269.841	86.25
270.073	97.25
270.306	92.25
270.538	80.25
270.77	85.25
271.002	87.25
271.234	78.25
271.466	84.25
271.698	81.25
271.93	85.25
272.162	91.25
272.394	74.25
272.626	86.25
272.858	86.25
273.09	81.25
273.322	70.25
273.553	91.25
273.785	89.25
274.017	78.25
274.249	78.25
274.481	84.25
274.713	77.25
274.945	85.25
275.176	75.25
275.408	89.25
275.64	95.25
275.872	92.25
276.104	93.25
276.335	87.25
276.567	114.25
276.799	118.25
277.031	95.25
277.262	100.25
277.494	85.25
277.726	78.25
277.957	70.25
278.189	91.25
278.421	93.25
278.652	97.25
278.884	90.25
279.115	81.25
279.347	84.25
279.579	89.25
279.81	99.25
280.042	83.25
280.273	100.25
280.505	93.25
280.736	86.25
280.968	83.25
281.199	100.25
281.431	89.25
281.662	85.25
281.894	89.25
282.125	83.25
282.356	109.25
282.588	131.25
282.819	119.25
283.051	96.25
283.282	68.25
283.513	90.25
283.745	83.25
283.976	79.25
284.207	79.25
284.439	74.25
284.67	89.25
284.901	82.25
285.132	83.25
285.364	100.25
285.595	92.25
285.826	80.25
286.057	92.25
286.288	89.25
286.52	99.25
286.751	94.25
286.982	75.25
287.213	90.25
287.444	86.25
287.675	94.25
287.906	81.25
288.138	91.25
288.369	89.25
288.6	101.25
288.831	74.25
289.062	88.25
289.293	81.25
289.524	85.25
289.755	83.25
289.986	85.25
290.217	87.25
290.448	84.25
290.679	83.25
290.91	97.25
291.141	93.25
291.371	82.25
291.602	92.25
291.833	87.25
292.064	82.25
292.295	91.25
292.526	83.25
292.757	101.25
292.987	80.25
293.218	86.25
293.449	77.25
293.68	89.25
293.91	89.25
294.141	82.25
294.372	114.25
294.603	102.25
294.833	84.25
295.064	86.25
295.295	86.25
295.525	93.25
295.756	98.25
295.987	105.25
296.217	117.25
296.448	115.25
296.679	86.25
296.909	92.25
297.14	83.25
297.37	98.25
297.601	72.25
297.831	78.25
298.062	98.25
298.292	99.25
298.523	86.25
298.753	79.25
298.984	83.25
299.214	94.25
299.445	81.25
299.675	93.25
299.905	93.25
300.136	85.25
300.366	85.25
300.597	76.25
300.827	81.25
301.057	100.25
301.288	89.25
301.518	79.25
301.748	87.25
301.979	101.25
302.209	89.25
302.439	83.25
302.669	83.25
302.9	101.25
303.13	87.25
303.36	100.25
303.59	117.25
303.82	92.25
304.051	90.25
304.281	89.25
304.511	94.25
304.741	72.25
304.971	90.25
305.201	101.25
305.431	91.25
305.661	97.25
305.891	92.25
306.121	93.25
306.352	111.25
306.582	106.25
306.812	98.25
307.042	98.25
307.272	98.25
307.502	93.25
307.731	90.25
307.961	81.25
308.191	101.25
308.421	84.25
308.651	88.25
308.881	90.25
309.111	74.25
309.341	90.25
309.571	89.25
309.8	92.25
310.03	107.25
310.26	89.25
310.49	93.25
310.72	95.25
310.949	102.25
311.179	101.25
311.409	92.25
311.639	90.25
311.868	97.25
312.098	100.25
312.328	84.25
312.557	105.25
312.787	101.25
313.017	91.25
313.246	91.25
313.476	93.25
313.706	94.25
313.935	76.25
314.165	90.25
314.394	100.25
314.624	83.25
314.853	90.25
315.083	85.25
315.312	93.25
315.542	84.25
315.771	91.25
316.001	94.25
316.23	94.25
316.46	103.25
316.689	85.25
316.919	92.25
317.148	99.25
317.377	88.25
317.607	90.25
317.836	73.25
318.065	100.25
318.295	83.25
318.524	76.25
318.753	92.25
318.983	109.25
319.212	103.25
319.441	80.25
319.67	111.25
319.9	104.25
320.129	78.25
320.358	89.25
320.587	93.25
320.816	89.25
321.046	100.25
321.275	89.25
321.504	98.25
321.733	92.25
321.962	99.25
322.191	98.25
322.42	94.25
322.649	106.25
322.878	110.25
323.108	115.25
323.337	121.25
323.566	127.25
323.795	157.25
324.024	193.25
324.253	381.25
324.482	780.25
324.71	1621.25
324.939	2128.25
325.168	778.25
325.397	234.25
325.626	153.25
325.855	121.25
326.084	114.25
326.313	138.25
326.542	150.25
326.77	220.25
326.999	441.25
327.228	863.25
327.457	1629.25
327.686	1301.25
327.914	382.25
328.143	189.25
328.372	165.25
328.6	140.25
328.829	129.25
329.058	137.25
329.287	128.25
329.515	112.25
329.744	86.25
329.972	104.25
330.201	133.25
330.43	151.25
330.658	123.25
330.887	134.25
331.115	122.25
331.344	100.25
331.572	97.25
331.801	101.25
332.03	100.25
332.258	106.25
332.486	90.25
332.715	92.25
332.943	92.25
333.172	90.25
333.4	91.25
333.629	104.25
333.857	127.25
334.085	124.25
334.314	116.25
334.542	152.25
334.771	139.25
334.999	102.25
335.227	105.25
335.455	95.25
335.684	94.25
335.912	108.25
336.14	116.25
336.369	94.25
336.597	108.25
336.825	105.25
337.053	89.25
337.281	94.25
337.51	92.25
337.738	92.25
337.966	92.25
338.194	105.25
338.422	81.25
338.65	92.25
338.878	92.25
339.106	84.25
339.334	84.25
339.562	89.25
339.79	98.25
340.018	83.25
340.246	92.25
340.474	99.25
340.702	100.25
340.93	77.25
341.158	91.25
341.386	94.25
341.614	102.25
341.842	87.25
342.07	86.25
342.298	87.25
342.526	92.25
342.754	83.25
342.981	96.25
343.209	87.25
343.437	85.25
343.665	89.25
343.893	86.25
344.12	92.25
344.348	87.25
344.576	84.25
344.804	98.25
345.031	87.25
345.259	89.25
345.487	95.25
345.714	89.25
345.942	89.25
346.17	88.25
346.397	86.25
346.625	74.25
346.853	77.25
347.08	79.25
347.308	98.25
347.535	100.25
347.763	92.25
347.99	93.25
348.218	108.25
348.445	104.25
348.673	103.25
348.9	93.25
349.128	90.25
349.355	91.25
349.583	88.25
349.81	93.25
350.037	82.25
350.265	103.25
350.492	86.25
350.72	94.25
350.947	92.25
351.174	115.25
351.402	123.25
351.629	102.25
351.856	108.25
352.083	100.25
352.311	92.25
352.538	119.25
352.765	104.25
352.992	103.25
353.22	122.25
353.447	107.25
353.674	115.25
353.901	82.25
354.128	98.25
354.355	89.25
354.583	88.25
354.81	95.25
355.037	103.25
355.264	91.25
355.491	93.25
355.718	91.25
355.945	98.25
356.172	103.25
356.399	98.25
356.626	84.25
356.853	90.25
357.08	85.25
357.307	92.25
357.534	96.25
357.761	90.25
357.988	94.25
358.215	87.25
358.441	103.25
358.668	80.25
358.895	97.25
359.122	99.25
359.349	84.25
359.576	82.25
359.802	110.25
360.029	119.25
360.256	119.25
360.483	104.25
360.709	83.25
360.936	85.25
361.163	105.25
361.39	102.25
361.616	92.25
361.843	101.25
362.07	79.25
362.296	80.25
362.523	97.25
362.749	90.25
362.976	77.25
363.203	95.25
363.429	91.25
363.656	85.25
363.882	100.25
364.109	93.25
364.335	83.25
364.562	91.25
364.788	98.25
365.015	101.25
365.241	102.25
365.468	108.25
365.694	97.25
365.92	83.25
366.147	93.25
366.373	83.25
366.599	90.25
366.826	96.25
367.052	91.25
367.278	94.25
367.505	85.25
367.731	90.25
367.957	86.25
368.184	82.25
368.41	85.25
368.636	99.25
368.862	102.25
369.089	90.25
369.315	88.25
369.541	105.25
369.767	99.25
369.993	86.25
370.219	92.25
370.445	85.25
370.672	84.25
370.898	92.25
371.124	84.25
371.35	88.25
371.576	75.25
371.802	86.25
372.028	72.25
372.254	80.25
372.48	82.25
372.706	94.25
372.932	89.25
373.158	72.25
373.384	97.25
373.61	101.25
373.835	90.25
374.061	76.25
374.287	107.25
374.513	77.25
374.739	86.25
374.965	91.25
375.191	85.25
375.416	84.25
375.642	96.25
375.868	80.25
376.094	76.25
376.319	85.25
376.545	81.25
376.771	74.25
376.997	78.25
377.222	88.25
377.448	79.25
377.674	93.25
377.899	90.25
378.125	79.25
378.35	88.25
378.576	85.25
378.802	84.25
379.027	96.25
379.253	92.25
379.478	86.25
379.704	96.25
379.929	83.25
380.155	89.25
380.38	103.25
380.606	106.25
380.831	89.25
381.057	86.25
381.282	85.25
381.507	78.25
381.733	72.25
381.958	90.25
382.184	109.25
382.409	103.25
382.634	94.25
382.86	94.25
383.085	93.25
383.31	96.25
383.535	108.25
383.761	90.25
383.986	98.25
384.211	97.25
384.436	98.25
384.662	103.25
384.887	102.25
385.112	83.25
385.337	92.25
385.562	105.25
385.787	101.25
386.013	99.25
386.238	118.25
386.463	109.25
386.688	106.25
386.913	96.25
387.138	104.25
387.363	101.25
387.588	91.25
387.813	102.25
388.038	87.25
388.263	124.25
388.488	118.25
388.713	85.25
388.938	91.25
389.163	94.25
389.387	86.25
389.612	92.25
389.837	89.25
390.062	87.25
390.287	118.25
390.512	88.25
390.736	74.25
390.961	91.25
391.186	86.25
391.411	81.25
391.636	80.25
391.86	78.25
392.085	89.25
392.31	94.25
392.534	81.25
392.759	95.25
392.984	87.25
393.208	81.25
393.433	85.25
393.658	89.25
393.882	82.25
394.107	70.25
394.331	72.25
394.556	91.25
394.78	86.25
395.005	87.25
395.229	94.25
395.454	81.25
395.678	79.25
395.903	98.25
396.127	87.25
396.352	92.25
396.576	80.25
396.801	89.25
397.025	77.25
397.249	98.25
397.474	82.25
397.698	83.25
397.922	88.25
398.147	76.25
398.371	94.25
398.595	93.25
398.82	84.25
399.044	83.25
399.268	82.25
399.492	81.25
399.717	102.25
399.941	96.25
400.165	101.25
400.389	85.25
400.613	78.25
400.837	74.25
401.062	76.25
401.286	93.25
401.51	89.25
401.734	84.25
401.958	104.25
402.182	121.25
402.406	144.25
402.63	125.25
402.854	97.25
403.078	93.25
403.302	90.25
403.526	101.25
403.75	87.25
403.974	85.25
404.198	90.25
404.422	91.25
404.645	95.25
404.869	98.25
405.093	82.25
405.317	96.25
405.541	102.25
405.765	95.25
405.988	104.25
406.212	161.25
406.436	212.25
406.66	128.25
406.883	99.25
407.107	109.25
407.331	107.25
407.555	87.25
407.778	84.25
408.002	94.25
408.226	94.25
408.449	81.25
408.673	87.25
408.896	79.25
409.12	110.25
409.344	87.25
409.567	97.25
409.791	78.25
410.014	84.25
410.238	95.25
410.461	84.25
410.685	87.25
410.908	82.25
411.132	108.25
411.355	99.25
411.578	91.25
411.802	94.25
412.025	89.25
412.249	87.25
412.472	91.25
412.695	87.25
412.919	83.25
413.142	83.25
413.365	91.25
413.589	83.25
413.812	85.25
414.035	80.25
414.258	89.25
414.482	84.25
414.705	84.25
414.928	89.25
415.151	103.25
415.374	85.25
415.597	94.25
415.821	93.25
416.044	84.25
416.267	76.25
416.49	82.25
416.713	83.25
416.936	82.25
417.159	83.25
417.382	87.25
417.605	92.25
417.828	92.25
418.051	92.25
418.274	85.25
418.497	88.25
418.72	92.25
418.943	93.25
419.166	93.25
419.389	92.25
419.611	86.25
419.834	80.25
420.057	86.25
420.28	83.25
420.503	82.25
420.726	86.25
420.948	91.25
421.171	99.25
421.394	101.25
421.617	90.25
421.839	83.25
422.062	84.25
422.285	90.25
422.507	88.25
422.73	120.25
422.953	87.25
423.175	88.25
423.398	102.25
423.621	78.25
423.843	90.25
424.066	83.25
424.288	86.25
424.511	86.25
424.733	98.25
424.956	108.25
425.178	106.25
425.401	105.25
425.623	95.25
425.846	92.25
426.068	101.25
426.291	81.25
426.513	83.25
426.735	106.25
426.958	103.25
427.18	99.25
427.402	143.25
427.625	150.25
427.847	121.25
428.069	112.25
428.292	105.25
428.514	71.25
428.736	79.25
428.958	89.25
429.181	74.25
429.403	79.25
429.625	78.25
429.847	73.25
430.069	105.25
430.292	90.25
430.514	79.25
430.736	73.25
430.958	86.25
431.18	72.25
431.402	83.25
431.624	78.25
431.846	86.25
432.068	87.25
432.29	80.25
432.512	77.25
432.734	90.25
432.956	91.25
433.178	104.25
433.4	82.25
433.622	78.25
433.844	84.25
434.066	74.25
434.287	91.25
434.509	94.25
434.731	90.25
434.953	78.25
435.175	87.25
435.397	86.25
435.618	75.25
435.84	95.25
436.062	99.25
436.284	103.25
436.505	86.25
436.727	100.25
436.949	93.25
437.17	91.25
437.392	93.25
437.614	92.25
437.835	110.25
438.057	123.25
438.278	116.25
438.5	98.25
438.721	123.25
438.943	100.25
439.165	84.25
439.386	95.25
439.608	91.25
439.829	91.25
440.05	130.25
440.272	139.25
440.493	98.25
440.715	93.25
440.936	90.25
441.158	87.25
441.379	89.25
441.6	106.25
441.822	106.25
442.043	82.25
442.264	98.25
442.486	101.25
442.707	95.25
442.928	93.25
443.149	124.25
443.371	103.25
443.592	92.25
443.813	119.25
444.034	100.25
444.255	83.25
444.476	77.25
444.698	77.25
444.919	99.25
445.14	143.25
445.361	119.25
445.582	114.25
445.803	135.25
446.024	117.25
446.245	110.25
446.466	109.25
446.687	93.25
446.908	79.25
447.129	92.25
447.35	89.25
447.571	90.25
447.792	90.25
448.013	102.25
448.234	115.25
448.455	101.25
448.675	102.25
448.896	98.25
449.117	90.25
449.338	106.25
449.559	117.25
449.779	120.25
450	92.25
450.221	78.25
450.442	103.25
450.662	77.25
450.883	88.25
451.104	101.25
451.324	101.25
451.545	91.25
451.766	87.25
451.986	87.25
452.207	83.25
452.428	97.25
452.648	102.25
452.869	121.25
453.089	91.25
453.31	126.25
453.53	100.25
453.751	90.25
453.971	94.25
454.192	115.25
454.412	101.25
454.633	102.25
454.853	89.25
455.073	92.25
455.294	97.25
455.514	99.25
455.734	95.25
455.955	81.25
456.175	73.25
456.395	97.25
456.616	83.25
456.836	82.25
457.056	79.25
457.276	92.25
457.497	78.25
457.717	77.25
457.937	87.25
458.157	96.25
458.377	98.25
458.598	107.25
458.818	128.25
459.038	144.25
459.258	113.25
459.478	95.25
459.698	94.25
459.918	91.25
460.138	93.25
460.358	70.25
460.578	62.25
460.798	97.25
461.018	92.25
461.238	82.25
461.458	97.25
461.678	77.25
461.898	91.25
462.118	97.25
462.338	90.25
462.558	73.25
462.777	90.25
462.997	71.25
463.217	87.25
463.437	96.25
463.657	88.25
463.876	77.25
464.096	82.25
464.316	75.25
464.536	87.25
464.755	97.25
464.975	100.25
465.195	144.25
465.414	148.25
465.634	102.25
465.854	77.25
466.073	95.25
466.293	97.25
466.512	95.25
466.732	69.25
466.951	97.25
467.171	88.25
467.391	87.25
467.61	98.25
467.829	89.25
468.049	91.25
468.268	121.25
468.488	100.25
468.707	90.25
468.927	76.25
469.146	86.25
469.365	67.25
469.585	85.25
469.804	84.25
470.023	96.25
470.243	88.25
470.462	103.25
470.681	91.25
470.901	89.25
471.12	109.25
471.339	91.25
471.558	83.25
471.777	84.25
471.997	85.25
472.216	133.25
472.435	166.25
472.654	103.25
472.873	83.25
473.092	95.25
473.311	77.25
473.53	82.25
473.749	90.25
473.968	93.25
474.187	95.25
474.406	99.25
474.625	71.25
474.844	95.25
475.063	85.25
475.282	79.25
475.501	78.25
475.72	87.25
475.939	88.25
476.158	106.25
476.377	91.25
476.596	86.25
476.814	94.25
477.033	79.25
477.252	90.25
477.471	90.25
477.69	84.25
477.908	93.25
478.127	91.25
478.346	93.25
478.564	81.25
478.783	93.25
479.002	94.25
479.22	83.25
479.439	96.25
479.658	106.25
479.876	96.25
480.095	92.25
480.313	85.25
480.532	96.25
480.751	95.25
480.969	120.25
481.188	241.25
481.406	181.25
481.624	105.25
481.843	94.25
482.061	74.25
482.28	83.25
482.498	73.25
482.717	73.25
482.935	90.25
483.153	90.25
483.372	84.25
483.59	96.25
483.808	86.25
484.027	85.25
484.245	98.25
484.463	92.25
484.681	96.25
484.9	98.25
485.118	98.25
485.336	96.25
485.554	102.25
485.772	93.25
485.99	92.25
486.209	94.25
486.427	95.25
486.645	97.25
486.863	101.25
487.081	94.25
487.299	81.25
487.517	88.25
487.735	83.25
487.953	111.25
488.171	91.25
488.389	91.25
488.607	84.25
488.825	95.25
489.043	93.25
489.261	102.25
489.479	80.25
489.696	91.25
489.914	111.25
490.132	75.25
490.35	82.25
490.568	86.25
490.786	86.25
491.003	87.25
491.221	102.25
491.439	86.25
491.657	106.25
491.874	98.25
492.092	78.25
492.31	77.25
492.527	80.25
492.745	96.25
492.963	103.25
493.18	87.25
493.398	74.25
493.615	93.25
493.833	91.25
494.05	92.25
494.268	87.25
494.485	105.25
494.703	79.25
494.92	87.25
495.138	84.25
495.355	94.25
495.573	97.25
495.79	82.25
496.008	69.25
496.225	98.25
496.442	84.25
496.66	89.25
496.877	94.25
497.094	107.25
497.312	91.25
497.529	90.25
497.746	85.25
497.963	68.25
498.181	81.25
498.398	103.25
498.615	97.25
498.832	100.25
499.049	88.25
499.267	97.25
499.484	89.25
499.701	96.25
499.918	87.25
500.135	86.25
500.352	72.25
500.569	79.25
500.786	79.25
501.003	95.25
501.22	90.25
501.437	75.25
501.654	92.25
501.871	96.25
502.088	86.25
502.305	91.25
502.522	94.25
502.739	86.25
502.956	88.25
503.172	100.25
503.389	86.25
503.606	103.25
503.823	96.25
504.04	95.25
504.256	97.25
504.473	87.25
504.69	97.25
504.907	93.25
505.123	82.25
505.34	83.25
505.557	76.25
505.773	86.25
505.99	94.25
506.207	83.25
506.423	84.25
506.64	97.25
506.856	89.25
507.073	83.25
507.289	83.25
507.506	102.25
507.722	107.25
507.939	110.25
508.155	86.25
508.372	90.25
508.588	85.25
508.805	85.25
509.021	108.25
509.238	89.25
509.454	99.25
509.67	90.25
509.887	101.25
510.103	125.25
510.319	216.25
510.536	731.25
510.752	2356.25
510.968	668.25
511.184	155.25
511.401	114.25
511.617	109.25
511.833	106.25
512.049	98.25
512.265	87.25
512.481	92.25
512.698	90.25
512.914	84.25
513.13	90.25
513.346	77.25
513.562	96.25
513.778	91.25
513.994	105.25
514.21	88.25
514.426	109.25
514.642	130.25
514.858	114.25
515.074	154.25
515.29	424.25
515.506	1394.25
515.721	534.25
515.937	160.25
516.153	102.25
