Data from Circ_2012_H10_HRD10591_00094.txt Node
Date: Wed Jan 03 10:06:09 EST 2024
User: Yrep
Spectrometer: HR+D1059
Trigger mode: 1
Integration Time (sec): 1.000000E-1
Scans to average: 1
Electric dark correction enabled: true
Nonlinearity correction enabled: false
Boxcar width: 0
XAxis mode: Wavelengths
Number of Pixels in Spectrum: 2048
>>>>>Begin Spectral Data<<<<<
223.165	-14.94
223.4	-14.94
223.635	-14.94
223.869	-26.94
224.104	-26.94
224.338	-24.94
224.573	-12.94
224.808	-5.94
225.042	-6.94
225.277	-5.94
225.511	0.06
225.746	2.06
225.98	0.06
226.215	15.06
226.449	16.06
226.683	31.06
226.918	25.06
227.152	36.06
227.387	42.06
227.621	40.06
227.856	47.06
228.09	48.06
228.324	65.06
228.559	53.06
228.793	58.06
229.027	66.06
229.262	60.06
229.496	64.06
229.73	82.06
229.964	62.06
230.199	90.06
230.433	75.06
230.667	88.06
230.901	109.06
231.136	98.06
231.37	82.06
231.604	77.06
231.838	92.06
232.072	76.06
232.306	83.06
232.541	77.06
232.775	74.06
233.009	84.06
233.243	82.06
233.477	98.06
233.711	94.06
233.945	78.06
234.179	72.06
234.413	72.06
234.647	87.06
234.881	74.06
235.115	83.06
235.349	79.06
235.583	73.06
235.817	92.06
236.051	71.06
236.285	90.06
236.519	75.06
236.753	79.06
236.987	76.06
237.221	81.06
237.455	88.06
237.689	74.06
237.922	87.06
238.156	73.06
238.39	64.06
238.624	83.06
238.858	72.06
239.091	80.06
239.325	85.06
239.559	82.06
239.793	89.06
240.027	79.06
240.26	90.06
240.494	82.06
240.728	76.06
240.961	80.06
241.195	72.06
241.429	69.06
241.662	81.06
241.896	88.06
242.13	74.06
242.363	78.06
242.597	80.06
242.83	78.06
243.064	67.06
243.298	74.06
243.531	77.06
243.765	79.06
243.998	82.06
244.232	74.06
244.465	83.06
244.699	77.06
244.932	80.06
245.166	77.06
245.399	80.06
245.633	67.06
245.866	86.06
246.099	70.06
246.333	83.06
246.566	64.06
246.8	82.06
247.033	75.06
247.266	79.06
247.5	82.06
247.733	86.06
247.966	79.06
248.2	91.06
248.433	87.06
248.666	73.06
248.899	82.06
249.133	81.06
249.366	96.06
249.599	95.06
249.832	76.06
250.066	77.06
250.299	82.06
250.532	95.06
250.765	89.06
250.998	80.06
251.231	76.06
251.465	78.06
251.698	88.06
251.931	74.06
252.164	75.06
252.397	85.06
252.63	86.06
252.863	74.06
253.096	88.06
253.329	88.06
253.562	95.06
253.795	82.06
254.028	76.06
254.261	79.06
254.494	71.06
254.727	97.06
254.96	91.06
255.193	71.06
255.426	76.06
255.659	87.06
255.892	80.06
256.124	85.06
256.357	86.06
256.59	78.06
256.823	89.06
257.056	89.06
257.289	102.06
257.521	82.06
257.754	89.06
257.987	89.06
258.22	71.06
258.452	90.06
258.685	77.06
258.918	90.06
259.151	94.06
259.383	90.06
259.616	85.06
259.849	73.06
260.081	74.06
260.314	79.06
260.547	92.06
260.779	76.06
261.012	87.06
261.244	99.06
261.477	100.06
261.71	91.06
261.942	109.06
262.175	103.06
262.407	85.06
262.64	100.06
262.872	86.06
263.105	82.06
263.337	85.06
263.57	86.06
263.802	94.06
264.035	87.06
264.267	79.06
264.499	83.06
264.732	79.06
264.964	86.06
265.197	98.06
265.429	83.06
265.661	75.06
265.894	78.06
266.126	100.06
266.358	90.06
266.591	78.06
266.823	82.06
267.055	83.06
267.287	101.06
267.52	91.06
267.752	83.06
267.984	88.06
268.216	104.06
268.448	106.06
268.681	87.06
268.913	93.06
269.145	85.06
269.377	86.06
269.609	89.06
269.841	83.06
270.073	69.06
270.306	77.06
270.538	81.06
270.77	81.06
271.002	92.06
271.234	81.06
271.466	86.06
271.698	101.06
271.93	92.06
272.162	95.06
272.394	88.06
272.626	92.06
272.858	81.06
273.09	81.06
273.322	83.06
273.553	87.06
273.785	74.06
274.017	92.06
274.249	92.06
274.481	76.06
274.713	78.06
274.945	90.06
275.176	82.06
275.408	104.06
275.64	93.06
275.872	77.06
276.104	88.06
276.335	96.06
276.567	104.06
276.799	97.06
277.031	91.06
277.262	92.06
277.494	96.06
277.726	95.06
277.957	79.06
278.189	98.06
278.421	80.06
278.652	64.06
278.884	95.06
279.115	99.06
279.347	95.06
279.579	89.06
279.81	91.06
280.042	97.06
280.273	104.06
280.505	107.06
280.736	86.06
280.968	82.06
281.199	101.06
281.431	102.06
281.662	105.06
281.894	99.06
282.125	101.06
282.356	117.06
282.588	146.06
282.819	119.06
283.051	93.06
283.282	86.06
283.513	91.06
283.745	73.06
283.976	83.06
284.207	98.06
284.439	91.06
284.67	82.06
284.901	81.06
285.132	89.06
285.364	90.06
285.595	91.06
285.826	96.06
286.057	93.06
286.288	90.06
286.52	90.06
286.751	74.06
286.982	94.06
287.213	81.06
287.444	83.06
287.675	77.06
287.906	79.06
288.138	92.06
288.369	90.06
288.6	103.06
288.831	94.06
289.062	92.06
289.293	83.06
289.524	91.06
289.755	82.06
289.986	75.06
290.217	84.06
290.448	80.06
290.679	88.06
290.91	90.06
291.141	98.06
291.371	72.06
291.602	83.06
291.833	71.06
292.064	95.06
292.295	95.06
292.526	81.06
292.757	105.06
292.987	88.06
293.218	97.06
293.449	90.06
293.68	88.06
293.91	96.06
294.141	92.06
294.372	90.06
294.603	81.06
294.833	98.06
295.064	97.06
295.295	82.06
295.525	90.06
295.756	87.06
295.987	113.06
296.217	126.06
296.448	125.06
296.679	97.06
296.909	83.06
297.14	87.06
297.37	71.06
297.601	85.06
297.831	89.06
298.062	85.06
298.292	92.06
298.523	90.06
298.753	85.06
298.984	88.06
299.214	88.06
299.445	109.06
299.675	96.06
299.905	90.06
300.136	89.06
300.366	93.06
300.597	95.06
300.827	89.06
301.057	94.06
301.288	98.06
301.518	82.06
301.748	77.06
301.979	97.06
302.209	85.06
302.439	93.06
302.669	89.06
302.9	82.06
303.13	104.06
303.36	93.06
303.59	100.06
303.82	106.06
304.051	96.06
304.281	94.06
304.511	92.06
304.741	102.06
304.971	86.06
305.201	97.06
305.431	103.06
305.661	87.06
305.891	88.06
306.121	108.06
306.352	102.06
306.582	92.06
306.812	90.06
307.042	89.06
307.272	99.06
307.502	106.06
307.731	98.06
307.961	97.06
308.191	91.06
308.421	90.06
308.651	104.06
308.881	93.06
309.111	90.06
309.341	89.06
309.571	99.06
309.8	74.06
310.03	92.06
310.26	82.06
310.49	110.06
310.72	104.06
310.949	98.06
311.179	103.06
311.409	89.06
311.639	117.06
311.868	89.06
312.098	103.06
312.328	96.06
312.557	105.06
312.787	104.06
313.017	115.06
313.246	110.06
313.476	91.06
313.706	100.06
313.935	97.06
314.165	103.06
314.394	96.06
314.624	100.06
314.853	91.06
315.083	85.06
315.312	102.06
315.542	88.06
315.771	96.06
316.001	95.06
316.23	103.06
316.46	93.06
316.689	90.06
316.919	94.06
317.148	79.06
317.377	95.06
317.607	102.06
317.836	104.06
318.065	90.06
318.295	84.06
318.524	90.06
318.753	96.06
318.983	84.06
319.212	98.06
319.441	112.06
319.67	95.06
319.9	94.06
320.129	91.06
320.358	94.06
320.587	84.06
320.816	82.06
321.046	91.06
321.275	89.06
321.504	106.06
321.733	102.06
321.962	112.06
322.191	104.06
322.42	113.06
322.649	98.06
322.878	88.06
323.108	117.06
323.337	110.06
323.566	121.06
323.795	144.06
324.024	207.06
324.253	345.06
324.482	717.06
324.71	1442.06
324.939	1850.06
325.168	729.06
325.397	231.06
325.626	138.06
325.855	127.06
326.084	122.06
326.313	126.06
326.542	152.06
326.77	214.06
326.999	421.06
327.228	838.06
327.457	1483.06
327.686	1189.06
327.914	339.06
328.143	179.06
328.372	162.06
328.6	141.06
328.829	120.06
329.058	128.06
329.287	117.06
329.515	109.06
329.744	112.06
329.972	120.06
330.201	149.06
330.43	142.06
330.658	132.06
330.887	122.06
331.115	99.06
331.344	103.06
331.572	96.06
331.801	109.06
332.03	95.06
332.258	76.06
332.486	86.06
332.715	95.06
332.943	83.06
333.172	93.06
333.4	94.06
333.629	102.06
333.857	109.06
334.085	116.06
334.314	127.06
334.542	196.06
334.771	198.06
334.999	112.06
335.227	87.06
335.455	100.06
335.684	101.06
335.912	100.06
336.14	94.06
336.369	88.06
336.597	99.06
336.825	99.06
337.053	98.06
337.281	96.06
337.51	90.06
337.738	79.06
337.966	104.06
338.194	103.06
338.422	94.06
338.65	87.06
338.878	93.06
339.106	82.06
339.334	86.06
339.562	94.06
339.79	98.06
340.018	112.06
340.246	100.06
340.474	91.06
340.702	89.06
340.93	86.06
341.158	85.06
341.386	89.06
341.614	92.06
341.842	91.06
342.07	72.06
342.298	79.06
342.526	91.06
342.754	85.06
342.981	97.06
343.209	93.06
343.437	92.06
343.665	87.06
343.893	91.06
344.12	93.06
344.348	104.06
344.576	98.06
344.804	94.06
345.031	108.06
345.259	101.06
345.487	94.06
345.714	81.06
345.942	107.06
346.17	92.06
346.397	82.06
346.625	72.06
346.853	84.06
347.08	98.06
347.308	94.06
347.535	102.06
347.763	94.06
347.99	107.06
348.218	100.06
348.445	92.06
348.673	87.06
348.9	92.06
349.128	94.06
349.355	82.06
349.583	96.06
349.81	94.06
350.037	94.06
350.265	87.06
350.492	96.06
350.72	97.06
350.947	98.06
351.174	88.06
351.402	115.06
351.629	99.06
351.856	98.06
352.083	104.06
352.311	105.06
352.538	103.06
352.765	114.06
352.992	119.06
353.22	128.06
353.447	103.06
353.674	110.06
353.901	95.06
354.128	105.06
354.355	104.06
354.583	112.06
354.81	83.06
355.037	103.06
355.264	101.06
355.491	106.06
355.718	95.06
355.945	89.06
356.172	98.06
356.399	85.06
356.626	89.06
356.853	101.06
357.08	85.06
357.307	92.06
357.534	84.06
357.761	99.06
357.988	102.06
358.215	101.06
358.441	94.06
358.668	96.06
358.895	82.06
359.122	97.06
359.349	92.06
359.576	94.06
359.802	102.06
360.029	104.06
360.256	101.06
360.483	94.06
360.709	93.06
360.936	93.06
361.163	98.06
361.39	86.06
361.616	93.06
361.843	91.06
362.07	99.06
362.296	99.06
362.523	94.06
362.749	97.06
362.976	95.06
363.203	107.06
363.429	88.06
363.656	82.06
363.882	91.06
364.109	113.06
364.335	89.06
364.562	76.06
364.788	83.06
365.015	94.06
365.241	105.06
365.468	107.06
365.694	104.06
365.92	93.06
366.147	87.06
366.373	88.06
366.599	88.06
366.826	87.06
367.052	98.06
367.278	87.06
367.505	92.06
367.731	102.06
367.957	79.06
368.184	105.06
368.41	101.06
368.636	118.06
368.862	116.06
369.089	105.06
369.315	100.06
369.541	106.06
369.767	92.06
369.993	93.06
370.219	87.06
370.445	97.06
370.672	81.06
370.898	81.06
371.124	94.06
371.35	84.06
371.576	78.06
371.802	93.06
372.028	92.06
372.254	89.06
372.48	93.06
372.706	86.06
372.932	89.06
373.158	91.06
373.384	91.06
373.61	88.06
373.835	96.06
374.061	101.06
374.287	82.06
374.513	82.06
374.739	77.06
374.965	75.06
375.191	98.06
375.416	87.06
375.642	97.06
375.868	89.06
376.094	106.06
376.319	90.06
376.545	101.06
376.771	83.06
376.997	85.06
377.222	97.06
377.448	93.06
377.674	82.06
377.899	89.06
378.125	93.06
378.35	83.06
378.576	88.06
378.802	81.06
379.027	99.06
379.253	102.06
379.478	96.06
379.704	95.06
379.929	89.06
380.155	87.06
380.38	90.06
380.606	91.06
380.831	91.06
381.057	98.06
381.282	107.06
381.507	108.06
381.733	90.06
381.958	104.06
382.184	88.06
382.409	89.06
382.634	101.06
382.86	118.06
383.085	102.06
383.31	108.06
383.535	96.06
383.761	95.06
383.986	87.06
384.211	94.06
384.436	93.06
384.662	104.06
384.887	97.06
385.112	102.06
385.337	94.06
385.562	111.06
385.787	99.06
386.013	101.06
386.238	95.06
386.463	92.06
386.688	100.06
386.913	103.06
387.138	117.06
387.363	107.06
387.588	99.06
387.813	102.06
388.038	113.06
388.263	99.06
388.488	93.06
388.713	99.06
388.938	88.06
389.163	81.06
389.387	76.06
389.612	99.06
389.837	90.06
390.062	91.06
390.287	93.06
390.512	92.06
390.736	87.06
390.961	90.06
391.186	102.06
391.411	103.06
391.636	102.06
391.86	87.06
392.085	96.06
392.31	80.06
392.534	104.06
392.759	94.06
392.984	82.06
393.208	93.06
393.433	101.06
393.658	79.06
393.882	89.06
394.107	93.06
394.331	89.06
394.556	91.06
394.78	105.06
395.005	96.06
395.229	89.06
395.454	95.06
395.678	95.06
395.903	93.06
396.127	90.06
396.352	77.06
396.576	76.06
396.801	91.06
397.025	91.06
397.249	86.06
397.474	92.06
397.698	82.06
397.922	91.06
398.147	90.06
398.371	97.06
398.595	89.06
398.82	97.06
399.044	91.06
399.268	78.06
399.492	82.06
399.717	80.06
399.941	103.06
400.165	93.06
400.389	103.06
400.613	83.06
400.837	80.06
401.062	87.06
401.286	89.06
401.51	87.06
401.734	82.06
401.958	97.06
402.182	122.06
402.406	151.06
402.63	114.06
402.854	100.06
403.078	96.06
403.302	80.06
403.526	101.06
403.75	87.06
403.974	94.06
404.198	94.06
404.422	89.06
404.645	94.06
404.869	87.06
405.093	89.06
405.317	97.06
405.541	88.06
405.765	104.06
405.988	93.06
406.212	153.06
406.436	165.06
406.66	114.06
406.883	108.06
407.107	104.06
407.331	101.06
407.555	104.06
407.778	100.06
408.002	95.06
408.226	97.06
408.449	86.06
408.673	96.06
408.896	99.06
409.12	84.06
409.344	89.06
409.567	96.06
409.791	88.06
410.014	94.06
410.238	98.06
410.461	76.06
410.685	84.06
410.908	101.06
411.132	101.06
411.355	113.06
411.578	98.06
411.802	87.06
412.025	93.06
412.249	94.06
412.472	97.06
412.695	89.06
412.919	85.06
413.142	91.06
413.365	101.06
413.589	94.06
413.812	85.06
414.035	94.06
414.258	71.06
414.482	94.06
414.705	101.06
414.928	105.06
415.151	95.06
415.374	107.06
415.597	85.06
415.821	79.06
416.044	100.06
416.267	91.06
416.49	84.06
416.713	77.06
416.936	78.06
417.159	87.06
417.382	93.06
417.605	93.06
417.828	103.06
418.051	91.06
418.274	74.06
418.497	77.06
418.72	104.06
418.943	75.06
419.166	95.06
419.389	94.06
419.611	100.06
419.834	104.06
420.057	84.06
420.28	89.06
420.503	94.06
420.726	97.06
420.948	89.06
421.171	107.06
421.394	79.06
421.617	101.06
421.839	102.06
422.062	95.06
422.285	98.06
422.507	94.06
422.73	96.06
422.953	94.06
423.175	95.06
423.398	102.06
423.621	88.06
423.843	88.06
424.066	85.06
424.288	87.06
424.511	83.06
424.733	105.06
424.956	96.06
425.178	99.06
425.401	93.06
425.623	97.06
425.846	99.06
426.068	90.06
426.291	84.06
426.513	96.06
426.735	89.06
426.958	91.06
427.18	106.06
427.402	130.06
427.625	141.06
427.847	123.06
428.069	123.06
428.292	98.06
428.514	104.06
428.736	93.06
428.958	95.06
429.181	85.06
429.403	96.06
429.625	91.06
429.847	90.06
430.069	91.06
430.292	106.06
430.514	99.06
430.736	96.06
430.958	89.06
431.18	88.06
431.402	85.06
431.624	80.06
431.846	91.06
432.068	77.06
432.29	89.06
432.512	78.06
432.734	93.06
432.956	91.06
433.178	103.06
433.4	99.06
433.622	90.06
433.844	113.06
434.066	111.06
434.287	97.06
434.509	98.06
434.731	94.06
434.953	80.06
435.175	89.06
435.397	83.06
435.618	94.06
435.84	109.06
436.062	114.06
436.284	101.06
436.505	94.06
436.727	107.06
436.949	109.06
437.17	101.06
437.392	99.06
437.614	92.06
437.835	114.06
438.057	102.06
438.278	119.06
438.5	91.06
438.721	118.06
438.943	81.06
439.165	97.06
439.386	85.06
439.608	99.06
439.829	99.06
440.05	125.06
440.272	145.06
440.493	103.06
440.715	94.06
440.936	84.06
441.158	89.06
441.379	86.06
441.6	87.06
441.822	91.06
442.043	89.06
442.264	108.06
442.486	85.06
442.707	95.06
442.928	110.06
443.149	124.06
443.371	106.06
443.592	116.06
443.813	99.06
444.034	109.06
444.255	82.06
444.476	75.06
444.698	82.06
444.919	90.06
445.14	132.06
445.361	110.06
445.582	122.06
445.803	134.06
446.024	127.06
446.245	139.06
446.466	118.06
446.687	87.06
446.908	95.06
447.129	92.06
447.35	98.06
447.571	101.06
447.792	96.06
448.013	103.06
448.234	106.06
448.455	102.06
448.675	101.06
448.896	106.06
449.117	108.06
449.338	97.06
449.559	127.06
449.779	122.06
450	93.06
450.221	84.06
450.442	95.06
450.662	105.06
450.883	107.06
451.104	98.06
451.324	93.06
451.545	83.06
451.766	93.06
451.986	85.06
452.207	89.06
452.428	93.06
452.648	101.06
452.869	111.06
453.089	114.06
453.31	107.06
453.53	100.06
453.751	99.06
453.971	96.06
454.192	113.06
454.412	102.06
454.633	87.06
454.853	81.06
455.073	87.06
455.294	87.06
455.514	106.06
455.734	106.06
455.955	78.06
456.175	84.06
456.395	89.06
456.616	85.06
456.836	67.06
457.056	80.06
457.276	80.06
457.497	80.06
457.717	79.06
457.937	92.06
458.157	81.06
458.377	91.06
458.598	92.06
458.818	120.06
459.038	129.06
459.258	111.06
459.478	82.06
459.698	97.06
459.918	77.06
460.138	89.06
460.358	99.06
460.578	93.06
460.798	83.06
461.018	105.06
461.238	91.06
461.458	94.06
461.678	93.06
461.898	77.06
462.118	93.06
462.338	88.06
462.558	79.06
462.777	80.06
462.997	95.06
463.217	90.06
463.437	96.06
463.657	105.06
463.876	82.06
464.096	87.06
464.316	106.06
464.536	94.06
464.755	103.06
464.975	110.06
465.195	154.06
465.414	147.06
465.634	112.06
465.854	101.06
466.073	87.06
466.293	96.06
466.512	83.06
466.732	89.06
466.951	93.06
467.171	82.06
467.391	94.06
467.61	94.06
467.829	100.06
468.049	117.06
468.268	127.06
468.488	97.06
468.707	95.06
468.927	86.06
469.146	83.06
469.365	86.06
469.585	103.06
469.804	85.06
470.023	96.06
470.243	87.06
470.462	87.06
470.681	107.06
470.901	106.06
471.12	94.06
471.339	89.06
471.558	95.06
471.777	93.06
471.997	101.06
472.216	165.06
472.435	243.06
472.654	134.06
472.873	93.06
473.092	89.06
473.311	106.06
473.53	75.06
473.749	80.06
473.968	95.06
474.187	91.06
474.406	99.06
474.625	81.06
474.844	84.06
475.063	87.06
475.282	91.06
475.501	89.06
475.72	92.06
475.939	92.06
476.158	91.06
476.377	83.06
476.596	86.06
476.814	93.06
477.033	100.06
477.252	93.06
477.471	75.06
477.69	82.06
477.908	88.06
478.127	90.06
478.346	90.06
478.564	98.06
478.783	93.06
479.002	82.06
479.22	91.06
479.439	97.06
479.658	95.06
479.876	82.06
480.095	89.06
480.313	97.06
480.532	93.06
480.751	94.06
480.969	159.06
481.188	341.06
481.406	249.06
481.624	118.06
481.843	89.06
482.061	100.06
482.28	93.06
482.498	93.06
482.717	86.06
482.935	73.06
483.153	97.06
483.372	92.06
483.59	92.06
483.808	97.06
484.027	93.06
484.245	88.06
484.463	101.06
484.681	102.06
484.9	100.06
485.118	83.06
485.336	103.06
485.554	105.06
485.772	91.06
485.99	102.06
486.209	98.06
486.427	111.06
486.645	107.06
486.863	85.06
487.081	99.06
487.299	94.06
487.517	96.06
487.735	89.06
487.953	106.06
488.171	108.06
488.389	99.06
488.607	95.06
488.825	89.06
489.043	77.06
489.261	92.06
489.479	85.06
489.696	101.06
489.914	90.06
490.132	81.06
490.35	87.06
490.568	92.06
490.786	102.06
491.003	97.06
491.221	98.06
491.439	85.06
491.657	92.06
491.874	102.06
492.092	82.06
492.31	102.06
492.527	95.06
492.745	87.06
492.963	86.06
493.18	91.06
493.398	90.06
493.615	95.06
493.833	90.06
494.05	92.06
494.268	102.06
494.485	97.06
494.703	111.06
494.92	88.06
495.138	95.06
495.355	83.06
495.573	89.06
495.79	85.06
496.008	86.06
496.225	108.06
496.442	86.06
496.66	89.06
496.877	91.06
497.094	94.06
497.312	94.06
497.529	80.06
497.746	92.06
497.963	90.06
498.181	80.06
498.398	76.06
498.615	96.06
498.832	100.06
499.049	91.06
499.267	104.06
499.484	75.06
499.701	85.06
499.918	89.06
500.135	99.06
500.352	96.06
500.569	91.06
500.786	83.06
501.003	89.06
501.22	88.06
501.437	100.06
501.654	93.06
501.871	106.06
502.088	104.06
502.305	96.06
502.522	103.06
502.739	105.06
502.956	85.06
503.172	102.06
503.389	83.06
503.606	98.06
503.823	98.06
504.04	99.06
504.256	98.06
504.473	93.06
504.69	90.06
504.907	83.06
505.123	108.06
505.34	101.06
505.557	97.06
505.773	101.06
505.99	91.06
506.207	75.06
506.423	93.06
506.64	77.06
506.856	95.06
507.073	99.06
507.289	95.06
507.506	108.06
507.722	114.06
507.939	100.06
508.155	99.06
508.372	99.06
508.588	112.06
508.805	90.06
509.021	92.06
509.238	100.06
509.454	103.06
509.67	105.06
509.887	110.06
510.103	115.06
510.319	164.06
510.536	629.06
510.752	1924.06
510.968	565.06
511.184	156.06
511.401	96.06
511.617	89.06
511.833	96.06
512.049	87.06
512.265	92.06
512.481	102.06
512.698	111.06
512.914	98.06
513.13	95.06
513.346	94.06
513.562	94.06
513.778	96.06
513.994	89.06
514.21	85.06
514.426	101.06
514.642	132.06
514.858	114.06
515.074	153.06
515.29	361.06
