Data from Circ_2012_H10_HRD10591_00059.txt Node
Date: Wed Jan 03 10:06:02 EST 2024
User: Yrep
Spectrometer: HR+D1059
Trigger mode: 1
Integration Time (sec): 1.000000E-1
Scans to average: 1
Electric dark correction enabled: true
Nonlinearity correction enabled: false
Boxcar width: 0
XAxis mode: Wavelengths
Number of Pixels in Spectrum: 2048
>>>>>Begin Spectral Data<<<<<
223.165	-11.44
223.4	-11.44
223.635	-11.44
223.869	-23.44
224.104	-3.44
224.338	-19.44
224.573	-16.44
224.808	-17.44
225.042	-12.44
225.277	-10.44
225.511	9.56
225.746	6.56
225.98	13.56
226.215	5.56
226.449	19.56
226.683	16.56
226.918	17.56
227.152	25.56
227.387	32.56
227.621	36.56
227.856	38.56
228.09	47.56
228.324	58.56
228.559	36.56
228.793	51.56
229.027	59.56
229.262	63.56
229.496	67.56
229.73	80.56
229.964	87.56
230.199	67.56
230.433	58.56
230.667	76.56
230.901	78.56
231.136	69.56
231.37	71.56
231.604	86.56
231.838	90.56
232.072	78.56
232.306	87.56
232.541	76.56
232.775	74.56
233.009	65.56
233.243	85.56
233.477	76.56
233.711	79.56
233.945	71.56
234.179	75.56
234.413	72.56
234.647	70.56
234.881	60.56
235.115	82.56
235.349	80.56
235.583	79.56
235.817	57.56
236.051	82.56
236.285	64.56
236.519	65.56
236.753	43.56
236.987	80.56
237.221	78.56
237.455	69.56
237.689	62.56
237.922	71.56
238.156	72.56
238.39	75.56
238.624	82.56
238.858	72.56
239.091	95.56
239.325	79.56
239.559	76.56
239.793	67.56
240.027	66.56
240.26	82.56
240.494	84.56
240.728	66.56
240.961	80.56
241.195	71.56
241.429	73.56
241.662	68.56
241.896	77.56
242.13	75.56
242.363	70.56
242.597	82.56
242.83	76.56
243.064	70.56
243.298	75.56
243.531	74.56
243.765	89.56
243.998	58.56
244.232	75.56
244.465	79.56
244.699	78.56
244.932	72.56
245.166	74.56
245.399	72.56
245.633	65.56
245.866	76.56
246.099	79.56
246.333	86.56
246.566	74.56
246.8	63.56
247.033	70.56
247.266	71.56
247.5	80.56
247.733	68.56
247.966	65.56
248.2	68.56
248.433	73.56
248.666	62.56
248.899	70.56
249.133	82.56
249.366	85.56
249.599	82.56
249.832	81.56
250.066	82.56
250.299	75.56
250.532	68.56
250.765	69.56
250.998	63.56
251.231	85.56
251.465	77.56
251.698	78.56
251.931	78.56
252.164	91.56
252.397	69.56
252.63	80.56
252.863	78.56
253.096	86.56
253.329	69.56
253.562	75.56
253.795	86.56
254.028	79.56
254.261	82.56
254.494	80.56
254.727	84.56
254.96	71.56
255.193	80.56
255.426	80.56
255.659	83.56
255.892	72.56
256.124	87.56
256.357	75.56
256.59	69.56
256.823	49.56
257.056	69.56
257.289	84.56
257.521	88.56
257.754	66.56
257.987	74.56
258.22	81.56
258.452	85.56
258.685	76.56
258.918	78.56
259.151	74.56
259.383	76.56
259.616	86.56
259.849	74.56
260.081	81.56
260.314	71.56
260.547	76.56
260.779	74.56
261.012	79.56
261.244	83.56
261.477	89.56
261.71	91.56
261.942	90.56
262.175	95.56
262.407	94.56
262.64	95.56
262.872	86.56
263.105	77.56
263.337	92.56
263.57	73.56
263.802	85.56
264.035	90.56
264.267	76.56
264.499	82.56
264.732	79.56
264.964	91.56
265.197	74.56
265.429	70.56
265.661	84.56
265.894	95.56
266.126	78.56
266.358	75.56
266.591	79.56
266.823	74.56
267.055	71.56
267.287	70.56
267.52	81.56
267.752	79.56
267.984	88.56
268.216	85.56
268.448	82.56
268.681	79.56
268.913	61.56
269.145	71.56
269.377	70.56
269.609	68.56
269.841	85.56
270.073	83.56
270.306	68.56
270.538	97.56
270.77	67.56
271.002	67.56
271.234	82.56
271.466	91.56
271.698	89.56
271.93	77.56
272.162	85.56
272.394	80.56
272.626	80.56
272.858	81.56
273.09	75.56
273.322	90.56
273.553	95.56
273.785	73.56
274.017	79.56
274.249	66.56
274.481	86.56
274.713	73.56
274.945	63.56
275.176	89.56
275.408	98.56
275.64	76.56
275.872	67.56
276.104	75.56
276.335	92.56
276.567	85.56
276.799	96.56
277.031	91.56
277.262	87.56
277.494	75.56
277.726	66.56
277.957	72.56
278.189	80.56
278.421	79.56
278.652	82.56
278.884	79.56
279.115	80.56
279.347	90.56
279.579	74.56
279.81	84.56
280.042	97.56
280.273	82.56
280.505	92.56
280.736	85.56
280.968	59.56
281.199	83.56
281.431	89.56
281.662	83.56
281.894	87.56
282.125	89.56
282.356	112.56
282.588	120.56
282.819	92.56
283.051	76.56
283.282	87.56
283.513	88.56
283.745	82.56
283.976	75.56
284.207	79.56
284.439	80.56
284.67	82.56
284.901	81.56
285.132	92.56
285.364	74.56
285.595	80.56
285.826	87.56
286.057	75.56
286.288	95.56
286.52	89.56
286.751	78.56
286.982	69.56
287.213	79.56
287.444	78.56
287.675	104.56
287.906	96.56
288.138	85.56
288.369	75.56
288.6	93.56
288.831	82.56
289.062	85.56
289.293	98.56
289.524	82.56
289.755	83.56
289.986	89.56
290.217	74.56
290.448	80.56
290.679	83.56
290.91	86.56
291.141	81.56
291.371	92.56
291.602	74.56
291.833	76.56
292.064	81.56
292.295	81.56
292.526	75.56
292.757	76.56
292.987	80.56
293.218	86.56
293.449	83.56
293.68	72.56
293.91	72.56
294.141	88.56
294.372	84.56
294.603	78.56
294.833	85.56
295.064	69.56
295.295	89.56
295.525	84.56
295.756	91.56
295.987	108.56
296.217	132.56
296.448	118.56
296.679	89.56
296.909	98.56
297.14	71.56
297.37	74.56
297.601	73.56
297.831	101.56
298.062	89.56
298.292	80.56
298.523	77.56
298.753	94.56
298.984	79.56
299.214	85.56
299.445	110.56
299.675	85.56
299.905	91.56
300.136	84.56
300.366	78.56
300.597	85.56
300.827	83.56
301.057	92.56
301.288	121.56
301.518	92.56
301.748	79.56
301.979	86.56
302.209	76.56
302.439	77.56
302.669	87.56
302.9	75.56
303.13	80.56
303.36	101.56
303.59	94.56
303.82	102.56
304.051	86.56
304.281	102.56
304.511	93.56
304.741	99.56
304.971	82.56
305.201	78.56
305.431	91.56
305.661	72.56
305.891	89.56
306.121	80.56
306.352	91.56
306.582	100.56
306.812	97.56
307.042	91.56
307.272	90.56
307.502	90.56
307.731	91.56
307.961	90.56
308.191	82.56
308.421	84.56
308.651	89.56
308.881	92.56
309.111	82.56
309.341	100.56
309.571	100.56
309.8	99.56
310.03	107.56
310.26	87.56
310.49	90.56
310.72	90.56
310.949	87.56
311.179	99.56
311.409	85.56
311.639	89.56
311.868	78.56
312.098	83.56
312.328	81.56
312.557	97.56
312.787	91.56
313.017	82.56
313.246	92.56
313.476	102.56
313.706	83.56
313.935	87.56
314.165	96.56
314.394	97.56
314.624	90.56
314.853	110.56
315.083	104.56
315.312	82.56
315.542	81.56
315.771	93.56
316.001	86.56
316.23	76.56
316.46	84.56
316.689	98.56
316.919	94.56
317.148	86.56
317.377	105.56
317.607	104.56
317.836	88.56
318.065	67.56
318.295	80.56
318.524	88.56
318.753	95.56
318.983	80.56
319.212	91.56
319.441	87.56
319.67	98.56
319.9	100.56
320.129	80.56
320.358	102.56
320.587	85.56
320.816	77.56
321.046	99.56
321.275	86.56
321.504	95.56
321.733	95.56
321.962	95.56
322.191	89.56
322.42	93.56
322.649	106.56
322.878	110.56
323.108	106.56
323.337	120.56
323.566	120.56
323.795	130.56
324.024	177.56
324.253	368.56
324.482	754.56
324.71	1504.56
324.939	2020.56
325.168	755.56
325.397	219.56
325.626	134.56
325.855	129.56
326.084	126.56
326.313	123.56
326.542	151.56
326.77	222.56
326.999	404.56
327.228	878.56
327.457	1565.56
327.686	1262.56
327.914	356.56
328.143	191.56
328.372	158.56
328.6	131.56
328.829	118.56
329.058	117.56
329.287	128.56
329.515	114.56
329.744	107.56
329.972	114.56
330.201	138.56
330.43	149.56
330.658	149.56
330.887	123.56
331.115	99.56
331.344	90.56
331.572	103.56
331.801	94.56
332.03	88.56
332.258	90.56
332.486	101.56
332.715	86.56
332.943	92.56
333.172	85.56
333.4	86.56
333.629	103.56
333.857	112.56
334.085	117.56
334.314	119.56
334.542	159.56
334.771	160.56
334.999	125.56
335.227	97.56
335.455	97.56
335.684	85.56
335.912	87.56
336.14	94.56
336.369	97.56
336.597	87.56
336.825	98.56
337.053	96.56
337.281	90.56
337.51	88.56
337.738	84.56
337.966	92.56
338.194	89.56
338.422	76.56
338.65	81.56
338.878	92.56
339.106	88.56
339.334	98.56
339.562	88.56
339.79	87.56
340.018	84.56
340.246	95.56
340.474	99.56
340.702	85.56
340.93	92.56
341.158	99.56
341.386	95.56
341.614	96.56
341.842	95.56
342.07	87.56
342.298	95.56
342.526	93.56
342.754	89.56
342.981	82.56
343.209	79.56
343.437	81.56
343.665	88.56
343.893	82.56
344.12	77.56
344.348	76.56
344.576	86.56
344.804	86.56
345.031	92.56
345.259	88.56
345.487	83.56
345.714	82.56
345.942	94.56
346.17	83.56
346.397	96.56
346.625	103.56
346.853	78.56
347.08	91.56
347.308	87.56
347.535	99.56
347.763	95.56
347.99	76.56
348.218	97.56
348.445	104.56
348.673	92.56
348.9	81.56
349.128	101.56
349.355	92.56
349.583	91.56
349.81	92.56
350.037	90.56
350.265	95.56
350.492	83.56
350.72	87.56
350.947	95.56
351.174	99.56
351.402	120.56
351.629	97.56
351.856	100.56
352.083	106.56
352.311	93.56
352.538	87.56
352.765	95.56
352.992	109.56
353.22	94.56
353.447	102.56
353.674	106.56
353.901	96.56
354.128	94.56
354.355	83.56
354.583	97.56
354.81	99.56
355.037	95.56
355.264	99.56
355.491	84.56
355.718	76.56
355.945	95.56
356.172	94.56
356.399	92.56
356.626	84.56
356.853	87.56
357.08	94.56
357.307	93.56
357.534	89.56
357.761	85.56
357.988	83.56
358.215	87.56
358.441	105.56
358.668	84.56
358.895	88.56
359.122	93.56
359.349	83.56
359.576	89.56
359.802	88.56
360.029	90.56
360.256	98.56
360.483	99.56
360.709	89.56
360.936	87.56
361.163	108.56
361.39	73.56
361.616	99.56
361.843	85.56
362.07	82.56
362.296	85.56
362.523	90.56
362.749	90.56
362.976	98.56
363.203	81.56
363.429	76.56
363.656	87.56
363.882	92.56
364.109	78.56
364.335	68.56
364.562	76.56
364.788	86.56
365.015	89.56
365.241	102.56
365.468	96.56
365.694	88.56
365.92	94.56
366.147	81.56
366.373	80.56
366.599	84.56
366.826	75.56
367.052	81.56
367.278	81.56
367.505	79.56
367.731	80.56
367.957	95.56
368.184	87.56
368.41	92.56
368.636	96.56
368.862	98.56
369.089	98.56
369.315	92.56
369.541	82.56
369.767	75.56
369.993	81.56
370.219	76.56
370.445	88.56
370.672	86.56
370.898	84.56
371.124	73.56
371.35	90.56
371.576	86.56
371.802	80.56
372.028	89.56
372.254	77.56
372.48	90.56
372.706	96.56
372.932	79.56
373.158	74.56
373.384	83.56
373.61	83.56
373.835	74.56
374.061	87.56
374.287	78.56
374.513	87.56
374.739	86.56
374.965	95.56
375.191	97.56
375.416	73.56
375.642	81.56
375.868	88.56
376.094	86.56
376.319	85.56
376.545	83.56
376.771	80.56
376.997	79.56
377.222	93.56
377.448	79.56
377.674	91.56
377.899	90.56
378.125	86.56
378.35	99.56
378.576	81.56
378.802	82.56
379.027	91.56
379.253	87.56
379.478	94.56
379.704	79.56
379.929	85.56
380.155	100.56
380.38	97.56
380.606	101.56
380.831	89.56
381.057	96.56
381.282	74.56
381.507	96.56
381.733	88.56
381.958	83.56
382.184	86.56
382.409	94.56
382.634	90.56
382.86	82.56
383.085	87.56
383.31	94.56
383.535	99.56
383.761	88.56
383.986	88.56
384.211	104.56
384.436	86.56
384.662	88.56
384.887	103.56
385.112	97.56
385.337	103.56
385.562	102.56
385.787	99.56
386.013	94.56
386.238	105.56
386.463	90.56
386.688	96.56
386.913	94.56
387.138	104.56
387.363	101.56
387.588	92.56
387.813	99.56
388.038	91.56
388.263	99.56
388.488	99.56
388.713	101.56
388.938	96.56
389.163	93.56
389.387	97.56
389.612	99.56
389.837	93.56
390.062	83.56
390.287	83.56
390.512	83.56
390.736	96.56
390.961	96.56
391.186	92.56
391.411	91.56
391.636	93.56
391.86	84.56
392.085	89.56
392.31	70.56
392.534	76.56
392.759	83.56
392.984	81.56
393.208	81.56
393.433	91.56
393.658	91.56
393.882	70.56
394.107	73.56
394.331	77.56
394.556	75.56
394.78	75.56
395.005	92.56
395.229	79.56
395.454	96.56
395.678	74.56
395.903	78.56
396.127	92.56
396.352	93.56
396.576	82.56
396.801	74.56
397.025	95.56
397.249	88.56
397.474	98.56
397.698	85.56
397.922	86.56
398.147	87.56
398.371	88.56
398.595	97.56
398.82	84.56
399.044	74.56
399.268	91.56
399.492	79.56
399.717	80.56
399.941	72.56
400.165	93.56
400.389	88.56
400.613	101.56
400.837	95.56
401.062	78.56
401.286	87.56
401.51	82.56
401.734	76.56
401.958	99.56
402.182	113.56
402.406	140.56
402.63	103.56
402.854	95.56
403.078	82.56
403.302	97.56
403.526	84.56
403.75	80.56
403.974	99.56
404.198	83.56
404.422	77.56
404.645	103.56
404.869	85.56
405.093	100.56
405.317	91.56
405.541	92.56
405.765	82.56
405.988	106.56
406.212	156.56
406.436	202.56
406.66	134.56
406.883	87.56
407.107	79.56
407.331	97.56
407.555	107.56
407.778	100.56
408.002	78.56
408.226	93.56
408.449	85.56
408.673	98.56
408.896	81.56
409.12	96.56
409.344	78.56
409.567	89.56
409.791	83.56
410.014	91.56
410.238	90.56
410.461	91.56
410.685	88.56
410.908	103.56
411.132	88.56
411.355	78.56
411.578	80.56
411.802	76.56
412.025	82.56
412.249	73.56
412.472	74.56
412.695	86.56
412.919	89.56
413.142	91.56
413.365	80.56
413.589	86.56
413.812	74.56
414.035	89.56
414.258	94.56
414.482	89.56
414.705	90.56
414.928	79.56
415.151	103.56
415.374	79.56
415.597	99.56
415.821	78.56
416.044	76.56
416.267	86.56
416.49	101.56
416.713	75.56
416.936	82.56
417.159	86.56
417.382	86.56
417.605	75.56
417.828	86.56
418.051	84.56
418.274	106.56
418.497	67.56
418.72	76.56
418.943	82.56
419.166	82.56
419.389	73.56
419.611	85.56
419.834	96.56
420.057	82.56
420.28	77.56
420.503	75.56
420.726	73.56
420.948	87.56
421.171	83.56
421.394	76.56
421.617	94.56
421.839	75.56
422.062	67.56
422.285	82.56
422.507	101.56
422.73	94.56
422.953	81.56
423.175	88.56
423.398	86.56
423.621	91.56
423.843	83.56
424.066	92.56
424.288	86.56
424.511	89.56
424.733	87.56
424.956	90.56
425.178	98.56
425.401	81.56
425.623	96.56
425.846	78.56
426.068	68.56
426.291	83.56
426.513	63.56
426.735	80.56
426.958	86.56
427.18	103.56
427.402	112.56
427.625	152.56
427.847	128.56
428.069	108.56
428.292	87.56
428.514	80.56
428.736	84.56
428.958	71.56
429.181	78.56
429.403	80.56
429.625	84.56
429.847	86.56
430.069	92.56
430.292	90.56
430.514	77.56
430.736	71.56
430.958	75.56
431.18	82.56
431.402	87.56
431.624	89.56
431.846	81.56
432.068	81.56
432.29	77.56
432.512	79.56
432.734	96.56
432.956	76.56
433.178	87.56
433.4	89.56
433.622	88.56
433.844	94.56
434.066	93.56
434.287	81.56
434.509	70.56
434.731	80.56
434.953	87.56
435.175	77.56
435.397	88.56
435.618	84.56
435.84	99.56
436.062	109.56
436.284	98.56
436.505	94.56
436.727	89.56
436.949	85.56
437.17	86.56
437.392	88.56
437.614	92.56
437.835	105.56
438.057	115.56
438.278	110.56
438.5	98.56
438.721	105.56
438.943	100.56
439.165	79.56
439.386	85.56
439.608	87.56
439.829	81.56
440.05	92.56
440.272	115.56
440.493	89.56
440.715	83.56
440.936	84.56
441.158	84.56
441.379	74.56
441.6	99.56
441.822	91.56
442.043	105.56
442.264	70.56
442.486	107.56
442.707	95.56
442.928	93.56
443.149	122.56
443.371	118.56
443.592	86.56
443.813	103.56
444.034	76.56
444.255	87.56
444.476	81.56
444.698	86.56
444.919	86.56
445.14	111.56
445.361	114.56
445.582	102.56
445.803	113.56
446.024	118.56
446.245	117.56
446.466	114.56
446.687	86.56
446.908	83.56
447.129	97.56
447.35	99.56
447.571	79.56
447.792	87.56
448.013	87.56
448.234	89.56
448.455	95.56
448.675	113.56
448.896	108.56
449.117	86.56
449.338	88.56
449.559	106.56
449.779	107.56
450	83.56
450.221	79.56
450.442	84.56
450.662	96.56
450.883	105.56
451.104	98.56
451.324	82.56
451.545	83.56
451.766	93.56
451.986	91.56
452.207	82.56
452.428	79.56
452.648	93.56
452.869	101.56
453.089	112.56
453.31	116.56
453.53	70.56
453.751	82.56
453.971	85.56
454.192	105.56
454.412	98.56
454.633	95.56
454.853	71.56
455.073	86.56
455.294	94.56
455.514	102.56
455.734	86.56
455.955	85.56
456.175	83.56
456.395	78.56
456.616	73.56
456.836	90.56
457.056	85.56
457.276	85.56
457.497	73.56
457.717	91.56
457.937	87.56
458.157	79.56
458.377	93.56
458.598	101.56
458.818	122.56
459.038	141.56
459.258	114.56
459.478	74.56
459.698	87.56
459.918	81.56
460.138	79.56
460.358	79.56
460.578	76.56
460.798	71.56
461.018	74.56
461.238	98.56
461.458	77.56
461.678	85.56
461.898	76.56
462.118	88.56
462.338	82.56
462.558	90.56
462.777	79.56
462.997	86.56
463.217	87.56
463.437	105.56
463.657	72.56
463.876	89.56
464.096	70.56
464.316	91.56
464.536	101.56
464.755	83.56
464.975	90.56
465.195	147.56
465.414	146.56
465.634	79.56
465.854	76.56
466.073	66.56
466.293	76.56
466.512	70.56
466.732	91.56
466.951	90.56
467.171	87.56
467.391	83.56
467.61	98.56
467.829	107.56
468.049	108.56
468.268	116.56
468.488	90.56
468.707	94.56
468.927	84.56
469.146	80.56
469.365	97.56
469.585	95.56
469.804	66.56
470.023	98.56
470.243	72.56
470.462	98.56
470.681	106.56
470.901	81.56
471.12	94.56
471.339	65.56
471.558	79.56
471.777	79.56
471.997	92.56
472.216	127.56
472.435	190.56
472.654	104.56
472.873	84.56
473.092	80.56
473.311	82.56
473.53	90.56
473.749	74.56
473.968	74.56
474.187	103.56
474.406	87.56
474.625	79.56
474.844	84.56
475.063	88.56
475.282	94.56
475.501	81.56
475.72	91.56
475.939	78.56
476.158	79.56
476.377	59.56
476.596	87.56
476.814	82.56
477.033	95.56
477.252	80.56
477.471	96.56
477.69	87.56
477.908	80.56
478.127	91.56
478.346	80.56
478.564	80.56
478.783	96.56
479.002	81.56
479.22	93.56
479.439	80.56
479.658	85.56
479.876	94.56
480.095	75.56
480.313	83.56
480.532	77.56
480.751	89.56
480.969	129.56
481.188	296.56
481.406	196.56
481.624	95.56
481.843	76.56
482.061	81.56
482.28	83.56
482.498	83.56
482.717	81.56
482.935	89.56
483.153	95.56
483.372	87.56
483.59	96.56
483.808	82.56
484.027	64.56
484.245	88.56
484.463	89.56
484.681	88.56
484.9	88.56
485.118	106.56
485.336	87.56
485.554	76.56
485.772	86.56
485.99	105.56
486.209	94.56
486.427	93.56
486.645	97.56
486.863	110.56
487.081	91.56
487.299	97.56
487.517	88.56
487.735	95.56
487.953	91.56
488.171	90.56
488.389	83.56
488.607	90.56
488.825	85.56
489.043	85.56
489.261	85.56
489.479	80.56
489.696	81.56
489.914	86.56
490.132	89.56
490.35	97.56
490.568	87.56
490.786	73.56
491.003	91.56
491.221	91.56
491.439	81.56
491.657	79.56
491.874	97.56
492.092	106.56
492.31	88.56
492.527	86.56
492.745	91.56
492.963	89.56
493.18	76.56
493.398	85.56
493.615	100.56
493.833	90.56
494.05	79.56
494.268	74.56
494.485	101.56
494.703	82.56
494.92	87.56
495.138	82.56
495.355	76.56
495.573	96.56
495.79	86.56
496.008	106.56
496.225	93.56
496.442	94.56
496.66	89.56
496.877	78.56
497.094	95.56
497.312	94.56
497.529	91.56
497.746	98.56
497.963	84.56
498.181	89.56
498.398	86.56
498.615	90.56
498.832	86.56
499.049	82.56
499.267	72.56
499.484	85.56
499.701	103.56
499.918	81.56
500.135	82.56
500.352	98.56
500.569	78.56
500.786	90.56
501.003	86.56
501.22	82.56
501.437	101.56
501.654	93.56
501.871	92.56
502.088	84.56
502.305	90.56
502.522	89.56
502.739	76.56
502.956	80.56
503.172	73.56
503.389	93.56
503.606	102.56
503.823	93.56
504.04	79.56
504.256	75.56
504.473	81.56
504.69	86.56
504.907	80.56
505.123	72.56
505.34	79.56
505.557	86.56
505.773	86.56
505.99	63.56
506.207	67.56
506.423	83.56
506.64	86.56
506.856	90.56
507.073	98.56
507.289	96.56
507.506	83.56
507.722	95.56
507.939	104.56
508.155	92.56
508.372	97.56
508.588	88.56
508.805	94.56
509.021	98.56
509.238	89.56
509.454	96.56
509.67	88.56
509.887	94.56
510.103	129.56
510.319	190.56
510.536	684.56
510.752	2300.56
510.968	652.56
511.184	146.56
511.401	105.56
511.617	98.56
511.833	92.56
512.049	91.56
512.265	86.56
512.481	87.56
512.698	78.56
512.914	75.56
513.13	85.56
513.346	75.56
513.562	87.56
513.778	98.56
513.994	80.56
514.21	96.56
514.426	113.56
514.642	139.56
514.858	120.56
515.074	145.56
515.29	409.56
515.506	1339.56
515.721	511.56
515.937	146.56
516.153	102.56
516.369	79.56
516.585	84.56
516.801	88.56
517.016	95.56
517.232	98.56
517.448	93.56
