Data from Circ_2012_H10_HRD10591_00070.txt Node
Date: Wed Jan 03 10:06:04 EST 2024
User: Yrep
Spectrometer: HR+D1059
Trigger mode: 1
Integration Time (sec): 1.000000E-1
Scans to average: 1
Electric dark correction enabled: true
Nonlinearity correction enabled: false
Boxcar width: 0
XAxis mode: Wavelengths
Number of Pixels in Spectrum: 2048
>>>>>Begin Spectral Data<<<<<
223.165	-26.81
223.4	-26.81
223.635	-26.81
223.869	-11.81
224.104	-19.81
224.338	-18.81
224.573	-26.81
224.808	-2.81
225.042	0.19
225.277	3.19
225.511	-6.81
225.746	-2.81
225.98	17.19
226.215	2.19
226.449	11.19
226.683	29.19
226.918	21.19
227.152	32.19
227.387	27.19
227.621	44.19
227.856	45.19
228.09	48.19
228.324	63.19
228.559	56.19
228.793	72.19
229.027	61.19
229.262	68.19
229.496	79.19
229.73	88.19
229.964	83.19
230.199	74.19
230.433	83.19
230.667	67.19
230.901	74.19
231.136	80.19
231.37	91.19
231.604	75.19
231.838	91.19
232.072	78.19
232.306	72.19
232.541	85.19
232.775	84.19
233.009	78.19
233.243	75.19
233.477	74.19
233.711	70.19
233.945	92.19
234.179	73.19
234.413	71.19
234.647	69.19
234.881	71.19
235.115	70.19
235.349	73.19
235.583	82.19
235.817	64.19
236.051	73.19
236.285	89.19
236.519	81.19
236.753	70.19
236.987	83.19
237.221	71.19
237.455	75.19
237.689	72.19
237.922	61.19
238.156	74.19
238.39	87.19
238.624	67.19
238.858	78.19
239.091	80.19
239.325	68.19
239.559	81.19
239.793	74.19
240.027	71.19
240.26	64.19
240.494	83.19
240.728	74.19
240.961	69.19
241.195	80.19
241.429	77.19
241.662	74.19
241.896	80.19
242.13	76.19
242.363	76.19
242.597	84.19
242.83	67.19
243.064	76.19
243.298	90.19
243.531	83.19
243.765	74.19
243.998	78.19
244.232	86.19
244.465	72.19
244.699	77.19
244.932	91.19
245.166	79.19
245.399	87.19
245.633	76.19
245.866	80.19
246.099	75.19
246.333	88.19
246.566	67.19
246.8	80.19
247.033	86.19
247.266	71.19
247.5	82.19
247.733	79.19
247.966	94.19
248.2	82.19
248.433	76.19
248.666	80.19
248.899	93.19
249.133	77.19
249.366	82.19
249.599	96.19
249.832	83.19
250.066	66.19
250.299	73.19
250.532	88.19
250.765	74.19
250.998	79.19
251.231	71.19
251.465	86.19
251.698	81.19
251.931	87.19
252.164	83.19
252.397	79.19
252.63	76.19
252.863	81.19
253.096	87.19
253.329	75.19
253.562	86.19
253.795	89.19
254.028	86.19
254.261	79.19
254.494	87.19
254.727	76.19
254.96	69.19
255.193	74.19
255.426	76.19
255.659	77.19
255.892	77.19
256.124	73.19
256.357	83.19
256.59	72.19
256.823	77.19
257.056	70.19
257.289	85.19
257.521	72.19
257.754	69.19
257.987	78.19
258.22	80.19
258.452	81.19
258.685	78.19
258.918	80.19
259.151	71.19
259.383	75.19
259.616	73.19
259.849	92.19
260.081	84.19
260.314	68.19
260.547	87.19
260.779	91.19
261.012	89.19
261.244	80.19
261.477	78.19
261.71	78.19
261.942	116.19
262.175	109.19
262.407	88.19
262.64	77.19
262.872	81.19
263.105	82.19
263.337	87.19
263.57	74.19
263.802	81.19
264.035	92.19
264.267	81.19
264.499	80.19
264.732	91.19
264.964	87.19
265.197	75.19
265.429	77.19
265.661	90.19
265.894	85.19
266.126	84.19
266.358	86.19
266.591	74.19
266.823	107.19
267.055	99.19
267.287	78.19
267.52	87.19
267.752	85.19
267.984	72.19
268.216	84.19
268.448	79.19
268.681	79.19
268.913	79.19
269.145	84.19
269.377	78.19
269.609	85.19
269.841	80.19
270.073	83.19
270.306	79.19
270.538	94.19
270.77	75.19
271.002	85.19
271.234	81.19
271.466	85.19
271.698	87.19
271.93	89.19
272.162	95.19
272.394	77.19
272.626	75.19
272.858	82.19
273.09	73.19
273.322	80.19
273.553	76.19
273.785	88.19
274.017	90.19
274.249	89.19
274.481	60.19
274.713	89.19
274.945	73.19
275.176	86.19
275.408	90.19
275.64	93.19
275.872	85.19
276.104	90.19
276.335	77.19
276.567	103.19
276.799	96.19
277.031	90.19
277.262	81.19
277.494	84.19
277.726	93.19
277.957	99.19
278.189	93.19
278.421	81.19
278.652	77.19
278.884	83.19
279.115	75.19
279.347	85.19
279.579	100.19
279.81	91.19
280.042	95.19
280.273	90.19
280.505	94.19
280.736	86.19
280.968	77.19
281.199	93.19
281.431	84.19
281.662	84.19
281.894	79.19
282.125	107.19
282.356	123.19
282.588	135.19
282.819	110.19
283.051	87.19
283.282	89.19
283.513	77.19
283.745	87.19
283.976	83.19
284.207	84.19
284.439	64.19
284.67	85.19
284.901	82.19
285.132	94.19
285.364	84.19
285.595	72.19
285.826	84.19
286.057	87.19
286.288	81.19
286.52	87.19
286.751	75.19
286.982	79.19
287.213	65.19
287.444	89.19
287.675	101.19
287.906	90.19
288.138	87.19
288.369	81.19
288.6	96.19
288.831	84.19
289.062	87.19
289.293	88.19
289.524	84.19
289.755	83.19
289.986	88.19
290.217	73.19
290.448	69.19
290.679	91.19
290.91	81.19
291.141	84.19
291.371	89.19
291.602	86.19
291.833	86.19
292.064	81.19
292.295	80.19
292.526	93.19
292.757	90.19
292.987	91.19
293.218	95.19
293.449	96.19
293.68	84.19
293.91	77.19
294.141	89.19
294.372	78.19
294.603	89.19
294.833	87.19
295.064	94.19
295.295	98.19
295.525	107.19
295.756	90.19
295.987	114.19
296.217	132.19
296.448	120.19
296.679	94.19
296.909	85.19
297.14	87.19
297.37	97.19
297.601	85.19
297.831	93.19
298.062	90.19
298.292	74.19
298.523	100.19
298.753	83.19
298.984	85.19
299.214	88.19
299.445	88.19
299.675	82.19
299.905	86.19
300.136	81.19
300.366	87.19
300.597	81.19
300.827	93.19
301.057	96.19
301.288	82.19
301.518	94.19
301.748	93.19
301.979	96.19
302.209	103.19
302.439	88.19
302.669	87.19
302.9	98.19
303.13	87.19
303.36	91.19
303.59	95.19
303.82	103.19
304.051	96.19
304.281	74.19
304.511	87.19
304.741	103.19
304.971	80.19
305.201	94.19
305.431	87.19
305.661	82.19
305.891	78.19
306.121	103.19
306.352	95.19
306.582	107.19
306.812	90.19
307.042	97.19
307.272	95.19
307.502	87.19
307.731	97.19
307.961	90.19
308.191	88.19
308.421	100.19
308.651	92.19
308.881	73.19
309.111	100.19
309.341	97.19
309.571	84.19
309.8	85.19
310.03	96.19
310.26	98.19
310.49	94.19
310.72	95.19
310.949	104.19
311.179	109.19
311.409	91.19
311.639	102.19
311.868	107.19
312.098	93.19
312.328	103.19
312.557	103.19
312.787	106.19
313.017	88.19
313.246	95.19
313.476	82.19
313.706	92.19
313.935	106.19
314.165	85.19
314.394	83.19
314.624	81.19
314.853	76.19
315.083	96.19
315.312	80.19
315.542	97.19
315.771	93.19
316.001	95.19
316.23	95.19
316.46	84.19
316.689	81.19
316.919	93.19
317.148	106.19
317.377	105.19
317.607	87.19
317.836	99.19
318.065	85.19
318.295	87.19
318.524	93.19
318.753	103.19
318.983	96.19
319.212	110.19
319.441	114.19
319.67	121.19
319.9	88.19
320.129	96.19
320.358	107.19
320.587	92.19
320.816	101.19
321.046	99.19
321.275	108.19
321.504	92.19
321.733	92.19
321.962	95.19
322.191	105.19
322.42	89.19
322.649	117.19
322.878	116.19
323.108	119.19
323.337	119.19
323.566	138.19
323.795	142.19
324.024	183.19
324.253	365.19
324.482	752.19
324.71	1483.19
324.939	1975.19
325.168	736.19
325.397	222.19
325.626	140.19
325.855	125.19
326.084	110.19
326.313	120.19
326.542	151.19
326.77	213.19
326.999	431.19
327.228	845.19
327.457	1476.19
327.686	1155.19
327.914	330.19
328.143	202.19
328.372	157.19
328.6	139.19
328.829	117.19
329.058	122.19
329.287	133.19
329.515	100.19
329.744	89.19
329.972	111.19
330.201	132.19
330.43	151.19
330.658	147.19
330.887	133.19
331.115	108.19
331.344	94.19
331.572	92.19
331.801	97.19
332.03	112.19
332.258	87.19
332.486	97.19
332.715	93.19
332.943	111.19
333.172	101.19
333.4	90.19
333.629	103.19
333.857	118.19
334.085	127.19
334.314	136.19
334.542	172.19
334.771	170.19
334.999	121.19
335.227	100.19
335.455	91.19
335.684	87.19
335.912	96.19
336.14	90.19
336.369	100.19
336.597	100.19
336.825	93.19
337.053	88.19
337.281	91.19
337.51	83.19
337.738	104.19
337.966	103.19
338.194	97.19
338.422	111.19
338.65	99.19
338.878	95.19
339.106	80.19
339.334	79.19
339.562	83.19
339.79	93.19
340.018	67.19
340.246	87.19
340.474	96.19
340.702	96.19
340.93	91.19
341.158	90.19
341.386	84.19
341.614	104.19
341.842	87.19
342.07	100.19
342.298	98.19
342.526	86.19
342.754	100.19
342.981	86.19
343.209	102.19
343.437	91.19
343.665	105.19
343.893	95.19
344.12	97.19
344.348	86.19
344.576	98.19
344.804	95.19
345.031	88.19
345.259	89.19
345.487	97.19
345.714	91.19
345.942	86.19
346.17	95.19
346.397	87.19
346.625	81.19
346.853	104.19
347.08	99.19
347.308	93.19
347.535	91.19
347.763	107.19
347.99	97.19
348.218	93.19
348.445	104.19
348.673	106.19
348.9	97.19
349.128	100.19
349.355	67.19
349.583	87.19
349.81	87.19
350.037	112.19
350.265	84.19
350.492	91.19
350.72	94.19
350.947	97.19
351.174	93.19
351.402	113.19
351.629	99.19
351.856	82.19
352.083	90.19
352.311	102.19
352.538	110.19
352.765	106.19
352.992	109.19
353.22	113.19
353.447	103.19
353.674	97.19
353.901	97.19
354.128	107.19
354.355	89.19
354.583	100.19
354.81	98.19
355.037	94.19
355.264	90.19
355.491	74.19
355.718	78.19
355.945	88.19
356.172	86.19
356.399	84.19
356.626	83.19
356.853	92.19
357.08	90.19
357.307	92.19
357.534	91.19
357.761	100.19
357.988	101.19
358.215	92.19
358.441	87.19
358.668	80.19
358.895	87.19
359.122	85.19
359.349	86.19
359.576	101.19
359.802	104.19
360.029	112.19
360.256	111.19
360.483	87.19
360.709	76.19
360.936	100.19
361.163	87.19
361.39	97.19
361.616	97.19
361.843	95.19
362.07	85.19
362.296	99.19
362.523	91.19
362.749	85.19
362.976	88.19
363.203	100.19
363.429	91.19
363.656	82.19
363.882	85.19
364.109	88.19
364.335	100.19
364.562	94.19
364.788	85.19
365.015	95.19
365.241	108.19
365.468	109.19
365.694	104.19
365.92	106.19
366.147	92.19
366.373	96.19
366.599	81.19
366.826	72.19
367.052	97.19
367.278	80.19
367.505	78.19
367.731	77.19
367.957	83.19
368.184	91.19
368.41	97.19
368.636	97.19
368.862	107.19
369.089	106.19
369.315	87.19
369.541	101.19
369.767	89.19
369.993	99.19
370.219	84.19
370.445	92.19
370.672	89.19
370.898	84.19
371.124	81.19
371.35	91.19
371.576	96.19
371.802	91.19
372.028	86.19
372.254	80.19
372.48	87.19
372.706	82.19
372.932	87.19
373.158	99.19
373.384	98.19
373.61	85.19
373.835	88.19
374.061	99.19
374.287	90.19
374.513	80.19
374.739	89.19
374.965	90.19
375.191	73.19
375.416	95.19
375.642	87.19
375.868	71.19
376.094	76.19
376.319	92.19
376.545	100.19
376.771	87.19
376.997	81.19
377.222	85.19
377.448	85.19
377.674	85.19
377.899	86.19
378.125	80.19
378.35	84.19
378.576	78.19
378.802	87.19
379.027	83.19
379.253	85.19
379.478	88.19
379.704	89.19
379.929	95.19
380.155	81.19
380.38	95.19
380.606	96.19
380.831	95.19
381.057	100.19
381.282	90.19
381.507	101.19
381.733	112.19
381.958	92.19
382.184	98.19
382.409	98.19
382.634	104.19
382.86	99.19
383.085	113.19
383.31	106.19
383.535	90.19
383.761	95.19
383.986	91.19
384.211	102.19
384.436	108.19
384.662	103.19
384.887	97.19
385.112	106.19
385.337	97.19
385.562	101.19
385.787	94.19
386.013	104.19
386.238	109.19
386.463	116.19
386.688	103.19
386.913	102.19
387.138	89.19
387.363	100.19
387.588	100.19
387.813	118.19
388.038	91.19
388.263	103.19
388.488	94.19
388.713	106.19
388.938	102.19
389.163	106.19
389.387	88.19
389.612	98.19
389.837	91.19
390.062	102.19
390.287	88.19
390.512	90.19
390.736	95.19
390.961	88.19
391.186	84.19
391.411	104.19
391.636	88.19
391.86	93.19
392.085	94.19
392.31	76.19
392.534	81.19
392.759	85.19
392.984	83.19
393.208	88.19
393.433	96.19
393.658	85.19
393.882	91.19
394.107	88.19
394.331	103.19
394.556	97.19
394.78	91.19
395.005	84.19
395.229	84.19
395.454	89.19
395.678	85.19
395.903	86.19
396.127	88.19
396.352	99.19
396.576	91.19
396.801	89.19
397.025	85.19
397.249	82.19
397.474	78.19
397.698	102.19
397.922	94.19
398.147	84.19
398.371	68.19
398.595	87.19
398.82	93.19
399.044	93.19
399.268	75.19
399.492	84.19
399.717	98.19
399.941	89.19
400.165	80.19
400.389	97.19
400.613	93.19
400.837	81.19
401.062	78.19
401.286	93.19
401.51	82.19
401.734	103.19
401.958	103.19
402.182	131.19
402.406	156.19
402.63	112.19
402.854	97.19
403.078	89.19
403.302	104.19
403.526	83.19
403.75	100.19
403.974	70.19
404.198	95.19
404.422	82.19
404.645	106.19
404.869	92.19
405.093	87.19
405.317	97.19
405.541	96.19
405.765	99.19
405.988	115.19
406.212	185.19
406.436	219.19
406.66	148.19
406.883	97.19
407.107	92.19
407.331	81.19
407.555	98.19
407.778	93.19
408.002	93.19
408.226	88.19
408.449	81.19
408.673	84.19
408.896	101.19
409.12	94.19
409.344	81.19
409.567	82.19
409.791	94.19
410.014	92.19
410.238	92.19
410.461	99.19
410.685	99.19
410.908	82.19
411.132	102.19
411.355	97.19
411.578	74.19
411.802	98.19
412.025	86.19
412.249	95.19
412.472	93.19
412.695	94.19
412.919	89.19
413.142	85.19
413.365	88.19
413.589	86.19
413.812	88.19
414.035	100.19
414.258	94.19
414.482	77.19
414.705	85.19
414.928	91.19
415.151	89.19
415.374	100.19
415.597	96.19
415.821	96.19
416.044	89.19
416.267	87.19
416.49	99.19
416.713	83.19
416.936	84.19
417.159	97.19
417.382	89.19
417.605	86.19
417.828	100.19
418.051	102.19
418.274	89.19
418.497	93.19
418.72	89.19
418.943	83.19
419.166	79.19
419.389	81.19
419.611	84.19
419.834	88.19
420.057	92.19
420.28	81.19
420.503	78.19
420.726	96.19
420.948	99.19
421.171	94.19
421.394	96.19
421.617	92.19
421.839	81.19
422.062	87.19
422.285	87.19
422.507	89.19
422.73	93.19
422.953	96.19
423.175	80.19
423.398	101.19
423.621	91.19
423.843	94.19
424.066	90.19
424.288	89.19
424.511	101.19
424.733	108.19
424.956	100.19
425.178	88.19
425.401	90.19
425.623	104.19
425.846	102.19
426.068	93.19
426.291	94.19
426.513	97.19
426.735	80.19
426.958	92.19
427.18	103.19
427.402	129.19
427.625	153.19
427.847	129.19
428.069	112.19
428.292	98.19
428.514	70.19
428.736	84.19
428.958	86.19
429.181	96.19
429.403	91.19
429.625	103.19
429.847	91.19
430.069	85.19
430.292	100.19
430.514	97.19
430.736	83.19
430.958	91.19
431.18	103.19
431.402	91.19
431.624	86.19
431.846	87.19
432.068	79.19
432.29	77.19
432.512	73.19
432.734	76.19
432.956	84.19
433.178	108.19
433.4	97.19
433.622	90.19
433.844	85.19
434.066	99.19
434.287	81.19
434.509	92.19
434.731	76.19
434.953	91.19
435.175	88.19
435.397	87.19
435.618	104.19
435.84	102.19
436.062	104.19
436.284	116.19
436.505	103.19
436.727	95.19
436.949	91.19
437.17	91.19
437.392	85.19
437.614	85.19
437.835	109.19
438.057	122.19
438.278	99.19
438.5	101.19
438.721	108.19
438.943	96.19
439.165	82.19
439.386	89.19
439.608	84.19
439.829	103.19
440.05	122.19
440.272	114.19
440.493	91.19
440.715	90.19
440.936	93.19
441.158	92.19
441.379	85.19
441.6	119.19
441.822	82.19
442.043	101.19
442.264	89.19
442.486	111.19
442.707	99.19
442.928	90.19
443.149	126.19
443.371	118.19
443.592	119.19
443.813	103.19
444.034	102.19
444.255	89.19
444.476	89.19
444.698	88.19
444.919	100.19
445.14	119.19
445.361	131.19
445.582	108.19
445.803	129.19
446.024	134.19
446.245	116.19
446.466	102.19
446.687	83.19
446.908	83.19
447.129	94.19
447.35	87.19
447.571	95.19
447.792	93.19
448.013	107.19
448.234	102.19
448.455	87.19
448.675	96.19
448.896	123.19
449.117	81.19
449.338	96.19
449.559	125.19
449.779	134.19
450	95.19
450.221	90.19
450.442	95.19
450.662	88.19
450.883	106.19
451.104	104.19
451.324	64.19
451.545	89.19
451.766	75.19
451.986	87.19
452.207	91.19
452.428	100.19
452.648	101.19
452.869	112.19
453.089	119.19
453.31	106.19
453.53	92.19
453.751	98.19
453.971	99.19
454.192	106.19
454.412	86.19
454.633	100.19
454.853	94.19
455.073	87.19
455.294	102.19
455.514	87.19
455.734	75.19
455.955	76.19
456.175	95.19
456.395	93.19
456.616	84.19
456.836	70.19
457.056	101.19
457.276	85.19
457.497	81.19
457.717	82.19
457.937	90.19
458.157	81.19
458.377	92.19
458.598	105.19
458.818	128.19
459.038	141.19
459.258	119.19
459.478	94.19
459.698	80.19
459.918	88.19
460.138	85.19
460.358	84.19
460.578	70.19
460.798	70.19
461.018	83.19
461.238	78.19
461.458	85.19
461.678	75.19
461.898	87.19
462.118	88.19
462.338	81.19
462.558	96.19
462.777	88.19
462.997	77.19
463.217	98.19
463.437	100.19
463.657	93.19
463.876	106.19
464.096	74.19
464.316	91.19
464.536	77.19
464.755	92.19
464.975	101.19
465.195	141.19
465.414	155.19
465.634	91.19
465.854	96.19
466.073	85.19
466.293	79.19
466.512	98.19
466.732	87.19
466.951	101.19
467.171	96.19
467.391	89.19
467.61	98.19
467.829	107.19
468.049	115.19
468.268	111.19
468.488	94.19
468.707	81.19
468.927	68.19
469.146	76.19
469.365	73.19
469.585	90.19
469.804	97.19
470.023	99.19
470.243	88.19
470.462	104.19
470.681	92.19
470.901	97.19
471.12	100.19
471.339	80.19
471.558	83.19
471.777	95.19
471.997	93.19
472.216	144.19
472.435	197.19
472.654	119.19
472.873	91.19
473.092	96.19
473.311	95.19
473.53	89.19
473.749	111.19
473.968	93.19
474.187	83.19
474.406	92.19
474.625	90.19
474.844	87.19
475.063	71.19
475.282	103.19
475.501	79.19
475.72	77.19
475.939	80.19
476.158	78.19
476.377	97.19
476.596	86.19
476.814	90.19
477.033	89.19
477.252	87.19
477.471	77.19
477.69	85.19
477.908	74.19
478.127	89.19
478.346	84.19
478.564	86.19
478.783	113.19
479.002	86.19
479.22	88.19
479.439	97.19
479.658	121.19
479.876	100.19
480.095	88.19
480.313	91.19
480.532	107.19
480.751	96.19
480.969	140.19
481.188	292.19
481.406	209.19
481.624	111.19
481.843	88.19
482.061	97.19
482.28	99.19
482.498	90.19
482.717	104.19
482.935	73.19
483.153	93.19
483.372	102.19
483.59	83.19
483.808	82.19
484.027	97.19
484.245	93.19
484.463	102.19
484.681	95.19
484.9	95.19
485.118	93.19
485.336	80.19
485.554	96.19
485.772	85.19
485.99	87.19
486.209	105.19
486.427	87.19
486.645	116.19
486.863	106.19
487.081	107.19
487.299	99.19
487.517	89.19
487.735	104.19
487.953	96.19
488.171	93.19
488.389	97.19
488.607	95.19
488.825	106.19
489.043	94.19
489.261	74.19
489.479	97.19
489.696	91.19
489.914	91.19
490.132	87.19
490.35	90.19
490.568	88.19
490.786	86.19
491.003	88.19
491.221	84.19
491.439	84.19
491.657	85.19
491.874	89.19
492.092	86.19
492.31	102.19
492.527	87.19
492.745	86.19
492.963	89.19
493.18	89.19
493.398	106.19
493.615	87.19
493.833	95.19
494.05	85.19
494.268	73.19
494.485	88.19
494.703	86.19
494.92	96.19
495.138	102.19
495.355	89.19
495.573	85.19
495.79	88.19
496.008	83.19
496.225	99.19
496.442	87.19
496.66	93.19
496.877	104.19
497.094	79.19
497.312	79.19
497.529	90.19
497.746	85.19
497.963	92.19
498.181	88.19
498.398	100.19
498.615	102.19
498.832	108.19
499.049	88.19
499.267	95.19
499.484	73.19
499.701	75.19
499.918	80.19
500.135	76.19
500.352	87.19
500.569	87.19
500.786	89.19
501.003	81.19
501.22	105.19
501.437	89.19
501.654	93.19
501.871	110.19
502.088	77.19
502.305	95.19
502.522	79.19
502.739	92.19
502.956	100.19
503.172	92.19
503.389	97.19
503.606	98.19
503.823	99.19
504.04	103.19
504.256	95.19
504.473	85.19
504.69	96.19
504.907	78.19
505.123	85.19
505.34	90.19
505.557	93.19
505.773	80.19
505.99	92.19
506.207	100.19
506.423	81.19
506.64	100.19
506.856	98.19
507.073	92.19
507.289	78.19
507.506	91.19
507.722	105.19
507.939	102.19
508.155	96.19
508.372	93.19
508.588	84.19
508.805	95.19
509.021	79.19
509.238	93.19
509.454	91.19
509.67	97.19
509.887	118.19
510.103	147.19
510.319	216.19
510.536	762.19
510.752	2425.19
510.968	684.19
511.184	157.19
511.401	121.19
511.617	99.19
511.833	98.19
512.049	99.19
512.265	103.19
512.481	100.19
512.698	96.19
512.914	83.19
513.13	99.19
513.346	90.19
513.562	86.19
513.778	96.19
513.994	91.19
514.21	102.19
514.426	112.19
514.642	121.19
514.858	119.19
515.074	150.19
515.29	429.19
515.506	1427.19
515.721	559.19
