Data from Circ_2012_H10_HRD10591_00098.txt Node
Date: Wed Jan 03 10:06:10 EST 2024
User: Yrep
Spectrometer: HR+D1059
Trigger mode: 1
Integration Time (sec): 1.000000E-1
Scans to average: 1
Electric dark correction enabled: true
Nonlinearity correction enabled: false
Boxcar width: 0
XAxis mode: Wavelengths
Number of Pixels in Spectrum: 2048
>>>>>Begin Spectral Data<<<<<
223.165	-10.06
223.4	-10.06
223.635	-10.06
223.869	-19.06
224.104	-15.06
224.338	-9.06
224.573	-15.06
224.808	-23.06
225.042	-5.06
225.277	-8.06
225.511	-3.06
225.746	-9.06
225.98	7.94
226.215	18.94
226.449	8.94
226.683	22.94
226.918	28.94
227.152	28.94
227.387	47.94
227.621	34.94
227.856	44.94
228.09	54.94
228.324	62.94
228.559	44.94
228.793	54.94
229.027	58.94
229.262	79.94
229.496	73.94
229.73	71.94
229.964	80.94
230.199	78.94
230.433	70.94
230.667	92.94
230.901	70.94
231.136	82.94
231.37	78.94
231.604	84.94
231.838	66.94
232.072	99.94
232.306	70.94
232.541	80.94
232.775	78.94
233.009	81.94
233.243	63.94
233.477	83.94
233.711	68.94
233.945	75.94
234.179	83.94
234.413	76.94
234.647	84.94
234.881	78.94
235.115	76.94
235.349	64.94
235.583	76.94
235.817	72.94
236.051	85.94
236.285	85.94
236.519	59.94
236.753	63.94
236.987	65.94
237.221	79.94
237.455	60.94
237.689	76.94
237.922	69.94
238.156	71.94
238.39	68.94
238.624	74.94
238.858	93.94
239.091	79.94
239.325	80.94
239.559	61.94
239.793	70.94
240.027	79.94
240.26	85.94
240.494	80.94
240.728	67.94
240.961	63.94
241.195	70.94
241.429	69.94
241.662	88.94
241.896	75.94
242.13	71.94
242.363	60.94
242.597	79.94
242.83	72.94
243.064	91.94
243.298	74.94
243.531	67.94
243.765	75.94
243.998	75.94
244.232	88.94
244.465	86.94
244.699	77.94
244.932	66.94
245.166	83.94
245.399	79.94
245.633	80.94
245.866	87.94
246.099	62.94
246.333	84.94
246.566	82.94
246.8	63.94
247.033	78.94
247.266	74.94
247.5	72.94
247.733	73.94
247.966	79.94
248.2	79.94
248.433	91.94
248.666	69.94
248.899	79.94
249.133	88.94
249.366	97.94
249.599	95.94
249.832	74.94
250.066	86.94
250.299	77.94
250.532	74.94
250.765	64.94
250.998	66.94
251.231	71.94
251.465	80.94
251.698	78.94
251.931	79.94
252.164	86.94
252.397	74.94
252.63	70.94
252.863	75.94
253.096	76.94
253.329	71.94
253.562	76.94
253.795	90.94
254.028	84.94
254.261	90.94
254.494	85.94
254.727	78.94
254.96	72.94
255.193	79.94
255.426	67.94
255.659	84.94
255.892	84.94
256.124	80.94
256.357	80.94
256.59	86.94
256.823	86.94
257.056	81.94
257.289	82.94
257.521	80.94
257.754	79.94
257.987	78.94
258.22	82.94
258.452	70.94
258.685	82.94
258.918	83.94
259.151	93.94
259.383	76.94
259.616	79.94
259.849	90.94
260.081	81.94
260.314	78.94
260.547	94.94
260.779	78.94
261.012	80.94
261.244	85.94
261.477	101.94
261.71	92.94
261.942	100.94
262.175	111.94
262.407	91.94
262.64	87.94
262.872	77.94
263.105	64.94
263.337	91.94
263.57	94.94
263.802	86.94
264.035	81.94
264.267	76.94
264.499	84.94
264.732	74.94
264.964	98.94
265.197	71.94
265.429	73.94
265.661	73.94
265.894	83.94
266.126	86.94
266.358	82.94
266.591	85.94
266.823	79.94
267.055	76.94
267.287	88.94
267.52	76.94
267.752	74.94
267.984	75.94
268.216	103.94
268.448	92.94
268.681	93.94
268.913	84.94
269.145	95.94
269.377	86.94
269.609	81.94
269.841	106.94
270.073	89.94
270.306	83.94
270.538	86.94
270.77	83.94
271.002	67.94
271.234	76.94
271.466	78.94
271.698	84.94
271.93	73.94
272.162	78.94
272.394	80.94
272.626	70.94
272.858	96.94
273.09	87.94
273.322	81.94
273.553	88.94
273.785	79.94
274.017	80.94
274.249	83.94
274.481	83.94
274.713	86.94
274.945	80.94
275.176	83.94
275.408	79.94
275.64	77.94
275.872	93.94
276.104	92.94
276.335	101.94
276.567	86.94
276.799	100.94
277.031	107.94
277.262	91.94
277.494	87.94
277.726	92.94
277.957	76.94
278.189	79.94
278.421	89.94
278.652	85.94
278.884	77.94
279.115	83.94
279.347	76.94
279.579	100.94
279.81	72.94
280.042	94.94
280.273	106.94
280.505	89.94
280.736	90.94
280.968	80.94
281.199	83.94
281.431	77.94
281.662	84.94
281.894	88.94
282.125	86.94
282.356	109.94
282.588	110.94
282.819	109.94
283.051	98.94
283.282	79.94
283.513	93.94
283.745	82.94
283.976	81.94
284.207	83.94
284.439	83.94
284.67	79.94
284.901	96.94
285.132	82.94
285.364	90.94
285.595	89.94
285.826	95.94
286.057	90.94
286.288	72.94
286.52	79.94
286.751	78.94
286.982	90.94
287.213	77.94
287.444	88.94
287.675	80.94
287.906	89.94
288.138	93.94
288.369	102.94
288.6	80.94
288.831	83.94
289.062	84.94
289.293	90.94
289.524	75.94
289.755	86.94
289.986	82.94
290.217	91.94
290.448	88.94
290.679	80.94
290.91	78.94
291.141	79.94
291.371	81.94
291.602	86.94
291.833	85.94
292.064	84.94
292.295	87.94
292.526	88.94
292.757	91.94
292.987	88.94
293.218	83.94
293.449	83.94
293.68	82.94
293.91	80.94
294.141	101.94
294.372	85.94
294.603	90.94
294.833	99.94
295.064	75.94
295.295	80.94
295.525	99.94
295.756	104.94
295.987	105.94
296.217	108.94
296.448	117.94
296.679	95.94
296.909	83.94
297.14	83.94
297.37	100.94
297.601	81.94
297.831	85.94
298.062	96.94
298.292	94.94
298.523	87.94
298.753	90.94
298.984	87.94
299.214	91.94
299.445	90.94
299.675	93.94
299.905	95.94
300.136	86.94
300.366	92.94
300.597	87.94
300.827	95.94
301.057	94.94
301.288	103.94
301.518	79.94
301.748	87.94
301.979	110.94
302.209	84.94
302.439	95.94
302.669	82.94
302.9	85.94
303.13	90.94
303.36	90.94
303.59	90.94
303.82	84.94
304.051	94.94
304.281	89.94
304.511	107.94
304.741	92.94
304.971	94.94
305.201	101.94
305.431	84.94
305.661	84.94
305.891	94.94
306.121	88.94
306.352	106.94
306.582	102.94
306.812	85.94
307.042	88.94
307.272	93.94
307.502	101.94
307.731	83.94
307.961	92.94
308.191	93.94
308.421	104.94
308.651	97.94
308.881	95.94
309.111	87.94
309.341	94.94
309.571	96.94
309.8	103.94
310.03	88.94
310.26	94.94
310.49	107.94
310.72	95.94
310.949	109.94
311.179	102.94
311.409	85.94
311.639	90.94
311.868	98.94
312.098	108.94
312.328	91.94
312.557	109.94
312.787	92.94
313.017	123.94
313.246	95.94
313.476	93.94
313.706	94.94
313.935	114.94
314.165	88.94
314.394	101.94
314.624	94.94
314.853	76.94
315.083	75.94
315.312	93.94
315.542	82.94
315.771	97.94
316.001	97.94
316.23	91.94
316.46	101.94
316.689	85.94
316.919	90.94
317.148	96.94
317.377	88.94
317.607	91.94
317.836	93.94
318.065	88.94
318.295	71.94
318.524	77.94
318.753	94.94
318.983	87.94
319.212	97.94
319.441	100.94
319.67	115.94
319.9	96.94
320.129	99.94
320.358	81.94
320.587	91.94
320.816	96.94
321.046	97.94
321.275	99.94
321.504	90.94
321.733	97.94
321.962	81.94
322.191	96.94
322.42	93.94
322.649	93.94
322.878	97.94
323.108	115.94
323.337	109.94
323.566	115.94
323.795	150.94
324.024	214.94
324.253	383.94
324.482	804.94
324.71	1642.94
324.939	2081.94
325.168	768.94
325.397	234.94
325.626	144.94
325.855	129.94
326.084	126.94
326.313	118.94
326.542	173.94
326.77	239.94
326.999	457.94
327.228	889.94
327.457	1646.94
327.686	1306.94
327.914	380.94
328.143	211.94
328.372	173.94
328.6	125.94
328.829	96.94
329.058	127.94
329.287	131.94
329.515	111.94
329.744	114.94
329.972	120.94
330.201	148.94
330.43	171.94
330.658	151.94
330.887	129.94
331.115	133.94
331.344	112.94
331.572	99.94
331.801	105.94
332.03	87.94
332.258	86.94
332.486	79.94
332.715	96.94
332.943	99.94
333.172	90.94
333.4	85.94
333.629	112.94
333.857	122.94
334.085	127.94
334.314	157.94
334.542	194.94
334.771	179.94
334.999	106.94
335.227	96.94
335.455	103.94
335.684	101.94
335.912	93.94
336.14	85.94
336.369	88.94
336.597	90.94
336.825	87.94
337.053	98.94
337.281	103.94
337.51	83.94
337.738	85.94
337.966	87.94
338.194	106.94
338.422	94.94
338.65	100.94
338.878	86.94
339.106	80.94
339.334	79.94
339.562	93.94
339.79	101.94
340.018	101.94
340.246	90.94
340.474	94.94
340.702	91.94
340.93	85.94
341.158	93.94
341.386	88.94
341.614	108.94
341.842	92.94
342.07	78.94
342.298	76.94
342.526	78.94
342.754	84.94
342.981	86.94
343.209	84.94
343.437	100.94
343.665	78.94
343.893	92.94
344.12	98.94
344.348	80.94
344.576	81.94
344.804	99.94
345.031	83.94
345.259	92.94
345.487	108.94
345.714	95.94
345.942	77.94
346.17	78.94
346.397	87.94
346.625	104.94
346.853	93.94
347.08	95.94
347.308	97.94
347.535	88.94
347.763	86.94
347.99	95.94
348.218	81.94
348.445	98.94
348.673	86.94
348.9	92.94
349.128	95.94
349.355	96.94
349.583	102.94
349.81	101.94
350.037	103.94
350.265	77.94
350.492	86.94
350.72	106.94
350.947	96.94
351.174	106.94
351.402	101.94
351.629	88.94
351.856	107.94
352.083	88.94
352.311	108.94
352.538	121.94
352.765	103.94
352.992	110.94
353.22	106.94
353.447	102.94
353.674	108.94
353.901	98.94
354.128	105.94
354.355	88.94
354.583	105.94
354.81	105.94
355.037	101.94
355.264	93.94
355.491	101.94
355.718	89.94
355.945	98.94
356.172	93.94
356.399	99.94
356.626	103.94
356.853	92.94
357.08	88.94
357.307	85.94
357.534	87.94
357.761	96.94
357.988	98.94
358.215	100.94
358.441	96.94
358.668	87.94
358.895	77.94
359.122	95.94
359.349	98.94
359.576	79.94
359.802	93.94
360.029	115.94
360.256	107.94
360.483	94.94
360.709	86.94
360.936	100.94
361.163	78.94
361.39	97.94
361.616	102.94
361.843	79.94
362.07	98.94
362.296	82.94
362.523	93.94
362.749	89.94
362.976	77.94
363.203	84.94
363.429	91.94
363.656	86.94
363.882	100.94
364.109	78.94
364.335	95.94
364.562	92.94
364.788	94.94
365.015	91.94
365.241	99.94
365.468	90.94
365.694	98.94
365.92	92.94
366.147	105.94
366.373	79.94
366.599	86.94
366.826	84.94
367.052	92.94
367.278	99.94
367.505	80.94
367.731	93.94
367.957	86.94
368.184	98.94
368.41	96.94
368.636	95.94
368.862	119.94
369.089	106.94
369.315	90.94
369.541	77.94
369.767	85.94
369.993	90.94
370.219	100.94
370.445	96.94
370.672	87.94
370.898	83.94
371.124	86.94
371.35	77.94
371.576	87.94
371.802	95.94
372.028	78.94
372.254	83.94
372.48	81.94
372.706	84.94
372.932	86.94
373.158	87.94
373.384	94.94
373.61	95.94
373.835	91.94
374.061	91.94
374.287	83.94
374.513	79.94
374.739	84.94
374.965	98.94
375.191	88.94
375.416	82.94
375.642	86.94
375.868	101.94
376.094	86.94
376.319	101.94
376.545	92.94
376.771	78.94
376.997	97.94
377.222	88.94
377.448	91.94
377.674	97.94
377.899	84.94
378.125	94.94
378.35	98.94
378.576	91.94
378.802	103.94
379.027	102.94
379.253	95.94
379.478	92.94
379.704	98.94
379.929	96.94
380.155	93.94
380.38	92.94
380.606	88.94
380.831	99.94
381.057	101.94
381.282	94.94
381.507	84.94
381.733	83.94
381.958	106.94
382.184	90.94
382.409	81.94
382.634	96.94
382.86	97.94
383.085	96.94
383.31	110.94
383.535	106.94
383.761	97.94
383.986	97.94
384.211	102.94
384.436	112.94
384.662	78.94
384.887	91.94
385.112	96.94
385.337	118.94
385.562	100.94
385.787	111.94
386.013	105.94
386.238	133.94
386.463	98.94
386.688	114.94
386.913	97.94
387.138	98.94
387.363	121.94
387.588	111.94
387.813	119.94
388.038	98.94
388.263	112.94
388.488	96.94
388.713	93.94
388.938	94.94
389.163	92.94
389.387	88.94
389.612	88.94
389.837	89.94
390.062	93.94
390.287	94.94
390.512	94.94
390.736	93.94
390.961	82.94
391.186	104.94
391.411	85.94
391.636	90.94
391.86	86.94
392.085	80.94
392.31	73.94
392.534	79.94
392.759	91.94
392.984	92.94
393.208	84.94
393.433	93.94
393.658	95.94
393.882	89.94
394.107	85.94
394.331	84.94
394.556	76.94
394.78	91.94
395.005	91.94
395.229	88.94
395.454	79.94
395.678	77.94
395.903	78.94
396.127	98.94
396.352	90.94
396.576	90.94
396.801	106.94
397.025	88.94
397.249	83.94
397.474	87.94
397.698	108.94
397.922	103.94
398.147	85.94
398.371	79.94
398.595	87.94
398.82	95.94
399.044	99.94
399.268	94.94
399.492	99.94
399.717	85.94
399.941	87.94
400.165	103.94
400.389	90.94
400.613	74.94
400.837	83.94
401.062	86.94
401.286	82.94
401.51	92.94
401.734	93.94
401.958	112.94
402.182	109.94
402.406	149.94
402.63	121.94
402.854	102.94
403.078	83.94
403.302	88.94
403.526	99.94
403.75	105.94
403.974	93.94
404.198	72.94
404.422	99.94
404.645	86.94
404.869	87.94
405.093	98.94
405.317	99.94
405.541	98.94
405.765	80.94
405.988	108.94
406.212	163.94
406.436	208.94
406.66	143.94
406.883	93.94
407.107	83.94
407.331	107.94
407.555	91.94
407.778	96.94
408.002	102.94
408.226	92.94
408.449	88.94
408.673	87.94
408.896	87.94
409.12	93.94
409.344	96.94
409.567	81.94
409.791	99.94
410.014	98.94
410.238	83.94
410.461	89.94
410.685	89.94
410.908	103.94
411.132	91.94
411.355	117.94
411.578	82.94
411.802	83.94
412.025	82.94
412.249	94.94
412.472	85.94
412.695	80.94
412.919	84.94
413.142	93.94
413.365	94.94
413.589	80.94
413.812	74.94
414.035	90.94
414.258	98.94
414.482	74.94
414.705	91.94
414.928	82.94
415.151	89.94
415.374	90.94
415.597	102.94
415.821	87.94
416.044	83.94
416.267	93.94
416.49	93.94
416.713	75.94
416.936	83.94
417.159	77.94
417.382	97.94
417.605	91.94
417.828	104.94
418.051	74.94
418.274	96.94
418.497	95.94
418.72	93.94
418.943	96.94
419.166	93.94
419.389	99.94
419.611	89.94
419.834	80.94
420.057	86.94
420.28	95.94
420.503	84.94
420.726	86.94
420.948	105.94
421.171	103.94
421.394	73.94
421.617	88.94
421.839	83.94
422.062	94.94
422.285	94.94
422.507	94.94
422.73	85.94
422.953	84.94
423.175	83.94
423.398	76.94
423.621	94.94
423.843	83.94
424.066	86.94
424.288	95.94
424.511	111.94
424.733	90.94
424.956	100.94
425.178	98.94
425.401	88.94
425.623	93.94
425.846	98.94
426.068	107.94
426.291	89.94
426.513	88.94
426.735	87.94
426.958	95.94
427.18	109.94
427.402	123.94
427.625	148.94
427.847	132.94
428.069	118.94
428.292	79.94
428.514	96.94
428.736	85.94
428.958	76.94
429.181	80.94
429.403	79.94
429.625	93.94
429.847	80.94
430.069	107.94
430.292	93.94
430.514	95.94
430.736	78.94
430.958	82.94
431.18	89.94
431.402	86.94
431.624	85.94
431.846	85.94
432.068	75.94
432.29	78.94
432.512	89.94
432.734	96.94
432.956	67.94
433.178	98.94
433.4	102.94
433.622	81.94
433.844	85.94
434.066	89.94
434.287	85.94
434.509	80.94
434.731	82.94
434.953	82.94
435.175	90.94
435.397	83.94
435.618	93.94
435.84	99.94
436.062	132.94
436.284	109.94
436.505	110.94
436.727	99.94
436.949	98.94
437.17	79.94
437.392	76.94
437.614	83.94
437.835	90.94
438.057	131.94
438.278	112.94
438.5	92.94
438.721	106.94
438.943	94.94
439.165	87.94
439.386	91.94
439.608	114.94
439.829	91.94
440.05	112.94
440.272	148.94
440.493	102.94
440.715	95.94
440.936	102.94
441.158	85.94
441.379	81.94
441.6	96.94
441.822	92.94
442.043	87.94
442.264	93.94
442.486	96.94
442.707	86.94
442.928	103.94
443.149	128.94
443.371	132.94
443.592	128.94
443.813	106.94
444.034	115.94
444.255	80.94
444.476	86.94
444.698	76.94
444.919	78.94
445.14	121.94
445.361	106.94
445.582	119.94
445.803	132.94
446.024	116.94
446.245	109.94
446.466	104.94
446.687	106.94
446.908	104.94
447.129	96.94
447.35	99.94
447.571	93.94
447.792	99.94
448.013	84.94
448.234	120.94
448.455	88.94
448.675	94.94
448.896	110.94
449.117	114.94
449.338	86.94
449.559	126.94
449.779	126.94
450	81.94
450.221	84.94
450.442	89.94
450.662	85.94
450.883	100.94
451.104	116.94
451.324	94.94
451.545	85.94
451.766	78.94
451.986	82.94
452.207	86.94
452.428	101.94
452.648	100.94
452.869	109.94
453.089	110.94
453.31	99.94
453.53	87.94
453.751	92.94
453.971	99.94
454.192	122.94
454.412	84.94
454.633	92.94
454.853	77.94
455.073	89.94
455.294	91.94
455.514	87.94
455.734	90.94
455.955	79.94
456.175	86.94
456.395	93.94
456.616	84.94
456.836	91.94
457.056	88.94
457.276	80.94
457.497	72.94
457.717	89.94
457.937	74.94
458.157	84.94
458.377	98.94
458.598	117.94
458.818	151.94
459.038	150.94
459.258	116.94
459.478	79.94
459.698	90.94
459.918	88.94
460.138	78.94
460.358	88.94
460.578	87.94
460.798	86.94
461.018	94.94
461.238	73.94
461.458	66.94
461.678	98.94
461.898	92.94
462.118	90.94
462.338	87.94
462.558	78.94
462.777	85.94
462.997	87.94
463.217	83.94
463.437	84.94
463.657	79.94
463.876	95.94
464.096	73.94
464.316	96.94
464.536	84.94
464.755	90.94
464.975	95.94
465.195	147.94
465.414	157.94
465.634	84.94
465.854	86.94
466.073	90.94
466.293	96.94
466.512	81.94
466.732	86.94
466.951	91.94
467.171	99.94
467.391	98.94
467.61	94.94
467.829	87.94
468.049	115.94
468.268	128.94
468.488	91.94
468.707	85.94
468.927	91.94
469.146	72.94
469.365	79.94
469.585	92.94
469.804	88.94
470.023	99.94
470.243	86.94
470.462	93.94
470.681	92.94
470.901	98.94
471.12	91.94
471.339	90.94
471.558	98.94
471.777	85.94
471.997	102.94
472.216	152.94
472.435	247.94
472.654	114.94
472.873	90.94
473.092	91.94
473.311	89.94
473.53	77.94
473.749	87.94
473.968	98.94
474.187	97.94
474.406	105.94
474.625	101.94
474.844	83.94
475.063	83.94
475.282	77.94
475.501	80.94
475.72	104.94
475.939	76.94
476.158	86.94
476.377	66.94
476.596	91.94
476.814	96.94
477.033	86.94
477.252	82.94
477.471	76.94
477.69	70.94
477.908	84.94
478.127	91.94
478.346	84.94
478.564	89.94
478.783	90.94
479.002	95.94
479.22	74.94
479.439	89.94
479.658	94.94
479.876	95.94
480.095	83.94
480.313	82.94
480.532	90.94
480.751	96.94
480.969	163.94
481.188	403.94
481.406	269.94
481.624	101.94
481.843	98.94
482.061	83.94
482.28	77.94
482.498	69.94
482.717	90.94
482.935	92.94
483.153	86.94
483.372	94.94
483.59	85.94
483.808	90.94
484.027	105.94
484.245	91.94
484.463	98.94
484.681	70.94
484.9	81.94
485.118	93.94
485.336	85.94
485.554	83.94
485.772	91.94
485.99	84.94
486.209	89.94
486.427	116.94
486.645	101.94
486.863	107.94
487.081	90.94
487.299	106.94
487.517	90.94
487.735	77.94
487.953	96.94
488.171	85.94
488.389	104.94
488.607	88.94
488.825	105.94
489.043	94.94
489.261	92.94
489.479	87.94
489.696	75.94
489.914	78.94
490.132	85.94
490.35	101.94
490.568	81.94
490.786	84.94
491.003	96.94
491.221	84.94
491.439	86.94
491.657	94.94
491.874	83.94
492.092	92.94
492.31	94.94
492.527	95.94
492.745	84.94
492.963	84.94
493.18	92.94
493.398	89.94
493.615	99.94
493.833	99.94
494.05	88.94
494.268	91.94
494.485	102.94
494.703	76.94
494.92	84.94
495.138	91.94
495.355	88.94
495.573	93.94
495.79	89.94
496.008	89.94
496.225	83.94
496.442	87.94
496.66	94.94
496.877	78.94
497.094	93.94
497.312	86.94
497.529	94.94
497.746	90.94
497.963	77.94
498.181	84.94
498.398	91.94
498.615	98.94
498.832	97.94
499.049	77.94
499.267	79.94
499.484	95.94
499.701	103.94
499.918	95.94
500.135	89.94
500.352	98.94
500.569	95.94
500.786	96.94
501.003	83.94
501.22	86.94
501.437	83.94
501.654	103.94
501.871	102.94
502.088	84.94
502.305	86.94
502.522	88.94
502.739	84.94
502.956	96.94
503.172	95.94
503.389	98.94
503.606	99.94
503.823	91.94
504.04	100.94
504.256	97.94
504.473	82.94
504.69	86.94
504.907	72.94
505.123	83.94
505.34	95.94
505.557	102.94
505.773	92.94
505.99	80.94
506.207	80.94
506.423	83.94
506.64	92.94
506.856	91.94
507.073	94.94
507.289	89.94
507.506	95.94
507.722	106.94
507.939	105.94
508.155	96.94
508.372	78.94
508.588	101.94
508.805	103.94
509.021	99.94
509.238	92.94
509.454	91.94
509.67	91.94
509.887	93.94
510.103	135.94
510.319	211.94
510.536	720.94
510.752	2246.94
510.968	654.94
511.184	155.94
511.401	118.94
511.617	107.94
511.833	101.94
512.049	92.94
512.265	91.94
512.481	83.94
512.698	93.94
512.914	99.94
513.13	105.94
513.346	88.94
513.562	91.94
513.778	95.94
513.994	90.94
514.21	95.94
514.426	116.94
514.642	115.94
514.858	112.94
515.074	154.94
515.29	412.94
515.506	1372.94
515.721	518.94
515.937	170.94
516.153	112.94
