Data from Circ_2012_H10_HRD10591_00019.txt Node
Date: Wed Jan 03 10:05:54 EST 2024
User: Yrep
Spectrometer: HR+D1059
Trigger mode: 1
Integration Time (sec): 1.000000E-1
Scans to average: 1
Electric dark correction enabled: true
Nonlinearity correction enabled: false
Boxcar width: 0
XAxis mode: Wavelengths
Number of Pixels in Spectrum: 2048
>>>>>Begin Spectral Data<<<<<
223.165	-26.19
223.4	-26.19
223.635	-26.19
223.869	-7.19
224.104	-19.19
224.338	-3.19
224.573	-25.19
224.808	-15.19
225.042	-7.19
225.277	0.81
225.511	-4.19
225.746	-6.19
225.98	5.81
226.215	-1.19
226.449	25.81
226.683	25.81
226.918	35.81
227.152	20.81
227.387	31.81
227.621	22.81
227.856	51.81
228.09	42.81
228.324	44.81
228.559	52.81
228.793	32.81
229.027	54.81
229.262	60.81
229.496	74.81
229.73	78.81
229.964	76.81
230.199	67.81
230.433	74.81
230.667	78.81
230.901	87.81
231.136	60.81
231.37	78.81
231.604	86.81
231.838	81.81
232.072	81.81
232.306	88.81
232.541	94.81
232.775	72.81
233.009	72.81
233.243	86.81
233.477	72.81
233.711	84.81
233.945	83.81
234.179	81.81
234.413	77.81
234.647	83.81
234.881	74.81
235.115	77.81
235.349	74.81
235.583	81.81
235.817	93.81
236.051	69.81
236.285	75.81
236.519	68.81
236.753	60.81
236.987	74.81
237.221	84.81
237.455	76.81
237.689	70.81
237.922	90.81
238.156	85.81
238.39	82.81
238.624	81.81
238.858	70.81
239.091	71.81
239.325	60.81
239.559	76.81
239.793	75.81
240.027	80.81
240.26	72.81
240.494	73.81
240.728	59.81
240.961	77.81
241.195	60.81
241.429	77.81
241.662	60.81
241.896	86.81
242.13	78.81
242.363	70.81
242.597	82.81
242.83	53.81
243.064	77.81
243.298	79.81
243.531	92.81
243.765	75.81
243.998	88.81
244.232	64.81
244.465	82.81
244.699	70.81
244.932	77.81
245.166	70.81
245.399	88.81
245.633	66.81
245.866	61.81
246.099	60.81
246.333	77.81
246.566	80.81
246.8	63.81
247.033	87.81
247.266	90.81
247.5	80.81
247.733	83.81
247.966	84.81
248.2	97.81
248.433	82.81
248.666	74.81
248.899	72.81
249.133	68.81
249.366	94.81
249.599	102.81
249.832	70.81
250.066	86.81
250.299	77.81
250.532	72.81
250.765	72.81
250.998	76.81
251.231	69.81
251.465	72.81
251.698	62.81
251.931	78.81
252.164	76.81
252.397	81.81
252.63	95.81
252.863	88.81
253.096	72.81
253.329	84.81
253.562	89.81
253.795	84.81
254.028	77.81
254.261	77.81
254.494	86.81
254.727	87.81
254.96	85.81
255.193	74.81
255.426	78.81
255.659	78.81
255.892	67.81
256.124	87.81
256.357	84.81
256.59	73.81
256.823	86.81
257.056	81.81
257.289	80.81
257.521	82.81
257.754	81.81
257.987	67.81
258.22	72.81
258.452	87.81
258.685	74.81
258.918	74.81
259.151	80.81
259.383	72.81
259.616	78.81
259.849	77.81
260.081	90.81
260.314	94.81
260.547	78.81
260.779	84.81
261.012	81.81
261.244	74.81
261.477	71.81
261.71	89.81
261.942	82.81
262.175	115.81
262.407	86.81
262.64	86.81
262.872	76.81
263.105	73.81
263.337	81.81
263.57	75.81
263.802	64.81
264.035	81.81
264.267	74.81
264.499	92.81
264.732	84.81
264.964	71.81
265.197	76.81
265.429	83.81
265.661	72.81
265.894	91.81
266.126	83.81
266.358	88.81
266.591	95.81
266.823	83.81
267.055	76.81
267.287	89.81
267.52	85.81
267.752	77.81
267.984	76.81
268.216	86.81
268.448	85.81
268.681	83.81
268.913	64.81
269.145	76.81
269.377	83.81
269.609	75.81
269.841	74.81
270.073	82.81
270.306	95.81
270.538	83.81
270.77	87.81
271.002	83.81
271.234	70.81
271.466	80.81
271.698	77.81
271.93	85.81
272.162	72.81
272.394	84.81
272.626	79.81
272.858	77.81
273.09	83.81
273.322	73.81
273.553	82.81
273.785	76.81
274.017	74.81
274.249	91.81
274.481	81.81
274.713	94.81
274.945	84.81
275.176	75.81
275.408	64.81
275.64	89.81
275.872	80.81
276.104	89.81
276.335	92.81
276.567	91.81
276.799	100.81
277.031	89.81
277.262	77.81
277.494	87.81
277.726	90.81
277.957	78.81
278.189	90.81
278.421	93.81
278.652	80.81
278.884	82.81
279.115	78.81
279.347	73.81
279.579	80.81
279.81	82.81
280.042	67.81
280.273	98.81
280.505	98.81
280.736	75.81
280.968	90.81
281.199	81.81
281.431	73.81
281.662	94.81
281.894	94.81
282.125	101.81
282.356	128.81
282.588	139.81
282.819	126.81
283.051	83.81
283.282	87.81
283.513	70.81
283.745	64.81
283.976	81.81
284.207	88.81
284.439	94.81
284.67	99.81
284.901	85.81
285.132	81.81
285.364	81.81
285.595	64.81
285.826	88.81
286.057	85.81
286.288	85.81
286.52	80.81
286.751	88.81
286.982	94.81
287.213	88.81
287.444	80.81
287.675	86.81
287.906	92.81
288.138	74.81
288.369	94.81
288.6	96.81
288.831	83.81
289.062	88.81
289.293	102.81
289.524	91.81
289.755	74.81
289.986	91.81
290.217	84.81
290.448	77.81
290.679	77.81
290.91	84.81
291.141	88.81
291.371	91.81
291.602	80.81
291.833	81.81
292.064	78.81
292.295	77.81
292.526	92.81
292.757	84.81
292.987	81.81
293.218	75.81
293.449	93.81
293.68	78.81
293.91	100.81
294.141	97.81
294.372	82.81
294.603	70.81
294.833	85.81
295.064	83.81
295.295	85.81
295.525	101.81
295.756	94.81
295.987	117.81
296.217	146.81
296.448	127.81
296.679	96.81
296.909	86.81
297.14	90.81
297.37	105.81
297.601	89.81
297.831	87.81
298.062	93.81
298.292	97.81
298.523	89.81
298.753	84.81
298.984	86.81
299.214	89.81
299.445	89.81
299.675	87.81
299.905	92.81
300.136	100.81
300.366	90.81
300.597	83.81
300.827	81.81
301.057	96.81
301.288	102.81
301.518	88.81
301.748	76.81
301.979	106.81
302.209	89.81
302.439	93.81
302.669	86.81
302.9	100.81
303.13	99.81
303.36	86.81
303.59	94.81
303.82	99.81
304.051	103.81
304.281	92.81
304.511	93.81
304.741	83.81
304.971	88.81
305.201	78.81
305.431	101.81
305.661	86.81
305.891	86.81
306.121	98.81
306.352	102.81
306.582	86.81
306.812	93.81
307.042	93.81
307.272	90.81
307.502	96.81
307.731	83.81
307.961	69.81
308.191	75.81
308.421	89.81
308.651	82.81
308.881	89.81
309.111	99.81
309.341	91.81
309.571	104.81
309.8	91.81
310.03	93.81
310.26	117.81
310.49	94.81
310.72	91.81
310.949	101.81
311.179	96.81
311.409	96.81
311.639	93.81
311.868	94.81
312.098	91.81
312.328	90.81
312.557	88.81
312.787	109.81
313.017	102.81
313.246	85.81
313.476	81.81
313.706	103.81
313.935	93.81
314.165	98.81
314.394	104.81
314.624	101.81
314.853	83.81
315.083	102.81
315.312	80.81
315.542	105.81
315.771	95.81
316.001	103.81
316.23	90.81
316.46	92.81
316.689	93.81
316.919	83.81
317.148	97.81
317.377	90.81
317.607	86.81
317.836	98.81
318.065	90.81
318.295	113.81
318.524	96.81
318.753	100.81
318.983	93.81
319.212	107.81
319.441	98.81
319.67	133.81
319.9	87.81
320.129	96.81
320.358	101.81
320.587	79.81
320.816	81.81
321.046	89.81
321.275	82.81
321.504	90.81
321.733	98.81
321.962	104.81
322.191	94.81
322.42	97.81
322.649	118.81
322.878	104.81
323.108	113.81
323.337	120.81
323.566	132.81
323.795	153.81
324.024	210.81
324.253	418.81
324.482	874.81
324.71	1838.81
324.939	2396.81
325.168	864.81
325.397	252.81
325.626	159.81
325.855	136.81
326.084	103.81
326.313	128.81
326.542	148.81
326.77	245.81
326.999	480.81
327.228	995.81
327.457	1818.81
327.686	1447.81
327.914	389.81
328.143	193.81
328.372	159.81
328.6	136.81
328.829	108.81
329.058	130.81
329.287	131.81
329.515	110.81
329.744	111.81
329.972	109.81
330.201	118.81
330.43	103.81
330.658	117.81
330.887	133.81
331.115	133.81
331.344	105.81
331.572	97.81
331.801	104.81
332.03	101.81
332.258	100.81
332.486	81.81
332.715	102.81
332.943	111.81
333.172	109.81
333.4	94.81
333.629	91.81
333.857	112.81
334.085	103.81
334.314	101.81
334.542	103.81
334.771	120.81
334.999	108.81
335.227	92.81
335.455	100.81
335.684	99.81
335.912	86.81
336.14	101.81
336.369	108.81
336.597	88.81
336.825	101.81
337.053	78.81
337.281	105.81
337.51	94.81
337.738	102.81
337.966	94.81
338.194	93.81
338.422	93.81
338.65	86.81
338.878	87.81
339.106	89.81
339.334	96.81
339.562	91.81
339.79	86.81
340.018	90.81
340.246	85.81
340.474	80.81
340.702	86.81
340.93	78.81
341.158	82.81
341.386	103.81
341.614	98.81
341.842	103.81
342.07	91.81
342.298	85.81
342.526	94.81
342.754	88.81
342.981	88.81
343.209	85.81
343.437	90.81
343.665	88.81
343.893	88.81
344.12	81.81
344.348	88.81
344.576	77.81
344.804	106.81
345.031	100.81
345.259	104.81
345.487	95.81
345.714	91.81
345.942	83.81
346.17	75.81
346.397	94.81
346.625	93.81
346.853	92.81
347.08	94.81
347.308	88.81
347.535	94.81
347.763	103.81
347.99	96.81
348.218	120.81
348.445	100.81
348.673	110.81
348.9	99.81
349.128	94.81
349.355	80.81
349.583	100.81
349.81	97.81
350.037	78.81
350.265	102.81
350.492	87.81
350.72	99.81
350.947	108.81
351.174	110.81
351.402	103.81
351.629	106.81
351.856	95.81
352.083	93.81
352.311	111.81
352.538	100.81
352.765	108.81
352.992	111.81
353.22	100.81
353.447	104.81
353.674	93.81
353.901	90.81
354.128	86.81
354.355	95.81
354.583	96.81
354.81	95.81
355.037	96.81
355.264	93.81
355.491	85.81
355.718	88.81
355.945	99.81
356.172	97.81
356.399	92.81
356.626	92.81
356.853	97.81
357.08	98.81
357.307	78.81
357.534	92.81
357.761	83.81
357.988	83.81
358.215	105.81
358.441	76.81
358.668	98.81
358.895	107.81
359.122	88.81
359.349	97.81
359.576	102.81
359.802	88.81
360.029	112.81
360.256	109.81
360.483	100.81
360.709	88.81
360.936	90.81
361.163	84.81
361.39	89.81
361.616	93.81
361.843	83.81
362.07	89.81
362.296	95.81
362.523	93.81
362.749	100.81
362.976	85.81
363.203	91.81
363.429	86.81
363.656	95.81
363.882	88.81
364.109	85.81
364.335	104.81
364.562	106.81
364.788	91.81
365.015	91.81
365.241	102.81
365.468	101.81
365.694	107.81
365.92	108.81
366.147	91.81
366.373	84.81
366.599	106.81
366.826	89.81
367.052	101.81
367.278	82.81
367.505	90.81
367.731	86.81
367.957	83.81
368.184	81.81
368.41	100.81
368.636	103.81
368.862	104.81
369.089	112.81
369.315	104.81
369.541	79.81
369.767	91.81
369.993	93.81
370.219	76.81
370.445	91.81
370.672	84.81
370.898	90.81
371.124	91.81
371.35	84.81
371.576	108.81
371.802	92.81
372.028	87.81
372.254	91.81
372.48	81.81
372.706	90.81
372.932	93.81
373.158	87.81
373.384	95.81
373.61	82.81
373.835	84.81
374.061	91.81
374.287	99.81
374.513	87.81
374.739	78.81
374.965	96.81
375.191	94.81
375.416	90.81
375.642	77.81
375.868	87.81
376.094	93.81
376.319	95.81
376.545	82.81
376.771	85.81
376.997	99.81
377.222	89.81
377.448	89.81
377.674	98.81
377.899	88.81
378.125	91.81
378.35	99.81
378.576	92.81
378.802	88.81
379.027	84.81
379.253	82.81
379.478	94.81
379.704	100.81
379.929	92.81
380.155	98.81
380.38	92.81
380.606	88.81
380.831	88.81
381.057	98.81
381.282	96.81
381.507	101.81
381.733	96.81
381.958	105.81
382.184	95.81
382.409	93.81
382.634	102.81
382.86	96.81
383.085	97.81
383.31	94.81
383.535	84.81
383.761	85.81
383.986	95.81
384.211	103.81
384.436	106.81
384.662	109.81
384.887	97.81
385.112	94.81
385.337	106.81
385.562	101.81
385.787	104.81
386.013	116.81
386.238	108.81
386.463	101.81
386.688	117.81
386.913	102.81
387.138	112.81
387.363	95.81
387.588	93.81
387.813	109.81
388.038	94.81
388.263	87.81
388.488	99.81
388.713	92.81
388.938	96.81
389.163	100.81
389.387	77.81
389.612	95.81
389.837	93.81
390.062	68.81
390.287	91.81
390.512	101.81
390.736	94.81
390.961	83.81
391.186	72.81
391.411	88.81
391.636	83.81
391.86	93.81
392.085	80.81
392.31	85.81
392.534	81.81
392.759	88.81
392.984	83.81
393.208	91.81
393.433	96.81
393.658	86.81
393.882	86.81
394.107	77.81
394.331	84.81
394.556	91.81
394.78	90.81
395.005	77.81
395.229	77.81
395.454	83.81
395.678	82.81
395.903	91.81
396.127	78.81
396.352	102.81
396.576	89.81
396.801	96.81
397.025	85.81
397.249	98.81
397.474	104.81
397.698	96.81
397.922	87.81
398.147	93.81
398.371	82.81
398.595	84.81
398.82	90.81
399.044	88.81
399.268	89.81
399.492	78.81
399.717	79.81
399.941	92.81
400.165	95.81
400.389	80.81
400.613	84.81
400.837	79.81
401.062	89.81
401.286	91.81
401.51	83.81
401.734	97.81
401.958	100.81
402.182	132.81
402.406	157.81
402.63	132.81
402.854	89.81
403.078	93.81
403.302	78.81
403.526	86.81
403.75	90.81
403.974	88.81
404.198	85.81
404.422	95.81
404.645	90.81
404.869	85.81
405.093	94.81
405.317	90.81
405.541	107.81
405.765	92.81
405.988	128.81
406.212	171.81
406.436	234.81
406.66	144.81
406.883	113.81
407.107	99.81
407.331	91.81
407.555	93.81
407.778	97.81
408.002	85.81
408.226	90.81
408.449	100.81
408.673	90.81
408.896	97.81
409.12	89.81
409.344	83.81
409.567	83.81
409.791	89.81
410.014	94.81
410.238	87.81
410.461	84.81
410.685	86.81
410.908	92.81
411.132	109.81
411.355	104.81
411.578	101.81
411.802	86.81
412.025	87.81
412.249	84.81
412.472	87.81
412.695	88.81
412.919	89.81
413.142	70.81
413.365	94.81
413.589	76.81
413.812	81.81
414.035	86.81
414.258	81.81
414.482	90.81
414.705	87.81
414.928	84.81
415.151	91.81
415.374	83.81
415.597	89.81
415.821	89.81
416.044	84.81
416.267	85.81
416.49	84.81
416.713	93.81
416.936	75.81
417.159	102.81
417.382	91.81
417.605	86.81
417.828	80.81
418.051	81.81
418.274	82.81
418.497	85.81
418.72	78.81
418.943	95.81
419.166	97.81
419.389	81.81
419.611	83.81
419.834	97.81
420.057	102.81
420.28	91.81
420.503	96.81
420.726	90.81
420.948	89.81
421.171	86.81
421.394	81.81
421.617	73.81
421.839	82.81
422.062	77.81
422.285	88.81
422.507	107.81
422.73	105.81
422.953	88.81
423.175	85.81
423.398	93.81
423.621	91.81
423.843	75.81
424.066	99.81
424.288	89.81
424.511	77.81
424.733	87.81
424.956	101.81
425.178	93.81
425.401	97.81
425.623	103.81
425.846	93.81
426.068	100.81
426.291	92.81
426.513	94.81
426.735	92.81
426.958	85.81
427.18	93.81
427.402	123.81
427.625	166.81
427.847	114.81
428.069	102.81
428.292	81.81
428.514	90.81
428.736	84.81
428.958	97.81
429.181	84.81
429.403	89.81
429.625	80.81
429.847	94.81
430.069	106.81
430.292	97.81
430.514	94.81
430.736	74.81
430.958	81.81
431.18	82.81
431.402	89.81
431.624	83.81
431.846	91.81
432.068	74.81
432.29	75.81
432.512	85.81
432.734	90.81
432.956	90.81
433.178	85.81
433.4	105.81
433.622	89.81
433.844	81.81
434.066	84.81
434.287	89.81
434.509	90.81
434.731	96.81
434.953	92.81
435.175	88.81
435.397	81.81
435.618	92.81
435.84	84.81
436.062	124.81
436.284	115.81
436.505	109.81
436.727	94.81
436.949	106.81
437.17	92.81
437.392	82.81
437.614	94.81
437.835	102.81
438.057	114.81
438.278	93.81
438.5	98.81
438.721	110.81
438.943	97.81
439.165	85.81
439.386	91.81
439.608	91.81
439.829	101.81
440.05	105.81
440.272	130.81
440.493	101.81
440.715	80.81
440.936	100.81
441.158	88.81
441.379	85.81
441.6	94.81
441.822	89.81
442.043	90.81
442.264	88.81
442.486	98.81
442.707	90.81
442.928	101.81
443.149	128.81
443.371	139.81
443.592	101.81
443.813	106.81
444.034	112.81
444.255	88.81
444.476	83.81
444.698	95.81
444.919	88.81
445.14	105.81
445.361	120.81
445.582	105.81
445.803	112.81
446.024	138.81
446.245	124.81
446.466	96.81
446.687	83.81
446.908	79.81
447.129	73.81
447.35	83.81
447.571	84.81
447.792	94.81
448.013	95.81
448.234	115.81
448.455	92.81
448.675	115.81
448.896	121.81
449.117	88.81
449.338	98.81
449.559	147.81
449.779	125.81
450	93.81
450.221	92.81
450.442	100.81
450.662	86.81
450.883	97.81
451.104	112.81
451.324	100.81
451.545	82.81
451.766	79.81
451.986	80.81
452.207	85.81
452.428	94.81
452.648	96.81
452.869	110.81
453.089	113.81
453.31	112.81
453.53	96.81
453.751	91.81
453.971	113.81
454.192	112.81
454.412	97.81
454.633	88.81
454.853	91.81
455.073	81.81
455.294	88.81
455.514	92.81
455.734	86.81
455.955	90.81
456.175	83.81
456.395	89.81
456.616	72.81
456.836	83.81
457.056	76.81
457.276	74.81
457.497	93.81
457.717	81.81
457.937	92.81
458.157	85.81
458.377	97.81
458.598	109.81
458.818	152.81
459.038	158.81
459.258	110.81
459.478	84.81
459.698	93.81
459.918	84.81
460.138	73.81
460.358	85.81
460.578	90.81
460.798	84.81
461.018	76.81
461.238	85.81
461.458	90.81
461.678	82.81
461.898	81.81
462.118	80.81
462.338	90.81
462.558	84.81
462.777	91.81
462.997	91.81
463.217	89.81
463.437	88.81
463.657	97.81
463.876	84.81
464.096	91.81
464.316	93.81
464.536	108.81
464.755	100.81
464.975	100.81
465.195	166.81
465.414	155.81
465.634	85.81
465.854	77.81
466.073	77.81
466.293	106.81
466.512	90.81
466.732	67.81
466.951	64.81
467.171	78.81
467.391	82.81
467.61	101.81
467.829	102.81
468.049	89.81
468.268	90.81
468.488	84.81
468.707	85.81
468.927	80.81
469.146	91.81
469.365	84.81
469.585	94.81
469.804	106.81
470.023	96.81
470.243	89.81
470.462	88.81
470.681	93.81
470.901	84.81
471.12	86.81
471.339	89.81
471.558	80.81
471.777	82.81
471.997	101.81
472.216	100.81
472.435	108.81
472.654	85.81
472.873	74.81
473.092	88.81
473.311	86.81
473.53	75.81
473.749	82.81
473.968	100.81
474.187	95.81
474.406	102.81
474.625	83.81
474.844	77.81
475.063	74.81
475.282	93.81
475.501	73.81
475.72	96.81
475.939	84.81
476.158	88.81
476.377	85.81
476.596	88.81
476.814	78.81
477.033	83.81
477.252	91.81
477.471	74.81
477.69	96.81
477.908	78.81
478.127	89.81
478.346	98.81
478.564	105.81
478.783	104.81
479.002	98.81
479.22	104.81
479.439	98.81
479.658	117.81
479.876	92.81
480.095	74.81
480.313	90.81
480.532	77.81
480.751	77.81
480.969	83.81
481.188	139.81
481.406	126.81
481.624	102.81
481.843	82.81
482.061	88.81
482.28	97.81
482.498	94.81
482.717	89.81
482.935	97.81
483.153	86.81
483.372	94.81
483.59	84.81
483.808	90.81
484.027	99.81
484.245	83.81
484.463	88.81
484.681	96.81
484.9	91.81
485.118	89.81
485.336	95.81
485.554	104.81
485.772	87.81
485.99	94.81
486.209	94.81
486.427	94.81
486.645	104.81
486.863	110.81
487.081	98.81
487.299	104.81
487.517	102.81
487.735	102.81
487.953	89.81
488.171	99.81
488.389	89.81
488.607	114.81
488.825	97.81
489.043	91.81
489.261	103.81
489.479	85.81
489.696	63.81
489.914	89.81
490.132	91.81
490.35	87.81
490.568	89.81
490.786	82.81
491.003	75.81
491.221	103.81
491.439	90.81
491.657	107.81
491.874	81.81
492.092	89.81
492.31	97.81
492.527	85.81
492.745	90.81
492.963	97.81
493.18	90.81
493.398	78.81
493.615	93.81
493.833	102.81
494.05	73.81
494.268	73.81
494.485	100.81
494.703	91.81
494.92	73.81
495.138	86.81
495.355	79.81
495.573	95.81
495.79	94.81
496.008	107.81
496.225	87.81
496.442	99.81
496.66	100.81
496.877	92.81
497.094	91.81
497.312	104.81
497.529	79.81
497.746	83.81
497.963	105.81
498.181	82.81
498.398	89.81
498.615	108.81
498.832	93.81
499.049	69.81
499.267	70.81
499.484	85.81
499.701	90.81
499.918	83.81
500.135	80.81
500.352	75.81
500.569	94.81
500.786	86.81
501.003	73.81
501.22	79.81
501.437	79.81
501.654	84.81
501.871	115.81
502.088	90.81
502.305	96.81
502.522	83.81
502.739	93.81
502.956	93.81
503.172	90.81
503.389	79.81
503.606	107.81
503.823	98.81
504.04	95.81
504.256	94.81
504.473	77.81
504.69	82.81
504.907	80.81
505.123	87.81
505.34	92.81
505.557	98.81
505.773	91.81
505.99	87.81
506.207	86.81
506.423	85.81
506.64	88.81
506.856	84.81
507.073	85.81
507.289	100.81
507.506	102.81
507.722	115.81
507.939	109.81
508.155	90.81
508.372	98.81
508.588	103.81
508.805	83.81
509.021	98.81
509.238	100.81
509.454	90.81
509.67	107.81
509.887	98.81
510.103	120.81
510.319	202.81
510.536	801.81
510.752	2713.81
510.968	759.81
511.184	184.81
511.401	110.81
511.617	90.81
511.833	99.81
512.049	84.81
512.265	99.81
512.481	99.81
512.698	88.81
512.914	108.81
513.13	93.81
513.346	96.81
513.562	104.81
513.778	108.81
513.994	94.81
514.21	120.81
514.426	128.81
514.642	133.81
514.858	127.81
515.074	181.81
515.29	461.81
515.506	1634.81
515.721	640.81
515.937	155.81
