Data from Circ_2012_H10_HRD10591_00010.txt Node
Date: Wed Jan 03 10:05:52 EST 2024
User: Yrep
Spectrometer: HR+D1059
Trigger mode: 1
Integration Time (sec): 1.000000E-1
Scans to average: 1
Electric dark correction enabled: true
Nonlinearity correction enabled: false
Boxcar width: 0
XAxis mode: Wavelengths
Number of Pixels in Spectrum: 2048
>>>>>Begin Spectral Data<<<<<
223.165	-28.19
223.4	-28.19
223.635	-28.19
223.869	-20.19
224.104	-13.19
224.338	-8.19
224.573	-16.19
224.808	-13.19
225.042	-0.19
225.277	-6.19
225.511	6.81
225.746	6.81
225.98	19.81
226.215	17.81
226.449	7.81
226.683	13.81
226.918	21.81
227.152	10.81
227.387	25.81
227.621	32.81
227.856	40.81
228.09	52.81
228.324	63.81
228.559	58.81
228.793	66.81
229.027	69.81
229.262	74.81
229.496	66.81
229.73	81.81
229.964	81.81
230.199	83.81
230.433	68.81
230.667	82.81
230.901	66.81
231.136	86.81
231.37	62.81
231.604	90.81
231.838	63.81
232.072	82.81
232.306	83.81
232.541	85.81
232.775	80.81
233.009	74.81
233.243	84.81
233.477	81.81
233.711	90.81
233.945	87.81
234.179	74.81
234.413	80.81
234.647	84.81
234.881	91.81
235.115	79.81
235.349	83.81
235.583	81.81
235.817	77.81
236.051	68.81
236.285	76.81
236.519	74.81
236.753	81.81
236.987	84.81
237.221	68.81
237.455	86.81
237.689	84.81
237.922	78.81
238.156	83.81
238.39	69.81
238.624	78.81
238.858	80.81
239.091	86.81
239.325	80.81
239.559	87.81
239.793	70.81
240.027	89.81
240.26	82.81
240.494	96.81
240.728	76.81
240.961	84.81
241.195	78.81
241.429	68.81
241.662	78.81
241.896	81.81
242.13	88.81
242.363	100.81
242.597	83.81
242.83	79.81
243.064	86.81
243.298	80.81
243.531	79.81
243.765	84.81
243.998	65.81
244.232	85.81
244.465	84.81
244.699	76.81
244.932	74.81
245.166	85.81
245.399	66.81
245.633	83.81
245.866	64.81
246.099	83.81
246.333	92.81
246.566	75.81
246.8	86.81
247.033	74.81
247.266	79.81
247.5	80.81
247.733	94.81
247.966	84.81
248.2	69.81
248.433	90.81
248.666	88.81
248.899	86.81
249.133	86.81
249.366	84.81
249.599	98.81
249.832	101.81
250.066	77.81
250.299	78.81
250.532	83.81
250.765	79.81
250.998	106.81
251.231	84.81
251.465	79.81
251.698	93.81
251.931	79.81
252.164	82.81
252.397	88.81
252.63	88.81
252.863	87.81
253.096	92.81
253.329	79.81
253.562	70.81
253.795	89.81
254.028	86.81
254.261	101.81
254.494	84.81
254.727	89.81
254.96	83.81
255.193	76.81
255.426	73.81
255.659	87.81
255.892	87.81
256.124	78.81
256.357	79.81
256.59	78.81
256.823	85.81
257.056	82.81
257.289	72.81
257.521	85.81
257.754	81.81
257.987	73.81
258.22	90.81
258.452	97.81
258.685	83.81
258.918	77.81
259.151	84.81
259.383	91.81
259.616	86.81
259.849	84.81
260.081	79.81
260.314	88.81
260.547	91.81
260.779	87.81
261.012	88.81
261.244	79.81
261.477	88.81
261.71	108.81
261.942	136.81
262.175	130.81
262.407	91.81
262.64	95.81
262.872	89.81
263.105	80.81
263.337	93.81
263.57	83.81
263.802	82.81
264.035	85.81
264.267	83.81
264.499	82.81
264.732	80.81
264.964	81.81
265.197	86.81
265.429	77.81
265.661	76.81
265.894	80.81
266.126	74.81
266.358	85.81
266.591	91.81
266.823	82.81
267.055	87.81
267.287	84.81
267.52	77.81
267.752	75.81
267.984	75.81
268.216	83.81
268.448	86.81
268.681	85.81
268.913	84.81
269.145	87.81
269.377	82.81
269.609	79.81
269.841	85.81
270.073	82.81
270.306	74.81
270.538	91.81
270.77	83.81
271.002	87.81
271.234	80.81
271.466	85.81
271.698	76.81
271.93	98.81
272.162	87.81
272.394	82.81
272.626	73.81
272.858	100.81
273.09	77.81
273.322	85.81
273.553	90.81
273.785	82.81
274.017	91.81
274.249	87.81
274.481	79.81
274.713	92.81
274.945	90.81
275.176	81.81
275.408	86.81
275.64	83.81
275.872	72.81
276.104	82.81
276.335	88.81
276.567	106.81
276.799	104.81
277.031	98.81
277.262	94.81
277.494	85.81
277.726	82.81
277.957	88.81
278.189	84.81
278.421	98.81
278.652	93.81
278.884	80.81
279.115	92.81
279.347	76.81
279.579	74.81
279.81	93.81
280.042	90.81
280.273	92.81
280.505	101.81
280.736	100.81
280.968	70.81
281.199	83.81
281.431	97.81
281.662	84.81
281.894	78.81
282.125	108.81
282.356	118.81
282.588	171.81
282.819	129.81
283.051	82.81
283.282	84.81
283.513	79.81
283.745	72.81
283.976	88.81
284.207	74.81
284.439	88.81
284.67	94.81
284.901	93.81
285.132	86.81
285.364	87.81
285.595	102.81
285.826	87.81
286.057	103.81
286.288	95.81
286.52	84.81
286.751	85.81
286.982	84.81
287.213	85.81
287.444	75.81
287.675	85.81
287.906	87.81
288.138	88.81
288.369	89.81
288.6	88.81
288.831	100.81
289.062	83.81
289.293	80.81
289.524	74.81
289.755	79.81
289.986	99.81
290.217	91.81
290.448	91.81
290.679	79.81
290.91	80.81
291.141	88.81
291.371	85.81
291.602	92.81
291.833	74.81
292.064	86.81
292.295	90.81
292.526	99.81
292.757	85.81
292.987	77.81
293.218	89.81
293.449	84.81
293.68	84.81
293.91	90.81
294.141	90.81
294.372	79.81
294.603	85.81
294.833	80.81
295.064	95.81
295.295	95.81
295.525	92.81
295.756	98.81
295.987	124.81
296.217	159.81
296.448	163.81
296.679	107.81
296.909	99.81
297.14	82.81
297.37	85.81
297.601	88.81
297.831	98.81
298.062	96.81
298.292	85.81
298.523	93.81
298.753	77.81
298.984	82.81
299.214	85.81
299.445	86.81
299.675	99.81
299.905	98.81
300.136	94.81
300.366	90.81
300.597	90.81
300.827	96.81
301.057	100.81
301.288	100.81
301.518	82.81
301.748	85.81
301.979	93.81
302.209	101.81
302.439	99.81
302.669	75.81
302.9	75.81
303.13	114.81
303.36	92.81
303.59	114.81
303.82	107.81
304.051	89.81
304.281	83.81
304.511	100.81
304.741	93.81
304.971	76.81
305.201	92.81
305.431	77.81
305.661	101.81
305.891	86.81
306.121	95.81
306.352	122.81
306.582	118.81
306.812	98.81
307.042	91.81
307.272	87.81
307.502	101.81
307.731	92.81
307.961	94.81
308.191	105.81
308.421	82.81
308.651	85.81
308.881	98.81
309.111	88.81
309.341	107.81
309.571	87.81
309.8	98.81
310.03	95.81
310.26	99.81
310.49	87.81
310.72	110.81
310.949	110.81
311.179	107.81
311.409	109.81
311.639	99.81
311.868	88.81
312.098	95.81
312.328	100.81
312.557	98.81
312.787	109.81
313.017	112.81
313.246	92.81
313.476	97.81
313.706	99.81
313.935	100.81
314.165	105.81
314.394	115.81
314.624	111.81
314.853	98.81
315.083	104.81
315.312	95.81
315.542	91.81
315.771	96.81
316.001	82.81
316.23	102.81
316.46	91.81
316.689	99.81
316.919	98.81
317.148	108.81
317.377	84.81
317.607	95.81
317.836	92.81
318.065	99.81
318.295	95.81
318.524	97.81
318.753	92.81
318.983	90.81
319.212	93.81
319.441	130.81
319.67	123.81
319.9	105.81
320.129	97.81
320.358	90.81
320.587	80.81
320.816	110.81
321.046	100.81
321.275	96.81
321.504	90.81
321.733	100.81
321.962	105.81
322.191	114.81
322.42	116.81
322.649	110.81
322.878	119.81
323.108	124.81
323.337	155.81
323.566	151.81
323.795	174.81
324.024	269.81
324.253	522.81
324.482	1138.81
324.71	2344.81
324.939	3055.81
325.168	1141.81
325.397	322.81
325.626	197.81
325.855	145.81
326.084	138.81
326.313	148.81
326.542	169.81
326.77	282.81
326.999	587.81
327.228	1253.81
327.457	2259.81
327.686	1793.81
327.914	463.81
328.143	228.81
328.372	182.81
328.6	143.81
328.829	139.81
329.058	154.81
329.287	150.81
329.515	112.81
329.744	107.81
329.972	110.81
330.201	101.81
330.43	120.81
330.658	142.81
330.887	185.81
331.115	156.81
331.344	106.81
331.572	91.81
331.801	121.81
332.03	123.81
332.258	100.81
332.486	84.81
332.715	94.81
332.943	74.81
333.172	103.81
333.4	105.81
333.629	113.81
333.857	105.81
334.085	104.81
334.314	95.81
334.542	100.81
334.771	112.81
334.999	116.81
335.227	95.81
335.455	100.81
335.684	101.81
335.912	101.81
336.14	98.81
336.369	111.81
336.597	93.81
336.825	92.81
337.053	94.81
337.281	101.81
337.51	102.81
337.738	106.81
337.966	107.81
338.194	98.81
338.422	92.81
338.65	79.81
338.878	98.81
339.106	95.81
339.334	98.81
339.562	101.81
339.79	99.81
340.018	107.81
340.246	101.81
340.474	105.81
340.702	94.81
340.93	109.81
341.158	109.81
341.386	115.81
341.614	96.81
341.842	92.81
342.07	93.81
342.298	87.81
342.526	87.81
342.754	84.81
342.981	74.81
343.209	82.81
343.437	105.81
343.665	89.81
343.893	83.81
344.12	95.81
344.348	93.81
344.576	87.81
344.804	100.81
345.031	97.81
345.259	99.81
345.487	94.81
345.714	108.81
345.942	78.81
346.17	95.81
346.397	94.81
346.625	108.81
346.853	86.81
347.08	103.81
347.308	95.81
347.535	125.81
347.763	106.81
347.99	107.81
348.218	110.81
348.445	109.81
348.673	99.81
348.9	90.81
349.128	99.81
349.355	79.81
349.583	100.81
349.81	98.81
350.037	100.81
350.265	97.81
350.492	100.81
350.72	104.81
350.947	93.81
351.174	110.81
351.402	110.81
351.629	106.81
351.856	104.81
352.083	105.81
352.311	114.81
352.538	137.81
352.765	113.81
352.992	115.81
353.22	110.81
353.447	107.81
353.674	96.81
353.901	104.81
354.128	114.81
354.355	106.81
354.583	103.81
354.81	105.81
355.037	80.81
355.264	97.81
355.491	84.81
355.718	91.81
355.945	97.81
356.172	101.81
356.399	83.81
356.626	99.81
356.853	91.81
357.08	88.81
357.307	104.81
357.534	98.81
357.761	91.81
357.988	91.81
358.215	95.81
358.441	100.81
358.668	97.81
358.895	96.81
359.122	93.81
359.349	91.81
359.576	89.81
359.802	110.81
360.029	134.81
360.256	127.81
360.483	101.81
360.709	94.81
360.936	102.81
361.163	103.81
361.39	86.81
361.616	91.81
361.843	107.81
362.07	80.81
362.296	98.81
362.523	106.81
362.749	94.81
362.976	88.81
363.203	86.81
363.429	92.81
363.656	94.81
363.882	85.81
364.109	99.81
364.335	87.81
364.562	99.81
364.788	79.81
365.015	103.81
365.241	118.81
365.468	113.81
365.694	115.81
365.92	103.81
366.147	87.81
366.373	97.81
366.599	84.81
366.826	99.81
367.052	88.81
367.278	100.81
367.505	100.81
367.731	100.81
367.957	107.81
368.184	95.81
368.41	103.81
368.636	117.81
368.862	140.81
369.089	135.81
369.315	98.81
369.541	93.81
369.767	94.81
369.993	90.81
370.219	89.81
370.445	94.81
370.672	83.81
370.898	96.81
371.124	89.81
371.35	72.81
371.576	91.81
371.802	85.81
372.028	87.81
372.254	89.81
372.48	92.81
372.706	95.81
372.932	80.81
373.158	88.81
373.384	98.81
373.61	82.81
373.835	72.81
374.061	92.81
374.287	108.81
374.513	87.81
374.739	91.81
374.965	93.81
375.191	90.81
375.416	95.81
375.642	78.81
375.868	92.81
376.094	75.81
376.319	90.81
376.545	98.81
376.771	93.81
376.997	64.81
377.222	95.81
377.448	95.81
377.674	90.81
377.899	89.81
378.125	102.81
378.35	100.81
378.576	101.81
378.802	106.81
379.027	95.81
379.253	92.81
379.478	76.81
379.704	79.81
379.929	97.81
380.155	116.81
380.38	93.81
380.606	96.81
380.831	95.81
381.057	83.81
381.282	103.81
381.507	105.81
381.733	99.81
381.958	94.81
382.184	105.81
382.409	118.81
382.634	102.81
382.86	103.81
383.085	93.81
383.31	101.81
383.535	98.81
383.761	92.81
383.986	87.81
384.211	93.81
384.436	111.81
384.662	109.81
384.887	116.81
385.112	117.81
385.337	106.81
385.562	121.81
385.787	108.81
386.013	116.81
386.238	124.81
386.463	115.81
386.688	115.81
386.913	92.81
387.138	111.81
387.363	105.81
387.588	111.81
387.813	102.81
388.038	120.81
388.263	104.81
388.488	105.81
388.713	101.81
388.938	107.81
389.163	109.81
389.387	94.81
389.612	91.81
389.837	88.81
390.062	89.81
390.287	90.81
390.512	93.81
390.736	92.81
390.961	86.81
391.186	100.81
391.411	101.81
391.636	93.81
391.86	87.81
392.085	85.81
392.31	78.81
392.534	84.81
392.759	92.81
392.984	85.81
393.208	95.81
393.433	103.81
393.658	99.81
393.882	94.81
394.107	102.81
394.331	79.81
394.556	69.81
394.78	98.81
395.005	100.81
395.229	83.81
395.454	87.81
395.678	101.81
395.903	86.81
396.127	95.81
396.352	87.81
396.576	89.81
396.801	91.81
397.025	91.81
397.249	93.81
397.474	79.81
397.698	92.81
397.922	86.81
398.147	86.81
398.371	83.81
398.595	94.81
398.82	80.81
399.044	93.81
399.268	93.81
399.492	87.81
399.717	94.81
399.941	95.81
400.165	88.81
400.389	100.81
400.613	94.81
400.837	84.81
401.062	100.81
401.286	88.81
401.51	96.81
401.734	91.81
401.958	112.81
402.182	140.81
402.406	179.81
402.63	141.81
402.854	104.81
403.078	89.81
403.302	95.81
403.526	99.81
403.75	88.81
403.974	92.81
404.198	92.81
404.422	92.81
404.645	91.81
404.869	92.81
405.093	95.81
405.317	100.81
405.541	104.81
405.765	110.81
405.988	119.81
406.212	199.81
406.436	288.81
406.66	200.81
406.883	103.81
407.107	101.81
407.331	98.81
407.555	101.81
407.778	92.81
408.002	91.81
408.226	85.81
408.449	84.81
408.673	92.81
408.896	94.81
409.12	95.81
409.344	82.81
409.567	92.81
409.791	93.81
410.014	94.81
410.238	87.81
410.461	83.81
410.685	90.81
410.908	114.81
411.132	118.81
411.355	105.81
411.578	106.81
411.802	87.81
412.025	101.81
412.249	96.81
412.472	88.81
412.695	100.81
412.919	97.81
413.142	88.81
413.365	98.81
413.589	92.81
413.812	89.81
414.035	90.81
414.258	98.81
414.482	105.81
414.705	103.81
414.928	83.81
415.151	90.81
415.374	96.81
415.597	105.81
415.821	99.81
416.044	90.81
416.267	87.81
416.49	95.81
416.713	83.81
416.936	89.81
417.159	89.81
417.382	75.81
417.605	112.81
417.828	104.81
418.051	97.81
418.274	87.81
418.497	98.81
418.72	87.81
418.943	86.81
419.166	90.81
419.389	94.81
419.611	83.81
419.834	78.81
420.057	94.81
420.28	78.81
420.503	86.81
420.726	78.81
420.948	86.81
421.171	89.81
421.394	74.81
421.617	92.81
421.839	82.81
422.062	92.81
422.285	104.81
422.507	107.81
422.73	116.81
422.953	110.81
423.175	88.81
423.398	80.81
423.621	97.81
423.843	95.81
424.066	82.81
424.288	102.81
424.511	85.81
424.733	98.81
424.956	96.81
425.178	89.81
425.401	103.81
425.623	95.81
425.846	94.81
426.068	94.81
426.291	88.81
426.513	99.81
426.735	101.81
426.958	98.81
427.18	110.81
427.402	144.81
427.625	180.81
427.847	140.81
428.069	110.81
428.292	93.81
428.514	92.81
428.736	91.81
428.958	78.81
429.181	87.81
429.403	80.81
429.625	103.81
429.847	100.81
430.069	105.81
430.292	94.81
430.514	82.81
430.736	84.81
430.958	87.81
431.18	90.81
431.402	86.81
431.624	95.81
431.846	106.81
432.068	89.81
432.29	80.81
432.512	93.81
432.734	92.81
432.956	91.81
433.178	109.81
433.4	90.81
433.622	91.81
433.844	99.81
434.066	94.81
434.287	94.81
434.509	94.81
434.731	100.81
434.953	91.81
435.175	81.81
435.397	86.81
435.618	90.81
435.84	110.81
436.062	141.81
436.284	107.81
436.505	101.81
436.727	94.81
436.949	80.81
437.17	85.81
437.392	87.81
437.614	104.81
437.835	122.81
438.057	126.81
438.278	127.81
438.5	107.81
438.721	133.81
438.943	122.81
439.165	79.81
439.386	99.81
439.608	98.81
439.829	94.81
440.05	154.81
440.272	172.81
440.493	100.81
440.715	90.81
440.936	99.81
441.158	82.81
441.379	87.81
441.6	90.81
441.822	101.81
442.043	100.81
442.264	102.81
442.486	101.81
442.707	97.81
442.928	108.81
443.149	139.81
443.371	152.81
443.592	121.81
443.813	140.81
444.034	102.81
444.255	96.81
444.476	77.81
444.698	96.81
444.919	87.81
445.14	132.81
445.361	137.81
445.582	139.81
445.803	155.81
446.024	153.81
446.245	150.81
446.466	110.81
446.687	83.81
446.908	92.81
447.129	86.81
447.35	88.81
447.571	95.81
447.792	94.81
448.013	89.81
448.234	114.81
448.455	105.81
448.675	124.81
448.896	109.81
449.117	86.81
449.338	115.81
449.559	130.81
449.779	134.81
450	86.81
450.221	93.81
450.442	90.81
450.662	98.81
450.883	120.81
451.104	133.81
451.324	99.81
451.545	85.81
451.766	94.81
451.986	76.81
452.207	95.81
452.428	95.81
452.648	97.81
452.869	122.81
453.089	115.81
453.31	128.81
453.53	92.81
453.751	78.81
453.971	103.81
454.192	111.81
454.412	96.81
454.633	87.81
454.853	94.81
455.073	100.81
455.294	94.81
455.514	107.81
455.734	93.81
455.955	85.81
456.175	74.81
456.395	89.81
456.616	92.81
456.836	80.81
457.056	86.81
457.276	88.81
457.497	81.81
457.717	83.81
457.937	91.81
458.157	93.81
458.377	102.81
458.598	130.81
458.818	188.81
459.038	210.81
459.258	146.81
459.478	90.81
459.698	88.81
459.918	88.81
460.138	94.81
460.358	90.81
460.578	86.81
460.798	100.81
461.018	97.81
461.238	94.81
461.458	93.81
461.678	80.81
461.898	84.81
462.118	86.81
462.338	94.81
462.558	73.81
462.777	101.81
462.997	83.81
463.217	76.81
463.437	68.81
463.657	77.81
463.876	84.81
464.096	93.81
464.316	106.81
464.536	93.81
464.755	110.81
464.975	130.81
465.195	219.81
465.414	189.81
465.634	113.81
465.854	102.81
466.073	99.81
466.293	88.81
466.512	88.81
466.732	76.81
466.951	81.81
467.171	95.81
467.391	108.81
467.61	111.81
467.829	92.81
468.049	102.81
468.268	88.81
468.488	98.81
468.707	86.81
468.927	85.81
469.146	81.81
469.365	78.81
469.585	90.81
469.804	101.81
470.023	89.81
470.243	88.81
470.462	98.81
470.681	99.81
470.901	95.81
471.12	89.81
471.339	91.81
471.558	85.81
471.777	109.81
471.997	91.81
472.216	91.81
472.435	117.81
472.654	87.81
472.873	85.81
473.092	84.81
473.311	87.81
473.53	92.81
473.749	99.81
473.968	109.81
474.187	88.81
474.406	100.81
474.625	86.81
474.844	91.81
475.063	94.81
475.282	90.81
475.501	80.81
475.72	92.81
475.939	73.81
476.158	92.81
476.377	90.81
476.596	86.81
476.814	105.81
477.033	88.81
477.252	95.81
477.471	88.81
477.69	105.81
477.908	87.81
478.127	85.81
478.346	78.81
478.564	92.81
478.783	109.81
479.002	92.81
479.22	80.81
479.439	94.81
479.658	86.81
479.876	105.81
480.095	100.81
480.313	98.81
480.532	91.81
480.751	78.81
480.969	102.81
481.188	144.81
481.406	108.81
481.624	102.81
481.843	100.81
482.061	79.81
482.28	87.81
482.498	95.81
482.717	79.81
482.935	89.81
483.153	76.81
483.372	93.81
483.59	88.81
483.808	101.81
484.027	86.81
484.245	98.81
484.463	83.81
484.681	95.81
484.9	85.81
485.118	108.81
485.336	100.81
485.554	100.81
485.772	99.81
485.99	107.81
486.209	98.81
486.427	111.81
486.645	132.81
486.863	122.81
487.081	108.81
487.299	101.81
487.517	96.81
487.735	95.81
487.953	97.81
488.171	88.81
488.389	108.81
488.607	107.81
488.825	95.81
489.043	86.81
489.261	82.81
489.479	94.81
489.696	79.81
489.914	99.81
490.132	98.81
490.35	85.81
490.568	92.81
490.786	91.81
491.003	84.81
491.221	82.81
491.439	87.81
491.657	90.81
491.874	83.81
492.092	85.81
492.31	95.81
492.527	104.81
492.745	72.81
492.963	85.81
493.18	82.81
493.398	97.81
493.615	96.81
493.833	90.81
494.05	87.81
494.268	78.81
494.485	92.81
494.703	91.81
494.92	86.81
495.138	91.81
495.355	96.81
495.573	83.81
495.79	98.81
496.008	87.81
496.225	83.81
496.442	95.81
496.66	87.81
496.877	78.81
497.094	99.81
497.312	100.81
497.529	99.81
497.746	96.81
497.963	99.81
498.181	91.81
498.398	86.81
498.615	116.81
498.832	117.81
499.049	95.81
499.267	102.81
499.484	86.81
499.701	86.81
499.918	98.81
500.135	81.81
500.352	86.81
500.569	80.81
500.786	100.81
501.003	80.81
501.22	91.81
501.437	92.81
501.654	87.81
501.871	112.81
502.088	92.81
502.305	91.81
502.522	89.81
502.739	90.81
502.956	94.81
503.172	95.81
503.389	106.81
503.606	118.81
503.823	106.81
504.04	88.81
504.256	92.81
504.473	106.81
504.69	87.81
504.907	94.81
505.123	104.81
505.34	88.81
505.557	102.81
505.773	92.81
505.99	83.81
506.207	95.81
506.423	94.81
506.64	86.81
506.856	92.81
507.073	91.81
507.289	103.81
507.506	111.81
507.722	119.81
507.939	131.81
508.155	98.81
508.372	91.81
508.588	113.81
508.805	103.81
509.021	100.81
509.238	107.81
509.454	109.81
509.67	98.81
509.887	112.81
510.103	138.81
510.319	259.81
510.536	1003.81
510.752	3383.81
510.968	937.81
511.184	180.81
511.401	126.81
511.617	100.81
511.833	95.81
512.049	102.81
512.265	84.81
512.481	72.81
512.698	94.81
512.914	108.81
513.13	81.81
513.346	86.81
513.562	79.81
513.778	116.81
513.994	105.81
514.21	99.81
514.426	123.81
