Data from Circ_2012_H10_HRD10591_00091.txt Node
Date: Wed Jan 03 10:06:08 EST 2024
User: Yrep
Spectrometer: HR+D1059
Trigger mode: 1
Integration Time (sec): 1.000000E-1
Scans to average: 1
Electric dark correction enabled: true
Nonlinearity correction enabled: false
Boxcar width: 0
XAxis mode: Wavelengths
Number of Pixels in Spectrum: 2048
>>>>>Begin Spectral Data<<<<<
223.165	-19.44
223.4	-19.44
223.635	-19.44
223.869	-29.44
224.104	-25.44
224.338	-13.44
224.573	-13.44
224.808	-5.44
225.042	-8.44
225.277	-5.44
225.511	-2.44
225.746	-5.44
225.98	21.56
226.215	10.56
226.449	6.56
226.683	24.56
226.918	34.56
227.152	30.56
227.387	34.56
227.621	32.56
227.856	45.56
228.09	48.56
228.324	55.56
228.559	63.56
228.793	162.56
229.027	410.56
229.262	510.56
229.496	560.56
229.73	750.56
229.964	760.56
230.199	508.56
230.433	443.56
230.667	449.56
230.901	434.56
231.136	417.56
231.37	441.56
231.604	427.56
231.838	432.56
232.072	450.56
232.306	451.56
232.541	461.56
232.775	456.56
233.009	454.56
233.243	462.56
233.477	457.56
233.711	481.56
233.945	468.56
234.179	495.56
234.413	494.56
234.647	475.56
234.881	484.56
235.115	510.56
235.349	512.56
235.583	547.56
235.817	575.56
236.051	623.56
236.285	603.56
236.519	608.56
236.753	659.56
236.987	859.56
237.221	1298.56
237.455	1369.56
237.689	832.56
237.922	710.56
238.156	707.56
238.39	658.56
238.624	635.56
238.858	628.56
239.091	634.56
239.325	638.56
239.559	641.56
239.793	677.56
240.027	754.56
240.26	880.56
240.494	900.56
240.728	902.56
240.961	874.56
241.195	805.56
241.429	762.56
241.662	759.56
241.896	735.56
242.13	754.56
242.363	748.56
242.597	783.56
242.83	809.56
243.064	785.56
243.298	798.56
243.531	820.56
243.765	818.56
243.998	820.56
244.232	822.56
244.465	855.56
244.699	889.56
244.932	882.56
245.166	865.56
245.399	897.56
245.633	872.56
245.866	874.56
246.099	923.56
246.333	929.56
246.566	929.56
246.8	942.56
247.033	1007.56
247.266	985.56
247.5	1064.56
247.733	1115.56
247.966	1119.56
248.2	1103.56
248.433	1128.56
248.666	1154.56
248.899	1284.56
249.133	1384.56
249.366	1414.56
249.599	1292.56
249.832	1234.56
250.066	1280.56
250.299	1426.56
250.532	1625.56
250.765	1746.56
250.998	1785.56
251.231	1630.56
251.465	1438.56
251.698	1422.56
251.931	1343.56
252.164	1348.56
252.397	1377.56
252.63	1416.56
252.863	1519.56
253.096	1620.56
253.329	1642.56
253.562	1530.56
253.795	1482.56
254.028	1513.56
254.261	1552.56
254.494	1730.56
254.727	2041.56
254.96	2091.56
255.193	1856.56
255.426	1794.56
255.659	1795.56
255.892	2107.56
256.124	2470.56
256.357	2277.56
256.59	1907.56
256.823	1715.56
257.056	1621.56
257.289	1564.56
257.521	1561.56
257.754	1535.56
257.987	1525.56
258.22	1527.56
258.452	1491.56
258.685	1514.56
258.918	1584.56
259.151	1571.56
259.383	1625.56
259.616	1599.56
259.849	1664.56
260.081	1824.56
260.314	1943.56
260.547	1934.56
260.779	1770.56
261.012	1715.56
261.244	1668.56
261.477	1616.56
261.71	1635.56
261.942	1691.56
262.175	1696.56
262.407	1661.56
262.64	1607.56
262.872	1608.56
263.105	1580.56
263.337	1599.56
263.57	1659.56
263.802	1625.56
264.035	1665.56
264.267	1646.56
264.499	1642.56
264.732	1630.56
264.964	1649.56
265.197	1675.56
265.429	1654.56
265.661	1682.56
265.894	1678.56
266.126	1698.56
266.358	1726.56
266.591	1729.56
266.823	1810.56
267.055	1824.56
267.287	1796.56
267.52	1763.56
267.752	1794.56
267.984	1811.56
268.216	1811.56
268.448	1860.56
268.681	1906.56
268.913	2028.56
269.145	2243.56
269.377	2258.56
269.609	2157.56
269.841	2206.56
270.073	2267.56
270.306	2502.56
270.538	2658.56
270.77	2512.56
271.002	2383.56
271.234	2328.56
271.466	2442.56
271.698	2587.56
271.93	2632.56
272.162	2659.56
272.394	2519.56
272.626	2381.56
272.858	2238.56
273.09	2180.56
273.322	2189.56
273.553	2144.56
273.785	2176.56
274.017	2155.56
274.249	2171.56
274.481	2162.56
274.713	2214.56
274.945	2256.56
275.176	2241.56
275.408	2229.56
275.64	2221.56
275.872	2220.56
276.104	2262.56
276.335	2267.56
276.567	2375.56
276.799	2548.56
277.031	2755.56
277.262	2787.56
277.494	2681.56
277.726	2559.56
277.957	2454.56
278.189	2427.56
278.421	2312.56
278.652	2356.56
278.884	2298.56
279.115	2304.56
279.347	2355.56
279.579	2332.56
279.81	2359.56
280.042	2436.56
280.273	2407.56
280.505	2436.56
280.736	2383.56
280.968	2392.56
281.199	2425.56
281.431	2414.56
281.662	2437.56
281.894	2426.56
282.125	2510.56
282.356	2625.56
282.588	2790.56
282.819	2613.56
283.051	2552.56
283.282	2434.56
283.513	2541.56
283.745	2510.56
283.976	2570.56
284.207	2590.56
284.439	2586.56
284.67	2556.56
284.901	2584.56
285.132	2530.56
285.364	2591.56
285.595	2584.56
285.826	2622.56
286.057	2598.56
286.288	2606.56
286.52	2649.56
286.751	2632.56
286.982	2639.56
287.213	2700.56
287.444	2662.56
287.675	2774.56
287.906	2822.56
288.138	2892.56
288.369	2872.56
288.6	2834.56
288.831	2823.56
289.062	2751.56
289.293	2759.56
289.524	2796.56
289.755	2736.56
289.986	2728.56
290.217	2771.56
290.448	2750.56
290.679	2763.56
290.91	2744.56
291.141	2706.56
291.371	2798.56
291.602	2770.56
291.833	2728.56
292.064	2745.56
292.295	2746.56
292.526	2814.56
292.757	2788.56
292.987	2796.56
293.218	2752.56
293.449	2767.56
293.68	2788.56
293.91	2808.56
294.141	2754.56
294.372	2807.56
294.603	2781.56
294.833	2815.56
295.064	2773.56
295.295	2832.56
295.525	2790.56
295.756	2872.56
295.987	2926.56
296.217	3120.56
296.448	3023.56
296.679	2929.56
296.909	2873.56
297.14	2907.56
297.37	2918.56
297.601	3003.56
297.831	2995.56
298.062	3017.56
298.292	3013.56
298.523	3015.56
298.753	3070.56
298.984	2990.56
299.214	3035.56
299.445	3054.56
299.675	3027.56
299.905	3092.56
300.136	3054.56
300.366	3075.56
300.597	3042.56
300.827	3272.56
301.057	3272.56
301.288	3321.56
301.518	3275.56
301.748	3236.56
301.979	3334.56
302.209	3290.56
302.439	3337.56
302.669	3247.56
302.9	3244.56
303.13	3230.56
303.36	3206.56
303.59	3302.56
303.82	3314.56
304.051	3282.56
304.281	3266.56
304.511	3194.56
304.741	3247.56
304.971	3276.56
305.201	3207.56
305.431	3221.56
305.661	3196.56
305.891	3172.56
306.121	3228.56
306.352	3303.56
306.582	3242.56
306.812	3253.56
307.042	3230.56
307.272	3224.56
307.502	3282.56
307.731	3217.56
307.961	3270.56
308.191	3192.56
308.421	3165.56
308.651	3225.56
308.881	3240.56
309.111	3286.56
309.341	3246.56
309.571	3408.56
309.8	3463.56
310.03	3468.56
310.26	3526.56
310.49	3575.56
310.72	3622.56
310.949	3730.56
311.179	3594.56
311.409	3549.56
311.639	3502.56
311.868	3537.56
312.098	3622.56
312.328	3634.56
312.557	3817.56
312.787	3873.56
313.017	3776.56
313.246	3648.56
313.476	3651.56
313.706	3714.56
313.935	3844.56
314.165	3864.56
314.394	3891.56
314.624	3775.56
314.853	3732.56
315.083	3734.56
315.312	3638.56
315.542	3618.56
315.771	3608.56
316.001	3575.56
316.23	3559.56
316.46	3601.56
316.689	3645.56
316.919	3667.56
317.148	3692.56
317.377	3659.56
317.607	3687.56
317.836	3626.56
318.065	3586.56
318.295	3617.56
318.524	3637.56
318.753	3631.56
318.983	3625.56
319.212	3634.56
319.441	3715.56
319.67	3718.56
319.9	3617.56
320.129	3657.56
320.358	3712.56
320.587	3681.56
320.816	3718.56
321.046	3742.56
321.275	3754.56
321.504	3780.56
321.733	3824.56
321.962	3837.56
322.191	3916.56
322.42	4070.56
322.649	4154.56
322.878	4224.56
323.108	4280.56
323.337	4473.56
323.566	4623.56
323.795	4876.56
324.024	5492.56
324.253	7187.56
324.482	10782.56
324.71	15160.56
324.939	15596.56
325.168	12811.56
325.397	6486.56
325.626	5275.56
325.855	4914.56
326.084	4712.56
326.313	4755.56
326.542	4923.56
326.77	5589.56
326.999	7064.56
327.228	10219.56
327.457	14272.56
327.686	13612.56
327.914	7442.56
328.143	6263.56
328.372	5944.56
328.6	5513.56
328.829	5326.56
329.058	5452.56
329.287	5529.56
329.515	5207.56
329.744	5219.56
329.972	5639.56
330.201	6245.56
330.43	6728.56
330.658	6186.56
330.887	6062.56
331.115	5516.56
331.344	5072.56
331.572	5022.56
331.801	5096.56
332.03	5118.56
332.258	4978.56
332.486	5075.56
332.715	5142.56
332.943	5255.56
333.172	5507.56
333.4	5716.56
333.629	5883.56
333.857	6230.56
334.085	6624.56
334.314	7207.56
334.542	7890.56
334.771	7524.56
334.999	6156.56
335.227	5584.56
335.455	5369.56
335.684	5178.56
335.912	5095.56
336.14	4969.56
336.369	4991.56
336.597	5035.56
336.825	5010.56
337.053	4897.56
337.281	4748.56
337.51	4750.56
337.738	4770.56
337.966	4614.56
338.194	4646.56
338.422	4595.56
338.65	4541.56
338.878	4454.56
339.106	4472.56
339.334	4491.56
339.562	4431.56
339.79	4356.56
340.018	4279.56
340.246	4374.56
340.474	4349.56
340.702	4321.56
340.93	4351.56
341.158	4360.56
341.386	4322.56
341.614	4302.56
341.842	4261.56
342.07	4271.56
342.298	4270.56
342.526	4215.56
342.754	4251.56
342.981	4258.56
343.209	4327.56
343.437	4554.56
343.665	4768.56
343.893	5088.56
344.12	5050.56
344.348	4860.56
344.576	4712.56
344.804	4632.56
345.031	4543.56
345.259	4536.56
345.487	4389.56
345.714	4224.56
345.942	4183.56
346.17	4123.56
346.397	4174.56
346.625	4091.56
346.853	4062.56
347.08	4096.56
347.308	4164.56
347.535	4205.56
347.763	4221.56
347.99	4201.56
348.218	4214.56
348.445	4224.56
348.673	4166.56
348.9	4096.56
349.128	4067.56
349.355	3963.56
349.583	3946.56
349.81	3974.56
350.037	3926.56
350.265	3961.56
350.492	4010.56
350.72	4023.56
350.947	4027.56
351.174	4051.56
351.402	4169.56
351.629	4094.56
351.856	4036.56
352.083	4123.56
352.311	4125.56
352.538	4136.56
352.765	4147.56
352.992	4098.56
353.22	3937.56
353.447	4006.56
353.674	3914.56
353.901	3810.56
354.128	3877.56
354.355	3853.56
354.583	3864.56
354.81	3934.56
355.037	3911.56
355.264	3869.56
355.491	3870.56
355.718	3869.56
355.945	3882.56
356.172	3889.56
356.399	3892.56
356.626	3930.56
356.853	3940.56
357.08	3895.56
357.307	3887.56
357.534	3881.56
357.761	3894.56
357.988	3883.56
358.215	3864.56
358.441	3956.56
358.668	3898.56
358.895	3935.56
359.122	4022.56
359.349	4070.56
359.576	4183.56
359.802	4365.56
360.029	4527.56
360.256	4512.56
360.483	4290.56
360.709	4092.56
360.936	4033.56
361.163	4105.56
361.39	4153.56
361.616	4187.56
361.843	4099.56
362.07	4102.56
362.296	4120.56
362.523	4100.56
362.749	4074.56
362.976	4027.56
363.203	4051.56
363.429	3988.56
363.656	4006.56
363.882	3934.56
364.109	3943.56
364.335	3924.56
364.562	4006.56
364.788	3946.56
365.015	3976.56
365.241	3991.56
365.468	4004.56
365.694	4080.56
365.92	3992.56
366.147	3918.56
366.373	4018.56
366.599	3968.56
366.826	3895.56
367.052	3895.56
367.278	3963.56
367.505	3987.56
367.731	3987.56
367.957	4019.56
368.184	4010.56
368.41	4107.56
368.636	4177.56
368.862	4206.56
369.089	4146.56
369.315	4074.56
369.541	4100.56
369.767	4113.56
369.993	4110.56
370.219	4123.56
370.445	4083.56
370.672	4103.56
370.898	4126.56
371.124	4253.56
371.35	4210.56
371.576	4198.56
371.802	4253.56
372.028	4161.56
372.254	4233.56
372.48	4317.56
372.706	4318.56
372.932	4358.56
373.158	4285.56
373.384	4264.56
373.61	4167.56
373.835	4299.56
374.061	4283.56
374.287	4380.56
374.513	4405.56
374.739	4479.56
374.965	4652.56
375.191	4633.56
375.416	4564.56
375.642	4440.56
375.868	4405.56
376.094	4328.56
376.319	4305.56
376.545	4312.56
376.771	4277.56
376.997	4265.56
377.222	4257.56
377.448	4239.56
377.674	4245.56
377.899	4222.56
378.125	4141.56
378.35	4128.56
378.576	4139.56
378.802	4200.56
379.027	4242.56
379.253	4174.56
379.478	4180.56
379.704	4200.56
379.929	4187.56
380.155	4222.56
380.38	4207.56
380.606	4289.56
380.831	4227.56
381.057	4311.56
381.282	4252.56
381.507	4255.56
381.733	4370.56
381.958	4301.56
382.184	4401.56
382.409	4448.56
382.634	4407.56
382.86	4457.56
383.085	4538.56
383.31	4559.56
383.535	4654.56
383.761	4699.56
383.986	4782.56
384.211	4852.56
384.436	4874.56
384.662	4905.56
384.887	5080.56
385.112	5026.56
385.337	5093.56
385.562	5068.56
385.787	5152.56
386.013	5206.56
386.238	5203.56
386.463	5187.56
386.688	5154.56
386.913	5092.56
387.138	5080.56
387.363	5093.56
387.588	4985.56
387.813	4996.56
388.038	5033.56
388.263	5040.56
388.488	5109.56
388.713	5084.56
388.938	5031.56
389.163	5014.56
389.387	4999.56
389.612	4913.56
389.837	4922.56
390.062	4994.56
390.287	4939.56
390.512	5017.56
390.736	4971.56
390.961	5126.56
391.186	5171.56
391.411	5303.56
391.636	5489.56
391.86	5626.56
392.085	5681.56
392.31	5544.56
392.534	5470.56
392.759	5337.56
392.984	5294.56
393.208	5272.56
393.433	5201.56
393.658	5309.56
393.882	5332.56
394.107	5242.56
394.331	5304.56
394.556	5370.56
394.78	5317.56
395.005	5432.56
395.229	5445.56
395.454	5567.56
395.678	5729.56
395.903	5707.56
396.127	5770.56
396.352	5590.56
396.576	5375.56
396.801	5287.56
397.025	5387.56
397.249	5579.56
397.474	5764.56
397.698	5754.56
397.922	5872.56
398.147	5904.56
398.371	6074.56
398.595	6138.56
398.82	6447.56
399.044	6990.56
399.268	7744.56
399.492	8734.56
399.717	9374.56
399.941	9166.56
400.165	8506.56
400.389	7988.56
400.613	7029.56
400.837	6686.56
401.062	6572.56
401.286	6447.56
401.51	6406.56
401.734	6392.56
401.958	6516.56
402.182	6544.56
402.406	6775.56
402.63	6740.56
402.854	6886.56
403.078	6984.56
403.302	7093.56
403.526	7194.56
403.75	7257.56
403.974	7279.56
404.198	7259.56
404.422	7466.56
404.645	7356.56
404.869	7514.56
405.093	7875.56
405.317	8298.56
405.541	8176.56
405.765	7530.56
405.988	7269.56
406.212	7343.56
406.436	7503.56
406.66	7706.56
406.883	7642.56
407.107	8252.56
407.331	8750.56
407.555	9194.56
407.778	8916.56
408.002	8091.56
408.226	7668.56
408.449	7600.56
408.673	7464.56
408.896	7582.56
409.12	7814.56
409.344	7401.56
409.567	7090.56
409.791	6970.56
410.014	6950.56
410.238	6878.56
410.461	6881.56
410.685	6853.56
410.908	7037.56
411.132	7202.56
411.355	7252.56
411.578	6900.56
411.802	6780.56
412.025	6872.56
412.249	7084.56
412.472	7529.56
412.695	7860.56
412.919	7218.56
413.142	6924.56
413.365	6719.56
413.589	6528.56
413.812	6418.56
414.035	6256.56
414.258	6335.56
414.482	6404.56
414.705	6475.56
414.928	6328.56
415.151	6378.56
415.374	6382.56
415.597	6311.56
415.821	6177.56
416.044	6218.56
416.267	6250.56
416.49	6162.56
416.713	6059.56
416.936	6231.56
417.159	6197.56
417.382	6296.56
417.605	6249.56
417.828	6425.56
418.051	6571.56
418.274	6411.56
418.497	6368.56
418.72	6386.56
418.943	6401.56
419.166	6887.56
419.389	7225.56
419.611	7106.56
419.834	6981.56
420.057	6950.56
420.28	6886.56
420.503	6769.56
420.726	6754.56
420.948	6793.56
421.171	7033.56
421.394	7054.56
421.617	6497.56
421.839	6314.56
422.062	6558.56
422.285	6713.56
422.507	7378.56
422.73	7757.56
422.953	7260.56
423.175	6868.56
423.398	6967.56
423.621	6848.56
423.843	7116.56
424.066	7090.56
424.288	6989.56
424.511	7129.56
424.733	7633.56
424.956	8086.56
425.178	7576.56
425.401	7682.56
425.623	7577.56
425.846	6707.56
426.068	6458.56
426.291	6422.56
426.513	6368.56
426.735	6558.56
426.958	6995.56
427.18	7752.56
427.402	8811.56
427.625	9080.56
427.847	7940.56
428.069	7407.56
428.292	6510.56
428.514	6038.56
428.736	5940.56
428.958	5888.56
429.181	5714.56
429.403	5701.56
429.625	5835.56
429.847	6147.56
430.069	6695.56
430.292	6245.56
430.514	5675.56
430.736	5712.56
430.958	5632.56
431.18	5543.56
431.402	5591.56
431.624	5468.56
431.846	5630.56
432.068	5626.56
432.29	5705.56
432.512	5553.56
432.734	5681.56
432.956	5627.56
433.178	5742.56
433.4	5723.56
433.622	5658.56
433.844	5723.56
434.066	5730.56
434.287	5723.56
434.509	5986.56
434.731	6250.56
434.953	6271.56
435.175	6465.56
435.397	6542.56
435.618	6488.56
435.84	6786.56
436.062	7665.56
436.284	7616.56
436.505	6408.56
436.727	6136.56
436.949	5785.56
437.17	5710.56
437.392	5636.56
437.614	5808.56
437.835	6226.56
438.057	7108.56
438.278	7816.56
438.5	7774.56
438.721	8446.56
438.943	7434.56
439.165	6198.56
439.386	6081.56
439.608	6146.56
439.829	6201.56
440.05	6531.56
440.272	6942.56
440.493	6263.56
440.715	6032.56
440.936	6011.56
441.158	6079.56
441.379	6053.56
441.6	6474.56
441.822	6672.56
442.043	7061.56
442.264	7838.56
442.486	7570.56
442.707	6713.56
442.928	6532.56
443.149	6720.56
443.371	6966.56
443.592	7478.56
443.813	8374.56
444.034	8502.56
444.255	7292.56
444.476	7182.56
444.698	7226.56
444.919	7452.56
445.14	7251.56
445.361	7063.56
445.582	7182.56
445.803	7743.56
446.024	8416.56
446.245	8078.56
446.466	7218.56
446.687	6309.56
446.908	5945.56
447.129	5701.56
447.35	5594.56
447.571	5512.56
447.792	5489.56
448.013	5516.56
448.234	5778.56
448.455	6409.56
448.675	7589.56
448.896	7937.56
449.117	6521.56
449.338	6732.56
449.559	7998.56
449.779	8279.56
450	6301.56
450.221	5592.56
450.442	5375.56
450.662	5354.56
450.883	5400.56
451.104	5553.56
451.324	5420.56
451.545	5215.56
451.766	5039.56
451.986	5002.56
452.207	4920.56
452.428	4930.56
452.648	5013.56
452.869	5005.56
453.089	5086.56
453.31	5161.56
453.53	4910.56
453.751	4936.56
453.971	4970.56
454.192	5122.56
454.412	4868.56
454.633	4829.56
454.853	4790.56
455.073	4855.56
455.294	5285.56
455.514	5752.56
455.734	5218.56
455.955	4712.56
456.175	4678.56
456.395	4608.56
456.616	4569.56
456.836	4553.56
457.056	4530.56
457.276	4482.56
457.497	4641.56
457.717	4641.56
457.937	4687.56
458.157	4720.56
458.377	4910.56
458.598	5248.56
458.818	5884.56
459.038	6547.56
459.258	6480.56
459.478	5816.56
459.698	5690.56
459.918	5731.56
460.138	6018.56
460.358	6141.56
460.578	6243.56
460.798	6327.56
461.018	6228.56
461.238	6134.56
461.458	6150.56
461.678	6050.56
461.898	6213.56
462.118	6240.56
462.338	6650.56
462.558	6726.56
462.777	6988.56
462.997	7589.56
463.217	8054.56
463.437	7750.56
463.657	7268.56
463.876	7094.56
464.096	7090.56
464.316	7105.56
464.536	7097.56
464.755	6837.56
464.975	6736.56
465.195	6830.56
465.414	6922.56
465.634	6158.56
465.854	5836.56
466.073	5570.56
466.293	5431.56
466.512	5323.56
466.732	5111.56
466.951	5159.56
467.171	5255.56
467.391	5260.56
467.61	5332.56
467.829	5270.56
468.049	5390.56
468.268	5399.56
468.488	5166.56
468.707	5049.56
468.927	5003.56
469.146	4918.56
469.365	5018.56
469.585	5062.56
469.804	5242.56
470.023	5423.56
470.243	5363.56
470.462	5401.56
470.681	5490.56
470.901	5478.56
471.12	5291.56
471.339	5315.56
471.558	5202.56
471.777	5198.56
471.997	5182.56
472.216	5584.56
472.435	6408.56
472.654	5704.56
472.873	5353.56
473.092	5096.56
473.311	5072.56
473.53	5042.56
473.749	5158.56
473.968	5653.56
474.187	6586.56
474.406	6092.56
474.625	5297.56
474.844	5042.56
475.063	5051.56
475.282	4999.56
475.501	5010.56
475.72	5167.56
475.939	5118.56
476.158	5102.56
476.377	5182.56
476.596	5122.56
476.814	5316.56
477.033	5349.56
477.252	5428.56
477.471	5432.56
477.69	5624.56
477.908	5721.56
478.127	5866.56
478.346	5911.56
478.564	6000.56
478.783	6055.56
479.002	6185.56
479.22	6203.56
479.439	6336.56
479.658	6484.56
479.876	6598.56
480.095	6768.56
480.313	7118.56
480.532	7017.56
480.751	7140.56
480.969	7339.56
481.188	8923.56
481.406	8891.56
481.624	7282.56
481.843	6668.56
482.061	6369.56
482.28	6280.56
482.498	6062.56
482.717	6011.56
482.935	5953.56
483.153	5952.56
483.372	5866.56
483.59	5933.56
483.808	5910.56
484.027	5853.56
484.245	5937.56
484.463	5952.56
484.681	6002.56
484.9	6036.56
485.118	6106.56
485.336	6129.56
485.554	6228.56
485.772	6208.56
485.99	6252.56
486.209	6293.56
486.427	6313.56
486.645	6395.56
486.863	6532.56
487.081	6402.56
487.299	6395.56
487.517	6354.56
487.735	6262.56
487.953	6295.56
