Data from Circ_2012_H10_HRD10591_00075.txt Node
Date: Wed Jan 03 10:06:05 EST 2024
User: Yrep
Spectrometer: HR+D1059
Trigger mode: 1
Integration Time (sec): 1.000000E-1
Scans to average: 1
Electric dark correction enabled: true
Nonlinearity correction enabled: false
Boxcar width: 0
XAxis mode: Wavelengths
Number of Pixels in Spectrum: 2048
>>>>>Begin Spectral Data<<<<<
223.165	-21.31
223.4	-21.31
223.635	-21.31
223.869	-21.31
224.104	-17.31
224.338	-19.31
224.573	-6.31
224.808	-16.31
225.042	-20.31
225.277	-13.31
225.511	-4.31
225.746	0.69
225.98	7.69
226.215	13.69
226.449	23.69
226.683	31.69
226.918	29.69
227.152	32.69
227.387	35.69
227.621	46.69
227.856	43.69
228.09	52.69
228.324	55.69
228.559	62.69
228.793	70.69
229.027	56.69
229.262	63.69
229.496	80.69
229.73	82.69
229.964	92.69
230.199	66.69
230.433	81.69
230.667	83.69
230.901	79.69
231.136	91.69
231.37	89.69
231.604	70.69
231.838	88.69
232.072	82.69
232.306	73.69
232.541	85.69
232.775	66.69
233.009	78.69
233.243	83.69
233.477	80.69
233.711	74.69
233.945	80.69
234.179	68.69
234.413	70.69
234.647	78.69
234.881	70.69
235.115	88.69
235.349	64.69
235.583	71.69
235.817	82.69
236.051	78.69
236.285	76.69
236.519	70.69
236.753	74.69
236.987	73.69
237.221	90.69
237.455	58.69
237.689	90.69
237.922	69.69
238.156	81.69
238.39	79.69
238.624	86.69
238.858	70.69
239.091	72.69
239.325	85.69
239.559	84.69
239.793	95.69
240.027	78.69
240.26	72.69
240.494	72.69
240.728	73.69
240.961	62.69
241.195	70.69
241.429	83.69
241.662	75.69
241.896	77.69
242.13	79.69
242.363	62.69
242.597	75.69
242.83	68.69
243.064	91.69
243.298	87.69
243.531	75.69
243.765	70.69
243.998	75.69
244.232	60.69
244.465	79.69
244.699	80.69
244.932	83.69
245.166	67.69
245.399	62.69
245.633	74.69
245.866	82.69
246.099	91.69
246.333	75.69
246.566	76.69
246.8	73.69
247.033	84.69
247.266	78.69
247.5	79.69
247.733	66.69
247.966	80.69
248.2	70.69
248.433	80.69
248.666	74.69
248.899	86.69
249.133	87.69
249.366	83.69
249.599	92.69
249.832	83.69
250.066	89.69
250.299	89.69
250.532	78.69
250.765	77.69
250.998	71.69
251.231	88.69
251.465	74.69
251.698	89.69
251.931	72.69
252.164	82.69
252.397	74.69
252.63	72.69
252.863	81.69
253.096	75.69
253.329	90.69
253.562	81.69
253.795	71.69
254.028	92.69
254.261	78.69
254.494	76.69
254.727	92.69
254.96	77.69
255.193	63.69
255.426	95.69
255.659	69.69
255.892	76.69
256.124	86.69
256.357	82.69
256.59	66.69
256.823	90.69
257.056	77.69
257.289	80.69
257.521	82.69
257.754	87.69
257.987	84.69
258.22	78.69
258.452	75.69
258.685	72.69
258.918	83.69
259.151	86.69
259.383	74.69
259.616	88.69
259.849	84.69
260.081	89.69
260.314	75.69
260.547	86.69
260.779	91.69
261.012	99.69
261.244	87.69
261.477	88.69
261.71	80.69
261.942	95.69
262.175	113.69
262.407	90.69
262.64	79.69
262.872	88.69
263.105	76.69
263.337	93.69
263.57	84.69
263.802	77.69
264.035	76.69
264.267	78.69
264.499	82.69
264.732	77.69
264.964	86.69
265.197	81.69
265.429	90.69
265.661	77.69
265.894	89.69
266.126	83.69
266.358	79.69
266.591	79.69
266.823	90.69
267.055	77.69
267.287	78.69
267.52	88.69
267.752	88.69
267.984	77.69
268.216	83.69
268.448	91.69
268.681	91.69
268.913	87.69
269.145	91.69
269.377	79.69
269.609	72.69
269.841	79.69
270.073	87.69
270.306	90.69
270.538	88.69
270.77	80.69
271.002	83.69
271.234	82.69
271.466	101.69
271.698	77.69
271.93	90.69
272.162	77.69
272.394	84.69
272.626	98.69
272.858	76.69
273.09	77.69
273.322	81.69
273.553	85.69
273.785	87.69
274.017	98.69
274.249	76.69
274.481	79.69
274.713	92.69
274.945	78.69
275.176	87.69
275.408	83.69
275.64	80.69
275.872	104.69
276.104	89.69
276.335	80.69
276.567	94.69
276.799	116.69
277.031	89.69
277.262	96.69
277.494	93.69
277.726	95.69
277.957	73.69
278.189	76.69
278.421	81.69
278.652	100.69
278.884	76.69
279.115	89.69
279.347	87.69
279.579	88.69
279.81	98.69
280.042	93.69
280.273	93.69
280.505	88.69
280.736	85.69
280.968	90.69
281.199	72.69
281.431	80.69
281.662	94.69
281.894	80.69
282.125	106.69
282.356	104.69
282.588	136.69
282.819	103.69
283.051	84.69
283.282	87.69
283.513	92.69
283.745	91.69
283.976	82.69
284.207	99.69
284.439	79.69
284.67	86.69
284.901	104.69
285.132	89.69
285.364	85.69
285.595	90.69
285.826	85.69
286.057	89.69
286.288	84.69
286.52	80.69
286.751	76.69
286.982	79.69
287.213	81.69
287.444	100.69
287.675	86.69
287.906	77.69
288.138	83.69
288.369	97.69
288.6	78.69
288.831	89.69
289.062	86.69
289.293	90.69
289.524	72.69
289.755	83.69
289.986	88.69
290.217	84.69
290.448	78.69
290.679	85.69
290.91	95.69
291.141	104.69
291.371	96.69
291.602	90.69
291.833	95.69
292.064	88.69
292.295	86.69
292.526	88.69
292.757	86.69
292.987	83.69
293.218	90.69
293.449	93.69
293.68	97.69
293.91	83.69
294.141	94.69
294.372	89.69
294.603	94.69
294.833	83.69
295.064	84.69
295.295	73.69
295.525	79.69
295.756	111.69
295.987	109.69
296.217	129.69
296.448	109.69
296.679	88.69
296.909	85.69
297.14	97.69
297.37	100.69
297.601	92.69
297.831	91.69
298.062	96.69
298.292	84.69
298.523	94.69
298.753	87.69
298.984	96.69
299.214	90.69
299.445	93.69
299.675	89.69
299.905	95.69
300.136	91.69
300.366	89.69
300.597	85.69
300.827	75.69
301.057	82.69
301.288	92.69
301.518	80.69
301.748	90.69
301.979	98.69
302.209	72.69
302.439	83.69
302.669	77.69
302.9	102.69
303.13	89.69
303.36	96.69
303.59	96.69
303.82	102.69
304.051	95.69
304.281	85.69
304.511	75.69
304.741	92.69
304.971	90.69
305.201	92.69
305.431	101.69
305.661	100.69
305.891	108.69
306.121	83.69
306.352	89.69
306.582	90.69
306.812	87.69
307.042	95.69
307.272	96.69
307.502	91.69
307.731	78.69
307.961	100.69
308.191	87.69
308.421	88.69
308.651	82.69
308.881	87.69
309.111	86.69
309.341	98.69
309.571	95.69
309.8	82.69
310.03	80.69
310.26	91.69
310.49	80.69
310.72	90.69
310.949	103.69
311.179	99.69
311.409	99.69
311.639	101.69
311.868	97.69
312.098	107.69
312.328	92.69
312.557	99.69
312.787	104.69
313.017	97.69
313.246	99.69
313.476	89.69
313.706	98.69
313.935	92.69
314.165	86.69
314.394	106.69
314.624	91.69
314.853	83.69
315.083	104.69
315.312	92.69
315.542	84.69
315.771	87.69
316.001	75.69
316.23	86.69
316.46	89.69
316.689	79.69
316.919	83.69
317.148	79.69
317.377	91.69
317.607	94.69
317.836	114.69
318.065	94.69
318.295	96.69
318.524	89.69
318.753	101.69
318.983	92.69
319.212	93.69
319.441	99.69
319.67	93.69
319.9	103.69
320.129	73.69
320.358	92.69
320.587	100.69
320.816	104.69
321.046	100.69
321.275	111.69
321.504	95.69
321.733	86.69
321.962	92.69
322.191	102.69
322.42	109.69
322.649	105.69
322.878	97.69
323.108	114.69
323.337	125.69
323.566	130.69
323.795	154.69
324.024	196.69
324.253	367.69
324.482	714.69
324.71	1447.69
324.939	1898.69
325.168	702.69
325.397	226.69
325.626	131.69
325.855	125.69
326.084	140.69
326.313	141.69
326.542	140.69
326.77	202.69
326.999	407.69
327.228	820.69
327.457	1463.69
327.686	1191.69
327.914	343.69
328.143	186.69
328.372	156.69
328.6	113.69
328.829	110.69
329.058	118.69
329.287	134.69
329.515	110.69
329.744	111.69
329.972	109.69
330.201	147.69
330.43	144.69
330.658	123.69
330.887	132.69
331.115	118.69
331.344	95.69
331.572	93.69
331.801	97.69
332.03	86.69
332.258	100.69
332.486	95.69
332.715	93.69
332.943	108.69
333.172	99.69
333.4	100.69
333.629	103.69
333.857	102.69
334.085	121.69
334.314	130.69
334.542	162.69
334.771	174.69
334.999	123.69
335.227	90.69
335.455	98.69
335.684	87.69
335.912	100.69
336.14	104.69
336.369	97.69
336.597	91.69
336.825	90.69
337.053	90.69
337.281	86.69
337.51	109.69
337.738	85.69
337.966	85.69
338.194	110.69
338.422	95.69
338.65	92.69
338.878	98.69
339.106	91.69
339.334	104.69
339.562	95.69
339.79	79.69
340.018	78.69
340.246	85.69
340.474	98.69
340.702	103.69
340.93	98.69
341.158	99.69
341.386	91.69
341.614	92.69
341.842	78.69
342.07	80.69
342.298	83.69
342.526	92.69
342.754	94.69
342.981	83.69
343.209	75.69
343.437	104.69
343.665	102.69
343.893	87.69
344.12	92.69
344.348	101.69
344.576	81.69
344.804	94.69
345.031	95.69
345.259	93.69
345.487	91.69
345.714	93.69
345.942	88.69
346.17	83.69
346.397	87.69
346.625	81.69
346.853	101.69
347.08	85.69
347.308	96.69
347.535	100.69
347.763	94.69
347.99	104.69
348.218	92.69
348.445	102.69
348.673	103.69
348.9	101.69
349.128	86.69
349.355	87.69
349.583	100.69
349.81	102.69
350.037	108.69
350.265	91.69
350.492	96.69
350.72	103.69
350.947	106.69
351.174	92.69
351.402	122.69
351.629	103.69
351.856	95.69
352.083	110.69
352.311	110.69
352.538	94.69
352.765	115.69
352.992	103.69
353.22	105.69
353.447	106.69
353.674	95.69
353.901	93.69
354.128	89.69
354.355	89.69
354.583	93.69
354.81	89.69
355.037	89.69
355.264	79.69
355.491	72.69
355.718	94.69
355.945	96.69
356.172	103.69
356.399	110.69
356.626	98.69
356.853	89.69
357.08	87.69
357.307	96.69
357.534	83.69
357.761	98.69
357.988	105.69
358.215	93.69
358.441	96.69
358.668	86.69
358.895	84.69
359.122	84.69
359.349	94.69
359.576	77.69
359.802	95.69
360.029	102.69
360.256	107.69
360.483	102.69
360.709	93.69
360.936	99.69
361.163	87.69
361.39	98.69
361.616	85.69
361.843	91.69
362.07	94.69
362.296	99.69
362.523	82.69
362.749	102.69
362.976	90.69
363.203	85.69
363.429	87.69
363.656	92.69
363.882	92.69
364.109	89.69
364.335	83.69
364.562	103.69
364.788	82.69
365.015	84.69
365.241	96.69
365.468	93.69
365.694	85.69
365.92	95.69
366.147	101.69
366.373	80.69
366.599	80.69
366.826	85.69
367.052	92.69
367.278	91.69
367.505	87.69
367.731	86.69
367.957	77.69
368.184	96.69
368.41	74.69
368.636	94.69
368.862	114.69
369.089	105.69
369.315	86.69
369.541	99.69
369.767	87.69
369.993	83.69
370.219	86.69
370.445	79.69
370.672	77.69
370.898	71.69
371.124	107.69
371.35	89.69
371.576	87.69
371.802	97.69
372.028	89.69
372.254	78.69
372.48	89.69
372.706	94.69
372.932	99.69
373.158	97.69
373.384	80.69
373.61	97.69
373.835	90.69
374.061	89.69
374.287	82.69
374.513	83.69
374.739	80.69
374.965	87.69
375.191	84.69
375.416	92.69
375.642	77.69
375.868	94.69
376.094	70.69
376.319	83.69
376.545	90.69
376.771	84.69
376.997	90.69
377.222	97.69
377.448	87.69
377.674	102.69
377.899	86.69
378.125	98.69
378.35	89.69
378.576	95.69
378.802	99.69
379.027	93.69
379.253	96.69
379.478	89.69
379.704	88.69
379.929	107.69
380.155	93.69
380.38	100.69
380.606	103.69
380.831	76.69
381.057	97.69
381.282	88.69
381.507	90.69
381.733	92.69
381.958	89.69
382.184	99.69
382.409	96.69
382.634	96.69
382.86	112.69
383.085	96.69
383.31	91.69
383.535	93.69
383.761	110.69
383.986	92.69
384.211	93.69
384.436	102.69
384.662	91.69
384.887	94.69
385.112	84.69
385.337	104.69
385.562	97.69
385.787	103.69
386.013	90.69
386.238	115.69
386.463	98.69
386.688	108.69
386.913	111.69
387.138	93.69
387.363	103.69
387.588	87.69
387.813	105.69
388.038	112.69
388.263	109.69
388.488	103.69
388.713	92.69
388.938	83.69
389.163	104.69
389.387	94.69
389.612	101.69
389.837	88.69
390.062	107.69
390.287	85.69
390.512	103.69
390.736	78.69
390.961	88.69
391.186	91.69
391.411	96.69
391.636	92.69
391.86	87.69
392.085	74.69
392.31	86.69
392.534	89.69
392.759	89.69
392.984	80.69
393.208	78.69
393.433	87.69
393.658	97.69
393.882	98.69
394.107	86.69
394.331	80.69
394.556	93.69
394.78	95.69
395.005	97.69
395.229	87.69
395.454	93.69
395.678	88.69
395.903	87.69
396.127	98.69
396.352	101.69
396.576	102.69
396.801	86.69
397.025	89.69
397.249	79.69
397.474	89.69
397.698	89.69
397.922	86.69
398.147	88.69
398.371	78.69
398.595	79.69
398.82	75.69
399.044	79.69
399.268	74.69
399.492	74.69
399.717	104.69
399.941	85.69
400.165	91.69
400.389	82.69
400.613	84.69
400.837	86.69
401.062	86.69
401.286	94.69
401.51	79.69
401.734	91.69
401.958	100.69
402.182	124.69
402.406	140.69
402.63	110.69
402.854	90.69
403.078	79.69
403.302	90.69
403.526	91.69
403.75	88.69
403.974	79.69
404.198	73.69
404.422	79.69
404.645	79.69
404.869	88.69
405.093	84.69
405.317	99.69
405.541	107.69
405.765	98.69
405.988	107.69
406.212	157.69
406.436	207.69
406.66	144.69
406.883	94.69
407.107	91.69
407.331	80.69
407.555	87.69
407.778	94.69
408.002	81.69
408.226	103.69
408.449	83.69
408.673	86.69
408.896	86.69
409.12	96.69
409.344	78.69
409.567	102.69
409.791	89.69
410.014	94.69
410.238	88.69
410.461	99.69
410.685	90.69
410.908	86.69
411.132	94.69
411.355	95.69
411.578	97.69
411.802	99.69
412.025	94.69
412.249	76.69
412.472	96.69
412.695	100.69
412.919	90.69
413.142	77.69
413.365	79.69
413.589	82.69
413.812	88.69
414.035	92.69
414.258	98.69
414.482	85.69
414.705	87.69
414.928	89.69
415.151	102.69
415.374	88.69
415.597	93.69
415.821	90.69
416.044	90.69
416.267	71.69
416.49	86.69
416.713	88.69
416.936	91.69
417.159	88.69
417.382	91.69
417.605	91.69
417.828	103.69
418.051	90.69
418.274	90.69
418.497	88.69
418.72	93.69
418.943	75.69
419.166	104.69
419.389	102.69
419.611	88.69
419.834	78.69
420.057	85.69
420.28	84.69
420.503	97.69
420.726	99.69
420.948	87.69
421.171	96.69
421.394	87.69
421.617	86.69
421.839	85.69
422.062	95.69
422.285	94.69
422.507	100.69
422.73	102.69
422.953	82.69
423.175	70.69
423.398	102.69
423.621	106.69
423.843	95.69
424.066	85.69
424.288	90.69
424.511	74.69
424.733	88.69
424.956	95.69
425.178	87.69
425.401	77.69
425.623	97.69
425.846	91.69
426.068	93.69
426.291	88.69
426.513	94.69
426.735	97.69
426.958	93.69
427.18	103.69
427.402	120.69
427.625	143.69
427.847	119.69
428.069	119.69
428.292	93.69
428.514	88.69
428.736	77.69
428.958	86.69
429.181	86.69
429.403	80.69
429.625	88.69
429.847	100.69
430.069	86.69
430.292	89.69
430.514	83.69
430.736	75.69
430.958	74.69
431.18	79.69
431.402	90.69
431.624	106.69
431.846	71.69
432.068	91.69
432.29	90.69
432.512	87.69
432.734	92.69
432.956	91.69
433.178	82.69
433.4	100.69
433.622	78.69
433.844	75.69
434.066	74.69
434.287	100.69
434.509	87.69
434.731	88.69
434.953	85.69
435.175	75.69
435.397	83.69
435.618	80.69
435.84	89.69
436.062	92.69
436.284	102.69
436.505	99.69
436.727	93.69
436.949	106.69
437.17	79.69
437.392	93.69
437.614	77.69
437.835	104.69
438.057	107.69
438.278	101.69
438.5	103.69
438.721	117.69
438.943	96.69
439.165	92.69
439.386	88.69
439.608	93.69
439.829	86.69
440.05	122.69
440.272	130.69
440.493	108.69
440.715	86.69
440.936	93.69
441.158	102.69
441.379	87.69
441.6	87.69
441.822	82.69
442.043	93.69
442.264	87.69
442.486	90.69
442.707	85.69
442.928	118.69
443.149	132.69
443.371	128.69
443.592	101.69
443.813	92.69
444.034	92.69
444.255	92.69
444.476	77.69
444.698	80.69
444.919	85.69
445.14	124.69
445.361	116.69
445.582	108.69
445.803	127.69
446.024	111.69
446.245	118.69
446.466	100.69
446.687	84.69
446.908	91.69
447.129	76.69
447.35	92.69
447.571	90.69
447.792	94.69
448.013	92.69
448.234	100.69
448.455	90.69
448.675	107.69
448.896	100.69
449.117	101.69
449.338	91.69
449.559	120.69
449.779	127.69
450	102.69
450.221	80.69
450.442	70.69
450.662	102.69
450.883	90.69
451.104	98.69
451.324	88.69
451.545	70.69
451.766	81.69
451.986	80.69
452.207	80.69
452.428	90.69
452.648	99.69
452.869	99.69
453.089	107.69
453.31	101.69
453.53	80.69
453.751	75.69
453.971	94.69
454.192	95.69
454.412	78.69
454.633	89.69
454.853	86.69
455.073	76.69
455.294	77.69
455.514	95.69
455.734	92.69
455.955	84.69
456.175	78.69
456.395	70.69
456.616	87.69
456.836	84.69
457.056	89.69
457.276	93.69
457.497	85.69
457.717	75.69
457.937	84.69
458.157	71.69
458.377	101.69
458.598	111.69
458.818	127.69
459.038	141.69
459.258	93.69
459.478	102.69
459.698	80.69
459.918	90.69
460.138	79.69
460.358	89.69
460.578	77.69
460.798	89.69
461.018	80.69
461.238	78.69
461.458	77.69
461.678	87.69
461.898	77.69
462.118	86.69
462.338	91.69
462.558	91.69
462.777	79.69
462.997	94.69
463.217	70.69
463.437	112.69
463.657	78.69
463.876	86.69
464.096	83.69
464.316	90.69
464.536	98.69
464.755	98.69
464.975	103.69
465.195	131.69
465.414	133.69
465.634	84.69
465.854	66.69
466.073	85.69
466.293	93.69
466.512	101.69
466.732	97.69
466.951	101.69
467.171	84.69
467.391	106.69
467.61	92.69
467.829	99.69
468.049	103.69
468.268	118.69
468.488	94.69
468.707	83.69
468.927	92.69
469.146	88.69
469.365	96.69
469.585	75.69
469.804	95.69
470.023	91.69
470.243	84.69
470.462	100.69
470.681	99.69
470.901	86.69
471.12	87.69
471.339	94.69
471.558	93.69
471.777	85.69
471.997	101.69
472.216	124.69
472.435	193.69
472.654	115.69
472.873	78.69
473.092	92.69
473.311	103.69
473.53	89.69
473.749	89.69
473.968	86.69
474.187	103.69
474.406	101.69
474.625	82.69
474.844	84.69
475.063	78.69
475.282	93.69
475.501	83.69
475.72	85.69
475.939	79.69
476.158	82.69
476.377	87.69
476.596	90.69
476.814	80.69
477.033	74.69
477.252	99.69
477.471	88.69
477.69	85.69
477.908	92.69
478.127	87.69
478.346	94.69
478.564	79.69
478.783	94.69
479.002	87.69
479.22	86.69
479.439	101.69
479.658	90.69
479.876	105.69
480.095	80.69
480.313	112.69
480.532	99.69
480.751	96.69
480.969	154.69
481.188	297.69
481.406	212.69
481.624	102.69
481.843	89.69
482.061	81.69
482.28	87.69
482.498	90.69
482.717	85.69
482.935	75.69
483.153	82.69
483.372	99.69
483.59	85.69
483.808	92.69
484.027	84.69
484.245	91.69
484.463	89.69
484.681	102.69
484.9	96.69
485.118	85.69
485.336	87.69
485.554	97.69
485.772	92.69
485.99	93.69
486.209	101.69
486.427	111.69
486.645	100.69
486.863	97.69
487.081	85.69
487.299	109.69
487.517	97.69
487.735	96.69
487.953	85.69
488.171	91.69
488.389	109.69
488.607	106.69
488.825	85.69
489.043	96.69
489.261	95.69
489.479	85.69
489.696	94.69
489.914	85.69
490.132	94.69
490.35	76.69
490.568	85.69
490.786	92.69
491.003	82.69
491.221	94.69
491.439	86.69
491.657	95.69
491.874	90.69
492.092	87.69
492.31	83.69
492.527	81.69
492.745	86.69
492.963	85.69
493.18	100.69
493.398	99.69
493.615	96.69
493.833	109.69
494.05	95.69
494.268	109.69
494.485	107.69
494.703	101.69
494.92	100.69
495.138	89.69
495.355	85.69
495.573	97.69
495.79	91.69
496.008	85.69
496.225	99.69
496.442	96.69
496.66	100.69
496.877	96.69
497.094	89.69
497.312	88.69
497.529	87.69
497.746	94.69
497.963	93.69
498.181	89.69
498.398	84.69
498.615	107.69
498.832	99.69
499.049	90.69
499.267	84.69
499.484	93.69
499.701	78.69
499.918	104.69
500.135	87.69
500.352	90.69
500.569	87.69
500.786	88.69
501.003	79.69
501.22	95.69
501.437	98.69
501.654	108.69
501.871	100.69
502.088	90.69
502.305	80.69
502.522	93.69
502.739	82.69
502.956	75.69
503.172	82.69
503.389	95.69
503.606	105.69
503.823	108.69
504.04	98.69
504.256	89.69
504.473	92.69
504.69	86.69
504.907	86.69
505.123	78.69
505.34	80.69
505.557	93.69
505.773	83.69
505.99	92.69
506.207	88.69
506.423	87.69
506.64	103.69
506.856	85.69
507.073	83.69
507.289	102.69
507.506	92.69
507.722	106.69
507.939	95.69
508.155	95.69
508.372	96.69
508.588	100.69
508.805	101.69
509.021	91.69
509.238	95.69
509.454	99.69
509.67	105.69
509.887	108.69
510.103	137.69
510.319	205.69
510.536	693.69
510.752	2134.69
510.968	628.69
511.184	152.69
511.401	107.69
511.617	105.69
511.833	108.69
512.049	98.69
512.265	77.69
512.481	84.69
512.698	87.69
512.914	102.69
513.13	96.69
513.346	89.69
513.562	91.69
513.778	72.69
513.994	80.69
514.21	95.69
514.426	101.69
514.642	121.69
514.858	117.69
515.074	143.69
515.29	356.69
515.506	1249.69
515.721	478.69
515.937	153.69
