Data from Circ_2012_H10_HRD10591_00025.txt Node
Date: Wed Jan 03 10:05:55 EST 2024
User: Yrep
Spectrometer: HR+D1059
Trigger mode: 1
Integration Time (sec): 1.000000E-1
Scans to average: 1
Electric dark correction enabled: true
Nonlinearity correction enabled: false
Boxcar width: 0
XAxis mode: Wavelengths
Number of Pixels in Spectrum: 2048
>>>>>Begin Spectral Data<<<<<
223.165	-30.56
223.4	-30.56
223.635	-30.56
223.869	-6.56
224.104	-16.56
224.338	-14.56
224.573	-11.56
224.808	-15.56
225.042	-14.56
225.277	3.44
225.511	-9.56
225.746	-4.56
225.98	13.44
226.215	4.44
226.449	18.44
226.683	23.44
226.918	34.44
227.152	26.44
227.387	44.44
227.621	29.44
227.856	39.44
228.09	44.44
228.324	50.44
228.559	47.44
228.793	53.44
229.027	58.44
229.262	48.44
229.496	79.44
229.73	80.44
229.964	73.44
230.199	72.44
230.433	66.44
230.667	85.44
230.901	91.44
231.136	79.44
231.37	87.44
231.604	75.44
231.838	78.44
232.072	73.44
232.306	75.44
232.541	60.44
232.775	70.44
233.009	80.44
233.243	74.44
233.477	73.44
233.711	80.44
233.945	63.44
234.179	80.44
234.413	73.44
234.647	83.44
234.881	76.44
235.115	66.44
235.349	83.44
235.583	69.44
235.817	69.44
236.051	80.44
236.285	79.44
236.519	73.44
236.753	71.44
236.987	67.44
237.221	83.44
237.455	74.44
237.689	70.44
237.922	61.44
238.156	70.44
238.39	71.44
238.624	78.44
238.858	65.44
239.091	75.44
239.325	81.44
239.559	79.44
239.793	82.44
240.027	76.44
240.26	64.44
240.494	79.44
240.728	81.44
240.961	74.44
241.195	77.44
241.429	73.44
241.662	72.44
241.896	79.44
242.13	68.44
242.363	80.44
242.597	70.44
242.83	68.44
243.064	74.44
243.298	83.44
243.531	75.44
243.765	67.44
243.998	75.44
244.232	90.44
244.465	71.44
244.699	76.44
244.932	74.44
245.166	67.44
245.399	71.44
245.633	68.44
245.866	85.44
246.099	76.44
246.333	82.44
246.566	78.44
246.8	77.44
247.033	84.44
247.266	79.44
247.5	75.44
247.733	74.44
247.966	75.44
248.2	91.44
248.433	90.44
248.666	80.44
248.899	83.44
249.133	68.44
249.366	107.44
249.599	78.44
249.832	85.44
250.066	84.44
250.299	78.44
250.532	81.44
250.765	72.44
250.998	70.44
251.231	62.44
251.465	75.44
251.698	80.44
251.931	79.44
252.164	83.44
252.397	65.44
252.63	87.44
252.863	88.44
253.096	76.44
253.329	74.44
253.562	79.44
253.795	83.44
254.028	66.44
254.261	80.44
254.494	72.44
254.727	77.44
254.96	68.44
255.193	74.44
255.426	75.44
255.659	68.44
255.892	79.44
256.124	81.44
256.357	80.44
256.59	75.44
256.823	87.44
257.056	62.44
257.289	76.44
257.521	84.44
257.754	77.44
257.987	92.44
258.22	80.44
258.452	88.44
258.685	86.44
258.918	83.44
259.151	89.44
259.383	67.44
259.616	71.44
259.849	74.44
260.081	81.44
260.314	89.44
260.547	63.44
260.779	77.44
261.012	83.44
261.244	84.44
261.477	82.44
261.71	92.44
261.942	129.44
262.175	131.44
262.407	92.44
262.64	89.44
262.872	98.44
263.105	79.44
263.337	82.44
263.57	80.44
263.802	82.44
264.035	83.44
264.267	81.44
264.499	74.44
264.732	71.44
264.964	72.44
265.197	79.44
265.429	76.44
265.661	87.44
265.894	80.44
266.126	80.44
266.358	72.44
266.591	77.44
266.823	74.44
267.055	79.44
267.287	77.44
267.52	77.44
267.752	95.44
267.984	62.44
268.216	76.44
268.448	67.44
268.681	80.44
268.913	69.44
269.145	82.44
269.377	86.44
269.609	81.44
269.841	75.44
270.073	90.44
270.306	88.44
270.538	85.44
270.77	79.44
271.002	87.44
271.234	83.44
271.466	79.44
271.698	76.44
271.93	89.44
272.162	82.44
272.394	88.44
272.626	86.44
272.858	79.44
273.09	85.44
273.322	87.44
273.553	78.44
273.785	77.44
274.017	76.44
274.249	85.44
274.481	86.44
274.713	100.44
274.945	89.44
275.176	84.44
275.408	75.44
275.64	75.44
275.872	76.44
276.104	80.44
276.335	106.44
276.567	99.44
276.799	113.44
277.031	95.44
277.262	91.44
277.494	91.44
277.726	90.44
277.957	68.44
278.189	73.44
278.421	87.44
278.652	78.44
278.884	82.44
279.115	83.44
279.347	70.44
279.579	77.44
279.81	90.44
280.042	91.44
280.273	74.44
280.505	85.44
280.736	80.44
280.968	92.44
281.199	79.44
281.431	86.44
281.662	82.44
281.894	91.44
282.125	102.44
282.356	130.44
282.588	170.44
282.819	113.44
283.051	92.44
283.282	74.44
283.513	68.44
283.745	88.44
283.976	92.44
284.207	80.44
284.439	85.44
284.67	84.44
284.901	87.44
285.132	87.44
285.364	92.44
285.595	72.44
285.826	84.44
286.057	83.44
286.288	84.44
286.52	84.44
286.751	69.44
286.982	80.44
287.213	83.44
287.444	106.44
287.675	88.44
287.906	92.44
288.138	88.44
288.369	93.44
288.6	93.44
288.831	65.44
289.062	80.44
289.293	84.44
289.524	82.44
289.755	80.44
289.986	85.44
290.217	75.44
290.448	77.44
290.679	68.44
290.91	90.44
291.141	83.44
291.371	99.44
291.602	74.44
291.833	85.44
292.064	66.44
292.295	75.44
292.526	91.44
292.757	77.44
292.987	83.44
293.218	93.44
293.449	73.44
293.68	93.44
293.91	83.44
294.141	81.44
294.372	81.44
294.603	96.44
294.833	86.44
295.064	99.44
295.295	85.44
295.525	83.44
295.756	108.44
295.987	138.44
296.217	156.44
296.448	144.44
296.679	104.44
296.909	83.44
297.14	85.44
297.37	92.44
297.601	80.44
297.831	85.44
298.062	96.44
298.292	81.44
298.523	97.44
298.753	71.44
298.984	84.44
299.214	80.44
299.445	88.44
299.675	79.44
299.905	90.44
300.136	112.44
300.366	91.44
300.597	90.44
300.827	97.44
301.057	101.44
301.288	116.44
301.518	103.44
301.748	99.44
301.979	105.44
302.209	97.44
302.439	106.44
302.669	79.44
302.9	77.44
303.13	88.44
303.36	88.44
303.59	98.44
303.82	104.44
304.051	89.44
304.281	86.44
304.511	84.44
304.741	81.44
304.971	87.44
305.201	97.44
305.431	97.44
305.661	95.44
305.891	104.44
306.121	92.44
306.352	97.44
306.582	104.44
306.812	88.44
307.042	92.44
307.272	105.44
307.502	95.44
307.731	103.44
307.961	87.44
308.191	87.44
308.421	98.44
308.651	88.44
308.881	97.44
309.111	95.44
309.341	95.44
309.571	101.44
309.8	93.44
310.03	99.44
310.26	100.44
310.49	76.44
310.72	101.44
310.949	115.44
311.179	92.44
311.409	77.44
311.639	87.44
311.868	88.44
312.098	85.44
312.328	100.44
312.557	104.44
312.787	115.44
313.017	93.44
313.246	81.44
313.476	87.44
313.706	90.44
313.935	94.44
314.165	108.44
314.394	99.44
314.624	85.44
314.853	104.44
315.083	109.44
315.312	90.44
315.542	91.44
315.771	85.44
316.001	89.44
316.23	88.44
316.46	72.44
316.689	79.44
316.919	89.44
317.148	98.44
317.377	89.44
317.607	88.44
317.836	86.44
318.065	93.44
318.295	84.44
318.524	91.44
318.753	83.44
318.983	94.44
319.212	115.44
319.441	120.44
319.67	96.44
319.9	90.44
320.129	86.44
320.358	89.44
320.587	90.44
320.816	98.44
321.046	97.44
321.275	117.44
321.504	95.44
321.733	97.44
321.962	91.44
322.191	99.44
322.42	108.44
322.649	120.44
322.878	109.44
323.108	116.44
323.337	131.44
323.566	138.44
323.795	172.44
324.024	236.44
324.253	479.44
324.482	1069.44
324.71	2167.44
324.939	2836.44
325.168	1033.44
325.397	293.44
325.626	160.44
325.855	138.44
326.084	135.44
326.313	135.44
326.542	169.44
326.77	272.44
326.999	548.44
327.228	1127.44
327.457	2121.44
327.686	1712.44
327.914	443.44
328.143	225.44
328.372	183.44
328.6	134.44
328.829	101.44
329.058	147.44
329.287	136.44
329.515	106.44
329.744	115.44
329.972	107.44
330.201	128.44
330.43	125.44
330.658	139.44
330.887	161.44
331.115	146.44
331.344	97.44
331.572	108.44
331.801	98.44
332.03	113.44
332.258	98.44
332.486	87.44
332.715	98.44
332.943	89.44
333.172	113.44
333.4	102.44
333.629	116.44
333.857	119.44
334.085	106.44
334.314	113.44
334.542	127.44
334.771	128.44
334.999	108.44
335.227	100.44
335.455	100.44
335.684	100.44
335.912	90.44
336.14	101.44
336.369	100.44
336.597	101.44
336.825	94.44
337.053	96.44
337.281	91.44
337.51	92.44
337.738	97.44
337.966	96.44
338.194	96.44
338.422	94.44
338.65	86.44
338.878	96.44
339.106	79.44
339.334	95.44
339.562	83.44
339.79	87.44
340.018	93.44
340.246	82.44
340.474	92.44
340.702	102.44
340.93	83.44
341.158	95.44
341.386	100.44
341.614	91.44
341.842	90.44
342.07	90.44
342.298	87.44
342.526	85.44
342.754	85.44
342.981	91.44
343.209	85.44
343.437	98.44
343.665	83.44
343.893	81.44
344.12	84.44
344.348	81.44
344.576	79.44
344.804	85.44
345.031	90.44
345.259	99.44
345.487	98.44
345.714	96.44
345.942	71.44
346.17	90.44
346.397	73.44
346.625	84.44
346.853	87.44
347.08	89.44
347.308	95.44
347.535	87.44
347.763	108.44
347.99	96.44
348.218	98.44
348.445	114.44
348.673	91.44
348.9	99.44
349.128	106.44
349.355	98.44
349.583	86.44
349.81	87.44
350.037	83.44
350.265	90.44
350.492	95.44
350.72	91.44
350.947	96.44
351.174	99.44
351.402	101.44
351.629	108.44
351.856	115.44
352.083	105.44
352.311	112.44
352.538	108.44
352.765	117.44
352.992	128.44
353.22	124.44
353.447	127.44
353.674	96.44
353.901	89.44
354.128	92.44
354.355	95.44
354.583	92.44
354.81	90.44
355.037	96.44
355.264	101.44
355.491	81.44
355.718	81.44
355.945	88.44
356.172	82.44
356.399	95.44
356.626	109.44
356.853	88.44
357.08	93.44
357.307	99.44
357.534	92.44
357.761	96.44
357.988	89.44
358.215	108.44
358.441	94.44
358.668	78.44
358.895	90.44
359.122	82.44
359.349	99.44
359.576	93.44
359.802	103.44
360.029	114.44
360.256	97.44
360.483	93.44
360.709	102.44
360.936	87.44
361.163	90.44
361.39	91.44
361.616	98.44
361.843	92.44
362.07	108.44
362.296	100.44
362.523	97.44
362.749	95.44
362.976	93.44
363.203	101.44
363.429	87.44
363.656	99.44
363.882	81.44
364.109	101.44
364.335	102.44
364.562	102.44
364.788	82.44
365.015	88.44
365.241	95.44
365.468	111.44
365.694	96.44
365.92	87.44
366.147	96.44
366.373	112.44
366.599	96.44
366.826	75.44
367.052	87.44
367.278	88.44
367.505	98.44
367.731	91.44
367.957	111.44
368.184	80.44
368.41	95.44
368.636	133.44
368.862	129.44
369.089	107.44
369.315	101.44
369.541	89.44
369.767	91.44
369.993	87.44
370.219	93.44
370.445	89.44
370.672	84.44
370.898	76.44
371.124	99.44
371.35	102.44
371.576	78.44
371.802	77.44
372.028	83.44
372.254	97.44
372.48	88.44
372.706	88.44
372.932	87.44
373.158	103.44
373.384	86.44
373.61	95.44
373.835	76.44
374.061	84.44
374.287	100.44
374.513	90.44
374.739	82.44
374.965	90.44
375.191	83.44
375.416	83.44
375.642	73.44
375.868	82.44
376.094	84.44
376.319	70.44
376.545	82.44
376.771	85.44
376.997	87.44
377.222	91.44
377.448	100.44
377.674	80.44
377.899	90.44
378.125	85.44
378.35	87.44
378.576	90.44
378.802	97.44
379.027	83.44
379.253	97.44
379.478	98.44
379.704	87.44
379.929	81.44
380.155	90.44
380.38	86.44
380.606	88.44
380.831	87.44
381.057	89.44
381.282	91.44
381.507	89.44
381.733	111.44
381.958	88.44
382.184	94.44
382.409	89.44
382.634	99.44
382.86	104.44
383.085	94.44
383.31	102.44
383.535	95.44
383.761	98.44
383.986	93.44
384.211	100.44
384.436	114.44
384.662	90.44
384.887	101.44
385.112	98.44
385.337	86.44
385.562	119.44
385.787	123.44
386.013	114.44
386.238	113.44
386.463	111.44
386.688	111.44
386.913	106.44
387.138	107.44
387.363	83.44
387.588	96.44
387.813	68.44
388.038	103.44
388.263	107.44
388.488	128.44
388.713	88.44
388.938	95.44
389.163	96.44
389.387	91.44
389.612	90.44
389.837	92.44
390.062	85.44
390.287	76.44
390.512	77.44
390.736	91.44
390.961	86.44
391.186	91.44
391.411	100.44
391.636	87.44
391.86	86.44
392.085	91.44
392.31	74.44
392.534	79.44
392.759	92.44
392.984	89.44
393.208	91.44
393.433	85.44
393.658	77.44
393.882	71.44
394.107	72.44
394.331	87.44
394.556	79.44
394.78	70.44
395.005	75.44
395.229	82.44
395.454	87.44
395.678	74.44
395.903	88.44
396.127	84.44
396.352	80.44
396.576	93.44
396.801	74.44
397.025	100.44
397.249	96.44
397.474	82.44
397.698	83.44
397.922	84.44
398.147	83.44
398.371	87.44
398.595	76.44
398.82	84.44
399.044	85.44
399.268	89.44
399.492	81.44
399.717	72.44
399.941	96.44
400.165	98.44
400.389	90.44
400.613	76.44
400.837	91.44
401.062	72.44
401.286	81.44
401.51	69.44
401.734	104.44
401.958	90.44
402.182	141.44
402.406	182.44
402.63	118.44
402.854	101.44
403.078	85.44
403.302	79.44
403.526	99.44
403.75	87.44
403.974	82.44
404.198	89.44
404.422	82.44
404.645	77.44
404.869	85.44
405.093	98.44
405.317	105.44
405.541	98.44
405.765	114.44
405.988	141.44
406.212	222.44
406.436	276.44
406.66	165.44
406.883	111.44
407.107	87.44
407.331	80.44
407.555	92.44
407.778	99.44
408.002	84.44
408.226	75.44
408.449	85.44
408.673	93.44
408.896	100.44
409.12	87.44
409.344	77.44
409.567	92.44
409.791	89.44
410.014	88.44
410.238	91.44
410.461	89.44
410.685	89.44
410.908	88.44
411.132	103.44
411.355	92.44
411.578	90.44
411.802	91.44
412.025	91.44
412.249	72.44
412.472	83.44
412.695	87.44
412.919	86.44
413.142	90.44
413.365	83.44
413.589	71.44
413.812	87.44
414.035	79.44
414.258	89.44
414.482	92.44
414.705	91.44
414.928	85.44
415.151	85.44
415.374	97.44
415.597	90.44
415.821	87.44
416.044	76.44
416.267	85.44
416.49	80.44
416.713	73.44
416.936	85.44
417.159	82.44
417.382	85.44
417.605	78.44
417.828	84.44
418.051	93.44
418.274	83.44
418.497	93.44
418.72	89.44
418.943	85.44
419.166	82.44
419.389	89.44
419.611	83.44
419.834	84.44
420.057	95.44
420.28	84.44
420.503	83.44
420.726	85.44
420.948	90.44
421.171	93.44
421.394	87.44
421.617	91.44
421.839	84.44
422.062	89.44
422.285	89.44
422.507	104.44
422.73	112.44
422.953	106.44
423.175	75.44
423.398	95.44
423.621	96.44
423.843	85.44
424.066	75.44
424.288	100.44
424.511	85.44
424.733	88.44
424.956	106.44
425.178	97.44
425.401	106.44
425.623	108.44
425.846	96.44
426.068	109.44
426.291	90.44
426.513	95.44
426.735	81.44
426.958	81.44
427.18	109.44
427.402	132.44
427.625	195.44
427.847	153.44
428.069	98.44
428.292	84.44
428.514	89.44
428.736	80.44
428.958	72.44
429.181	80.44
429.403	76.44
429.625	85.44
429.847	87.44
430.069	91.44
430.292	84.44
430.514	95.44
430.736	87.44
430.958	94.44
431.18	72.44
431.402	77.44
431.624	89.44
431.846	74.44
432.068	83.44
432.29	60.44
432.512	88.44
432.734	84.44
432.956	87.44
433.178	95.44
433.4	103.44
433.622	100.44
433.844	83.44
434.066	73.44
434.287	96.44
434.509	83.44
434.731	82.44
434.953	78.44
435.175	78.44
435.397	87.44
435.618	83.44
435.84	100.44
436.062	125.44
436.284	118.44
436.505	113.44
436.727	101.44
436.949	76.44
437.17	74.44
437.392	90.44
437.614	94.44
437.835	125.44
438.057	122.44
438.278	122.44
438.5	101.44
438.721	123.44
438.943	97.44
439.165	84.44
439.386	76.44
439.608	87.44
439.829	86.44
440.05	138.44
440.272	154.44
440.493	114.44
440.715	100.44
440.936	73.44
441.158	84.44
441.379	102.44
441.6	86.44
441.822	89.44
442.043	104.44
442.264	97.44
442.486	95.44
442.707	107.44
442.928	112.44
443.149	135.44
443.371	153.44
443.592	115.44
443.813	108.44
444.034	120.44
444.255	87.44
444.476	74.44
444.698	79.44
444.919	76.44
445.14	131.44
445.361	105.44
445.582	116.44
445.803	142.44
446.024	151.44
446.245	144.44
446.466	115.44
446.687	89.44
446.908	73.44
447.129	96.44
447.35	96.44
447.571	91.44
447.792	82.44
448.013	109.44
448.234	119.44
448.455	88.44
448.675	116.44
448.896	115.44
449.117	102.44
449.338	95.44
449.559	119.44
449.779	140.44
450	100.44
450.221	88.44
450.442	74.44
450.662	98.44
450.883	113.44
451.104	124.44
451.324	97.44
451.545	85.44
451.766	70.44
451.986	84.44
452.207	90.44
452.428	86.44
452.648	104.44
452.869	112.44
453.089	127.44
453.31	136.44
453.53	104.44
453.751	87.44
453.971	108.44
454.192	132.44
454.412	97.44
454.633	92.44
454.853	79.44
455.073	75.44
455.294	100.44
455.514	98.44
455.734	71.44
455.955	79.44
456.175	82.44
456.395	79.44
456.616	75.44
456.836	81.44
457.056	74.44
457.276	63.44
457.497	84.44
457.717	89.44
457.937	85.44
458.157	90.44
458.377	102.44
458.598	126.44
458.818	164.44
459.038	189.44
459.258	125.44
459.478	88.44
459.698	103.44
459.918	69.44
460.138	79.44
460.358	77.44
460.578	77.44
460.798	85.44
461.018	75.44
461.238	95.44
461.458	76.44
461.678	89.44
461.898	80.44
462.118	85.44
462.338	84.44
462.558	68.44
462.777	70.44
462.997	63.44
463.217	84.44
463.437	86.44
463.657	84.44
463.876	90.44
464.096	95.44
464.316	98.44
464.536	91.44
464.755	84.44
464.975	123.44
465.195	219.44
465.414	201.44
465.634	100.44
465.854	73.44
466.073	78.44
466.293	88.44
466.512	81.44
466.732	83.44
466.951	93.44
467.171	89.44
467.391	90.44
467.61	117.44
467.829	105.44
468.049	92.44
468.268	97.44
468.488	75.44
468.707	79.44
468.927	89.44
469.146	80.44
469.365	73.44
469.585	81.44
469.804	88.44
470.023	89.44
470.243	92.44
470.462	106.44
470.681	117.44
470.901	87.44
471.12	84.44
471.339	77.44
471.558	81.44
471.777	86.44
471.997	89.44
472.216	99.44
472.435	112.44
472.654	82.44
472.873	91.44
473.092	72.44
473.311	81.44
473.53	79.44
473.749	93.44
473.968	89.44
474.187	115.44
474.406	102.44
474.625	87.44
474.844	84.44
475.063	86.44
475.282	95.44
475.501	95.44
475.72	87.44
475.939	72.44
476.158	79.44
476.377	77.44
476.596	89.44
476.814	94.44
477.033	84.44
477.252	88.44
477.471	89.44
477.69	82.44
477.908	86.44
478.127	78.44
478.346	83.44
478.564	86.44
478.783	84.44
479.002	93.44
479.22	103.44
479.439	109.44
479.658	126.44
479.876	107.44
480.095	77.44
480.313	98.44
480.532	89.44
480.751	72.44
480.969	119.44
481.188	179.44
481.406	142.44
481.624	88.44
481.843	91.44
482.061	87.44
482.28	77.44
482.498	97.44
482.717	90.44
482.935	98.44
483.153	84.44
483.372	80.44
483.59	100.44
483.808	93.44
484.027	107.44
484.245	82.44
484.463	93.44
484.681	98.44
484.9	94.44
485.118	97.44
485.336	105.44
485.554	100.44
485.772	93.44
485.99	96.44
486.209	92.44
486.427	114.44
486.645	95.44
486.863	113.44
487.081	110.44
487.299	97.44
487.517	96.44
487.735	77.44
487.953	103.44
488.171	83.44
488.389	91.44
488.607	92.44
488.825	97.44
489.043	78.44
489.261	92.44
489.479	93.44
489.696	88.44
489.914	90.44
490.132	81.44
490.35	91.44
490.568	92.44
490.786	91.44
491.003	71.44
491.221	82.44
491.439	70.44
491.657	82.44
491.874	88.44
492.092	95.44
492.31	85.44
492.527	95.44
492.745	82.44
492.963	86.44
493.18	70.44
493.398	82.44
493.615	86.44
493.833	95.44
494.05	97.44
494.268	87.44
494.485	91.44
494.703	91.44
494.92	78.44
495.138	96.44
495.355	73.44
495.573	85.44
495.79	98.44
496.008	93.44
496.225	90.44
496.442	100.44
496.66	89.44
496.877	87.44
497.094	95.44
497.312	81.44
497.529	72.44
497.746	70.44
497.963	91.44
498.181	87.44
498.398	97.44
498.615	115.44
498.832	105.44
499.049	84.44
499.267	91.44
499.484	94.44
499.701	82.44
499.918	84.44
500.135	84.44
500.352	87.44
500.569	74.44
500.786	84.44
501.003	91.44
501.22	93.44
501.437	82.44
501.654	91.44
501.871	112.44
502.088	87.44
502.305	100.44
502.522	95.44
502.739	82.44
502.956	84.44
503.172	75.44
503.389	95.44
503.606	101.44
503.823	95.44
504.04	80.44
504.256	88.44
504.473	95.44
504.69	88.44
504.907	81.44
505.123	94.44
505.34	93.44
505.557	96.44
505.773	95.44
505.99	95.44
506.207	76.44
506.423	91.44
506.64	87.44
506.856	96.44
507.073	85.44
507.289	102.44
507.506	97.44
507.722	116.44
507.939	114.44
508.155	101.44
508.372	111.44
508.588	70.44
508.805	89.44
509.021	96.44
509.238	83.44
509.454	101.44
509.67	108.44
509.887	116.44
510.103	147.44
510.319	251.44
510.536	976.44
510.752	3411.44
510.968	955.44
511.184	184.44
511.401	127.44
511.617	86.44
511.833	104.44
512.049	87.44
512.265	94.44
512.481	86.44
512.698	84.44
512.914	92.44
513.13	84.44
513.346	82.44
513.562	87.44
513.778	98.44
513.994	101.44
514.21	100.44
514.426	120.44
514.642	154.44
514.858	151.44
515.074	197.44
515.29	619.44
515.506	2276.44
515.721	817.44
515.937	191.44
