Data from Circ_2012_H10_HRD10591_00064.txt Node
Date: Wed Jan 03 10:06:03 EST 2024
User: Yrep
Spectrometer: HR+D1059
Trigger mode: 1
Integration Time (sec): 1.000000E-1
Scans to average: 1
Electric dark correction enabled: true
Nonlinearity correction enabled: false
Boxcar width: 0
XAxis mode: Wavelengths
Number of Pixels in Spectrum: 2048
>>>>>Begin Spectral Data<<<<<
223.165	-22.5
223.4	-22.5
223.635	-22.5
223.869	-25.5
224.104	-11.5
224.338	-23.5
224.573	-21.5
224.808	4.5
225.042	0.5
225.277	-6.5
225.511	-3.5
225.746	-1.5
225.98	-7.5
226.215	13.5
226.449	18.5
226.683	29.5
226.918	24.5
227.152	32.5
227.387	43.5
227.621	34.5
227.856	40.5
228.09	46.5
228.324	55.5
228.559	54.5
228.793	62.5
229.027	74.5
229.262	68.5
229.496	76.5
229.73	85.5
229.964	86.5
230.199	74.5
230.433	99.5
230.667	77.5
230.901	77.5
231.136	88.5
231.37	86.5
231.604	78.5
231.838	91.5
232.072	93.5
232.306	84.5
232.541	95.5
232.775	84.5
233.009	80.5
233.243	98.5
233.477	90.5
233.711	87.5
233.945	77.5
234.179	88.5
234.413	72.5
234.647	79.5
234.881	85.5
235.115	86.5
235.349	90.5
235.583	74.5
235.817	88.5
236.051	90.5
236.285	87.5
236.519	80.5
236.753	87.5
236.987	73.5
237.221	84.5
237.455	74.5
237.689	71.5
237.922	79.5
238.156	81.5
238.39	59.5
238.624	88.5
238.858	67.5
239.091	73.5
239.325	72.5
239.559	79.5
239.793	81.5
240.027	88.5
240.26	88.5
240.494	89.5
240.728	87.5
240.961	73.5
241.195	78.5
241.429	88.5
241.662	81.5
241.896	71.5
242.13	88.5
242.363	84.5
242.597	75.5
242.83	85.5
243.064	73.5
243.298	82.5
243.531	86.5
243.765	79.5
243.998	88.5
244.232	76.5
244.465	94.5
244.699	92.5
244.932	85.5
245.166	89.5
245.399	84.5
245.633	70.5
245.866	89.5
246.099	81.5
246.333	86.5
246.566	82.5
246.8	88.5
247.033	83.5
247.266	68.5
247.5	81.5
247.733	72.5
247.966	80.5
248.2	91.5
248.433	81.5
248.666	90.5
248.899	79.5
249.133	79.5
249.366	88.5
249.599	106.5
249.832	84.5
250.066	88.5
250.299	77.5
250.532	77.5
250.765	74.5
250.998	79.5
251.231	74.5
251.465	89.5
251.698	86.5
251.931	91.5
252.164	77.5
252.397	70.5
252.63	80.5
252.863	77.5
253.096	73.5
253.329	63.5
253.562	69.5
253.795	77.5
254.028	82.5
254.261	86.5
254.494	73.5
254.727	85.5
254.96	78.5
255.193	78.5
255.426	77.5
255.659	81.5
255.892	88.5
256.124	61.5
256.357	93.5
256.59	78.5
256.823	100.5
257.056	76.5
257.289	81.5
257.521	94.5
257.754	77.5
257.987	80.5
258.22	95.5
258.452	76.5
258.685	95.5
258.918	75.5
259.151	73.5
259.383	93.5
259.616	84.5
259.849	94.5
260.081	88.5
260.314	75.5
260.547	81.5
260.779	91.5
261.012	95.5
261.244	82.5
261.477	98.5
261.71	114.5
261.942	101.5
262.175	114.5
262.407	88.5
262.64	89.5
262.872	83.5
263.105	89.5
263.337	87.5
263.57	64.5
263.802	91.5
264.035	94.5
264.267	78.5
264.499	86.5
264.732	87.5
264.964	97.5
265.197	84.5
265.429	72.5
265.661	92.5
265.894	93.5
266.126	84.5
266.358	82.5
266.591	88.5
266.823	81.5
267.055	77.5
267.287	97.5
267.52	93.5
267.752	103.5
267.984	88.5
268.216	88.5
268.448	102.5
268.681	82.5
268.913	96.5
269.145	88.5
269.377	89.5
269.609	77.5
269.841	83.5
270.073	103.5
270.306	85.5
270.538	90.5
270.77	89.5
271.002	87.5
271.234	81.5
271.466	79.5
271.698	93.5
271.93	95.5
272.162	98.5
272.394	88.5
272.626	80.5
272.858	84.5
273.09	71.5
273.322	73.5
273.553	79.5
273.785	85.5
274.017	75.5
274.249	97.5
274.481	96.5
274.713	87.5
274.945	96.5
275.176	78.5
275.408	86.5
275.64	93.5
275.872	92.5
276.104	73.5
276.335	85.5
276.567	95.5
276.799	106.5
277.031	101.5
277.262	93.5
277.494	88.5
277.726	95.5
277.957	87.5
278.189	81.5
278.421	88.5
278.652	87.5
278.884	75.5
279.115	81.5
279.347	86.5
279.579	89.5
279.81	77.5
280.042	88.5
280.273	101.5
280.505	101.5
280.736	86.5
280.968	88.5
281.199	82.5
281.431	92.5
281.662	100.5
281.894	88.5
282.125	105.5
282.356	116.5
282.588	132.5
282.819	105.5
283.051	82.5
283.282	76.5
283.513	95.5
283.745	97.5
283.976	81.5
284.207	90.5
284.439	87.5
284.67	83.5
284.901	80.5
285.132	91.5
285.364	89.5
285.595	94.5
285.826	84.5
286.057	96.5
286.288	82.5
286.52	102.5
286.751	91.5
286.982	79.5
287.213	97.5
287.444	87.5
287.675	84.5
287.906	90.5
288.138	104.5
288.369	102.5
288.6	90.5
288.831	86.5
289.062	89.5
289.293	91.5
289.524	78.5
289.755	63.5
289.986	100.5
290.217	101.5
290.448	85.5
290.679	83.5
290.91	80.5
291.141	83.5
291.371	90.5
291.602	84.5
291.833	81.5
292.064	89.5
292.295	95.5
292.526	93.5
292.757	91.5
292.987	93.5
293.218	82.5
293.449	86.5
293.68	85.5
293.91	85.5
294.141	92.5
294.372	101.5
294.603	95.5
294.833	89.5
295.064	102.5
295.295	86.5
295.525	90.5
295.756	110.5
295.987	104.5
296.217	122.5
296.448	122.5
296.679	107.5
296.909	89.5
297.14	91.5
297.37	78.5
297.601	80.5
297.831	93.5
298.062	83.5
298.292	82.5
298.523	90.5
298.753	90.5
298.984	77.5
299.214	96.5
299.445	81.5
299.675	91.5
299.905	99.5
300.136	88.5
300.366	97.5
300.597	87.5
300.827	100.5
301.057	101.5
301.288	116.5
301.518	94.5
301.748	97.5
301.979	97.5
302.209	93.5
302.439	91.5
302.669	93.5
302.9	79.5
303.13	82.5
303.36	103.5
303.59	104.5
303.82	98.5
304.051	90.5
304.281	99.5
304.511	86.5
304.741	73.5
304.971	83.5
305.201	98.5
305.431	91.5
305.661	87.5
305.891	94.5
306.121	116.5
306.352	109.5
306.582	94.5
306.812	103.5
307.042	90.5
307.272	89.5
307.502	88.5
307.731	99.5
307.961	81.5
308.191	81.5
308.421	83.5
308.651	91.5
308.881	86.5
309.111	94.5
309.341	94.5
309.571	105.5
309.8	96.5
310.03	108.5
310.26	93.5
310.49	97.5
310.72	95.5
310.949	87.5
311.179	92.5
311.409	86.5
311.639	101.5
311.868	93.5
312.098	96.5
312.328	86.5
312.557	92.5
312.787	97.5
313.017	104.5
313.246	103.5
313.476	89.5
313.706	103.5
313.935	96.5
314.165	104.5
314.394	113.5
314.624	88.5
314.853	94.5
315.083	92.5
315.312	94.5
315.542	105.5
315.771	95.5
316.001	81.5
316.23	90.5
316.46	95.5
316.689	84.5
316.919	85.5
317.148	101.5
317.377	98.5
317.607	111.5
317.836	99.5
318.065	86.5
318.295	98.5
318.524	88.5
318.753	100.5
318.983	85.5
319.212	94.5
319.441	113.5
319.67	107.5
319.9	100.5
320.129	86.5
320.358	105.5
320.587	100.5
320.816	98.5
321.046	106.5
321.275	99.5
321.504	109.5
321.733	76.5
321.962	109.5
322.191	98.5
322.42	103.5
322.649	96.5
322.878	92.5
323.108	108.5
323.337	122.5
323.566	124.5
323.795	121.5
324.024	193.5
324.253	331.5
324.482	708.5
324.71	1436.5
324.939	1874.5
325.168	715.5
325.397	224.5
325.626	147.5
325.855	128.5
326.084	109.5
326.313	133.5
326.542	144.5
326.77	209.5
326.999	430.5
327.228	792.5
327.457	1465.5
327.686	1182.5
327.914	352.5
328.143	178.5
328.372	144.5
328.6	109.5
328.829	128.5
329.058	120.5
329.287	142.5
329.515	97.5
329.744	112.5
329.972	113.5
330.201	136.5
330.43	146.5
330.658	134.5
330.887	142.5
331.115	125.5
331.344	98.5
331.572	84.5
331.801	101.5
332.03	101.5
332.258	83.5
332.486	92.5
332.715	105.5
332.943	111.5
333.172	95.5
333.4	100.5
333.629	102.5
333.857	111.5
334.085	111.5
334.314	126.5
334.542	176.5
334.771	158.5
334.999	98.5
335.227	91.5
335.455	98.5
335.684	92.5
335.912	83.5
336.14	108.5
336.369	95.5
336.597	94.5
336.825	96.5
337.053	91.5
337.281	85.5
337.51	101.5
337.738	98.5
337.966	91.5
338.194	106.5
338.422	84.5
338.65	94.5
338.878	92.5
339.106	85.5
339.334	92.5
339.562	97.5
339.79	94.5
340.018	93.5
340.246	94.5
340.474	98.5
340.702	91.5
340.93	101.5
341.158	108.5
341.386	99.5
341.614	100.5
341.842	93.5
342.07	90.5
342.298	97.5
342.526	91.5
342.754	91.5
342.981	98.5
343.209	96.5
343.437	106.5
343.665	88.5
343.893	95.5
344.12	95.5
344.348	97.5
344.576	76.5
344.804	96.5
345.031	96.5
345.259	94.5
345.487	94.5
345.714	110.5
345.942	92.5
346.17	92.5
346.397	90.5
346.625	95.5
346.853	90.5
347.08	94.5
347.308	84.5
347.535	82.5
347.763	103.5
347.99	96.5
348.218	86.5
348.445	92.5
348.673	92.5
348.9	103.5
349.128	87.5
349.355	102.5
349.583	95.5
349.81	97.5
350.037	101.5
350.265	93.5
350.492	93.5
350.72	97.5
350.947	93.5
351.174	119.5
351.402	110.5
351.629	116.5
351.856	104.5
352.083	119.5
352.311	109.5
352.538	100.5
352.765	108.5
352.992	100.5
353.22	113.5
353.447	108.5
353.674	114.5
353.901	84.5
354.128	100.5
354.355	82.5
354.583	107.5
354.81	102.5
355.037	107.5
355.264	93.5
355.491	100.5
355.718	112.5
355.945	92.5
356.172	99.5
356.399	100.5
356.626	104.5
356.853	93.5
357.08	86.5
357.307	84.5
357.534	82.5
357.761	96.5
357.988	93.5
358.215	88.5
358.441	95.5
358.668	87.5
358.895	92.5
359.122	84.5
359.349	92.5
359.576	90.5
359.802	88.5
360.029	107.5
360.256	100.5
360.483	95.5
360.709	96.5
360.936	95.5
361.163	99.5
361.39	99.5
361.616	107.5
361.843	92.5
362.07	97.5
362.296	91.5
362.523	89.5
362.749	92.5
362.976	96.5
363.203	101.5
363.429	78.5
363.656	92.5
363.882	96.5
364.109	90.5
364.335	87.5
364.562	96.5
364.788	102.5
365.015	86.5
365.241	97.5
365.468	105.5
365.694	104.5
365.92	88.5
366.147	71.5
366.373	94.5
366.599	90.5
366.826	71.5
367.052	98.5
367.278	87.5
367.505	100.5
367.731	89.5
367.957	88.5
368.184	104.5
368.41	99.5
368.636	107.5
368.862	100.5
369.089	98.5
369.315	97.5
369.541	90.5
369.767	93.5
369.993	81.5
370.219	91.5
370.445	95.5
370.672	77.5
370.898	99.5
371.124	88.5
371.35	90.5
371.576	92.5
371.802	84.5
372.028	95.5
372.254	102.5
372.48	97.5
372.706	95.5
372.932	109.5
373.158	87.5
373.384	100.5
373.61	105.5
373.835	93.5
374.061	96.5
374.287	93.5
374.513	94.5
374.739	83.5
374.965	95.5
375.191	92.5
375.416	91.5
375.642	96.5
375.868	95.5
376.094	94.5
376.319	93.5
376.545	92.5
376.771	92.5
376.997	89.5
377.222	86.5
377.448	87.5
377.674	96.5
377.899	95.5
378.125	96.5
378.35	102.5
378.576	98.5
378.802	96.5
379.027	85.5
379.253	105.5
379.478	94.5
379.704	92.5
379.929	88.5
380.155	87.5
380.38	99.5
380.606	84.5
380.831	81.5
381.057	90.5
381.282	104.5
381.507	88.5
381.733	101.5
381.958	107.5
382.184	93.5
382.409	103.5
382.634	105.5
382.86	102.5
383.085	111.5
383.31	106.5
383.535	103.5
383.761	110.5
383.986	107.5
384.211	82.5
384.436	83.5
384.662	95.5
384.887	109.5
385.112	119.5
385.337	94.5
385.562	105.5
385.787	119.5
386.013	94.5
386.238	103.5
386.463	100.5
386.688	116.5
386.913	102.5
387.138	92.5
387.363	89.5
387.588	94.5
387.813	105.5
388.038	113.5
388.263	92.5
388.488	102.5
388.713	87.5
388.938	101.5
389.163	96.5
389.387	100.5
389.612	105.5
389.837	99.5
390.062	96.5
390.287	104.5
390.512	84.5
390.736	95.5
390.961	104.5
391.186	104.5
391.411	100.5
391.636	98.5
391.86	85.5
392.085	99.5
392.31	90.5
392.534	84.5
392.759	90.5
392.984	94.5
393.208	82.5
393.433	86.5
393.658	84.5
393.882	78.5
394.107	81.5
394.331	85.5
394.556	95.5
394.78	101.5
395.005	97.5
395.229	78.5
395.454	86.5
395.678	83.5
395.903	93.5
396.127	89.5
396.352	97.5
396.576	96.5
396.801	93.5
397.025	88.5
397.249	96.5
397.474	99.5
397.698	86.5
397.922	95.5
398.147	89.5
398.371	81.5
398.595	98.5
398.82	85.5
399.044	97.5
399.268	98.5
399.492	86.5
399.717	93.5
399.941	81.5
400.165	88.5
400.389	82.5
400.613	95.5
400.837	80.5
401.062	77.5
401.286	88.5
401.51	105.5
401.734	90.5
401.958	99.5
402.182	120.5
402.406	145.5
402.63	111.5
402.854	95.5
403.078	89.5
403.302	97.5
403.526	96.5
403.75	95.5
403.974	85.5
404.198	103.5
404.422	87.5
404.645	90.5
404.869	93.5
405.093	94.5
405.317	95.5
405.541	81.5
405.765	89.5
405.988	100.5
406.212	171.5
406.436	207.5
406.66	136.5
406.883	103.5
407.107	99.5
407.331	81.5
407.555	87.5
407.778	99.5
408.002	88.5
408.226	92.5
408.449	93.5
408.673	76.5
408.896	96.5
409.12	97.5
409.344	82.5
409.567	77.5
409.791	104.5
410.014	111.5
410.238	107.5
410.461	98.5
410.685	89.5
410.908	100.5
411.132	105.5
411.355	102.5
411.578	89.5
411.802	92.5
412.025	88.5
412.249	79.5
412.472	108.5
412.695	89.5
412.919	94.5
413.142	100.5
413.365	89.5
413.589	94.5
413.812	89.5
414.035	103.5
414.258	93.5
414.482	101.5
414.705	91.5
414.928	76.5
415.151	102.5
415.374	103.5
415.597	100.5
415.821	109.5
416.044	99.5
416.267	85.5
416.49	108.5
416.713	103.5
416.936	100.5
417.159	85.5
417.382	86.5
417.605	93.5
417.828	89.5
418.051	86.5
418.274	97.5
418.497	95.5
418.72	86.5
418.943	82.5
419.166	98.5
419.389	92.5
419.611	87.5
419.834	90.5
420.057	95.5
420.28	75.5
420.503	87.5
420.726	94.5
420.948	99.5
421.171	117.5
421.394	96.5
421.617	84.5
421.839	92.5
422.062	88.5
422.285	71.5
422.507	104.5
422.73	99.5
422.953	103.5
423.175	90.5
423.398	93.5
423.621	96.5
423.843	89.5
424.066	88.5
424.288	96.5
424.511	84.5
424.733	96.5
424.956	112.5
425.178	91.5
425.401	93.5
425.623	101.5
425.846	77.5
426.068	96.5
426.291	81.5
426.513	99.5
426.735	88.5
426.958	95.5
427.18	100.5
427.402	136.5
427.625	151.5
427.847	134.5
428.069	113.5
428.292	89.5
428.514	76.5
428.736	103.5
428.958	87.5
429.181	71.5
429.403	90.5
429.625	88.5
429.847	97.5
430.069	104.5
430.292	99.5
430.514	97.5
430.736	90.5
430.958	92.5
431.18	77.5
431.402	78.5
431.624	96.5
431.846	103.5
432.068	78.5
432.29	86.5
432.512	93.5
432.734	82.5
432.956	91.5
433.178	103.5
433.4	98.5
433.622	98.5
433.844	87.5
434.066	95.5
434.287	100.5
434.509	110.5
434.731	88.5
434.953	87.5
435.175	97.5
435.397	95.5
435.618	107.5
435.84	102.5
436.062	106.5
436.284	120.5
436.505	96.5
436.727	93.5
436.949	89.5
437.17	98.5
437.392	76.5
437.614	108.5
437.835	105.5
438.057	107.5
438.278	121.5
438.5	103.5
438.721	114.5
438.943	92.5
439.165	102.5
439.386	97.5
439.608	111.5
439.829	106.5
440.05	114.5
440.272	121.5
440.493	97.5
440.715	96.5
440.936	75.5
441.158	93.5
441.379	86.5
441.6	103.5
441.822	89.5
442.043	93.5
442.264	108.5
442.486	93.5
442.707	93.5
442.928	120.5
443.149	124.5
443.371	116.5
443.592	109.5
443.813	101.5
444.034	105.5
444.255	103.5
444.476	86.5
444.698	103.5
444.919	91.5
445.14	137.5
445.361	135.5
445.582	109.5
445.803	132.5
446.024	122.5
446.245	135.5
446.466	93.5
446.687	84.5
446.908	97.5
447.129	93.5
447.35	94.5
447.571	84.5
447.792	88.5
448.013	103.5
448.234	104.5
448.455	91.5
448.675	110.5
448.896	113.5
449.117	100.5
449.338	101.5
449.559	115.5
449.779	140.5
450	94.5
450.221	101.5
450.442	92.5
450.662	100.5
450.883	121.5
451.104	106.5
451.324	113.5
451.545	84.5
451.766	86.5
451.986	103.5
452.207	96.5
452.428	90.5
452.648	94.5
452.869	112.5
453.089	114.5
453.31	106.5
453.53	89.5
453.751	93.5
453.971	97.5
454.192	102.5
454.412	91.5
454.633	84.5
454.853	86.5
455.073	85.5
455.294	97.5
455.514	100.5
455.734	82.5
455.955	86.5
456.175	89.5
456.395	97.5
456.616	95.5
456.836	82.5
457.056	90.5
457.276	101.5
457.497	100.5
457.717	74.5
457.937	77.5
458.157	85.5
458.377	85.5
458.598	102.5
458.818	152.5
459.038	128.5
459.258	122.5
459.478	91.5
459.698	86.5
459.918	85.5
460.138	97.5
460.358	97.5
460.578	88.5
460.798	98.5
461.018	82.5
461.238	82.5
461.458	93.5
461.678	89.5
461.898	81.5
462.118	101.5
462.338	97.5
462.558	83.5
462.777	79.5
462.997	85.5
463.217	88.5
463.437	98.5
463.657	81.5
463.876	90.5
464.096	88.5
464.316	96.5
464.536	105.5
464.755	104.5
464.975	108.5
465.195	143.5
465.414	152.5
465.634	97.5
465.854	87.5
466.073	88.5
466.293	87.5
466.512	86.5
466.732	88.5
466.951	89.5
467.171	97.5
467.391	97.5
467.61	103.5
467.829	85.5
468.049	119.5
468.268	123.5
468.488	87.5
468.707	82.5
468.927	102.5
469.146	99.5
469.365	92.5
469.585	90.5
469.804	99.5
470.023	86.5
470.243	95.5
470.462	100.5
470.681	100.5
470.901	85.5
471.12	93.5
471.339	88.5
471.558	85.5
471.777	101.5
471.997	106.5
472.216	125.5
472.435	189.5
472.654	109.5
472.873	86.5
473.092	93.5
473.311	89.5
473.53	97.5
473.749	89.5
473.968	98.5
474.187	110.5
474.406	90.5
474.625	89.5
474.844	96.5
475.063	88.5
475.282	82.5
475.501	71.5
475.72	99.5
475.939	96.5
476.158	102.5
476.377	87.5
476.596	94.5
476.814	99.5
477.033	94.5
477.252	82.5
477.471	79.5
477.69	89.5
477.908	101.5
478.127	98.5
478.346	93.5
478.564	89.5
478.783	89.5
479.002	108.5
479.22	103.5
479.439	103.5
479.658	90.5
479.876	100.5
480.095	86.5
480.313	97.5
480.532	100.5
480.751	83.5
480.969	125.5
481.188	291.5
481.406	206.5
481.624	100.5
481.843	85.5
482.061	100.5
482.28	98.5
482.498	87.5
482.717	86.5
482.935	88.5
483.153	80.5
483.372	93.5
483.59	95.5
483.808	91.5
484.027	94.5
484.245	108.5
484.463	99.5
484.681	77.5
484.9	109.5
485.118	113.5
485.336	97.5
485.554	106.5
485.772	104.5
485.99	95.5
486.209	116.5
486.427	95.5
486.645	119.5
486.863	105.5
487.081	100.5
487.299	100.5
487.517	105.5
487.735	87.5
487.953	91.5
488.171	92.5
488.389	91.5
488.607	92.5
488.825	82.5
489.043	88.5
489.261	94.5
489.479	80.5
489.696	80.5
489.914	90.5
490.132	75.5
490.35	101.5
490.568	88.5
490.786	90.5
491.003	97.5
491.221	95.5
491.439	83.5
491.657	97.5
491.874	82.5
492.092	91.5
492.31	82.5
492.527	103.5
492.745	97.5
492.963	83.5
493.18	92.5
493.398	84.5
493.615	102.5
493.833	98.5
494.05	85.5
494.268	101.5
494.485	79.5
494.703	91.5
494.92	85.5
495.138	86.5
495.355	88.5
495.573	104.5
495.79	94.5
496.008	96.5
496.225	98.5
496.442	84.5
496.66	108.5
496.877	101.5
497.094	91.5
497.312	92.5
497.529	95.5
497.746	105.5
497.963	84.5
498.181	97.5
498.398	100.5
498.615	112.5
498.832	101.5
499.049	92.5
499.267	88.5
499.484	96.5
499.701	98.5
499.918	95.5
500.135	74.5
500.352	101.5
500.569	107.5
500.786	89.5
501.003	83.5
501.22	78.5
501.437	79.5
501.654	101.5
501.871	109.5
502.088	87.5
502.305	93.5
502.522	104.5
502.739	97.5
502.956	79.5
503.172	84.5
503.389	81.5
503.606	104.5
503.823	102.5
504.04	96.5
504.256	91.5
504.473	97.5
504.69	86.5
504.907	89.5
505.123	90.5
505.34	91.5
505.557	90.5
505.773	107.5
505.99	82.5
506.207	94.5
506.423	100.5
506.64	90.5
506.856	95.5
507.073	111.5
507.289	96.5
507.506	72.5
507.722	119.5
507.939	131.5
508.155	96.5
508.372	94.5
508.588	96.5
508.805	98.5
509.021	108.5
509.238	102.5
509.454	103.5
509.67	93.5
509.887	111.5
510.103	108.5
510.319	202.5
510.536	664.5
510.752	2105.5
510.968	620.5
511.184	152.5
511.401	92.5
511.617	87.5
511.833	87.5
512.049	106.5
512.265	94.5
512.481	90.5
512.698	105.5
512.914	93.5
513.13	105.5
513.346	103.5
513.562	93.5
513.778	96.5
513.994	89.5
514.21	103.5
514.426	116.5
514.642	126.5
514.858	114.5
515.074	138.5
515.29	388.5
515.506	1277.5
515.721	516.5
515.937	145.5
516.153	112.5
516.369	103.5
516.585	93.5
516.801	108.5
517.016	97.5
517.232	88.5
517.448	92.5
517.664	95.5
517.879	97.5
518.095	90.5
518.311	108.5
518.527	93.5
518.742	81.5
518.958	96.5
519.173	112.5
519.389	102.5
519.605	86.5
519.82	109.5
520.036	91.5
520.251	108.5
520.467	111.5
520.682	100.5
520.898	106.5
521.113	99.5
521.329	117.5
521.544	186.5
521.76	467.5
521.975	2029.5
522.19	1308.5
522.406	293.5
522.621	124.5
522.836	89.5
523.052	89.5
523.267	97.5
523.482	101.5
523.698	91.5
523.913	124.5
524.128	103.5
524.343	97.5
524.559	94.5
524.774	92.5
524.989	95.5
525.204	93.5
525.419	102.5
525.634	88.5
525.849	101.5
526.064	86.5
526.28	89.5
526.495	89.5
526.71	74.5
526.925	94.5
527.14	80.5
527.355	84.5
527.57	87.5
527.785	85.5
527.999	85.5
528.214	76.5
528.429	94.5
528.644	88.5
528.859	89.5
529.074	94.5
529.289	105.5
529.503	165.5
529.718	114.5
529.933	84.5
530.148	80.5
530.363	96.5
530.577	90.5
530.792	90.5
531.007	95.5
531.221	93.5
531.436	94.5
531.651	97.5
531.865	97.5
532.08	86.5
532.295	92.5
532.509	78.5
532.724	82.5
532.938	88.5
533.153	104.5
533.367	95.5
533.582	98.5
533.796	107.5
534.011	90.5
534.225	97.5
534.44	101.5
