Data from Circ_2012_H10_HRD10591_00080.txt Node
Date: Wed Jan 03 10:06:06 EST 2024
User: Yrep
Spectrometer: HR+D1059
Trigger mode: 1
Integration Time (sec): 1.000000E-1
Scans to average: 1
Electric dark correction enabled: true
Nonlinearity correction enabled: false
Boxcar width: 0
XAxis mode: Wavelengths
Number of Pixels in Spectrum: 2048
>>>>>Begin Spectral Data<<<<<
223.165	-21.62
223.4	-21.62
223.635	-21.62
223.869	-23.62
224.104	-18.62
224.338	-43.62
224.573	-5.62
224.808	-14.62
225.042	-11.62
225.277	-9.62
225.511	4.38
225.746	22.38
225.98	0.38
226.215	18.38
226.449	28.38
226.683	13.38
226.918	24.38
227.152	37.38
227.387	39.38
227.621	33.38
227.856	57.38
228.09	55.38
228.324	50.38
228.559	54.38
228.793	59.38
229.027	68.38
229.262	55.38
229.496	78.38
229.73	82.38
229.964	73.38
230.199	80.38
230.433	54.38
230.667	71.38
230.901	75.38
231.136	86.38
231.37	84.38
231.604	82.38
231.838	80.38
232.072	79.38
232.306	88.38
232.541	77.38
232.775	70.38
233.009	91.38
233.243	82.38
233.477	69.38
233.711	69.38
233.945	82.38
234.179	83.38
234.413	83.38
234.647	74.38
234.881	83.38
235.115	77.38
235.349	85.38
235.583	74.38
235.817	82.38
236.051	83.38
236.285	67.38
236.519	71.38
236.753	74.38
236.987	76.38
237.221	78.38
237.455	79.38
237.689	67.38
237.922	79.38
238.156	74.38
238.39	77.38
238.624	74.38
238.858	73.38
239.091	71.38
239.325	67.38
239.559	92.38
239.793	83.38
240.027	85.38
240.26	85.38
240.494	71.38
240.728	70.38
240.961	69.38
241.195	75.38
241.429	73.38
241.662	75.38
241.896	65.38
242.13	81.38
242.363	81.38
242.597	72.38
242.83	79.38
243.064	65.38
243.298	80.38
243.531	74.38
243.765	81.38
243.998	82.38
244.232	77.38
244.465	87.38
244.699	79.38
244.932	87.38
245.166	88.38
245.399	77.38
245.633	78.38
245.866	81.38
246.099	83.38
246.333	82.38
246.566	73.38
246.8	74.38
247.033	86.38
247.266	83.38
247.5	68.38
247.733	82.38
247.966	82.38
248.2	78.38
248.433	72.38
248.666	77.38
248.899	87.38
249.133	86.38
249.366	100.38
249.599	91.38
249.832	79.38
250.066	75.38
250.299	77.38
250.532	63.38
250.765	68.38
250.998	79.38
251.231	86.38
251.465	81.38
251.698	81.38
251.931	87.38
252.164	85.38
252.397	75.38
252.63	80.38
252.863	68.38
253.096	75.38
253.329	86.38
253.562	77.38
253.795	89.38
254.028	87.38
254.261	88.38
254.494	92.38
254.727	83.38
254.96	87.38
255.193	89.38
255.426	83.38
255.659	90.38
255.892	73.38
256.124	80.38
256.357	86.38
256.59	75.38
256.823	84.38
257.056	79.38
257.289	72.38
257.521	79.38
257.754	75.38
257.987	72.38
258.22	79.38
258.452	68.38
258.685	94.38
258.918	84.38
259.151	76.38
259.383	80.38
259.616	79.38
259.849	66.38
260.081	78.38
260.314	82.38
260.547	76.38
260.779	88.38
261.012	84.38
261.244	78.38
261.477	73.38
261.71	100.38
261.942	95.38
262.175	105.38
262.407	88.38
262.64	81.38
262.872	91.38
263.105	86.38
263.337	82.38
263.57	92.38
263.802	87.38
264.035	75.38
264.267	81.38
264.499	77.38
264.732	85.38
264.964	88.38
265.197	84.38
265.429	80.38
265.661	66.38
265.894	73.38
266.126	84.38
266.358	67.38
266.591	93.38
266.823	84.38
267.055	96.38
267.287	63.38
267.52	76.38
267.752	82.38
267.984	88.38
268.216	75.38
268.448	88.38
268.681	76.38
268.913	86.38
269.145	84.38
269.377	85.38
269.609	80.38
269.841	88.38
270.073	78.38
270.306	73.38
270.538	92.38
270.77	96.38
271.002	86.38
271.234	94.38
271.466	79.38
271.698	89.38
271.93	83.38
272.162	86.38
272.394	89.38
272.626	78.38
272.858	84.38
273.09	93.38
273.322	84.38
273.553	78.38
273.785	81.38
274.017	89.38
274.249	89.38
274.481	85.38
274.713	86.38
274.945	93.38
275.176	86.38
275.408	89.38
275.64	80.38
275.872	94.38
276.104	75.38
276.335	93.38
276.567	87.38
276.799	98.38
277.031	105.38
277.262	97.38
277.494	98.38
277.726	89.38
277.957	89.38
278.189	83.38
278.421	74.38
278.652	93.38
278.884	92.38
279.115	79.38
279.347	84.38
279.579	91.38
279.81	90.38
280.042	88.38
280.273	98.38
280.505	86.38
280.736	90.38
280.968	95.38
281.199	81.38
281.431	86.38
281.662	86.38
281.894	93.38
282.125	88.38
282.356	103.38
282.588	151.38
282.819	108.38
283.051	77.38
283.282	96.38
283.513	90.38
283.745	99.38
283.976	97.38
284.207	87.38
284.439	100.38
284.67	78.38
284.901	82.38
285.132	85.38
285.364	95.38
285.595	88.38
285.826	84.38
286.057	94.38
286.288	97.38
286.52	80.38
286.751	77.38
286.982	83.38
287.213	84.38
287.444	92.38
287.675	92.38
287.906	71.38
288.138	80.38
288.369	82.38
288.6	91.38
288.831	88.38
289.062	79.38
289.293	91.38
289.524	86.38
289.755	92.38
289.986	83.38
290.217	94.38
290.448	67.38
290.679	90.38
290.91	87.38
291.141	82.38
291.371	94.38
291.602	83.38
291.833	84.38
292.064	91.38
292.295	92.38
292.526	95.38
292.757	70.38
292.987	75.38
293.218	93.38
293.449	84.38
293.68	89.38
293.91	90.38
294.141	84.38
294.372	88.38
294.603	99.38
294.833	100.38
295.064	91.38
295.295	83.38
295.525	90.38
295.756	95.38
295.987	106.38
296.217	106.38
296.448	109.38
296.679	103.38
296.909	91.38
297.14	90.38
297.37	83.38
297.601	89.38
297.831	75.38
298.062	105.38
298.292	91.38
298.523	88.38
298.753	87.38
298.984	99.38
299.214	87.38
299.445	92.38
299.675	95.38
299.905	100.38
300.136	79.38
300.366	100.38
300.597	93.38
300.827	81.38
301.057	96.38
301.288	91.38
301.518	84.38
301.748	90.38
301.979	90.38
302.209	88.38
302.439	87.38
302.669	101.38
302.9	104.38
303.13	93.38
303.36	95.38
303.59	104.38
303.82	115.38
304.051	88.38
304.281	87.38
304.511	107.38
304.741	83.38
304.971	97.38
305.201	91.38
305.431	105.38
305.661	96.38
305.891	102.38
306.121	77.38
306.352	86.38
306.582	91.38
306.812	93.38
307.042	92.38
307.272	85.38
307.502	88.38
307.731	98.38
307.961	88.38
308.191	98.38
308.421	82.38
308.651	93.38
308.881	95.38
309.111	85.38
309.341	92.38
309.571	90.38
309.8	102.38
310.03	110.38
310.26	91.38
310.49	85.38
310.72	88.38
310.949	105.38
311.179	104.38
311.409	93.38
311.639	102.38
311.868	95.38
312.098	97.38
312.328	94.38
312.557	86.38
312.787	90.38
313.017	99.38
313.246	95.38
313.476	90.38
313.706	97.38
313.935	87.38
314.165	95.38
314.394	102.38
314.624	106.38
314.853	94.38
315.083	95.38
315.312	83.38
315.542	90.38
315.771	94.38
316.001	87.38
316.23	82.38
316.46	80.38
316.689	94.38
316.919	98.38
317.148	98.38
317.377	87.38
317.607	95.38
317.836	89.38
318.065	95.38
318.295	90.38
318.524	90.38
318.753	89.38
318.983	100.38
319.212	95.38
319.441	102.38
319.67	108.38
319.9	101.38
320.129	107.38
320.358	94.38
320.587	94.38
320.816	103.38
321.046	85.38
321.275	99.38
321.504	96.38
321.733	86.38
321.962	104.38
322.191	111.38
322.42	91.38
322.649	103.38
322.878	114.38
323.108	120.38
323.337	134.38
323.566	115.38
323.795	142.38
324.024	192.38
324.253	378.38
324.482	812.38
324.71	1632.38
324.939	2095.38
325.168	779.38
325.397	249.38
325.626	154.38
325.855	119.38
326.084	132.38
326.313	116.38
326.542	156.38
326.77	217.38
326.999	454.38
327.228	950.38
327.457	1659.38
327.686	1335.38
327.914	372.38
328.143	181.38
328.372	162.38
328.6	124.38
328.829	115.38
329.058	114.38
329.287	128.38
329.515	117.38
329.744	100.38
329.972	104.38
330.201	140.38
330.43	151.38
330.658	135.38
330.887	133.38
331.115	119.38
331.344	101.38
331.572	102.38
331.801	103.38
332.03	95.38
332.258	95.38
332.486	91.38
332.715	100.38
332.943	100.38
333.172	91.38
333.4	98.38
333.629	104.38
333.857	106.38
334.085	122.38
334.314	133.38
334.542	178.38
334.771	174.38
334.999	101.38
335.227	97.38
335.455	98.38
335.684	92.38
335.912	93.38
336.14	88.38
336.369	94.38
336.597	95.38
336.825	88.38
337.053	102.38
337.281	106.38
337.51	84.38
337.738	95.38
337.966	90.38
338.194	88.38
338.422	88.38
338.65	99.38
338.878	76.38
339.106	96.38
339.334	97.38
339.562	86.38
339.79	88.38
340.018	98.38
340.246	88.38
340.474	90.38
340.702	87.38
340.93	78.38
341.158	88.38
341.386	98.38
341.614	103.38
341.842	86.38
342.07	97.38
342.298	106.38
342.526	78.38
342.754	86.38
342.981	91.38
343.209	78.38
343.437	104.38
343.665	96.38
343.893	89.38
344.12	106.38
344.348	87.38
344.576	90.38
344.804	80.38
345.031	98.38
345.259	93.38
345.487	86.38
345.714	88.38
345.942	100.38
346.17	80.38
346.397	91.38
346.625	101.38
346.853	97.38
347.08	87.38
347.308	93.38
347.535	105.38
347.763	99.38
347.99	93.38
348.218	95.38
348.445	97.38
348.673	106.38
348.9	106.38
349.128	83.38
349.355	99.38
349.583	99.38
349.81	93.38
350.037	104.38
350.265	88.38
350.492	99.38
350.72	106.38
350.947	91.38
351.174	99.38
351.402	109.38
351.629	114.38
351.856	94.38
352.083	102.38
352.311	108.38
352.538	99.38
352.765	103.38
352.992	109.38
353.22	113.38
353.447	99.38
353.674	108.38
353.901	91.38
354.128	105.38
354.355	96.38
354.583	92.38
354.81	84.38
355.037	102.38
355.264	100.38
355.491	93.38
355.718	93.38
355.945	86.38
356.172	89.38
356.399	88.38
356.626	98.38
356.853	77.38
357.08	86.38
357.307	95.38
357.534	96.38
357.761	78.38
357.988	98.38
358.215	95.38
358.441	90.38
358.668	101.38
358.895	88.38
359.122	79.38
359.349	88.38
359.576	84.38
359.802	98.38
360.029	115.38
360.256	109.38
360.483	118.38
360.709	94.38
360.936	84.38
361.163	87.38
361.39	99.38
361.616	99.38
361.843	91.38
362.07	88.38
362.296	93.38
362.523	99.38
362.749	75.38
362.976	79.38
363.203	102.38
363.429	97.38
363.656	84.38
363.882	84.38
364.109	85.38
364.335	73.38
364.562	85.38
364.788	90.38
365.015	78.38
365.241	100.38
365.468	104.38
365.694	102.38
365.92	103.38
366.147	105.38
366.373	86.38
366.599	94.38
366.826	78.38
367.052	90.38
367.278	80.38
367.505	94.38
367.731	87.38
367.957	89.38
368.184	89.38
368.41	118.38
368.636	110.38
368.862	126.38
369.089	108.38
369.315	80.38
369.541	108.38
369.767	93.38
369.993	98.38
370.219	87.38
370.445	89.38
370.672	66.38
370.898	91.38
371.124	79.38
371.35	85.38
371.576	99.38
371.802	78.38
372.028	75.38
372.254	93.38
372.48	98.38
372.706	100.38
372.932	71.38
373.158	89.38
373.384	92.38
373.61	94.38
373.835	79.38
374.061	87.38
374.287	86.38
374.513	95.38
374.739	97.38
374.965	98.38
375.191	84.38
375.416	101.38
375.642	88.38
375.868	88.38
376.094	88.38
376.319	80.38
376.545	87.38
376.771	79.38
376.997	88.38
377.222	84.38
377.448	107.38
377.674	86.38
377.899	89.38
378.125	88.38
378.35	92.38
378.576	84.38
378.802	83.38
379.027	79.38
379.253	96.38
379.478	91.38
379.704	75.38
379.929	100.38
380.155	94.38
380.38	80.38
380.606	100.38
380.831	92.38
381.057	95.38
381.282	105.38
381.507	92.38
381.733	96.38
381.958	93.38
382.184	104.38
382.409	92.38
382.634	98.38
382.86	105.38
383.085	106.38
383.31	94.38
383.535	120.38
383.761	92.38
383.986	98.38
384.211	90.38
384.436	101.38
384.662	93.38
384.887	104.38
385.112	106.38
385.337	95.38
385.562	89.38
385.787	87.38
386.013	98.38
386.238	106.38
386.463	94.38
386.688	103.38
386.913	100.38
387.138	93.38
387.363	92.38
387.588	100.38
387.813	107.38
388.038	99.38
388.263	96.38
388.488	101.38
388.713	91.38
388.938	98.38
389.163	103.38
389.387	97.38
389.612	79.38
389.837	90.38
390.062	77.38
390.287	107.38
390.512	96.38
390.736	103.38
390.961	88.38
391.186	109.38
391.411	92.38
391.636	94.38
391.86	79.38
392.085	92.38
392.31	88.38
392.534	88.38
392.759	86.38
392.984	93.38
393.208	95.38
393.433	99.38
393.658	92.38
393.882	87.38
394.107	82.38
394.331	80.38
394.556	103.38
394.78	90.38
395.005	90.38
395.229	83.38
395.454	89.38
395.678	85.38
395.903	86.38
396.127	69.38
396.352	82.38
396.576	85.38
396.801	82.38
397.025	74.38
397.249	78.38
397.474	94.38
397.698	84.38
397.922	87.38
398.147	92.38
398.371	80.38
398.595	90.38
398.82	87.38
399.044	100.38
399.268	87.38
399.492	100.38
399.717	89.38
399.941	96.38
400.165	89.38
400.389	91.38
400.613	83.38
400.837	103.38
401.062	85.38
401.286	84.38
401.51	86.38
401.734	87.38
401.958	106.38
402.182	133.38
402.406	162.38
402.63	114.38
402.854	104.38
403.078	94.38
403.302	94.38
403.526	98.38
403.75	79.38
403.974	80.38
404.198	85.38
404.422	84.38
404.645	96.38
404.869	87.38
405.093	91.38
405.317	102.38
405.541	87.38
405.765	97.38
405.988	104.38
406.212	168.38
406.436	212.38
406.66	124.38
406.883	103.38
407.107	100.38
407.331	91.38
407.555	95.38
407.778	95.38
408.002	83.38
408.226	101.38
408.449	85.38
408.673	95.38
408.896	86.38
409.12	97.38
409.344	82.38
409.567	86.38
409.791	89.38
410.014	84.38
410.238	91.38
410.461	76.38
410.685	85.38
410.908	92.38
411.132	107.38
411.355	89.38
411.578	88.38
411.802	83.38
412.025	83.38
412.249	89.38
412.472	102.38
412.695	93.38
412.919	83.38
413.142	77.38
413.365	61.38
413.589	92.38
413.812	93.38
414.035	92.38
414.258	81.38
414.482	102.38
414.705	104.38
414.928	87.38
415.151	87.38
415.374	78.38
415.597	83.38
415.821	69.38
416.044	83.38
416.267	82.38
416.49	72.38
416.713	89.38
416.936	93.38
417.159	88.38
417.382	99.38
417.605	98.38
417.828	85.38
418.051	96.38
418.274	89.38
418.497	92.38
418.72	74.38
418.943	76.38
419.166	98.38
419.389	83.38
419.611	92.38
419.834	71.38
420.057	77.38
420.28	92.38
420.503	87.38
420.726	88.38
420.948	97.38
421.171	94.38
421.394	97.38
421.617	85.38
421.839	94.38
422.062	84.38
422.285	95.38
422.507	88.38
422.73	110.38
422.953	98.38
423.175	80.38
423.398	95.38
423.621	94.38
423.843	78.38
424.066	80.38
424.288	80.38
424.511	75.38
424.733	93.38
424.956	88.38
425.178	97.38
425.401	108.38
425.623	101.38
425.846	88.38
426.068	88.38
426.291	89.38
426.513	88.38
426.735	94.38
426.958	103.38
427.18	111.38
427.402	133.38
427.625	165.38
427.847	119.38
428.069	115.38
428.292	99.38
428.514	77.38
428.736	85.38
428.958	88.38
429.181	96.38
429.403	92.38
429.625	91.38
429.847	86.38
430.069	102.38
430.292	102.38
430.514	92.38
430.736	85.38
430.958	95.38
431.18	75.38
431.402	95.38
431.624	73.38
431.846	86.38
432.068	77.38
432.29	83.38
432.512	99.38
432.734	80.38
432.956	85.38
433.178	86.38
433.4	100.38
433.622	84.38
433.844	87.38
434.066	75.38
434.287	96.38
434.509	90.38
434.731	79.38
434.953	83.38
435.175	87.38
435.397	68.38
435.618	92.38
435.84	102.38
436.062	105.38
436.284	104.38
436.505	98.38
436.727	101.38
436.949	94.38
437.17	88.38
437.392	68.38
437.614	95.38
437.835	103.38
438.057	94.38
438.278	107.38
438.5	103.38
438.721	104.38
438.943	100.38
439.165	87.38
439.386	97.38
439.608	94.38
439.829	87.38
440.05	120.38
440.272	127.38
440.493	83.38
440.715	103.38
440.936	77.38
441.158	95.38
441.379	79.38
441.6	89.38
441.822	92.38
442.043	78.38
442.264	85.38
442.486	86.38
442.707	80.38
442.928	102.38
443.149	125.38
443.371	110.38
443.592	93.38
443.813	108.38
444.034	111.38
444.255	76.38
444.476	93.38
444.698	84.38
444.919	90.38
445.14	121.38
445.361	120.38
445.582	105.38
445.803	136.38
446.024	130.38
446.245	123.38
446.466	110.38
446.687	77.38
446.908	81.38
447.129	102.38
447.35	85.38
447.571	89.38
447.792	93.38
448.013	92.38
448.234	93.38
448.455	88.38
448.675	115.38
448.896	116.38
449.117	86.38
449.338	101.38
449.559	113.38
449.779	122.38
450	93.38
450.221	84.38
450.442	88.38
450.662	86.38
450.883	99.38
451.104	105.38
451.324	86.38
451.545	85.38
451.766	73.38
451.986	86.38
452.207	93.38
452.428	86.38
452.648	93.38
452.869	109.38
453.089	104.38
453.31	108.38
453.53	99.38
453.751	86.38
453.971	107.38
454.192	106.38
454.412	89.38
454.633	92.38
454.853	96.38
455.073	93.38
455.294	92.38
455.514	98.38
455.734	92.38
455.955	85.38
456.175	81.38
456.395	79.38
456.616	87.38
456.836	80.38
457.056	61.38
457.276	96.38
457.497	74.38
457.717	84.38
457.937	85.38
458.157	89.38
458.377	109.38
458.598	119.38
458.818	134.38
459.038	136.38
459.258	88.38
459.478	90.38
459.698	83.38
459.918	85.38
460.138	95.38
460.358	77.38
460.578	88.38
460.798	87.38
461.018	70.38
461.238	87.38
461.458	86.38
461.678	83.38
461.898	91.38
462.118	95.38
462.338	85.38
462.558	84.38
462.777	90.38
462.997	77.38
463.217	87.38
463.437	88.38
463.657	95.38
463.876	83.38
464.096	99.38
464.316	93.38
464.536	87.38
464.755	98.38
464.975	98.38
465.195	160.38
465.414	148.38
465.634	99.38
465.854	91.38
466.073	76.38
466.293	83.38
466.512	67.38
466.732	82.38
466.951	84.38
467.171	103.38
467.391	98.38
467.61	99.38
467.829	103.38
468.049	111.38
468.268	122.38
468.488	91.38
468.707	81.38
468.927	78.38
469.146	76.38
469.365	81.38
469.585	90.38
469.804	88.38
470.023	90.38
470.243	108.38
470.462	100.38
470.681	109.38
470.901	94.38
471.12	84.38
471.339	81.38
471.558	83.38
471.777	92.38
471.997	88.38
472.216	132.38
472.435	198.38
472.654	117.38
472.873	96.38
473.092	102.38
473.311	96.38
473.53	100.38
473.749	81.38
473.968	89.38
474.187	91.38
474.406	98.38
474.625	94.38
474.844	98.38
475.063	80.38
475.282	101.38
475.501	100.38
475.72	106.38
475.939	72.38
476.158	75.38
476.377	90.38
476.596	78.38
476.814	102.38
477.033	86.38
477.252	93.38
477.471	80.38
477.69	93.38
477.908	79.38
478.127	90.38
478.346	87.38
478.564	86.38
478.783	91.38
479.002	94.38
479.22	96.38
479.439	104.38
479.658	101.38
479.876	92.38
480.095	89.38
480.313	91.38
480.532	99.38
480.751	94.38
480.969	143.38
481.188	320.38
481.406	212.38
481.624	99.38
481.843	89.38
482.061	83.38
482.28	94.38
482.498	103.38
482.717	93.38
482.935	88.38
483.153	87.38
483.372	94.38
483.59	99.38
483.808	88.38
484.027	77.38
484.245	94.38
484.463	98.38
484.681	97.38
484.9	94.38
485.118	91.38
485.336	99.38
485.554	89.38
485.772	100.38
485.99	104.38
486.209	103.38
486.427	93.38
486.645	95.38
486.863	105.38
487.081	100.38
487.299	83.38
487.517	91.38
487.735	96.38
487.953	91.38
488.171	86.38
488.389	99.38
488.607	100.38
488.825	85.38
489.043	88.38
489.261	86.38
489.479	84.38
489.696	86.38
489.914	86.38
490.132	84.38
490.35	98.38
490.568	92.38
490.786	83.38
491.003	87.38
491.221	76.38
491.439	84.38
491.657	88.38
491.874	80.38
492.092	99.38
492.31	92.38
492.527	101.38
492.745	90.38
492.963	83.38
493.18	91.38
493.398	88.38
493.615	99.38
493.833	77.38
494.05	83.38
494.268	95.38
494.485	88.38
494.703	97.38
494.92	85.38
495.138	90.38
495.355	86.38
495.573	96.38
495.79	98.38
496.008	92.38
496.225	89.38
496.442	86.38
496.66	94.38
496.877	94.38
497.094	93.38
497.312	103.38
497.529	102.38
497.746	88.38
497.963	83.38
498.181	93.38
498.398	89.38
498.615	96.38
498.832	114.38
499.049	77.38
499.267	86.38
499.484	78.38
499.701	85.38
499.918	86.38
500.135	78.38
500.352	78.38
500.569	87.38
500.786	83.38
501.003	82.38
501.22	89.38
501.437	89.38
501.654	81.38
501.871	100.38
502.088	93.38
502.305	99.38
502.522	107.38
502.739	99.38
502.956	79.38
503.172	92.38
503.389	93.38
503.606	119.38
503.823	93.38
504.04	93.38
504.256	104.38
504.473	87.38
504.69	94.38
504.907	84.38
505.123	89.38
505.34	87.38
505.557	80.38
505.773	94.38
505.99	88.38
506.207	86.38
506.423	79.38
506.64	93.38
506.856	89.38
507.073	96.38
507.289	84.38
507.506	101.38
507.722	104.38
507.939	98.38
508.155	84.38
508.372	94.38
508.588	96.38
508.805	98.38
509.021	105.38
509.238	86.38
509.454	93.38
509.67	102.38
509.887	96.38
510.103	141.38
510.319	235.38
510.536	740.38
510.752	2426.38
510.968	697.38
511.184	154.38
511.401	122.38
511.617	113.38
511.833	85.38
512.049	93.38
512.265	90.38
512.481	92.38
512.698	77.38
512.914	93.38
513.13	96.38
513.346	78.38
513.562	94.38
513.778	98.38
513.994	86.38
514.21	94.38
514.426	128.38
514.642	134.38
514.858	105.38
515.074	160.38
515.29	426.38
515.506	1449.38
515.721	553.38
515.937	155.38
516.153	103.38
