Data from Circ_2012_H10_HRD10591_00033.txt Node
Date: Wed Jan 03 10:05:57 EST 2024
User: Yrep
Spectrometer: HR+D1059
Trigger mode: 1
Integration Time (sec): 1.000000E-1
Scans to average: 1
Electric dark correction enabled: true
Nonlinearity correction enabled: false
Boxcar width: 0
XAxis mode: Wavelengths
Number of Pixels in Spectrum: 2048
>>>>>Begin Spectral Data<<<<<
223.165	-12.75
223.4	-12.75
223.635	-12.75
223.869	-21.75
224.104	-19.75
224.338	-16.75
224.573	-18.75
224.808	-20.75
225.042	-9.75
225.277	-6.75
225.511	-0.75
225.746	20.25
225.98	11.25
226.215	13.25
226.449	9.25
226.683	25.25
226.918	15.25
227.152	33.25
227.387	39.25
227.621	51.25
227.856	66.25
228.09	58.25
228.324	50.25
228.559	54.25
228.793	180.25
229.027	448.25
229.262	498.25
229.496	621.25
229.73	811.25
229.964	825.25
230.199	527.25
230.433	456.25
230.667	473.25
230.901	453.25
231.136	429.25
231.37	444.25
231.604	461.25
231.838	423.25
232.072	455.25
232.306	454.25
232.541	427.25
232.775	459.25
233.009	456.25
233.243	463.25
233.477	460.25
233.711	480.25
233.945	512.25
234.179	517.25
234.413	492.25
234.647	504.25
234.881	509.25
235.115	533.25
235.349	542.25
235.583	547.25
235.817	563.25
236.051	643.25
236.285	608.25
236.519	629.25
236.753	711.25
236.987	919.25
237.221	1412.25
237.455	1491.25
237.689	861.25
237.922	730.25
238.156	693.25
238.39	681.25
238.624	637.25
238.858	660.25
239.091	621.25
239.325	666.25
239.559	689.25
239.793	683.25
240.027	766.25
240.26	913.25
240.494	949.25
240.728	949.25
240.961	868.25
241.195	786.25
241.429	787.25
241.662	780.25
241.896	775.25
242.13	768.25
242.363	774.25
242.597	783.25
242.83	808.25
243.064	800.25
243.298	816.25
243.531	797.25
243.765	796.25
243.998	826.25
244.232	830.25
244.465	865.25
244.699	888.25
244.932	879.25
245.166	877.25
245.399	879.25
245.633	880.25
245.866	918.25
246.099	923.25
246.333	958.25
246.566	960.25
246.8	943.25
247.033	997.25
247.266	1034.25
247.5	1100.25
247.733	1146.25
247.966	1153.25
248.2	1132.25
248.433	1128.25
248.666	1220.25
248.899	1336.25
249.133	1424.25
249.366	1440.25
249.599	1280.25
249.832	1242.25
250.066	1224.25
250.299	1342.25
250.532	1449.25
250.765	1621.25
250.998	1741.25
251.231	1623.25
251.465	1460.25
251.698	1371.25
251.931	1392.25
252.164	1360.25
252.397	1388.25
252.63	1428.25
252.863	1533.25
253.096	1676.25
253.329	1658.25
253.562	1608.25
253.795	1491.25
254.028	1533.25
254.261	1588.25
254.494	1770.25
254.727	2164.25
254.96	2169.25
255.193	1906.25
255.426	1729.25
255.659	1671.25
255.892	1767.25
256.124	1886.25
256.357	1786.25
256.59	1644.25
256.823	1550.25
257.056	1492.25
257.289	1566.25
257.521	1535.25
257.754	1499.25
257.987	1520.25
258.22	1535.25
258.452	1520.25
258.685	1531.25
258.918	1539.25
259.151	1598.25
259.383	1692.25
259.616	1660.25
259.849	1731.25
260.081	1934.25
260.314	2047.25
260.547	1976.25
260.779	1831.25
261.012	1753.25
261.244	1732.25
261.477	1671.25
261.71	1636.25
261.942	1769.25
262.175	1782.25
262.407	1712.25
262.64	1629.25
262.872	1673.25
263.105	1642.25
263.337	1653.25
263.57	1645.25
263.802	1653.25
264.035	1639.25
264.267	1636.25
264.499	1645.25
264.732	1655.25
264.964	1635.25
265.197	1675.25
265.429	1691.25
265.661	1685.25
265.894	1677.25
266.126	1727.25
266.358	1709.25
266.591	1756.25
266.823	1852.25
267.055	1861.25
267.287	1839.25
267.52	1804.25
267.752	1780.25
267.984	1843.25
268.216	1869.25
268.448	1892.25
268.681	1966.25
268.913	2069.25
269.145	2325.25
269.377	2361.25
269.609	2263.25
269.841	2195.25
270.073	2317.25
270.306	2608.25
270.538	2744.25
270.77	2575.25
271.002	2462.25
271.234	2400.25
271.466	2579.25
271.698	2679.25
271.93	2718.25
272.162	2711.25
272.394	2574.25
272.626	2450.25
272.858	2324.25
273.09	2225.25
273.322	2193.25
273.553	2199.25
273.785	2191.25
274.017	2196.25
274.249	2222.25
274.481	2222.25
274.713	2238.25
274.945	2271.25
275.176	2240.25
275.408	2235.25
275.64	2250.25
275.872	2227.25
276.104	2262.25
276.335	2312.25
276.567	2381.25
276.799	2563.25
277.031	2848.25
277.262	2911.25
277.494	2747.25
277.726	2553.25
277.957	2444.25
278.189	2382.25
278.421	2339.25
278.652	2363.25
278.884	2363.25
279.115	2332.25
279.347	2345.25
279.579	2372.25
279.81	2383.25
280.042	2318.25
280.273	2411.25
280.505	2422.25
280.736	2376.25
280.968	2439.25
281.199	2352.25
281.431	2443.25
281.662	2425.25
281.894	2449.25
282.125	2510.25
282.356	2691.25
282.588	2827.25
282.819	2666.25
283.051	2468.25
283.282	2474.25
283.513	2548.25
283.745	2602.25
283.976	2605.25
284.207	2621.25
284.439	2589.25
284.67	2559.25
284.901	2586.25
285.132	2598.25
285.364	2593.25
285.595	2572.25
285.826	2577.25
286.057	2711.25
286.288	2632.25
286.52	2639.25
286.751	2667.25
286.982	2673.25
287.213	2672.25
287.444	2712.25
287.675	2804.25
287.906	2834.25
288.138	2925.25
288.369	2902.25
288.6	2855.25
288.831	2839.25
289.062	2765.25
289.293	2808.25
289.524	2774.25
289.755	2733.25
289.986	2767.25
290.217	2742.25
290.448	2717.25
290.679	2759.25
290.91	2736.25
291.141	2761.25
291.371	2744.25
291.602	2797.25
291.833	2759.25
292.064	2820.25
292.295	2779.25
292.526	2768.25
292.757	2789.25
292.987	2761.25
293.218	2751.25
293.449	2838.25
293.68	2845.25
293.91	2847.25
294.141	2773.25
294.372	2805.25
294.603	2812.25
294.833	2839.25
295.064	2862.25
295.295	2878.25
295.525	2845.25
295.756	2942.25
295.987	2995.25
296.217	3189.25
296.448	3100.25
296.679	2908.25
296.909	2946.25
297.14	2911.25
297.37	2965.25
297.601	2977.25
297.831	3017.25
298.062	3010.25
298.292	3000.25
298.523	3048.25
298.753	3116.25
298.984	3061.25
299.214	3068.25
299.445	3054.25
299.675	3066.25
299.905	3089.25
300.136	3111.25
300.366	3103.25
300.597	3158.25
300.827	3247.25
301.057	3339.25
301.288	3350.25
301.518	3266.25
301.748	3263.25
301.979	3329.25
302.209	3347.25
302.439	3323.25
302.669	3268.25
302.9	3293.25
303.13	3246.25
303.36	3285.25
303.59	3364.25
303.82	3379.25
304.051	3345.25
304.281	3243.25
304.511	3261.25
304.741	3275.25
304.971	3231.25
305.201	3247.25
305.431	3229.25
305.661	3301.25
305.891	3258.25
306.121	3306.25
306.352	3299.25
306.582	3304.25
306.812	3293.25
307.042	3247.25
307.272	3258.25
307.502	3252.25
307.731	3266.25
307.961	3244.25
308.191	3217.25
308.421	3200.25
308.651	3259.25
308.881	3308.25
309.111	3335.25
309.341	3349.25
309.571	3398.25
309.8	3476.25
310.03	3545.25
310.26	3582.25
310.49	3548.25
310.72	3685.25
310.949	3824.25
311.179	3819.25
311.409	3615.25
311.639	3678.25
311.868	3646.25
312.098	3689.25
312.328	3802.25
312.557	3893.25
312.787	3933.25
313.017	3867.25
313.246	3764.25
313.476	3701.25
313.706	3765.25
313.935	3825.25
314.165	3956.25
314.394	3945.25
314.624	3909.25
314.853	3831.25
315.083	3811.25
315.312	3686.25
315.542	3688.25
315.771	3619.25
316.001	3612.25
316.23	3631.25
316.46	3704.25
316.689	3742.25
316.919	3731.25
317.148	3739.25
317.377	3745.25
317.607	3731.25
317.836	3648.25
318.065	3587.25
318.295	3596.25
318.524	3646.25
318.753	3600.25
318.983	3691.25
319.212	3690.25
319.441	3718.25
319.67	3776.25
319.9	3685.25
320.129	3690.25
320.358	3651.25
320.587	3694.25
320.816	3807.25
321.046	3830.25
321.275	3825.25
321.504	3856.25
321.733	3875.25
321.962	3907.25
322.191	4013.25
322.42	4112.25
322.649	4187.25
322.878	4263.25
323.108	4315.25
323.337	4666.25
323.566	4777.25
323.795	5126.25
324.024	5812.25
324.253	7839.25
324.482	11912.25
324.71	15601.25
324.939	15601.25
325.168	13832.25
325.397	6845.25
325.626	5383.25
325.855	4933.25
326.084	4774.25
326.313	4825.25
326.542	4996.25
326.77	5783.25
326.999	7503.25
327.228	11153.25
327.457	15106.25
327.686	14412.25
327.914	7786.25
328.143	6129.25
328.372	5851.25
328.6	5487.25
328.829	5351.25
329.058	5556.25
329.287	5525.25
329.515	5155.25
329.744	5024.25
329.972	5086.25
330.201	5520.25
330.43	5848.25
330.658	5915.25
330.887	6069.25
331.115	5570.25
331.344	5095.25
331.572	4983.25
331.801	5103.25
332.03	5060.25
332.258	4988.25
332.486	4952.25
332.715	5070.25
332.943	5286.25
333.172	5375.25
333.4	5562.25
333.629	5691.25
333.857	5836.25
334.085	5890.25
334.314	6191.25
334.542	6443.25
334.771	6368.25
334.999	5680.25
335.227	5388.25
335.455	5181.25
335.684	5054.25
335.912	5003.25
336.14	4938.25
336.369	4975.25
336.597	4985.25
336.825	4931.25
337.053	4889.25
337.281	4763.25
337.51	4779.25
337.738	4711.25
337.966	4685.25
338.194	4732.25
338.422	4592.25
338.65	4525.25
338.878	4475.25
339.106	4471.25
339.334	4465.25
339.562	4403.25
339.79	4371.25
340.018	4466.25
340.246	4339.25
340.474	4426.25
340.702	4423.25
340.93	4300.25
341.158	4327.25
341.386	4395.25
341.614	4360.25
341.842	4331.25
342.07	4271.25
342.298	4267.25
342.526	4199.25
342.754	4261.25
342.981	4311.25
343.209	4389.25
343.437	4564.25
343.665	4867.25
343.893	5113.25
344.12	5160.25
344.348	4907.25
344.576	4752.25
344.804	4714.25
345.031	4663.25
345.259	4605.25
345.487	4408.25
345.714	4347.25
345.942	4257.25
346.17	4196.25
346.397	4213.25
346.625	4144.25
346.853	4178.25
347.08	4172.25
347.308	4229.25
347.535	4274.25
347.763	4337.25
347.99	4283.25
348.218	4295.25
348.445	4300.25
348.673	4204.25
348.9	4118.25
349.128	4120.25
349.355	3998.25
349.583	4044.25
349.81	3990.25
350.037	4090.25
350.265	4042.25
350.492	3999.25
350.72	4013.25
350.947	4123.25
351.174	4170.25
351.402	4240.25
351.629	4151.25
351.856	4212.25
352.083	4251.25
352.311	4253.25
352.538	4262.25
352.765	4249.25
352.992	4141.25
353.22	4112.25
353.447	4047.25
353.674	3997.25
353.901	3948.25
354.128	3917.25
354.355	3910.25
354.583	3923.25
354.81	3931.25
355.037	3949.25
355.264	3867.25
355.491	3959.25
355.718	3895.25
355.945	3969.25
356.172	3945.25
356.399	3902.25
356.626	3943.25
356.853	3948.25
357.08	3920.25
357.307	3852.25
357.534	3881.25
357.761	3905.25
357.988	3940.25
358.215	3953.25
358.441	3984.25
358.668	3926.25
358.895	4001.25
359.122	4023.25
359.349	4143.25
359.576	4260.25
359.802	4537.25
360.029	4712.25
360.256	4650.25
360.483	4389.25
360.709	4156.25
360.936	4207.25
361.163	4177.25
361.39	4212.25
361.616	4218.25
361.843	4101.25
362.07	4178.25
362.296	4206.25
362.523	4128.25
362.749	4161.25
362.976	4081.25
363.203	4025.25
363.429	4067.25
363.656	4033.25
363.882	4041.25
364.109	4046.25
364.335	3960.25
364.562	4015.25
364.788	3977.25
365.015	4036.25
365.241	4071.25
365.468	4090.25
365.694	4131.25
365.92	4141.25
366.147	4057.25
366.373	4076.25
366.599	3983.25
366.826	3993.25
367.052	3952.25
367.278	4053.25
367.505	3989.25
367.731	4055.25
367.957	4025.25
368.184	4094.25
368.41	4187.25
368.636	4266.25
368.862	4204.25
369.089	4152.25
369.315	4074.25
369.541	4115.25
369.767	4132.25
369.993	4196.25
370.219	4105.25
370.445	4120.25
370.672	4193.25
370.898	4188.25
371.124	4175.25
371.35	4266.25
371.576	4234.25
371.802	4187.25
372.028	4253.25
372.254	4235.25
372.48	4295.25
372.706	4378.25
372.932	4474.25
373.158	4378.25
373.384	4368.25
373.61	4355.25
373.835	4324.25
374.061	4309.25
374.287	4391.25
374.513	4463.25
374.739	4588.25
374.965	4618.25
375.191	4625.25
375.416	4553.25
375.642	4462.25
375.868	4445.25
376.094	4399.25
376.319	4330.25
376.545	4313.25
376.771	4328.25
376.997	4302.25
377.222	4292.25
377.448	4231.25
377.674	4220.25
377.899	4222.25
378.125	4218.25
378.35	4170.25
378.576	4159.25
378.802	4163.25
379.027	4193.25
379.253	4256.25
379.478	4201.25
379.704	4216.25
379.929	4241.25
380.155	4268.25
380.38	4196.25
380.606	4261.25
380.831	4182.25
381.057	4255.25
381.282	4205.25
381.507	4290.25
381.733	4353.25
381.958	4419.25
382.184	4424.25
382.409	4440.25
382.634	4553.25
382.86	4487.25
383.085	4590.25
383.31	4689.25
383.535	4711.25
383.761	4772.25
383.986	4853.25
384.211	4941.25
384.436	4935.25
384.662	5038.25
384.887	5147.25
385.112	5021.25
385.337	5117.25
385.562	5109.25
385.787	5114.25
386.013	5245.25
386.238	5254.25
386.463	5256.25
386.688	5175.25
386.913	5087.25
387.138	5180.25
387.363	5135.25
387.588	5007.25
387.813	5059.25
388.038	5074.25
388.263	5133.25
388.488	5110.25
388.713	5079.25
388.938	5048.25
389.163	5011.25
389.387	5049.25
389.612	5044.25
389.837	4972.25
390.062	4899.25
390.287	5006.25
390.512	4994.25
390.736	5043.25
390.961	5214.25
391.186	5168.25
391.411	5355.25
391.636	5492.25
391.86	5664.25
392.085	5720.25
392.31	5627.25
392.534	5456.25
392.759	5414.25
392.984	5321.25
393.208	5292.25
393.433	5288.25
393.658	5335.25
393.882	5292.25
394.107	5303.25
394.331	5389.25
394.556	5386.25
394.78	5422.25
395.005	5482.25
395.229	5450.25
395.454	5599.25
395.678	5734.25
395.903	5712.25
396.127	5773.25
396.352	5610.25
396.576	5379.25
396.801	5336.25
397.025	5464.25
397.249	5641.25
397.474	5729.25
397.698	5739.25
397.922	5913.25
398.147	6018.25
398.371	6071.25
398.595	6239.25
398.82	6414.25
399.044	6989.25
399.268	7877.25
399.492	8860.25
399.717	9489.25
399.941	9304.25
400.165	8773.25
400.389	8002.25
400.613	7177.25
400.837	6711.25
401.062	6588.25
401.286	6426.25
401.51	6447.25
401.734	6458.25
401.958	6622.25
402.182	6692.25
402.406	6823.25
402.63	6825.25
402.854	6911.25
403.078	6953.25
403.302	7160.25
403.526	7225.25
403.75	7309.25
403.974	7339.25
404.198	7296.25
404.422	7441.25
404.645	7359.25
404.869	7428.25
405.093	7687.25
405.317	8026.25
405.541	7843.25
405.765	7366.25
405.988	7137.25
406.212	7408.25
406.436	7622.25
406.66	7740.25
406.883	7713.25
407.107	8318.25
407.331	8831.25
407.555	9330.25
407.778	9037.25
408.002	8255.25
408.226	7757.25
408.449	7692.25
408.673	7651.25
408.896	7787.25
409.12	7920.25
409.344	7544.25
409.567	7096.25
409.791	7022.25
410.014	6964.25
410.238	6854.25
410.461	6991.25
410.685	6968.25
410.908	7133.25
411.132	7311.25
411.355	7272.25
411.578	6928.25
411.802	6686.25
412.025	6735.25
412.249	6941.25
412.472	7141.25
412.695	7377.25
412.919	6916.25
413.142	6635.25
413.365	6547.25
413.589	6494.25
413.812	6332.25
414.035	6215.25
414.258	6298.25
414.482	6394.25
414.705	6391.25
414.928	6371.25
415.151	6345.25
415.374	6286.25
415.597	6248.25
415.821	6256.25
416.044	6289.25
416.267	6218.25
416.49	6147.25
416.713	6171.25
416.936	6186.25
417.159	6231.25
417.382	6246.25
417.605	6277.25
417.828	6446.25
418.051	6655.25
418.274	6485.25
418.497	6455.25
418.72	6473.25
418.943	6413.25
419.166	6774.25
419.389	7241.25
419.611	7032.25
419.834	6857.25
420.057	6820.25
420.28	6781.25
420.503	6544.25
420.726	6563.25
420.948	6575.25
421.171	6987.25
421.394	7004.25
421.617	6464.25
421.839	6445.25
422.062	6562.25
422.285	6693.25
422.507	7408.25
422.73	7943.25
422.953	7357.25
423.175	6928.25
423.398	6920.25
423.621	6942.25
423.843	7193.25
424.066	7109.25
424.288	7024.25
424.511	7267.25
424.733	7753.25
424.956	8217.25
425.178	7680.25
425.401	7920.25
425.623	7809.25
425.846	6752.25
426.068	6573.25
426.291	6401.25
426.513	6420.25
426.735	6720.25
426.958	7162.25
427.18	7944.25
427.402	9093.25
427.625	9304.25
427.847	7951.25
428.069	7144.25
428.292	6513.25
428.514	6000.25
428.736	5954.25
428.958	5972.25
429.181	5760.25
429.403	5713.25
429.625	5887.25
429.847	6334.25
430.069	6858.25
430.292	6326.25
430.514	5828.25
430.736	5731.25
430.958	5673.25
431.18	5504.25
431.402	5599.25
431.624	5640.25
431.846	5695.25
432.068	5642.25
432.29	5734.25
432.512	5630.25
432.734	5756.25
432.956	5734.25
433.178	5847.25
433.4	5829.25
433.622	5712.25
433.844	5703.25
434.066	5671.25
434.287	5821.25
434.509	6068.25
434.731	6250.25
434.953	6436.25
435.175	6488.25
435.397	6668.25
435.618	6603.25
435.84	6895.25
436.062	7800.25
436.284	7818.25
436.505	6631.25
436.727	6208.25
436.949	5941.25
437.17	5798.25
437.392	5789.25
437.614	5920.25
437.835	6435.25
438.057	7425.25
438.278	8067.25
438.5	7959.25
438.721	8820.25
438.943	7593.25
439.165	6434.25
439.386	6156.25
439.608	6295.25
439.829	6344.25
440.05	6751.25
440.272	7124.25
440.493	6416.25
440.715	6091.25
440.936	6051.25
441.158	6028.25
441.379	6221.25
441.6	6501.25
441.822	6744.25
442.043	7274.25
442.264	8051.25
442.486	7815.25
442.707	6902.25
442.928	6717.25
443.149	6984.25
443.371	7160.25
443.592	7712.25
443.813	8768.25
444.034	8719.25
444.255	7524.25
444.476	7267.25
444.698	7417.25
444.919	7487.25
445.14	7364.25
445.361	7197.25
445.582	7431.25
445.803	8165.25
446.024	8762.25
446.245	8347.25
446.466	7497.25
446.687	6435.25
446.908	6079.25
447.129	5729.25
447.35	5648.25
447.571	5574.25
447.792	5514.25
448.013	5667.25
448.234	5838.25
448.455	6509.25
448.675	7787.25
448.896	8350.25
449.117	6773.25
449.338	6925.25
449.559	8324.25
449.779	8542.25
450	6528.25
450.221	5838.25
450.442	5493.25
450.662	5448.25
450.883	5587.25
451.104	5677.25
451.324	5532.25
451.545	5346.25
451.766	5183.25
451.986	5075.25
452.207	5001.25
452.428	5050.25
452.648	5024.25
452.869	5119.25
453.089	5190.25
453.31	5285.25
453.53	5107.25
453.751	4998.25
453.971	5133.25
454.192	5181.25
454.412	4953.25
454.633	4941.25
454.853	4918.25
455.073	4891.25
455.294	5332.25
455.514	5895.25
455.734	5409.25
455.955	4881.25
456.175	4683.25
456.395	4620.25
456.616	4666.25
456.836	4624.25
457.056	4580.25
457.276	4460.25
457.497	4702.25
457.717	4719.25
457.937	4702.25
458.157	4863.25
458.377	4949.25
458.598	5291.25
458.818	6083.25
459.038	6861.25
459.258	6702.25
459.478	5928.25
459.698	5759.25
459.918	5805.25
460.138	5974.25
460.358	6226.25
460.578	6196.25
460.798	6333.25
461.018	6271.25
461.238	6105.25
461.458	6188.25
461.678	6151.25
461.898	6257.25
462.118	6311.25
462.338	6703.25
462.558	6735.25
462.777	7033.25
462.997	7605.25
463.217	8029.25
463.437	7800.25
463.657	7255.25
463.876	7103.25
464.096	7158.25
464.316	7110.25
464.536	7119.25
464.755	6930.25
464.975	6915.25
465.195	7191.25
465.414	7252.25
465.634	6211.25
465.854	5819.25
466.073	5635.25
466.293	5469.25
466.512	5263.25
466.732	5113.25
466.951	5243.25
467.171	5206.25
467.391	5220.25
467.61	5406.25
467.829	5315.25
468.049	5272.25
468.268	5261.25
468.488	5049.25
468.707	5011.25
468.927	4901.25
469.146	4870.25
469.365	5023.25
469.585	5035.25
469.804	5221.25
470.023	5486.25
470.243	5387.25
470.462	5435.25
470.681	5576.25
470.901	5509.25
471.12	5377.25
471.339	5206.25
471.558	5221.25
471.777	5167.25
471.997	5076.25
472.216	5239.25
472.435	5584.25
472.654	5269.25
472.873	5033.25
473.092	4987.25
473.311	4988.25
473.53	5005.25
473.749	5106.25
473.968	5668.25
474.187	6710.25
474.406	6268.25
474.625	5239.25
474.844	5028.25
475.063	4967.25
475.282	4968.25
475.501	5080.25
475.72	5066.25
475.939	5109.25
476.158	5126.25
476.377	5221.25
476.596	5144.25
476.814	5222.25
477.033	5336.25
477.252	5410.25
477.471	5457.25
477.69	5601.25
477.908	5725.25
478.127	5854.25
478.346	5919.25
478.564	6078.25
478.783	6120.25
479.002	6245.25
479.22	6308.25
479.439	6419.25
479.658	6488.25
479.876	6616.25
480.095	6715.25
480.313	7135.25
480.532	7024.25
480.751	6963.25
480.969	6983.25
481.188	7625.25
481.406	7545.25
481.624	6617.25
481.843	6307.25
482.061	6156.25
482.28	6026.25
482.498	5907.25
482.717	5849.25
482.935	5868.25
483.153	5893.25
483.372	5779.25
483.59	5796.25
483.808	5779.25
484.027	5820.25
484.245	5870.25
484.463	5974.25
484.681	6044.25
484.9	6061.25
485.118	6134.25
485.336	6083.25
485.554	6182.25
485.772	6212.25
485.99	6263.25
486.209	6255.25
486.427	6292.25
486.645	6311.25
486.863	6523.25
487.081	6409.25
487.299	6357.25
487.517	6272.25
487.735	6260.25
487.953	6254.25
