Data from Circ_2012_H10_HRD10591_00026.txt Node
Date: Wed Jan 03 10:05:55 EST 2024
User: Yrep
Spectrometer: HR+D1059
Trigger mode: 1
Integration Time (sec): 1.000000E-1
Scans to average: 1
Electric dark correction enabled: true
Nonlinearity correction enabled: false
Boxcar width: 0
XAxis mode: Wavelengths
Number of Pixels in Spectrum: 2048
>>>>>Begin Spectral Data<<<<<
223.165	-11
223.4	-11
223.635	-11
223.869	-17
224.104	-21
224.338	-7
224.573	-21
224.808	-10
225.042	-10
225.277	-11
225.511	-5
225.746	9
225.98	-1
226.215	18
226.449	22
226.683	22
226.918	25
227.152	18
227.387	41
227.621	40
227.856	38
228.09	44
228.324	38
228.559	59
228.793	149
229.027	427
229.262	491
229.496	573
229.73	773
229.964	791
230.199	535
230.433	455
230.667	450
230.901	444
231.136	431
231.37	459
231.604	438
231.838	433
232.072	419
232.306	464
232.541	443
232.775	451
233.009	467
233.243	464
233.477	458
233.711	468
233.945	486
234.179	489
234.413	492
234.647	487
234.881	496
235.115	504
235.349	523
235.583	536
235.817	571
236.051	596
236.285	569
236.519	587
236.753	680
236.987	877
237.221	1311
237.455	1420
237.689	854
237.922	723
238.156	684
238.39	664
238.624	619
238.858	639
239.091	654
239.325	631
239.559	675
239.793	682
240.027	727
240.26	851
240.494	925
240.728	912
240.961	868
241.195	795
241.429	762
241.662	744
241.896	733
242.13	759
242.363	770
242.597	760
242.83	809
243.064	803
243.298	788
243.531	832
243.765	771
243.998	836
244.232	839
244.465	845
244.699	860
244.932	868
245.166	876
245.399	881
245.633	891
245.866	891
246.099	924
246.333	912
246.566	918
246.8	938
247.033	991
247.266	1028
247.5	1083
247.733	1112
247.966	1108
248.2	1129
248.433	1107
248.666	1159
248.899	1286
249.133	1391
249.366	1362
249.599	1286
249.832	1180
250.066	1189
250.299	1258
250.532	1390
250.765	1547
250.998	1691
251.231	1579
251.465	1417
251.698	1364
251.931	1371
252.164	1377
252.397	1370
252.63	1419
252.863	1472
253.096	1609
253.329	1624
253.562	1538
253.795	1513
254.028	1500
254.261	1578
254.494	1732
254.727	2071
254.96	2138
255.193	1898
255.426	1698
255.659	1604
255.892	1695
256.124	1776
256.357	1684
256.59	1563
256.823	1522
257.056	1487
257.289	1525
257.521	1522
257.754	1481
257.987	1471
258.22	1492
258.452	1507
258.685	1499
258.918	1499
259.151	1606
259.383	1615
259.616	1677
259.849	1719
260.081	1855
260.314	1989
260.547	1970
260.779	1758
261.012	1696
261.244	1643
261.477	1624
261.71	1628
261.942	1700
262.175	1762
262.407	1669
262.64	1599
262.872	1652
263.105	1621
263.337	1623
263.57	1625
263.802	1651
264.035	1588
264.267	1643
264.499	1617
264.732	1646
264.964	1621
265.197	1683
265.429	1663
265.661	1656
265.894	1688
266.126	1706
266.358	1713
266.591	1697
266.823	1792
267.055	1821
267.287	1836
267.52	1810
267.752	1787
267.984	1806
268.216	1841
268.448	1892
268.681	1945
268.913	2004
269.145	2189
269.377	2304
269.609	2199
269.841	2178
270.073	2272
270.306	2532
270.538	2657
270.77	2559
271.002	2412
271.234	2344
271.466	2463
271.698	2615
271.93	2629
272.162	2603
272.394	2581
272.626	2427
272.858	2268
273.09	2222
273.322	2200
273.553	2156
273.785	2155
274.017	2230
274.249	2208
274.481	2169
274.713	2224
274.945	2208
275.176	2237
275.408	2234
275.64	2210
275.872	2210
276.104	2259
276.335	2278
276.567	2375
276.799	2547
277.031	2733
277.262	2757
277.494	2648
277.726	2559
277.957	2481
278.189	2386
278.421	2379
278.652	2315
278.884	2317
279.115	2304
279.347	2351
279.579	2329
279.81	2331
280.042	2345
280.273	2319
280.505	2335
280.736	2340
280.968	2324
281.199	2354
281.431	2351
281.662	2400
281.894	2430
282.125	2453
282.356	2664
282.588	2759
282.819	2655
283.051	2482
283.282	2453
283.513	2557
283.745	2585
283.976	2594
284.207	2581
284.439	2551
284.67	2553
284.901	2549
285.132	2561
285.364	2561
285.595	2572
285.826	2604
286.057	2559
286.288	2609
286.52	2604
286.751	2624
286.982	2634
287.213	2693
287.444	2627
287.675	2709
287.906	2828
288.138	2834
288.369	2821
288.6	2842
288.831	2807
289.062	2742
289.293	2779
289.524	2740
289.755	2746
289.986	2745
290.217	2775
290.448	2707
290.679	2757
290.91	2699
291.141	2723
291.371	2745
291.602	2750
291.833	2728
292.064	2758
292.295	2777
292.526	2796
292.757	2768
292.987	2762
293.218	2737
293.449	2812
293.68	2801
293.91	2808
294.141	2805
294.372	2792
294.603	2776
294.833	2826
295.064	2841
295.295	2857
295.525	2821
295.756	2892
295.987	3007
296.217	3128
296.448	3061
296.679	2985
296.909	2876
297.14	2922
297.37	2951
297.601	2963
297.831	2950
298.062	3003
298.292	3034
298.523	3073
298.753	3049
298.984	3020
299.214	3031
299.445	3025
299.675	3040
299.905	3067
300.136	2999
300.366	3059
300.597	3120
300.827	3168
301.057	3253
301.288	3332
301.518	3264
301.748	3281
301.979	3311
302.209	3299
302.439	3337
302.669	3271
302.9	3227
303.13	3206
303.36	3253
303.59	3311
303.82	3319
304.051	3251
304.281	3233
304.511	3244
304.741	3224
304.971	3211
305.201	3191
305.431	3192
305.661	3251
305.891	3246
306.121	3207
306.352	3323
306.582	3252
306.812	3168
307.042	3250
307.272	3226
307.502	3211
307.731	3280
307.961	3236
308.191	3225
308.421	3223
308.651	3255
308.881	3248
309.111	3307
309.341	3288
309.571	3428
309.8	3429
310.03	3538
310.26	3534
310.49	3523
310.72	3659
310.949	3688
311.179	3643
311.409	3573
311.639	3563
311.868	3642
312.098	3615
312.328	3737
312.557	3885
312.787	3932
313.017	3781
313.246	3762
313.476	3642
313.706	3644
313.935	3810
314.165	3849
314.394	3920
314.624	3817
314.853	3738
315.083	3724
315.312	3699
315.542	3651
315.771	3561
316.001	3576
316.23	3593
316.46	3621
316.689	3688
316.919	3649
317.148	3722
317.377	3735
317.607	3682
317.836	3571
318.065	3581
318.295	3613
318.524	3648
318.753	3575
318.983	3631
319.212	3560
319.441	3711
319.67	3621
319.9	3630
320.129	3597
320.358	3635
320.587	3697
320.816	3718
321.046	3730
321.275	3815
321.504	3832
321.733	3761
321.962	3877
322.191	3924
322.42	4052
322.649	4143
322.878	4174
323.108	4312
323.337	4474
323.566	4654
323.795	5033
324.024	5645
324.253	7514
324.482	11289
324.71	15484
324.939	15597
325.168	13191
325.397	6605
325.626	5295
325.855	4842
326.084	4789
326.313	4803
326.542	4854
326.77	5670
326.999	7177
327.228	10601
327.457	14581
327.686	13749
327.914	7466
328.143	5999
328.372	5531
328.6	5292
328.829	5237
329.058	5386
329.287	5331
329.515	5018
329.744	4921
329.972	4984
330.201	5205
330.43	5520
330.658	5561
330.887	5788
331.115	5314
331.344	4924
331.572	4834
331.801	4975
332.03	4969
332.258	4865
332.486	4938
332.715	5006
332.943	5140
333.172	5295
333.4	5462
333.629	5574
333.857	5736
334.085	5715
334.314	5863
334.542	6047
334.771	5896
334.999	5439
335.227	5245
335.455	5087
335.684	5016
335.912	4930
336.14	4876
336.369	4891
336.597	4994
336.825	4864
337.053	4792
337.281	4783
337.51	4604
337.738	4687
337.966	4599
338.194	4666
338.422	4570
338.65	4423
338.878	4429
339.106	4455
339.334	4491
339.562	4378
339.79	4315
340.018	4322
340.246	4386
340.474	4404
340.702	4359
340.93	4325
341.158	4347
341.386	4353
341.614	4411
341.842	4336
342.07	4242
342.298	4242
342.526	4247
342.754	4247
342.981	4281
343.209	4361
343.437	4534
343.665	4892
343.893	5072
344.12	5101
344.348	4876
344.576	4747
344.804	4636
345.031	4563
345.259	4514
345.487	4324
345.714	4267
345.942	4154
346.17	4170
346.397	4126
346.625	4140
346.853	4090
347.08	4151
347.308	4101
347.535	4263
347.763	4299
347.99	4216
348.218	4237
348.445	4265
348.673	4173
348.9	4136
349.128	4077
349.355	4052
349.583	4080
349.81	3956
350.037	4064
350.265	3941
350.492	4001
350.72	4027
350.947	4093
351.174	4155
351.402	4183
351.629	4074
351.856	4153
352.083	4204
352.311	4209
352.538	4164
352.765	4167
352.992	4078
353.22	4029
353.447	4063
353.674	3978
353.901	3860
354.128	3914
354.355	3912
354.583	3907
354.81	3889
355.037	3919
355.264	3883
355.491	3895
355.718	3911
355.945	3841
356.172	3927
356.399	3818
356.626	3897
356.853	3913
357.08	3836
357.307	3851
357.534	3888
357.761	3921
357.988	3945
358.215	3905
358.441	3949
358.668	3913
358.895	4007
359.122	4028
359.349	4121
359.576	4164
359.802	4375
360.029	4609
360.256	4543
360.483	4371
360.709	4170
360.936	4103
361.163	4136
361.39	4159
361.616	4152
361.843	4069
362.07	4170
362.296	4165
362.523	4140
362.749	4067
362.976	4044
363.203	4026
363.429	3988
363.656	4045
363.882	3944
364.109	4011
364.335	3985
364.562	3999
364.788	3923
365.015	4021
365.241	3990
365.468	4036
365.694	4080
365.92	4053
366.147	3973
366.373	4009
366.599	3963
366.826	3975
367.052	3951
367.278	4007
367.505	3936
367.731	4121
367.957	4006
368.184	4064
368.41	4128
368.636	4230
368.862	4245
369.089	4092
369.315	4025
369.541	4036
369.767	4105
369.993	4184
370.219	4165
370.445	4140
370.672	4119
370.898	4151
371.124	4202
371.35	4235
371.576	4234
371.802	4255
372.028	4170
372.254	4261
372.48	4281
372.706	4357
372.932	4452
373.158	4335
373.384	4245
373.61	4242
373.835	4211
374.061	4246
374.287	4409
374.513	4409
374.739	4572
374.965	4641
375.191	4657
375.416	4596
375.642	4409
375.868	4452
376.094	4347
376.319	4288
376.545	4359
376.771	4314
376.997	4267
377.222	4252
377.448	4174
377.674	4281
377.899	4184
378.125	4201
378.35	4135
378.576	4174
378.802	4212
379.027	4179
379.253	4189
379.478	4176
379.704	4216
379.929	4178
380.155	4227
380.38	4225
380.606	4246
380.831	4283
381.057	4290
381.282	4255
381.507	4279
381.733	4294
381.958	4351
382.184	4381
382.409	4490
382.634	4467
382.86	4516
383.085	4534
383.31	4551
383.535	4723
383.761	4744
383.986	4843
384.211	4811
384.436	4955
384.662	5034
384.887	5068
385.112	5049
385.337	5078
385.562	5146
385.787	5137
386.013	5246
386.238	5220
386.463	5181
386.688	5148
386.913	5036
387.138	5089
387.363	5095
387.588	4979
387.813	5040
388.038	5058
388.263	5040
388.488	5114
388.713	5036
388.938	5043
389.163	5043
389.387	5027
389.612	4917
389.837	5043
390.062	4988
390.287	5024
390.512	4963
390.736	5071
390.961	5189
391.186	5215
391.411	5373
391.636	5494
391.86	5612
392.085	5697
392.31	5591
392.534	5437
392.759	5319
392.984	5327
393.208	5295
393.433	5308
393.658	5321
393.882	5320
394.107	5310
394.331	5349
394.556	5367
394.78	5355
395.005	5427
395.229	5381
395.454	5658
395.678	5719
395.903	5736
396.127	5663
396.352	5546
396.576	5356
396.801	5409
397.025	5531
397.249	5575
397.474	5704
397.698	5779
397.922	5775
398.147	5945
398.371	6022
398.595	6154
398.82	6515
399.044	7044
399.268	7793
399.492	8851
399.717	9460
399.941	9200
400.165	8523
400.389	7891
400.613	7113
400.837	6712
401.062	6582
401.286	6500
401.51	6488
401.734	6392
401.958	6507
402.182	6590
402.406	6729
402.63	6771
402.854	6871
403.078	6939
403.302	7097
403.526	7225
403.75	7224
403.974	7323
404.198	7357
404.422	7376
404.645	7362
404.869	7332
405.093	7563
405.317	7865
405.541	7711
405.765	7289
405.988	7169
406.212	7326
406.436	7511
406.66	7673
406.883	7654
407.107	8177
407.331	8781
407.555	9239
407.778	8957
408.002	8125
408.226	7757
408.449	7669
408.673	7521
408.896	7631
409.12	7731
409.344	7462
409.567	7055
409.791	7099
410.014	6916
410.238	6881
410.461	6938
410.685	6965
410.908	6982
411.132	7250
411.355	7295
411.578	6932
411.802	6667
412.025	6667
412.249	6917
412.472	7076
412.695	7190
412.919	6846
413.142	6556
413.365	6486
413.589	6420
413.812	6304
414.035	6189
414.258	6330
414.482	6339
414.705	6305
414.928	6345
415.151	6372
415.374	6274
415.597	6193
415.821	6149
416.044	6176
416.267	6157
416.49	6180
416.713	6043
416.936	6162
417.159	6251
417.382	6276
417.605	6245
417.828	6444
418.051	6571
418.274	6375
418.497	6248
418.72	6472
418.943	6398
419.166	6774
419.389	7125
419.611	7013
419.834	6833
420.057	6766
420.28	6611
420.503	6495
420.726	6456
420.948	6594
421.171	6927
421.394	6901
421.617	6458
421.839	6355
422.062	6522
422.285	6737
422.507	7310
422.73	7866
422.953	7210
423.175	6837
423.398	6915
423.621	6903
423.843	7203
424.066	7093
424.288	6912
424.511	7226
424.733	7799
424.956	8143
425.178	7660
425.401	7768
425.623	7671
425.846	6583
426.068	6509
426.291	6433
426.513	6508
426.735	6608
426.958	7008
427.18	7869
427.402	8901
427.625	8983
427.847	7660
428.069	6929
428.292	6447
428.514	6041
428.736	5848
428.958	5908
429.181	5763
429.403	5723
429.625	5886
429.847	6166
430.069	6704
430.292	6276
430.514	5774
430.736	5737
430.958	5593
431.18	5594
431.402	5578
431.624	5482
431.846	5686
432.068	5656
432.29	5797
432.512	5593
432.734	5684
432.956	5592
433.178	5704
433.4	5715
433.622	5625
433.844	5704
434.066	5670
434.287	5840
434.509	6062
434.731	6210
434.953	6394
435.175	6542
435.397	6610
435.618	6521
435.84	6895
436.062	7770
436.284	7617
436.505	6511
436.727	6161
436.949	5887
437.17	5723
437.392	5777
437.614	5826
437.835	6301
438.057	7241
438.278	7843
438.5	7807
438.721	8554
438.943	7452
439.165	6326
439.386	6186
439.608	6242
439.829	6274
440.05	6662
440.272	6877
440.493	6447
440.715	6046
440.936	6050
441.158	6069
441.379	6250
441.6	6479
441.822	6709
442.043	7200
442.264	7911
442.486	7630
442.707	6871
442.928	6729
443.149	6884
443.371	7105
443.592	7538
443.813	8607
444.034	8465
444.255	7474
444.476	7227
444.698	7332
444.919	7500
445.14	7287
445.361	7151
445.582	7362
445.803	7957
446.024	8467
446.245	8085
446.466	7244
446.687	6287
446.908	6107
447.129	5740
447.35	5660
447.571	5627
447.792	5444
448.013	5520
448.234	5810
448.455	6387
448.675	7591
448.896	8091
449.117	6697
449.338	6835
449.559	8088
449.779	8351
450	6416
450.221	5664
450.442	5472
450.662	5439
450.883	5447
451.104	5680
451.324	5461
451.545	5288
451.766	5155
451.986	4993
452.207	4978
452.428	4921
452.648	5048
452.869	5112
453.089	5156
453.31	5245
453.53	5024
453.751	4987
453.971	5011
454.192	5097
454.412	4907
454.633	4836
454.853	4840
455.073	4918
455.294	5262
455.514	5788
455.734	5218
455.955	4799
456.175	4662
456.395	4619
456.616	4601
456.836	4587
457.056	4611
457.276	4466
457.497	4651
457.717	4648
457.937	4714
458.157	4860
458.377	4917
458.598	5203
458.818	5944
459.038	6713
459.258	6548
459.478	5889
459.698	5722
459.918	5802
460.138	5983
460.358	6195
460.578	6286
460.798	6315
461.018	6343
461.238	6096
461.458	6108
461.678	6093
461.898	6207
462.118	6280
462.338	6589
462.558	6697
462.777	6986
462.997	7688
463.217	8018
463.437	7798
463.657	7272
463.876	7107
464.096	7093
464.316	7124
464.536	7097
464.755	6891
464.975	6836
465.195	6976
465.414	6984
465.634	6180
465.854	5855
466.073	5631
466.293	5405
466.512	5285
466.732	5191
466.951	5132
467.171	5194
467.391	5172
467.61	5288
467.829	5281
468.049	5104
468.268	5112
468.488	4921
468.707	4939
468.927	4984
469.146	4902
469.365	4928
469.585	4940
469.804	5203
470.023	5385
470.243	5308
470.462	5466
470.681	5594
470.901	5407
471.12	5290
471.339	5227
471.558	5221
471.777	5140
471.997	5091
472.216	5130
472.435	5346
472.654	5125
472.873	4945
473.092	5032
473.311	4863
473.53	4900
473.749	5085
473.968	5645
474.187	6526
474.406	6060
474.625	5232
474.844	5008
475.063	4962
475.282	4964
475.501	4971
475.72	5034
475.939	5057
476.158	5147
476.377	5158
476.596	5122
476.814	5317
477.033	5280
477.252	5370
477.471	5479
477.69	5567
477.908	5700
478.127	5839
478.346	5854
478.564	5985
478.783	6098
479.002	6314
479.22	6179
479.439	6339
479.658	6406
479.876	6575
480.095	6645
480.313	7053
480.532	6951
480.751	6834
480.969	6855
481.188	7122
481.406	7053
481.624	6510
481.843	6227
482.061	6073
482.28	5956
482.498	5873
482.717	5814
482.935	5763
483.153	5792
483.372	5779
483.59	5739
483.808	5787
484.027	5861
484.245	5882
484.463	5870
484.681	5959
484.9	5910
485.118	5961
485.336	6051
485.554	6152
485.772	6162
485.99	6169
486.209	6147
486.427	6224
486.645	6270
486.863	6386
487.081	6348
487.299	6290
487.517	6221
487.735	6213
487.953	6252
488.171	6161
488.389	6154
488.607	6203
488.825	6213
489.043	6260
489.261	6323
489.479	6332
489.696	6394
489.914	6447
490.132	6485
490.35	6625
490.568	6575
490.786	6609
491.003	6745
491.221	6874
491.439	7053
491.657	7036
491.874	7085
492.092	7220
492.31	7199
492.527	7247
492.745	7358
492.963	7330
493.18	7375
493.398	7407
493.615	7529
493.833	7554
494.05	7428
494.268	7484
494.485	7385
494.703	7356
494.92	7401
495.138	7416
495.355	7417
495.573	7393
495.79	7450
496.008	7435
496.225	7449
496.442	7451
496.66	7386
496.877	7530
497.094	7668
497.312	7793
497.529	7977
497.746	8184
497.963	8287
498.181	8705
498.398	9005
498.615	9313
498.832	9792
499.049	10369
499.267	11012
499.484	11714
499.701	12561
499.918	13305
500.135	14182
500.352	14833
500.569	14880
500.786	14764
501.003	14297
501.22	13572
501.437	12859
501.654	12145
501.871	11447
502.088	10649
502.305	10072
502.522	9589
502.739	9240
502.956	8741
503.172	8437
503.389	8155
503.606	8111
503.823	7921
504.04	7905
504.256	7861
504.473	8115
504.69	8165
504.907	7864
505.123	7484
505.34	7296
505.557	7099
505.773	6975
505.99	7036
506.207	6855
506.423	6779
506.64	6699
506.856	6554
507.073	6569
507.289	6509
507.506	6449
507.722	6685
507.939	6595
508.155	6342
508.372	6285
508.588	6166
508.805	6250
509.021	6247
509.238	6425
509.454	6360
509.67	6328
509.887	6265
510.103	6147
510.319	6303
510.536	7657
510.752	11817
510.968	7683
511.184	6088
511.401	6033
511.617	5913
511.833	5881
512.049	5922
512.265	5861
512.481	5849
512.698	5794
512.914	5772
513.13	5790
513.346	5797
513.562	5772
513.778	5811
513.994	5940
514.21	5947
514.426	6226
514.642	6502
514.858	6686
515.074	7061
515.29	8566
515.506	11581
515.721	8373
515.937	6801
516.153	6552
516.369	6503
516.585	6569
516.801	6658
517.016	6885
517.232	7135
517.448	7357
517.664	7499
517.879	7459
518.095	7415
518.311	7245
518.527	6999
518.742	6737
518.958	6546
519.173	6311
519.389	6273
519.605	6163
519.82	6119
520.036	6151
520.251	6220
520.467	6400
520.682	6394
520.898	6339
521.113	6436
521.329	6753
521.544	7407
521.76	9417
521.975	14172
522.19	11485
522.406	7146
522.621	6084
522.836	5700
523.052	5486
523.267	5301
523.482	5236
523.698	5182
523.913	5216
524.128	5176
524.343	5069
524.559	4962
524.774	4981
524.989	4953
525.204	5004
525.419	4916
525.634	4882
525.849	4850
526.064	4794
526.28	4743
526.495	4744
526.71	4712
526.925	4689
527.14	4712
527.355	4728
527.57	4676
527.785	4659
527.999	4676
528.214	4705
528.429	4694
528.644	4706
528.859	4684
529.074	4763
529.289	4927
529.503	5493
529.718	5148
529.933	4894
530.148	4839
530.363	4747
530.577	4623
530.792	4572
531.007	4625
531.221	4607
531.436	4589
531.651	4584
531.865	4671
532.08	4565
532.295	4510
532.509	4534
532.724	4593
532.938	4518
533.153	4510
533.367	4518
533.582	4592
533.796	4531
534.011	4535
534.225	4492
534.44	4477
534.654	4499
534.868	4452
535.083	4429
535.297	4417
535.511	4454
535.726	4488
535.94	4545
536.154	4426
536.369	4375
536.583	4245
536.797	4272
537.011	4255
537.225	4165
537.44	4135
537.654	4185
537.868	4196
538.082	4275
538.296	4288
538.51	4244
538.724	4240
538.938	4165
539.153	4200
539.367	4266
539.581	4214
539.795	4169
540.009	4072
540.222	4159
540.436	4231
540.65	4162
540.864	4191
541.078	4217
541.292	4209
541.506	4063
541.72	4037
541.934	4052
542.147	4007
