Data from Circ_2012_H10_HRD10591_00035.txt Node
Date: Wed Jan 03 10:05:57 EST 2024
User: Yrep
Spectrometer: HR+D1059
Trigger mode: 1
Integration Time (sec): 1.000000E-1
Scans to average: 1
Electric dark correction enabled: true
Nonlinearity correction enabled: false
Boxcar width: 0
XAxis mode: Wavelengths
Number of Pixels in Spectrum: 2048
>>>>>Begin Spectral Data<<<<<
223.165	-16.81
223.4	-16.81
223.635	-16.81
223.869	-16.81
224.104	-24.81
224.338	-27.81
224.573	-25.81
224.808	-0.81
225.042	-13.81
225.277	2.19
225.511	-6.81
225.746	2.19
225.98	5.19
226.215	6.19
226.449	19.19
226.683	26.19
226.918	36.19
227.152	36.19
227.387	41.19
227.621	40.19
227.856	44.19
228.09	48.19
228.324	55.19
228.559	74.19
228.793	157.19
229.027	411.19
229.262	518.19
229.496	598.19
229.73	784.19
229.964	781.19
230.199	547.19
230.433	480.19
230.667	453.19
230.901	441.19
231.136	421.19
231.37	449.19
231.604	429.19
231.838	447.19
232.072	430.19
232.306	446.19
232.541	471.19
232.775	475.19
233.009	479.19
233.243	454.19
233.477	468.19
233.711	475.19
233.945	495.19
234.179	508.19
234.413	488.19
234.647	482.19
234.881	507.19
235.115	495.19
235.349	524.19
235.583	539.19
235.817	567.19
236.051	611.19
236.285	595.19
236.519	601.19
236.753	687.19
236.987	912.19
237.221	1306.19
237.455	1442.19
237.689	870.19
237.922	703.19
238.156	694.19
238.39	655.19
238.624	657.19
238.858	617.19
239.091	644.19
239.325	687.19
239.559	674.19
239.793	681.19
240.027	724.19
240.26	886.19
240.494	911.19
240.728	906.19
240.961	867.19
241.195	820.19
241.429	775.19
241.662	754.19
241.896	770.19
242.13	739.19
242.363	762.19
242.597	747.19
242.83	792.19
243.064	778.19
243.298	785.19
243.531	804.19
243.765	813.19
243.998	843.19
244.232	802.19
244.465	831.19
244.699	819.19
244.932	912.19
245.166	889.19
245.399	916.19
245.633	890.19
245.866	888.19
246.099	889.19
246.333	907.19
246.566	926.19
246.8	943.19
247.033	961.19
247.266	1010.19
247.5	1054.19
247.733	1122.19
247.966	1117.19
248.2	1097.19
248.433	1115.19
248.666	1174.19
248.899	1333.19
249.133	1392.19
249.366	1384.19
249.599	1289.19
249.832	1178.19
250.066	1216.19
250.299	1281.19
250.532	1416.19
250.765	1560.19
250.998	1642.19
251.231	1630.19
251.465	1443.19
251.698	1375.19
251.931	1351.19
252.164	1341.19
252.397	1411.19
252.63	1410.19
252.863	1530.19
253.096	1618.19
253.329	1666.19
253.562	1587.19
253.795	1504.19
254.028	1541.19
254.261	1567.19
254.494	1747.19
254.727	2027.19
254.96	2135.19
255.193	1889.19
255.426	1706.19
255.659	1666.19
255.892	1738.19
256.124	1835.19
256.357	1790.19
256.59	1578.19
256.823	1534.19
257.056	1524.19
257.289	1497.19
257.521	1527.19
257.754	1514.19
257.987	1485.19
258.22	1484.19
258.452	1498.19
258.685	1524.19
258.918	1519.19
259.151	1568.19
259.383	1626.19
259.616	1661.19
259.849	1718.19
260.081	1871.19
260.314	2015.19
260.547	1943.19
260.779	1773.19
261.012	1713.19
261.244	1675.19
261.477	1628.19
261.71	1671.19
261.942	1709.19
262.175	1763.19
262.407	1703.19
262.64	1619.19
262.872	1578.19
263.105	1580.19
263.337	1588.19
263.57	1618.19
263.802	1669.19
264.035	1620.19
264.267	1658.19
264.499	1650.19
264.732	1632.19
264.964	1628.19
265.197	1615.19
265.429	1676.19
265.661	1697.19
265.894	1683.19
266.126	1677.19
266.358	1688.19
266.591	1758.19
266.823	1828.19
267.055	1859.19
267.287	1830.19
267.52	1770.19
267.752	1802.19
267.984	1845.19
268.216	1808.19
268.448	1862.19
268.681	1887.19
268.913	2050.19
269.145	2261.19
269.377	2258.19
269.609	2211.19
269.841	2186.19
270.073	2301.19
270.306	2509.19
270.538	2702.19
270.77	2549.19
271.002	2381.19
271.234	2386.19
271.466	2515.19
271.698	2663.19
271.93	2649.19
272.162	2642.19
272.394	2545.19
272.626	2439.19
272.858	2319.19
273.09	2240.19
273.322	2164.19
273.553	2186.19
273.785	2182.19
274.017	2146.19
274.249	2213.19
274.481	2189.19
274.713	2251.19
274.945	2221.19
275.176	2218.19
275.408	2201.19
275.64	2207.19
275.872	2211.19
276.104	2264.19
276.335	2249.19
276.567	2306.19
276.799	2520.19
277.031	2727.19
277.262	2781.19
277.494	2718.19
277.726	2563.19
277.957	2412.19
278.189	2378.19
278.421	2357.19
278.652	2304.19
278.884	2324.19
279.115	2284.19
279.347	2320.19
279.579	2336.19
279.81	2325.19
280.042	2364.19
280.273	2337.19
280.505	2390.19
280.736	2328.19
280.968	2350.19
281.199	2374.19
281.431	2391.19
281.662	2427.19
281.894	2427.19
282.125	2500.19
282.356	2671.19
282.588	2797.19
282.819	2616.19
283.051	2500.19
283.282	2407.19
283.513	2522.19
283.745	2526.19
283.976	2624.19
284.207	2587.19
284.439	2599.19
284.67	2536.19
284.901	2587.19
285.132	2597.19
285.364	2553.19
285.595	2563.19
285.826	2557.19
286.057	2622.19
286.288	2596.19
286.52	2615.19
286.751	2634.19
286.982	2610.19
287.213	2639.19
287.444	2653.19
287.675	2711.19
287.906	2870.19
288.138	2909.19
288.369	2826.19
288.6	2841.19
288.831	2831.19
289.062	2761.19
289.293	2744.19
289.524	2761.19
289.755	2694.19
289.986	2788.19
290.217	2773.19
290.448	2713.19
290.679	2720.19
290.91	2735.19
291.141	2708.19
291.371	2733.19
291.602	2748.19
291.833	2754.19
292.064	2767.19
292.295	2754.19
292.526	2769.19
292.757	2756.19
292.987	2757.19
293.218	2738.19
293.449	2802.19
293.68	2788.19
293.91	2698.19
294.141	2789.19
294.372	2774.19
294.603	2804.19
294.833	2858.19
295.064	2835.19
295.295	2809.19
295.525	2821.19
295.756	2859.19
295.987	2976.19
296.217	3129.19
296.448	3113.19
296.679	2948.19
296.909	2886.19
297.14	2909.19
297.37	2976.19
297.601	2996.19
297.831	2967.19
298.062	2990.19
298.292	2951.19
298.523	3030.19
298.753	2992.19
298.984	3011.19
299.214	3022.19
299.445	3021.19
299.675	3082.19
299.905	3149.19
300.136	3071.19
300.366	3050.19
300.597	3127.19
300.827	3213.19
301.057	3276.19
301.288	3391.19
301.518	3288.19
301.748	3308.19
301.979	3342.19
302.209	3301.19
302.439	3301.19
302.669	3262.19
302.9	3226.19
303.13	3193.19
303.36	3256.19
303.59	3336.19
303.82	3352.19
304.051	3275.19
304.281	3260.19
304.511	3265.19
304.741	3235.19
304.971	3276.19
305.201	3205.19
305.431	3218.19
305.661	3201.19
305.891	3191.19
306.121	3233.19
306.352	3230.19
306.582	3242.19
306.812	3134.19
307.042	3186.19
307.272	3252.19
307.502	3212.19
307.731	3263.19
307.961	3255.19
308.191	3214.19
308.421	3261.19
308.651	3202.19
308.881	3217.19
309.111	3303.19
309.341	3287.19
309.571	3354.19
309.8	3476.19
310.03	3544.19
310.26	3534.19
310.49	3493.19
310.72	3623.19
310.949	3668.19
311.179	3698.19
311.409	3491.19
311.639	3596.19
311.868	3586.19
312.098	3616.19
312.328	3663.19
312.557	3814.19
312.787	3952.19
313.017	3771.19
313.246	3700.19
313.476	3634.19
313.706	3716.19
313.935	3771.19
314.165	3830.19
314.394	3835.19
314.624	3812.19
314.853	3752.19
315.083	3704.19
315.312	3677.19
315.542	3682.19
315.771	3625.19
316.001	3655.19
316.23	3618.19
316.46	3662.19
316.689	3712.19
316.919	3681.19
317.148	3774.19
317.377	3702.19
317.607	3684.19
317.836	3642.19
318.065	3584.19
318.295	3624.19
318.524	3622.19
318.753	3572.19
318.983	3622.19
319.212	3562.19
319.441	3695.19
319.67	3673.19
319.9	3647.19
320.129	3641.19
320.358	3618.19
320.587	3722.19
320.816	3761.19
321.046	3800.19
321.275	3775.19
321.504	3805.19
321.733	3806.19
321.962	3863.19
322.191	3948.19
322.42	4035.19
322.649	4097.19
322.878	4183.19
323.108	4294.19
323.337	4559.19
323.566	4685.19
323.795	4951.19
324.024	5596.19
324.253	7395.19
324.482	11147.19
324.71	15364.19
324.939	15600.19
325.168	13130.19
325.397	6707.19
325.626	5294.19
325.855	4860.19
326.084	4726.19
326.313	4743.19
326.542	4862.19
326.77	5520.19
326.999	7167.19
327.228	10419.19
327.457	14522.19
327.686	13583.19
327.914	7387.19
328.143	5926.19
328.372	5595.19
328.6	5210.19
328.829	5213.19
329.058	5339.19
329.287	5339.19
329.515	5026.19
329.744	4860.19
329.972	5021.19
330.201	5338.19
330.43	5587.19
330.658	5674.19
330.887	5879.19
331.115	5369.19
331.344	4935.19
331.572	4813.19
331.801	4958.19
332.03	4986.19
332.258	4973.19
332.486	4890.19
332.715	5051.19
332.943	5143.19
333.172	5258.19
333.4	5439.19
333.629	5597.19
333.857	5754.19
334.085	5808.19
334.314	5988.19
334.542	6212.19
334.771	6091.19
334.999	5485.19
335.227	5268.19
335.455	5075.19
335.684	5003.19
335.912	5008.19
336.14	4941.19
336.369	4886.19
336.597	4956.19
336.825	4919.19
337.053	4815.19
337.281	4718.19
337.51	4698.19
337.738	4716.19
337.966	4635.19
338.194	4591.19
338.422	4581.19
338.65	4447.19
338.878	4500.19
339.106	4473.19
339.334	4417.19
339.562	4371.19
339.79	4301.19
340.018	4297.19
340.246	4304.19
340.474	4362.19
340.702	4384.19
340.93	4356.19
341.158	4325.19
341.386	4333.19
341.614	4368.19
341.842	4298.19
342.07	4273.19
342.298	4217.19
342.526	4204.19
342.754	4191.19
342.981	4238.19
343.209	4332.19
343.437	4542.19
343.665	4834.19
343.893	5060.19
344.12	5075.19
344.348	4829.19
344.576	4710.19
344.804	4579.19
345.031	4547.19
345.259	4561.19
345.487	4375.19
345.714	4250.19
345.942	4162.19
346.17	4167.19
346.397	4119.19
346.625	4149.19
346.853	4067.19
347.08	4087.19
347.308	4125.19
347.535	4197.19
347.763	4320.19
347.99	4186.19
348.218	4259.19
348.445	4273.19
348.673	4153.19
348.9	4091.19
349.128	4069.19
349.355	4010.19
349.583	3868.19
349.81	3998.19
350.037	3956.19
350.265	3926.19
350.492	4006.19
350.72	4000.19
350.947	4036.19
351.174	4148.19
351.402	4138.19
351.629	4085.19
351.856	4084.19
352.083	4178.19
352.311	4131.19
352.538	4119.19
352.765	4144.19
352.992	4102.19
353.22	4037.19
353.447	4043.19
353.674	3931.19
353.901	3919.19
354.128	3880.19
354.355	3862.19
354.583	3934.19
354.81	3923.19
355.037	3870.19
355.264	3911.19
355.491	3934.19
355.718	3871.19
355.945	3877.19
356.172	3848.19
356.399	3890.19
356.626	3873.19
356.853	3890.19
357.08	3849.19
357.307	3840.19
357.534	3908.19
357.761	3866.19
357.988	3956.19
358.215	3885.19
358.441	3860.19
358.668	3984.19
358.895	4002.19
359.122	3981.19
359.349	4004.19
359.576	4218.19
359.802	4408.19
360.029	4539.19
360.256	4584.19
360.483	4369.19
360.709	4132.19
360.936	4085.19
361.163	4070.19
361.39	4096.19
361.616	4187.19
361.843	4091.19
362.07	4123.19
362.296	4101.19
362.523	4080.19
362.749	4122.19
362.976	4040.19
363.203	4034.19
363.429	3995.19
363.656	4022.19
363.882	3981.19
364.109	3901.19
364.335	3957.19
364.562	4000.19
364.788	3961.19
365.015	3960.19
365.241	3989.19
365.468	3978.19
365.694	4060.19
365.92	4006.19
366.147	3999.19
366.373	4034.19
366.599	4001.19
366.826	4021.19
367.052	3952.19
367.278	3974.19
367.505	3965.19
367.731	4027.19
367.957	4026.19
368.184	4065.19
368.41	4100.19
368.636	4166.19
368.862	4206.19
369.089	4092.19
369.315	4103.19
369.541	4098.19
369.767	4098.19
369.993	4105.19
370.219	4120.19
370.445	4148.19
370.672	4189.19
370.898	4159.19
371.124	4210.19
371.35	4261.19
371.576	4186.19
371.802	4236.19
372.028	4210.19
372.254	4255.19
372.48	4305.19
372.706	4406.19
372.932	4420.19
373.158	4366.19
373.384	4270.19
373.61	4251.19
373.835	4344.19
374.061	4322.19
374.287	4316.19
374.513	4429.19
374.739	4621.19
374.965	4595.19
375.191	4615.19
375.416	4512.19
375.642	4445.19
375.868	4421.19
376.094	4340.19
376.319	4317.19
376.545	4252.19
376.771	4283.19
376.997	4251.19
377.222	4325.19
377.448	4265.19
377.674	4239.19
377.899	4226.19
378.125	4157.19
378.35	4149.19
378.576	4159.19
378.802	4132.19
379.027	4190.19
379.253	4141.19
379.478	4155.19
379.704	4243.19
379.929	4287.19
380.155	4205.19
380.38	4249.19
380.606	4346.19
380.831	4269.19
381.057	4279.19
381.282	4238.19
381.507	4282.19
381.733	4331.19
381.958	4280.19
382.184	4420.19
382.409	4423.19
382.634	4472.19
382.86	4516.19
383.085	4487.19
383.31	4620.19
383.535	4748.19
383.761	4679.19
383.986	4764.19
384.211	4926.19
384.436	5013.19
384.662	4967.19
384.887	5065.19
385.112	5055.19
385.337	5112.19
385.562	5126.19
385.787	5146.19
386.013	5177.19
386.238	5270.19
386.463	5188.19
386.688	5213.19
386.913	5084.19
387.138	5046.19
387.363	5080.19
387.588	4991.19
387.813	5032.19
388.038	5012.19
388.263	4991.19
388.488	5098.19
388.713	5016.19
388.938	5068.19
389.163	5013.19
389.387	5044.19
389.612	5006.19
389.837	4970.19
390.062	4976.19
390.287	4969.19
390.512	4994.19
390.736	5097.19
390.961	5156.19
391.186	5201.19
391.411	5392.19
391.636	5465.19
391.86	5645.19
392.085	5713.19
392.31	5596.19
392.534	5457.19
392.759	5322.19
392.984	5270.19
393.208	5343.19
393.433	5257.19
393.658	5272.19
393.882	5180.19
394.107	5349.19
394.331	5410.19
394.556	5308.19
394.78	5455.19
395.005	5452.19
395.229	5490.19
395.454	5534.19
395.678	5677.19
395.903	5782.19
396.127	5730.19
396.352	5590.19
396.576	5362.19
396.801	5274.19
397.025	5386.19
397.249	5558.19
397.474	5795.19
397.698	5666.19
397.922	5884.19
398.147	5947.19
398.371	6004.19
398.595	6163.19
398.82	6453.19
399.044	6949.19
399.268	7821.19
399.492	8824.19
399.717	9444.19
399.941	9199.19
400.165	8655.19
400.389	7922.19
400.613	7081.19
400.837	6648.19
401.062	6542.19
401.286	6460.19
401.51	6402.19
401.734	6385.19
401.958	6475.19
402.182	6664.19
402.406	6707.19
402.63	6813.19
402.854	6852.19
403.078	6940.19
403.302	7101.19
403.526	7241.19
403.75	7284.19
403.974	7266.19
404.198	7268.19
404.422	7359.19
404.645	7268.19
404.869	7367.19
405.093	7599.19
405.317	7887.19
405.541	7752.19
405.765	7304.19
405.988	7205.19
406.212	7318.19
406.436	7559.19
406.66	7651.19
406.883	7614.19
407.107	8208.19
407.331	8638.19
407.555	9259.19
407.778	8866.19
408.002	8090.19
408.226	7752.19
408.449	7646.19
408.673	7493.19
408.896	7652.19
409.12	7794.19
409.344	7374.19
409.567	7043.19
409.791	7117.19
410.014	6965.19
410.238	6833.19
410.461	6899.19
410.685	6911.19
410.908	7019.19
411.132	7287.19
411.355	7256.19
411.578	6891.19
411.802	6673.19
412.025	6774.19
412.249	6963.19
412.472	7163.19
412.695	7231.19
412.919	6827.19
413.142	6610.19
413.365	6466.19
413.589	6446.19
413.812	6246.19
414.035	6225.19
414.258	6272.19
414.482	6394.19
414.705	6402.19
414.928	6358.19
415.151	6324.19
415.374	6279.19
415.597	6294.19
415.821	6146.19
416.044	6212.19
416.267	6147.19
416.49	6108.19
416.713	6162.19
416.936	6177.19
417.159	6174.19
417.382	6275.19
417.605	6308.19
417.828	6445.19
418.051	6536.19
418.274	6382.19
418.497	6325.19
418.72	6480.19
418.943	6405.19
419.166	6818.19
419.389	7244.19
419.611	7047.19
419.834	6872.19
420.057	6819.19
420.28	6650.19
420.503	6466.19
420.726	6499.19
420.948	6689.19
421.171	6930.19
421.394	6914.19
421.617	6412.19
421.839	6465.19
422.062	6547.19
422.285	6638.19
422.507	7259.19
422.73	7802.19
422.953	7219.19
423.175	6892.19
423.398	6940.19
423.621	6939.19
423.843	7205.19
424.066	7119.19
424.288	6983.19
424.511	7184.19
424.733	7685.19
424.956	8118.19
425.178	7644.19
425.401	7719.19
425.623	7640.19
425.846	6643.19
426.068	6484.19
426.291	6451.19
426.513	6535.19
426.735	6482.19
426.958	7027.19
427.18	7796.19
427.402	8862.19
427.625	9053.19
427.847	7718.19
428.069	6992.19
428.292	6519.19
428.514	6070.19
428.736	5854.19
428.958	5886.19
429.181	5692.19
429.403	5733.19
429.625	5851.19
429.847	6142.19
430.069	6697.19
430.292	6311.19
430.514	5776.19
430.736	5747.19
430.958	5633.19
431.18	5547.19
431.402	5602.19
431.624	5576.19
431.846	5627.19
432.068	5676.19
432.29	5747.19
432.512	5644.19
432.734	5714.19
432.956	5597.19
433.178	5768.19
433.4	5791.19
433.622	5658.19
433.844	5696.19
434.066	5694.19
434.287	5730.19
434.509	5998.19
434.731	6261.19
434.953	6319.19
435.175	6461.19
435.397	6589.19
435.618	6486.19
435.84	6882.19
436.062	7741.19
436.284	7618.19
436.505	6464.19
436.727	6208.19
436.949	5901.19
437.17	5710.19
437.392	5702.19
437.614	5803.19
437.835	6271.19
438.057	7269.19
438.278	7894.19
438.5	7755.19
438.721	8594.19
438.943	7465.19
439.165	6310.19
439.386	6097.19
439.608	6226.19
439.829	6286.19
440.05	6546.19
440.272	6967.19
440.493	6331.19
440.715	6074.19
440.936	5992.19
441.158	6011.19
441.379	6216.19
441.6	6547.19
441.822	6739.19
442.043	7123.19
442.264	7994.19
442.486	7704.19
442.707	6755.19
442.928	6596.19
443.149	6812.19
443.371	6988.19
443.592	7590.19
443.813	8518.19
444.034	8473.19
444.255	7427.19
444.476	7322.19
444.698	7425.19
444.919	7485.19
445.14	7274.19
445.361	7131.19
445.582	7250.19
445.803	7899.19
446.024	8511.19
446.245	8114.19
446.466	7179.19
446.687	6269.19
446.908	6036.19
447.129	5720.19
447.35	5598.19
447.571	5594.19
447.792	5474.19
448.013	5505.19
448.234	5785.19
448.455	6414.19
448.675	7678.19
448.896	8020.19
449.117	6680.19
449.338	6846.19
449.559	8169.19
449.779	8367.19
450	6372.19
450.221	5693.19
450.442	5458.19
450.662	5405.19
450.883	5509.19
451.104	5613.19
451.324	5378.19
451.545	5266.19
451.766	5140.19
451.986	5048.19
452.207	5000.19
452.428	5000.19
452.648	5053.19
452.869	5013.19
453.089	5115.19
453.31	5209.19
453.53	5067.19
453.751	4963.19
453.971	4944.19
454.192	5127.19
454.412	4874.19
454.633	4862.19
454.853	4860.19
455.073	4923.19
455.294	5246.19
455.514	5726.19
455.734	5340.19
455.955	4783.19
456.175	4712.19
456.395	4594.19
456.616	4604.19
456.836	4573.19
457.056	4513.19
457.276	4451.19
457.497	4678.19
457.717	4608.19
457.937	4691.19
458.157	4764.19
458.377	4877.19
458.598	5241.19
458.818	5927.19
459.038	6653.19
459.258	6566.19
459.478	5834.19
459.698	5767.19
459.918	5835.19
460.138	6024.19
460.358	6151.19
460.578	6244.19
460.798	6275.19
461.018	6285.19
461.238	6081.19
461.458	6124.19
461.678	6089.19
461.898	6206.19
462.118	6315.19
462.338	6679.19
462.558	6712.19
462.777	7098.19
462.997	7659.19
463.217	8003.19
463.437	7783.19
463.657	7279.19
463.876	6981.19
464.096	7165.19
464.316	7069.19
464.536	7138.19
464.755	6835.19
464.975	6798.19
465.195	6972.19
465.414	6984.19
465.634	6072.19
465.854	5836.19
466.073	5590.19
466.293	5438.19
466.512	5231.19
466.732	5136.19
466.951	5112.19
467.171	5161.19
467.391	5220.19
467.61	5232.19
467.829	5254.19
468.049	5222.19
468.268	5125.19
468.488	4947.19
468.707	4948.19
468.927	5010.19
469.146	4893.19
469.365	4985.19
469.585	4969.19
469.804	5199.19
470.023	5356.19
470.243	5367.19
470.462	5398.19
470.681	5604.19
470.901	5441.19
471.12	5319.19
471.339	5264.19
471.558	5190.19
471.777	5062.19
471.997	5079.19
472.216	5146.19
472.435	5393.19
472.654	5180.19
472.873	4947.19
473.092	4962.19
473.311	4953.19
473.53	4949.19
473.749	5152.19
473.968	5589.19
474.187	6604.19
474.406	6135.19
474.625	5234.19
474.844	5002.19
475.063	4886.19
475.282	4918.19
475.501	5064.19
475.72	5024.19
475.939	5056.19
476.158	5133.19
476.377	5154.19
476.596	5121.19
476.814	5249.19
477.033	5305.19
477.252	5413.19
477.471	5467.19
477.69	5688.19
477.908	5713.19
478.127	5843.19
478.346	5894.19
478.564	5916.19
478.783	6132.19
479.002	6235.19
479.22	6190.19
479.439	6354.19
479.658	6333.19
479.876	6417.19
480.095	6652.19
480.313	7123.19
480.532	7004.19
480.751	6872.19
480.969	6923.19
481.188	7364.19
481.406	7193.19
481.624	6536.19
481.843	6244.19
482.061	5996.19
482.28	5934.19
482.498	5848.19
482.717	5862.19
482.935	5875.19
483.153	5839.19
483.372	5795.19
483.59	5788.19
483.808	5829.19
484.027	5731.19
484.245	5827.19
484.463	5907.19
484.681	5949.19
484.9	6095.19
485.118	6064.19
485.336	6062.19
485.554	6207.19
485.772	6230.19
485.99	6189.19
486.209	6234.19
486.427	6291.19
486.645	6207.19
486.863	6373.19
487.081	6291.19
487.299	6277.19
487.517	6219.19
487.735	6153.19
487.953	6229.19
