Data from Circ_2012_H10_HRD10591_00083.txt Node
Date: Wed Jan 03 10:06:07 EST 2024
User: Yrep
Spectrometer: HR+D1059
Trigger mode: 1
Integration Time (sec): 1.000000E-1
Scans to average: 1
Electric dark correction enabled: true
Nonlinearity correction enabled: false
Boxcar width: 0
XAxis mode: Wavelengths
Number of Pixels in Spectrum: 2048
>>>>>Begin Spectral Data<<<<<
223.165	-12.19
223.4	-12.19
223.635	-12.19
223.869	-16.19
224.104	-18.19
224.338	-26.19
224.573	-13.19
224.808	-11.19
225.042	-16.19
225.277	-8.19
225.511	-3.19
225.746	-0.19
225.98	17.81
226.215	22.81
226.449	18.81
226.683	3.81
226.918	20.81
227.152	40.81
227.387	50.81
227.621	34.81
227.856	55.81
228.09	50.81
228.324	45.81
228.559	54.81
228.793	52.81
229.027	52.81
229.262	70.81
229.496	73.81
229.73	70.81
229.964	80.81
230.199	64.81
230.433	77.81
230.667	79.81
230.901	79.81
231.136	71.81
231.37	88.81
231.604	83.81
231.838	71.81
232.072	84.81
232.306	93.81
232.541	85.81
232.775	84.81
233.009	80.81
233.243	78.81
233.477	86.81
233.711	88.81
233.945	72.81
234.179	75.81
234.413	96.81
234.647	80.81
234.881	79.81
235.115	76.81
235.349	83.81
235.583	81.81
235.817	93.81
236.051	75.81
236.285	75.81
236.519	77.81
236.753	78.81
236.987	76.81
237.221	86.81
237.455	86.81
237.689	77.81
237.922	75.81
238.156	93.81
238.39	87.81
238.624	77.81
238.858	83.81
239.091	68.81
239.325	78.81
239.559	83.81
239.793	74.81
240.027	73.81
240.26	70.81
240.494	81.81
240.728	61.81
240.961	71.81
241.195	78.81
241.429	70.81
241.662	79.81
241.896	83.81
242.13	79.81
242.363	84.81
242.597	75.81
242.83	89.81
243.064	69.81
243.298	77.81
243.531	71.81
243.765	87.81
243.998	82.81
244.232	84.81
244.465	85.81
244.699	81.81
244.932	59.81
245.166	69.81
245.399	77.81
245.633	79.81
245.866	78.81
246.099	65.81
246.333	84.81
246.566	85.81
246.8	77.81
247.033	91.81
247.266	61.81
247.5	77.81
247.733	104.81
247.966	80.81
248.2	77.81
248.433	76.81
248.666	88.81
248.899	76.81
249.133	74.81
249.366	83.81
249.599	85.81
249.832	88.81
250.066	83.81
250.299	83.81
250.532	69.81
250.765	84.81
250.998	84.81
251.231	89.81
251.465	78.81
251.698	77.81
251.931	83.81
252.164	71.81
252.397	86.81
252.63	74.81
252.863	81.81
253.096	96.81
253.329	88.81
253.562	70.81
253.795	79.81
254.028	88.81
254.261	70.81
254.494	76.81
254.727	76.81
254.96	82.81
255.193	84.81
255.426	81.81
255.659	93.81
255.892	77.81
256.124	75.81
256.357	76.81
256.59	73.81
256.823	76.81
257.056	80.81
257.289	92.81
257.521	88.81
257.754	85.81
257.987	75.81
258.22	90.81
258.452	81.81
258.685	80.81
258.918	78.81
259.151	76.81
259.383	86.81
259.616	78.81
259.849	85.81
260.081	82.81
260.314	69.81
260.547	60.81
260.779	75.81
261.012	74.81
261.244	106.81
261.477	93.81
261.71	95.81
261.942	108.81
262.175	89.81
262.407	81.81
262.64	78.81
262.872	95.81
263.105	88.81
263.337	74.81
263.57	83.81
263.802	88.81
264.035	84.81
264.267	76.81
264.499	70.81
264.732	71.81
264.964	89.81
265.197	82.81
265.429	67.81
265.661	71.81
265.894	85.81
266.126	93.81
266.358	90.81
266.591	86.81
266.823	77.81
267.055	85.81
267.287	76.81
267.52	91.81
267.752	74.81
267.984	77.81
268.216	85.81
268.448	70.81
268.681	86.81
268.913	92.81
269.145	83.81
269.377	81.81
269.609	74.81
269.841	88.81
270.073	77.81
270.306	82.81
270.538	97.81
270.77	79.81
271.002	93.81
271.234	78.81
271.466	92.81
271.698	84.81
271.93	94.81
272.162	78.81
272.394	87.81
272.626	82.81
272.858	64.81
273.09	78.81
273.322	80.81
273.553	85.81
273.785	71.81
274.017	86.81
274.249	93.81
274.481	91.81
274.713	82.81
274.945	79.81
275.176	79.81
275.408	90.81
275.64	78.81
275.872	88.81
276.104	93.81
276.335	93.81
276.567	84.81
276.799	107.81
277.031	98.81
277.262	82.81
277.494	94.81
277.726	83.81
277.957	89.81
278.189	99.81
278.421	96.81
278.652	87.81
278.884	93.81
279.115	84.81
279.347	80.81
279.579	97.81
279.81	85.81
280.042	97.81
280.273	96.81
280.505	93.81
280.736	79.81
280.968	79.81
281.199	64.81
281.431	77.81
281.662	86.81
281.894	90.81
282.125	103.81
282.356	115.81
282.588	136.81
282.819	117.81
283.051	100.81
283.282	87.81
283.513	91.81
283.745	85.81
283.976	91.81
284.207	79.81
284.439	88.81
284.67	86.81
284.901	82.81
285.132	77.81
285.364	84.81
285.595	93.81
285.826	102.81
286.057	95.81
286.288	82.81
286.52	71.81
286.751	81.81
286.982	81.81
287.213	68.81
287.444	91.81
287.675	89.81
287.906	99.81
288.138	68.81
288.369	93.81
288.6	99.81
288.831	76.81
289.062	81.81
289.293	86.81
289.524	76.81
289.755	95.81
289.986	102.81
290.217	79.81
290.448	80.81
290.679	82.81
290.91	86.81
291.141	83.81
291.371	79.81
291.602	87.81
291.833	82.81
292.064	78.81
292.295	91.81
292.526	75.81
292.757	79.81
292.987	92.81
293.218	89.81
293.449	92.81
293.68	99.81
293.91	90.81
294.141	97.81
294.372	78.81
294.603	82.81
294.833	75.81
295.064	92.81
295.295	80.81
295.525	88.81
295.756	80.81
295.987	110.81
296.217	118.81
296.448	122.81
296.679	79.81
296.909	79.81
297.14	91.81
297.37	85.81
297.601	79.81
297.831	77.81
298.062	95.81
298.292	97.81
298.523	88.81
298.753	78.81
298.984	88.81
299.214	84.81
299.445	92.81
299.675	90.81
299.905	104.81
300.136	102.81
300.366	79.81
300.597	83.81
300.827	86.81
301.057	96.81
301.288	103.81
301.518	95.81
301.748	103.81
301.979	100.81
302.209	98.81
302.439	106.81
302.669	85.81
302.9	87.81
303.13	98.81
303.36	87.81
303.59	101.81
303.82	106.81
304.051	84.81
304.281	80.81
304.511	75.81
304.741	90.81
304.971	94.81
305.201	93.81
305.431	83.81
305.661	100.81
305.891	88.81
306.121	91.81
306.352	92.81
306.582	106.81
306.812	86.81
307.042	86.81
307.272	86.81
307.502	84.81
307.731	100.81
307.961	99.81
308.191	91.81
308.421	87.81
308.651	90.81
308.881	84.81
309.111	89.81
309.341	93.81
309.571	96.81
309.8	85.81
310.03	95.81
310.26	98.81
310.49	88.81
310.72	85.81
310.949	85.81
311.179	90.81
311.409	97.81
311.639	82.81
311.868	86.81
312.098	90.81
312.328	78.81
312.557	103.81
312.787	93.81
313.017	105.81
313.246	94.81
313.476	96.81
313.706	88.81
313.935	84.81
314.165	92.81
314.394	101.81
314.624	94.81
314.853	85.81
315.083	94.81
315.312	92.81
315.542	105.81
315.771	85.81
316.001	80.81
316.23	89.81
316.46	75.81
316.689	79.81
316.919	93.81
317.148	97.81
317.377	88.81
317.607	96.81
317.836	100.81
318.065	72.81
318.295	102.81
318.524	99.81
318.753	100.81
318.983	99.81
319.212	95.81
319.441	109.81
319.67	119.81
319.9	100.81
320.129	99.81
320.358	77.81
320.587	95.81
320.816	96.81
321.046	101.81
321.275	108.81
321.504	90.81
321.733	101.81
321.962	98.81
322.191	93.81
322.42	107.81
322.649	103.81
322.878	106.81
323.108	115.81
323.337	114.81
323.566	132.81
323.795	142.81
324.024	199.81
324.253	375.81
324.482	776.81
324.71	1583.81
324.939	2093.81
325.168	775.81
325.397	241.81
325.626	150.81
325.855	122.81
326.084	130.81
326.313	140.81
326.542	144.81
326.77	212.81
326.999	432.81
327.228	882.81
327.457	1654.81
327.686	1296.81
327.914	355.81
328.143	191.81
328.372	146.81
328.6	136.81
328.829	111.81
329.058	123.81
329.287	123.81
329.515	113.81
329.744	103.81
329.972	105.81
330.201	123.81
330.43	162.81
330.658	142.81
330.887	132.81
331.115	109.81
331.344	90.81
331.572	87.81
331.801	94.81
332.03	96.81
332.258	85.81
332.486	99.81
332.715	95.81
332.943	100.81
333.172	99.81
333.4	90.81
333.629	110.81
333.857	111.81
334.085	107.81
334.314	148.81
334.542	198.81
334.771	211.81
334.999	119.81
335.227	110.81
335.455	100.81
335.684	94.81
335.912	98.81
336.14	97.81
336.369	106.81
336.597	102.81
336.825	89.81
337.053	108.81
337.281	90.81
337.51	96.81
337.738	96.81
337.966	79.81
338.194	99.81
338.422	80.81
338.65	85.81
338.878	98.81
339.106	90.81
339.334	97.81
339.562	89.81
339.79	77.81
340.018	86.81
340.246	91.81
340.474	92.81
340.702	93.81
340.93	86.81
341.158	102.81
341.386	91.81
341.614	90.81
341.842	82.81
342.07	72.81
342.298	91.81
342.526	86.81
342.754	88.81
342.981	86.81
343.209	75.81
343.437	92.81
343.665	98.81
343.893	101.81
344.12	91.81
344.348	80.81
344.576	96.81
344.804	95.81
345.031	103.81
345.259	96.81
345.487	93.81
345.714	86.81
345.942	90.81
346.17	93.81
346.397	110.81
346.625	91.81
346.853	88.81
347.08	88.81
347.308	87.81
347.535	90.81
347.763	101.81
347.99	85.81
348.218	100.81
348.445	107.81
348.673	98.81
348.9	103.81
349.128	105.81
349.355	97.81
349.583	97.81
349.81	100.81
350.037	88.81
350.265	102.81
350.492	95.81
350.72	86.81
350.947	103.81
351.174	93.81
351.402	121.81
351.629	97.81
351.856	93.81
352.083	110.81
352.311	103.81
352.538	111.81
352.765	101.81
352.992	105.81
353.22	112.81
353.447	101.81
353.674	100.81
353.901	87.81
354.128	98.81
354.355	111.81
354.583	104.81
354.81	103.81
355.037	84.81
355.264	96.81
355.491	94.81
355.718	98.81
355.945	101.81
356.172	102.81
356.399	98.81
356.626	96.81
356.853	95.81
357.08	99.81
357.307	96.81
357.534	92.81
357.761	92.81
357.988	100.81
358.215	91.81
358.441	79.81
358.668	99.81
358.895	87.81
359.122	75.81
359.349	78.81
359.576	104.81
359.802	106.81
360.029	83.81
360.256	111.81
360.483	106.81
360.709	90.81
360.936	96.81
361.163	115.81
361.39	103.81
361.616	95.81
361.843	88.81
362.07	95.81
362.296	100.81
362.523	82.81
362.749	103.81
362.976	84.81
363.203	91.81
363.429	86.81
363.656	81.81
363.882	79.81
364.109	94.81
364.335	98.81
364.562	79.81
364.788	91.81
365.015	102.81
365.241	85.81
365.468	119.81
365.694	85.81
365.92	89.81
366.147	90.81
366.373	81.81
366.599	82.81
366.826	90.81
367.052	90.81
367.278	95.81
367.505	86.81
367.731	89.81
367.957	93.81
368.184	84.81
368.41	96.81
368.636	99.81
368.862	124.81
369.089	86.81
369.315	90.81
369.541	103.81
369.767	85.81
369.993	91.81
370.219	85.81
370.445	100.81
370.672	80.81
370.898	89.81
371.124	84.81
371.35	89.81
371.576	81.81
371.802	77.81
372.028	78.81
372.254	82.81
372.48	97.81
372.706	90.81
372.932	87.81
373.158	82.81
373.384	94.81
373.61	84.81
373.835	92.81
374.061	73.81
374.287	81.81
374.513	89.81
374.739	86.81
374.965	70.81
375.191	92.81
375.416	107.81
375.642	78.81
375.868	103.81
376.094	93.81
376.319	83.81
376.545	77.81
376.771	83.81
376.997	96.81
377.222	72.81
377.448	96.81
377.674	82.81
377.899	76.81
378.125	79.81
378.35	99.81
378.576	98.81
378.802	84.81
379.027	85.81
379.253	83.81
379.478	84.81
379.704	92.81
379.929	80.81
380.155	84.81
380.38	100.81
380.606	85.81
380.831	89.81
381.057	92.81
381.282	88.81
381.507	91.81
381.733	94.81
381.958	78.81
382.184	93.81
382.409	104.81
382.634	101.81
382.86	94.81
383.085	98.81
383.31	102.81
383.535	98.81
383.761	100.81
383.986	96.81
384.211	101.81
384.436	99.81
384.662	90.81
384.887	109.81
385.112	103.81
385.337	95.81
385.562	99.81
385.787	99.81
386.013	102.81
386.238	114.81
386.463	93.81
386.688	93.81
386.913	89.81
387.138	97.81
387.363	104.81
387.588	84.81
387.813	86.81
388.038	104.81
388.263	100.81
388.488	97.81
388.713	94.81
388.938	81.81
389.163	95.81
389.387	96.81
389.612	84.81
389.837	114.81
390.062	93.81
390.287	85.81
390.512	96.81
390.736	95.81
390.961	93.81
391.186	88.81
391.411	83.81
391.636	100.81
391.86	76.81
392.085	80.81
392.31	89.81
392.534	84.81
392.759	100.81
392.984	81.81
393.208	89.81
393.433	89.81
393.658	87.81
393.882	81.81
394.107	80.81
394.331	75.81
394.556	89.81
394.78	87.81
395.005	93.81
395.229	79.81
395.454	93.81
395.678	92.81
395.903	81.81
396.127	76.81
396.352	75.81
396.576	88.81
396.801	77.81
397.025	88.81
397.249	84.81
397.474	78.81
397.698	75.81
397.922	83.81
398.147	87.81
398.371	90.81
398.595	82.81
398.82	76.81
399.044	80.81
399.268	88.81
399.492	94.81
399.717	90.81
399.941	81.81
400.165	100.81
400.389	83.81
400.613	77.81
400.837	92.81
401.062	89.81
401.286	91.81
401.51	86.81
401.734	83.81
401.958	92.81
402.182	128.81
402.406	148.81
402.63	103.81
402.854	88.81
403.078	80.81
403.302	96.81
403.526	90.81
403.75	82.81
403.974	80.81
404.198	87.81
404.422	83.81
404.645	84.81
404.869	87.81
405.093	98.81
405.317	96.81
405.541	91.81
405.765	108.81
405.988	102.81
406.212	170.81
406.436	208.81
406.66	122.81
406.883	89.81
407.107	106.81
407.331	87.81
407.555	98.81
407.778	79.81
408.002	76.81
408.226	93.81
408.449	84.81
408.673	77.81
408.896	97.81
409.12	89.81
409.344	86.81
409.567	90.81
409.791	83.81
410.014	85.81
410.238	96.81
410.461	104.81
410.685	97.81
410.908	99.81
411.132	109.81
411.355	107.81
411.578	69.81
411.802	90.81
412.025	84.81
412.249	81.81
412.472	92.81
412.695	100.81
412.919	84.81
413.142	86.81
413.365	77.81
413.589	84.81
413.812	80.81
414.035	74.81
414.258	84.81
414.482	92.81
414.705	95.81
414.928	95.81
415.151	91.81
415.374	90.81
415.597	86.81
415.821	95.81
416.044	88.81
416.267	87.81
416.49	90.81
416.713	99.81
416.936	95.81
417.159	94.81
417.382	86.81
417.605	83.81
417.828	91.81
418.051	87.81
418.274	74.81
418.497	77.81
418.72	87.81
418.943	79.81
419.166	83.81
419.389	94.81
419.611	85.81
419.834	86.81
420.057	92.81
420.28	80.81
420.503	78.81
420.726	96.81
420.948	94.81
421.171	89.81
421.394	93.81
421.617	88.81
421.839	83.81
422.062	96.81
422.285	95.81
422.507	92.81
422.73	96.81
422.953	91.81
423.175	90.81
423.398	88.81
423.621	90.81
423.843	86.81
424.066	88.81
424.288	83.81
424.511	92.81
424.733	112.81
424.956	98.81
425.178	90.81
425.401	103.81
425.623	106.81
425.846	79.81
426.068	86.81
426.291	92.81
426.513	74.81
426.735	95.81
426.958	99.81
427.18	110.81
427.402	129.81
427.625	159.81
427.847	133.81
428.069	120.81
428.292	79.81
428.514	88.81
428.736	77.81
428.958	92.81
429.181	76.81
429.403	87.81
429.625	91.81
429.847	107.81
430.069	94.81
430.292	82.81
430.514	88.81
430.736	99.81
430.958	87.81
431.18	69.81
431.402	81.81
431.624	86.81
431.846	80.81
432.068	85.81
432.29	78.81
432.512	91.81
432.734	78.81
432.956	92.81
433.178	96.81
433.4	94.81
433.622	91.81
433.844	83.81
434.066	83.81
434.287	104.81
434.509	97.81
434.731	94.81
434.953	88.81
435.175	76.81
435.397	83.81
435.618	98.81
435.84	110.81
436.062	139.81
436.284	93.81
436.505	98.81
436.727	94.81
436.949	78.81
437.17	87.81
437.392	81.81
437.614	79.81
437.835	108.81
438.057	117.81
438.278	88.81
438.5	100.81
438.721	114.81
438.943	99.81
439.165	97.81
439.386	91.81
439.608	85.81
439.829	91.81
440.05	111.81
440.272	134.81
440.493	100.81
440.715	92.81
440.936	79.81
441.158	91.81
441.379	84.81
441.6	79.81
441.822	84.81
442.043	98.81
442.264	95.81
442.486	106.81
442.707	92.81
442.928	99.81
443.149	104.81
443.371	119.81
443.592	97.81
443.813	103.81
444.034	113.81
444.255	86.81
444.476	84.81
444.698	89.81
444.919	99.81
445.14	139.81
445.361	107.81
445.582	114.81
445.803	126.81
446.024	127.81
446.245	136.81
446.466	108.81
446.687	91.81
446.908	79.81
447.129	88.81
447.35	87.81
447.571	94.81
447.792	85.81
448.013	103.81
448.234	103.81
448.455	102.81
448.675	111.81
448.896	109.81
449.117	98.81
449.338	90.81
449.559	117.81
449.779	120.81
450	79.81
450.221	101.81
450.442	77.81
450.662	91.81
450.883	107.81
451.104	99.81
451.324	114.81
451.545	80.81
451.766	79.81
451.986	82.81
452.207	78.81
452.428	95.81
452.648	96.81
452.869	119.81
453.089	99.81
453.31	123.81
453.53	105.81
453.751	87.81
453.971	93.81
454.192	102.81
454.412	95.81
454.633	84.81
454.853	89.81
455.073	89.81
455.294	67.81
455.514	100.81
455.734	94.81
455.955	77.81
456.175	90.81
456.395	92.81
456.616	95.81
456.836	83.81
457.056	85.81
457.276	85.81
457.497	77.81
457.717	86.81
457.937	83.81
458.157	88.81
458.377	95.81
458.598	109.81
458.818	143.81
459.038	148.81
459.258	106.81
459.478	79.81
459.698	85.81
459.918	83.81
460.138	94.81
460.358	81.81
460.578	88.81
460.798	95.81
461.018	91.81
461.238	88.81
461.458	90.81
461.678	88.81
461.898	101.81
462.118	88.81
462.338	83.81
462.558	82.81
462.777	77.81
462.997	64.81
463.217	67.81
463.437	90.81
463.657	78.81
463.876	87.81
464.096	98.81
464.316	93.81
464.536	95.81
464.755	94.81
464.975	120.81
465.195	151.81
465.414	142.81
465.634	100.81
465.854	86.81
466.073	84.81
466.293	87.81
466.512	81.81
466.732	76.81
466.951	74.81
467.171	119.81
467.391	86.81
467.61	99.81
467.829	98.81
468.049	114.81
468.268	127.81
468.488	91.81
468.707	76.81
468.927	94.81
469.146	93.81
469.365	86.81
469.585	90.81
469.804	81.81
470.023	90.81
470.243	93.81
470.462	82.81
470.681	103.81
470.901	91.81
471.12	80.81
471.339	80.81
471.558	74.81
471.777	87.81
471.997	89.81
472.216	150.81
472.435	235.81
472.654	122.81
472.873	91.81
473.092	97.81
473.311	78.81
473.53	96.81
473.749	100.81
473.968	82.81
474.187	96.81
474.406	93.81
474.625	100.81
474.844	70.81
475.063	89.81
475.282	90.81
475.501	84.81
475.72	89.81
475.939	95.81
476.158	90.81
476.377	87.81
476.596	86.81
476.814	86.81
477.033	89.81
477.252	78.81
477.471	82.81
477.69	79.81
477.908	93.81
478.127	87.81
478.346	91.81
478.564	89.81
478.783	82.81
479.002	78.81
479.22	98.81
479.439	107.81
479.658	97.81
479.876	98.81
480.095	83.81
480.313	97.81
480.532	95.81
480.751	111.81
480.969	147.81
481.188	363.81
481.406	252.81
481.624	104.81
481.843	87.81
482.061	95.81
482.28	88.81
482.498	86.81
482.717	89.81
482.935	87.81
483.153	79.81
483.372	103.81
483.59	75.81
483.808	75.81
484.027	77.81
484.245	82.81
484.463	93.81
484.681	100.81
484.9	92.81
485.118	87.81
485.336	93.81
485.554	89.81
485.772	115.81
485.99	122.81
486.209	95.81
486.427	102.81
486.645	108.81
486.863	106.81
487.081	102.81
487.299	95.81
487.517	96.81
487.735	97.81
487.953	81.81
488.171	86.81
488.389	96.81
488.607	99.81
488.825	99.81
489.043	92.81
489.261	89.81
489.479	105.81
489.696	84.81
489.914	92.81
490.132	80.81
490.35	92.81
490.568	88.81
490.786	83.81
491.003	89.81
491.221	85.81
491.439	93.81
491.657	85.81
491.874	95.81
492.092	100.81
492.31	96.81
492.527	99.81
492.745	94.81
492.963	98.81
493.18	77.81
493.398	87.81
493.615	88.81
493.833	90.81
494.05	90.81
494.268	88.81
494.485	85.81
494.703	83.81
494.92	76.81
495.138	82.81
495.355	87.81
495.573	94.81
495.79	99.81
496.008	107.81
496.225	94.81
496.442	91.81
496.66	107.81
496.877	98.81
497.094	91.81
497.312	80.81
497.529	75.81
497.746	93.81
497.963	94.81
498.181	99.81
498.398	96.81
498.615	120.81
498.832	107.81
499.049	81.81
499.267	85.81
499.484	84.81
499.701	92.81
499.918	99.81
500.135	91.81
500.352	89.81
500.569	93.81
500.786	89.81
501.003	89.81
501.22	76.81
501.437	79.81
501.654	96.81
501.871	94.81
502.088	86.81
502.305	87.81
502.522	89.81
502.739	102.81
502.956	103.81
503.172	91.81
503.389	103.81
503.606	102.81
503.823	99.81
504.04	96.81
504.256	78.81
504.473	92.81
504.69	98.81
504.907	100.81
505.123	89.81
505.34	98.81
505.557	89.81
505.773	101.81
505.99	86.81
506.207	90.81
506.423	91.81
506.64	80.81
506.856	93.81
507.073	86.81
507.289	91.81
507.506	86.81
507.722	103.81
507.939	106.81
508.155	83.81
508.372	88.81
508.588	80.81
508.805	95.81
509.021	84.81
509.238	99.81
509.454	88.81
509.67	99.81
509.887	107.81
510.103	133.81
510.319	207.81
510.536	660.81
510.752	2198.81
510.968	634.81
511.184	167.81
511.401	104.81
511.617	92.81
511.833	91.81
512.049	88.81
512.265	93.81
512.481	91.81
512.698	95.81
512.914	88.81
513.13	94.81
513.346	103.81
513.562	79.81
513.778	73.81
513.994	102.81
514.21	105.81
514.426	118.81
514.642	130.81
514.858	111.81
515.074	162.81
515.29	388.81
515.506	1288.81
515.721	497.81
515.937	153.81
516.153	102.81
