Data from Circ_2012_H10_HRD10591_00016.txt Node
Date: Wed Jan 03 10:05:53 EST 2024
User: Yrep
Spectrometer: HR+D1059
Trigger mode: 1
Integration Time (sec): 1.000000E-1
Scans to average: 1
Electric dark correction enabled: true
Nonlinearity correction enabled: false
Boxcar width: 0
XAxis mode: Wavelengths
Number of Pixels in Spectrum: 2048
>>>>>Begin Spectral Data<<<<<
223.165	-16.19
223.4	-16.19
223.635	-16.19
223.869	-11.19
224.104	-29.19
224.338	-4.19
224.573	-25.19
224.808	-20.19
225.042	0.81
225.277	-5.19
225.511	9.81
225.746	0.81
225.98	17.81
226.215	8.81
226.449	14.81
226.683	11.81
226.918	15.81
227.152	30.81
227.387	25.81
227.621	36.81
227.856	40.81
228.09	39.81
228.324	50.81
228.559	60.81
228.793	58.81
229.027	52.81
229.262	77.81
229.496	76.81
229.73	93.81
229.964	78.81
230.199	70.81
230.433	68.81
230.667	68.81
230.901	85.81
231.136	86.81
231.37	67.81
231.604	77.81
231.838	66.81
232.072	69.81
232.306	75.81
232.541	75.81
232.775	75.81
233.009	72.81
233.243	80.81
233.477	83.81
233.711	86.81
233.945	81.81
234.179	77.81
234.413	79.81
234.647	90.81
234.881	81.81
235.115	73.81
235.349	83.81
235.583	82.81
235.817	69.81
236.051	74.81
236.285	78.81
236.519	73.81
236.753	63.81
236.987	86.81
237.221	69.81
237.455	94.81
237.689	52.81
237.922	87.81
238.156	76.81
238.39	78.81
238.624	73.81
238.858	82.81
239.091	68.81
239.325	70.81
239.559	81.81
239.793	79.81
240.027	73.81
240.26	80.81
240.494	70.81
240.728	77.81
240.961	92.81
241.195	71.81
241.429	88.81
241.662	72.81
241.896	74.81
242.13	65.81
242.363	75.81
242.597	80.81
242.83	74.81
243.064	82.81
243.298	76.81
243.531	81.81
243.765	77.81
243.998	81.81
244.232	72.81
244.465	93.81
244.699	89.81
244.932	82.81
245.166	74.81
245.399	74.81
245.633	89.81
245.866	74.81
246.099	79.81
246.333	83.81
246.566	69.81
246.8	89.81
247.033	83.81
247.266	91.81
247.5	76.81
247.733	74.81
247.966	81.81
248.2	90.81
248.433	70.81
248.666	76.81
248.899	74.81
249.133	70.81
249.366	96.81
249.599	100.81
249.832	91.81
250.066	94.81
250.299	91.81
250.532	74.81
250.765	67.81
250.998	83.81
251.231	73.81
251.465	78.81
251.698	84.81
251.931	83.81
252.164	65.81
252.397	75.81
252.63	82.81
252.863	90.81
253.096	89.81
253.329	74.81
253.562	64.81
253.795	89.81
254.028	88.81
254.261	70.81
254.494	98.81
254.727	90.81
254.96	86.81
255.193	77.81
255.426	82.81
255.659	76.81
255.892	84.81
256.124	73.81
256.357	77.81
256.59	85.81
256.823	82.81
257.056	93.81
257.289	80.81
257.521	88.81
257.754	78.81
257.987	77.81
258.22	76.81
258.452	56.81
258.685	83.81
258.918	90.81
259.151	75.81
259.383	86.81
259.616	81.81
259.849	77.81
260.081	74.81
260.314	66.81
260.547	77.81
260.779	84.81
261.012	82.81
261.244	73.81
261.477	90.81
261.71	98.81
261.942	120.81
262.175	126.81
262.407	83.81
262.64	81.81
262.872	89.81
263.105	81.81
263.337	79.81
263.57	81.81
263.802	86.81
264.035	82.81
264.267	86.81
264.499	92.81
264.732	85.81
264.964	89.81
265.197	79.81
265.429	76.81
265.661	76.81
265.894	86.81
266.126	78.81
266.358	80.81
266.591	96.81
266.823	69.81
267.055	71.81
267.287	85.81
267.52	78.81
267.752	78.81
267.984	86.81
268.216	74.81
268.448	69.81
268.681	71.81
268.913	88.81
269.145	82.81
269.377	84.81
269.609	96.81
269.841	87.81
270.073	74.81
270.306	88.81
270.538	81.81
270.77	69.81
271.002	69.81
271.234	83.81
271.466	91.81
271.698	78.81
271.93	79.81
272.162	80.81
272.394	81.81
272.626	96.81
272.858	80.81
273.09	84.81
273.322	90.81
273.553	90.81
273.785	79.81
274.017	92.81
274.249	82.81
274.481	88.81
274.713	77.81
274.945	85.81
275.176	83.81
275.408	88.81
275.64	89.81
275.872	88.81
276.104	91.81
276.335	84.81
276.567	102.81
276.799	130.81
277.031	119.81
277.262	89.81
277.494	80.81
277.726	84.81
277.957	81.81
278.189	80.81
278.421	73.81
278.652	72.81
278.884	92.81
279.115	94.81
279.347	77.81
279.579	92.81
279.81	86.81
280.042	79.81
280.273	80.81
280.505	84.81
280.736	70.81
280.968	86.81
281.199	78.81
281.431	97.81
281.662	72.81
281.894	90.81
282.125	82.81
282.356	120.81
282.588	143.81
282.819	110.81
283.051	82.81
283.282	82.81
283.513	72.81
283.745	80.81
283.976	94.81
284.207	75.81
284.439	77.81
284.67	86.81
284.901	84.81
285.132	88.81
285.364	87.81
285.595	92.81
285.826	78.81
286.057	89.81
286.288	85.81
286.52	77.81
286.751	78.81
286.982	80.81
287.213	72.81
287.444	98.81
287.675	76.81
287.906	96.81
288.138	86.81
288.369	94.81
288.6	103.81
288.831	99.81
289.062	75.81
289.293	73.81
289.524	93.81
289.755	76.81
289.986	88.81
290.217	83.81
290.448	83.81
290.679	83.81
290.91	85.81
291.141	86.81
291.371	83.81
291.602	92.81
291.833	81.81
292.064	77.81
292.295	76.81
292.526	89.81
292.757	84.81
292.987	98.81
293.218	87.81
293.449	75.81
293.68	94.81
293.91	82.81
294.141	78.81
294.372	90.81
294.603	94.81
294.833	87.81
295.064	112.81
295.295	99.81
295.525	94.81
295.756	129.81
295.987	131.81
296.217	135.81
296.448	141.81
296.679	96.81
296.909	83.81
297.14	84.81
297.37	82.81
297.601	86.81
297.831	81.81
298.062	92.81
298.292	78.81
298.523	92.81
298.753	88.81
298.984	96.81
299.214	104.81
299.445	85.81
299.675	92.81
299.905	98.81
300.136	94.81
300.366	83.81
300.597	102.81
300.827	105.81
301.057	113.81
301.288	95.81
301.518	99.81
301.748	100.81
301.979	102.81
302.209	84.81
302.439	76.81
302.669	99.81
302.9	87.81
303.13	87.81
303.36	85.81
303.59	92.81
303.82	91.81
304.051	92.81
304.281	80.81
304.511	88.81
304.741	89.81
304.971	99.81
305.201	79.81
305.431	88.81
305.661	89.81
305.891	100.81
306.121	70.81
306.352	108.81
306.582	91.81
306.812	93.81
307.042	80.81
307.272	87.81
307.502	86.81
307.731	99.81
307.961	90.81
308.191	83.81
308.421	84.81
308.651	91.81
308.881	87.81
309.111	76.81
309.341	83.81
309.571	91.81
309.8	76.81
310.03	94.81
310.26	92.81
310.49	94.81
310.72	101.81
310.949	135.81
311.179	112.81
311.409	89.81
311.639	100.81
311.868	96.81
312.098	92.81
312.328	112.81
312.557	107.81
312.787	114.81
313.017	101.81
313.246	71.81
313.476	76.81
313.706	76.81
313.935	98.81
314.165	104.81
314.394	112.81
314.624	103.81
314.853	107.81
315.083	97.81
315.312	96.81
315.542	89.81
315.771	85.81
316.001	88.81
316.23	89.81
316.46	82.81
316.689	88.81
316.919	96.81
317.148	90.81
317.377	97.81
317.607	102.81
317.836	86.81
318.065	85.81
318.295	82.81
318.524	82.81
318.753	98.81
318.983	98.81
319.212	98.81
319.441	110.81
319.67	119.81
319.9	81.81
320.129	80.81
320.358	96.81
320.587	93.81
320.816	99.81
321.046	101.81
321.275	112.81
321.504	90.81
321.733	94.81
321.962	99.81
322.191	101.81
322.42	100.81
322.649	106.81
322.878	104.81
323.108	123.81
323.337	132.81
323.566	150.81
323.795	169.81
324.024	248.81
324.253	484.81
324.482	1035.81
324.71	2122.81
324.939	2780.81
325.168	1030.81
325.397	285.81
325.626	176.81
325.855	131.81
326.084	148.81
326.313	141.81
326.542	180.81
326.77	250.81
326.999	549.81
327.228	1114.81
327.457	2046.81
327.686	1633.81
327.914	439.81
328.143	226.81
328.372	180.81
328.6	133.81
328.829	128.81
329.058	147.81
329.287	132.81
329.515	123.81
329.744	99.81
329.972	108.81
330.201	108.81
330.43	122.81
330.658	131.81
330.887	162.81
331.115	147.81
331.344	105.81
331.572	92.81
331.801	108.81
332.03	108.81
332.258	105.81
332.486	98.81
332.715	82.81
332.943	83.81
333.172	93.81
333.4	111.81
333.629	118.81
333.857	120.81
334.085	101.81
334.314	106.81
334.542	111.81
334.771	107.81
334.999	95.81
335.227	93.81
335.455	92.81
335.684	73.81
335.912	88.81
336.14	91.81
336.369	87.81
336.597	103.81
336.825	113.81
337.053	104.81
337.281	93.81
337.51	74.81
337.738	90.81
337.966	94.81
338.194	88.81
338.422	87.81
338.65	84.81
338.878	97.81
339.106	93.81
339.334	73.81
339.562	72.81
339.79	92.81
340.018	76.81
340.246	88.81
340.474	97.81
340.702	93.81
340.93	92.81
341.158	95.81
341.386	81.81
341.614	93.81
341.842	95.81
342.07	100.81
342.298	89.81
342.526	91.81
342.754	81.81
342.981	99.81
343.209	77.81
343.437	98.81
343.665	105.81
343.893	90.81
344.12	93.81
344.348	90.81
344.576	87.81
344.804	88.81
345.031	86.81
345.259	103.81
345.487	100.81
345.714	76.81
345.942	84.81
346.17	91.81
346.397	86.81
346.625	94.81
346.853	108.81
347.08	96.81
347.308	89.81
347.535	90.81
347.763	108.81
347.99	86.81
348.218	108.81
348.445	114.81
348.673	98.81
348.9	101.81
349.128	103.81
349.355	86.81
349.583	90.81
349.81	86.81
350.037	101.81
350.265	98.81
350.492	92.81
350.72	92.81
350.947	103.81
351.174	114.81
351.402	98.81
351.629	124.81
351.856	105.81
352.083	108.81
352.311	112.81
352.538	106.81
352.765	113.81
352.992	112.81
353.22	105.81
353.447	109.81
353.674	114.81
353.901	87.81
354.128	93.81
354.355	98.81
354.583	98.81
354.81	101.81
355.037	97.81
355.264	98.81
355.491	100.81
355.718	97.81
355.945	100.81
356.172	93.81
356.399	97.81
356.626	74.81
356.853	93.81
357.08	77.81
357.307	97.81
357.534	100.81
357.761	93.81
357.988	79.81
358.215	101.81
358.441	94.81
358.668	86.81
358.895	82.81
359.122	81.81
359.349	86.81
359.576	103.81
359.802	112.81
360.029	118.81
360.256	117.81
360.483	101.81
360.709	83.81
360.936	109.81
361.163	106.81
361.39	85.81
361.616	103.81
361.843	103.81
362.07	105.81
362.296	101.81
362.523	92.81
362.749	88.81
362.976	106.81
363.203	100.81
363.429	87.81
363.656	85.81
363.882	86.81
364.109	101.81
364.335	85.81
364.562	84.81
364.788	91.81
365.015	101.81
365.241	97.81
365.468	99.81
365.694	107.81
365.92	93.81
366.147	85.81
366.373	96.81
366.599	81.81
366.826	90.81
367.052	77.81
367.278	84.81
367.505	99.81
367.731	108.81
367.957	94.81
368.184	98.81
368.41	99.81
368.636	115.81
368.862	128.81
369.089	97.81
369.315	104.81
369.541	104.81
369.767	96.81
369.993	108.81
370.219	102.81
370.445	81.81
370.672	93.81
370.898	79.81
371.124	85.81
371.35	89.81
371.576	87.81
371.802	78.81
372.028	83.81
372.254	97.81
372.48	82.81
372.706	83.81
372.932	85.81
373.158	100.81
373.384	101.81
373.61	85.81
373.835	89.81
374.061	84.81
374.287	97.81
374.513	101.81
374.739	99.81
374.965	82.81
375.191	92.81
375.416	84.81
375.642	91.81
375.868	97.81
376.094	87.81
376.319	77.81
376.545	95.81
376.771	86.81
376.997	85.81
377.222	92.81
377.448	96.81
377.674	81.81
377.899	87.81
378.125	88.81
378.35	75.81
378.576	89.81
378.802	86.81
379.027	92.81
379.253	95.81
379.478	105.81
379.704	93.81
379.929	97.81
380.155	101.81
380.38	82.81
380.606	101.81
380.831	97.81
381.057	100.81
381.282	107.81
381.507	95.81
381.733	96.81
381.958	99.81
382.184	89.81
382.409	94.81
382.634	103.81
382.86	102.81
383.085	90.81
383.31	97.81
383.535	106.81
383.761	93.81
383.986	105.81
384.211	103.81
384.436	109.81
384.662	106.81
384.887	92.81
385.112	101.81
385.337	102.81
385.562	106.81
385.787	98.81
386.013	124.81
386.238	104.81
386.463	112.81
386.688	107.81
386.913	98.81
387.138	98.81
387.363	106.81
387.588	106.81
387.813	99.81
388.038	105.81
388.263	117.81
388.488	105.81
388.713	103.81
388.938	89.81
389.163	92.81
389.387	71.81
389.612	95.81
389.837	82.81
390.062	93.81
390.287	89.81
390.512	100.81
390.736	93.81
390.961	77.81
391.186	93.81
391.411	77.81
391.636	68.81
391.86	88.81
392.085	73.81
392.31	83.81
392.534	85.81
392.759	76.81
392.984	91.81
393.208	96.81
393.433	97.81
393.658	80.81
393.882	91.81
394.107	75.81
394.331	73.81
394.556	82.81
394.78	86.81
395.005	96.81
395.229	86.81
395.454	80.81
395.678	83.81
395.903	93.81
396.127	82.81
396.352	83.81
396.576	90.81
396.801	81.81
397.025	89.81
397.249	89.81
397.474	77.81
397.698	87.81
397.922	99.81
398.147	87.81
398.371	78.81
398.595	78.81
398.82	85.81
399.044	71.81
399.268	89.81
399.492	83.81
399.717	86.81
399.941	82.81
400.165	96.81
400.389	86.81
400.613	93.81
400.837	88.81
401.062	80.81
401.286	96.81
401.51	107.81
401.734	91.81
401.958	104.81
402.182	152.81
402.406	193.81
402.63	140.81
402.854	102.81
403.078	95.81
403.302	90.81
403.526	78.81
403.75	78.81
403.974	78.81
404.198	88.81
404.422	83.81
404.645	94.81
404.869	86.81
405.093	87.81
405.317	84.81
405.541	98.81
405.765	99.81
405.988	142.81
406.212	215.81
406.436	285.81
406.66	173.81
406.883	102.81
407.107	86.81
407.331	96.81
407.555	96.81
407.778	83.81
408.002	88.81
408.226	88.81
408.449	96.81
408.673	90.81
408.896	101.81
409.12	95.81
409.344	88.81
409.567	89.81
409.791	100.81
410.014	93.81
410.238	92.81
410.461	95.81
410.685	101.81
410.908	105.81
411.132	105.81
411.355	108.81
411.578	97.81
411.802	91.81
412.025	85.81
412.249	80.81
412.472	97.81
412.695	100.81
412.919	92.81
413.142	87.81
413.365	83.81
413.589	81.81
413.812	89.81
414.035	92.81
414.258	84.81
414.482	95.81
414.705	87.81
414.928	81.81
415.151	86.81
415.374	82.81
415.597	73.81
415.821	97.81
416.044	82.81
416.267	82.81
416.49	86.81
416.713	82.81
416.936	88.81
417.159	90.81
417.382	74.81
417.605	93.81
417.828	99.81
418.051	88.81
418.274	72.81
418.497	89.81
418.72	88.81
418.943	86.81
419.166	72.81
419.389	90.81
419.611	98.81
419.834	103.81
420.057	90.81
420.28	87.81
420.503	85.81
420.726	97.81
420.948	94.81
421.171	98.81
421.394	78.81
421.617	81.81
421.839	86.81
422.062	88.81
422.285	95.81
422.507	99.81
422.73	108.81
422.953	113.81
423.175	83.81
423.398	95.81
423.621	104.81
423.843	86.81
424.066	87.81
424.288	86.81
424.511	98.81
424.733	98.81
424.956	93.81
425.178	93.81
425.401	96.81
425.623	101.81
425.846	85.81
426.068	100.81
426.291	98.81
426.513	101.81
426.735	82.81
426.958	91.81
427.18	102.81
427.402	145.81
427.625	205.81
427.847	146.81
428.069	108.81
428.292	86.81
428.514	77.81
428.736	91.81
428.958	88.81
429.181	90.81
429.403	81.81
429.625	85.81
429.847	89.81
430.069	107.81
430.292	97.81
430.514	73.81
430.736	79.81
430.958	82.81
431.18	81.81
431.402	98.81
431.624	87.81
431.846	94.81
432.068	99.81
432.29	98.81
432.512	85.81
432.734	82.81
432.956	91.81
433.178	96.81
433.4	104.81
433.622	92.81
433.844	76.81
434.066	101.81
434.287	96.81
434.509	77.81
434.731	78.81
434.953	86.81
435.175	86.81
435.397	88.81
435.618	99.81
435.84	99.81
436.062	134.81
436.284	126.81
436.505	100.81
436.727	115.81
436.949	94.81
437.17	87.81
437.392	91.81
437.614	100.81
437.835	108.81
438.057	97.81
438.278	115.81
438.5	107.81
438.721	136.81
438.943	114.81
439.165	94.81
439.386	75.81
439.608	81.81
439.829	102.81
440.05	128.81
440.272	154.81
440.493	118.81
440.715	97.81
440.936	102.81
441.158	102.81
441.379	102.81
441.6	100.81
441.822	101.81
442.043	98.81
442.264	98.81
442.486	99.81
442.707	89.81
442.928	104.81
443.149	160.81
443.371	153.81
443.592	112.81
443.813	109.81
444.034	96.81
444.255	93.81
444.476	90.81
444.698	79.81
444.919	88.81
445.14	133.81
445.361	125.81
445.582	124.81
445.803	156.81
446.024	134.81
446.245	141.81
446.466	126.81
446.687	85.81
446.908	73.81
447.129	76.81
447.35	76.81
447.571	85.81
447.792	92.81
448.013	95.81
448.234	113.81
448.455	102.81
448.675	135.81
448.896	114.81
449.117	105.81
449.338	105.81
449.559	129.81
449.779	125.81
450	101.81
450.221	86.81
450.442	84.81
450.662	89.81
450.883	114.81
451.104	114.81
451.324	108.81
451.545	92.81
451.766	81.81
451.986	103.81
452.207	91.81
452.428	104.81
452.648	101.81
452.869	106.81
453.089	125.81
453.31	128.81
453.53	100.81
453.751	90.81
453.971	119.81
454.192	118.81
454.412	93.81
454.633	95.81
454.853	99.81
455.073	78.81
455.294	98.81
455.514	97.81
455.734	93.81
455.955	89.81
456.175	85.81
456.395	87.81
456.616	94.81
456.836	81.81
457.056	66.81
457.276	91.81
457.497	80.81
457.717	80.81
457.937	89.81
458.157	88.81
458.377	80.81
458.598	125.81
458.818	194.81
459.038	170.81
459.258	117.81
459.478	84.81
459.698	89.81
459.918	84.81
460.138	79.81
460.358	91.81
460.578	92.81
460.798	99.81
461.018	93.81
461.238	88.81
461.458	89.81
461.678	89.81
461.898	98.81
462.118	74.81
462.338	80.81
462.558	78.81
462.777	92.81
462.997	80.81
463.217	79.81
463.437	96.81
463.657	84.81
463.876	94.81
464.096	87.81
464.316	93.81
464.536	93.81
464.755	96.81
464.975	106.81
465.195	202.81
465.414	193.81
465.634	103.81
465.854	91.81
466.073	86.81
466.293	72.81
466.512	70.81
466.732	89.81
466.951	84.81
467.171	88.81
467.391	104.81
467.61	116.81
467.829	102.81
468.049	113.81
468.268	106.81
468.488	77.81
468.707	67.81
468.927	92.81
469.146	96.81
469.365	85.81
469.585	91.81
469.804	108.81
470.023	95.81
470.243	103.81
470.462	95.81
470.681	119.81
470.901	86.81
471.12	108.81
471.339	93.81
471.558	77.81
471.777	85.81
471.997	92.81
472.216	89.81
472.435	105.81
472.654	87.81
472.873	84.81
473.092	85.81
473.311	89.81
473.53	88.81
473.749	91.81
473.968	99.81
474.187	114.81
474.406	104.81
474.625	93.81
474.844	83.81
475.063	89.81
475.282	93.81
475.501	83.81
475.72	87.81
475.939	73.81
476.158	91.81
476.377	71.81
476.596	83.81
476.814	105.81
477.033	105.81
477.252	96.81
477.471	90.81
477.69	97.81
477.908	101.81
478.127	93.81
478.346	97.81
478.564	92.81
478.783	96.81
479.002	97.81
479.22	94.81
479.439	102.81
479.658	107.81
479.876	99.81
480.095	92.81
480.313	90.81
480.532	86.81
480.751	87.81
480.969	107.81
481.188	137.81
481.406	116.81
481.624	88.81
481.843	89.81
482.061	90.81
482.28	77.81
482.498	78.81
482.717	82.81
482.935	85.81
483.153	97.81
483.372	92.81
483.59	84.81
483.808	79.81
484.027	88.81
484.245	89.81
484.463	98.81
484.681	87.81
484.9	95.81
485.118	97.81
485.336	84.81
485.554	102.81
485.772	98.81
485.99	101.81
486.209	98.81
486.427	100.81
486.645	119.81
486.863	114.81
487.081	113.81
487.299	89.81
487.517	106.81
487.735	85.81
487.953	84.81
488.171	87.81
488.389	96.81
488.607	77.81
488.825	94.81
489.043	80.81
489.261	103.81
489.479	78.81
489.696	89.81
489.914	89.81
490.132	85.81
490.35	106.81
490.568	99.81
490.786	70.81
491.003	84.81
491.221	81.81
491.439	77.81
491.657	96.81
491.874	88.81
492.092	85.81
492.31	95.81
492.527	79.81
492.745	90.81
492.963	78.81
493.18	88.81
493.398	91.81
493.615	84.81
493.833	106.81
494.05	77.81
494.268	91.81
494.485	96.81
494.703	93.81
494.92	83.81
495.138	75.81
495.355	85.81
495.573	83.81
495.79	93.81
496.008	102.81
496.225	88.81
496.442	96.81
496.66	88.81
496.877	77.81
497.094	87.81
497.312	75.81
497.529	78.81
497.746	101.81
497.963	87.81
498.181	92.81
498.398	101.81
498.615	118.81
498.832	105.81
499.049	92.81
499.267	76.81
499.484	87.81
499.701	91.81
499.918	92.81
500.135	97.81
500.352	94.81
500.569	78.81
500.786	92.81
501.003	85.81
501.22	91.81
501.437	84.81
501.654	101.81
501.871	97.81
502.088	80.81
502.305	84.81
502.522	89.81
502.739	82.81
502.956	91.81
503.172	98.81
503.389	90.81
503.606	124.81
503.823	110.81
504.04	96.81
504.256	93.81
504.473	82.81
504.69	101.81
504.907	89.81
505.123	91.81
505.34	75.81
505.557	84.81
505.773	98.81
505.99	89.81
506.207	94.81
506.423	85.81
506.64	96.81
506.856	88.81
507.073	105.81
507.289	92.81
507.506	110.81
507.722	120.81
507.939	120.81
508.155	87.81
508.372	99.81
508.588	87.81
508.805	89.81
509.021	96.81
509.238	99.81
509.454	90.81
509.67	108.81
509.887	104.81
510.103	145.81
510.319	235.81
510.536	926.81
510.752	3151.81
510.968	857.81
511.184	189.81
511.401	115.81
511.617	94.81
511.833	91.81
512.049	97.81
512.265	95.81
512.481	93.81
512.698	91.81
512.914	82.81
513.13	89.81
513.346	95.81
513.562	100.81
513.778	100.81
513.994	114.81
514.21	125.81
514.426	129.81
514.642	160.81
514.858	137.81
515.074	211.81
515.29	598.81
515.506	2116.81
