Data from Circ_2012_H10_HRD10591_00051.txt Node
Date: Wed Jan 03 10:06:00 EST 2024
User: Yrep
Spectrometer: HR+D1059
Trigger mode: 1
Integration Time (sec): 1.000000E-1
Scans to average: 1
Electric dark correction enabled: true
Nonlinearity correction enabled: false
Boxcar width: 0
XAxis mode: Wavelengths
Number of Pixels in Spectrum: 2048
>>>>>Begin Spectral Data<<<<<
223.165	-33.44
223.4	-33.44
223.635	-33.44
223.869	-7.44
224.104	-28.44
224.338	-13.44
224.573	-15.44
224.808	-19.44
225.042	-11.44
225.277	-4.44
225.511	-1.44
225.746	4.56
225.98	13.56
226.215	16.56
226.449	19.56
226.683	32.56
226.918	17.56
227.152	30.56
227.387	36.56
227.621	30.56
227.856	28.56
228.09	46.56
228.324	59.56
228.559	62.56
228.793	50.56
229.027	83.56
229.262	58.56
229.496	77.56
229.73	74.56
229.964	82.56
230.199	65.56
230.433	71.56
230.667	91.56
230.901	71.56
231.136	81.56
231.37	70.56
231.604	81.56
231.838	90.56
232.072	75.56
232.306	89.56
232.541	83.56
232.775	92.56
233.009	80.56
233.243	87.56
233.477	74.56
233.711	88.56
233.945	81.56
234.179	77.56
234.413	70.56
234.647	87.56
234.881	90.56
235.115	80.56
235.349	95.56
235.583	75.56
235.817	94.56
236.051	75.56
236.285	76.56
236.519	70.56
236.753	83.56
236.987	79.56
237.221	75.56
237.455	93.56
237.689	74.56
237.922	69.56
238.156	85.56
238.39	77.56
238.624	79.56
238.858	82.56
239.091	82.56
239.325	68.56
239.559	78.56
239.793	86.56
240.027	90.56
240.26	75.56
240.494	86.56
240.728	73.56
240.961	95.56
241.195	86.56
241.429	70.56
241.662	66.56
241.896	80.56
242.13	87.56
242.363	69.56
242.597	78.56
242.83	82.56
243.064	76.56
243.298	71.56
243.531	70.56
243.765	88.56
243.998	70.56
244.232	75.56
244.465	78.56
244.699	74.56
244.932	87.56
245.166	63.56
245.399	83.56
245.633	83.56
245.866	90.56
246.099	75.56
246.333	72.56
246.566	90.56
246.8	81.56
247.033	75.56
247.266	84.56
247.5	68.56
247.733	63.56
247.966	92.56
248.2	100.56
248.433	83.56
248.666	86.56
248.899	88.56
249.133	79.56
249.366	97.56
249.599	92.56
249.832	72.56
250.066	83.56
250.299	73.56
250.532	102.56
250.765	89.56
250.998	80.56
251.231	83.56
251.465	69.56
251.698	71.56
251.931	91.56
252.164	77.56
252.397	81.56
252.63	75.56
252.863	77.56
253.096	78.56
253.329	77.56
253.562	85.56
253.795	82.56
254.028	80.56
254.261	75.56
254.494	78.56
254.727	84.56
254.96	79.56
255.193	78.56
255.426	84.56
255.659	77.56
255.892	88.56
256.124	79.56
256.357	74.56
256.59	79.56
256.823	89.56
257.056	87.56
257.289	80.56
257.521	96.56
257.754	76.56
257.987	80.56
258.22	73.56
258.452	90.56
258.685	79.56
258.918	91.56
259.151	79.56
259.383	75.56
259.616	92.56
259.849	77.56
260.081	87.56
260.314	77.56
260.547	87.56
260.779	69.56
261.012	83.56
261.244	72.56
261.477	63.56
261.71	91.56
261.942	108.56
262.175	119.56
262.407	82.56
262.64	93.56
262.872	72.56
263.105	98.56
263.337	86.56
263.57	91.56
263.802	87.56
264.035	85.56
264.267	69.56
264.499	86.56
264.732	88.56
264.964	96.56
265.197	88.56
265.429	92.56
265.661	80.56
265.894	85.56
266.126	90.56
266.358	82.56
266.591	78.56
266.823	79.56
267.055	78.56
267.287	87.56
267.52	86.56
267.752	100.56
267.984	98.56
268.216	78.56
268.448	83.56
268.681	72.56
268.913	91.56
269.145	103.56
269.377	96.56
269.609	98.56
269.841	83.56
270.073	81.56
270.306	75.56
270.538	77.56
270.77	88.56
271.002	78.56
271.234	80.56
271.466	77.56
271.698	75.56
271.93	93.56
272.162	75.56
272.394	82.56
272.626	87.56
272.858	81.56
273.09	90.56
273.322	82.56
273.553	78.56
273.785	78.56
274.017	83.56
274.249	90.56
274.481	84.56
274.713	90.56
274.945	92.56
275.176	86.56
275.408	76.56
275.64	91.56
275.872	86.56
276.104	96.56
276.335	90.56
276.567	87.56
276.799	110.56
277.031	99.56
277.262	96.56
277.494	88.56
277.726	84.56
277.957	93.56
278.189	98.56
278.421	78.56
278.652	77.56
278.884	76.56
279.115	76.56
279.347	84.56
279.579	87.56
279.81	93.56
280.042	99.56
280.273	86.56
280.505	91.56
280.736	78.56
280.968	75.56
281.199	85.56
281.431	66.56
281.662	83.56
281.894	99.56
282.125	104.56
282.356	114.56
282.588	134.56
282.819	116.56
283.051	87.56
283.282	75.56
283.513	88.56
283.745	97.56
283.976	82.56
284.207	96.56
284.439	94.56
284.67	93.56
284.901	78.56
285.132	74.56
285.364	86.56
285.595	102.56
285.826	76.56
286.057	76.56
286.288	87.56
286.52	95.56
286.751	81.56
286.982	85.56
287.213	70.56
287.444	90.56
287.675	84.56
287.906	92.56
288.138	85.56
288.369	100.56
288.6	95.56
288.831	86.56
289.062	89.56
289.293	88.56
289.524	79.56
289.755	90.56
289.986	98.56
290.217	87.56
290.448	77.56
290.679	92.56
290.91	78.56
291.141	85.56
291.371	78.56
291.602	86.56
291.833	84.56
292.064	90.56
292.295	104.56
292.526	93.56
292.757	92.56
292.987	87.56
293.218	90.56
293.449	115.56
293.68	107.56
293.91	93.56
294.141	89.56
294.372	74.56
294.603	92.56
294.833	84.56
295.064	98.56
295.295	76.56
295.525	90.56
295.756	87.56
295.987	99.56
296.217	132.56
296.448	115.56
296.679	101.56
296.909	89.56
297.14	89.56
297.37	91.56
297.601	75.56
297.831	100.56
298.062	99.56
298.292	83.56
298.523	80.56
298.753	85.56
298.984	91.56
299.214	90.56
299.445	109.56
299.675	79.56
299.905	98.56
300.136	96.56
300.366	80.56
300.597	109.56
300.827	91.56
301.057	93.56
301.288	100.56
301.518	91.56
301.748	78.56
301.979	106.56
302.209	101.56
302.439	84.56
302.669	94.56
302.9	88.56
303.13	84.56
303.36	95.56
303.59	97.56
303.82	99.56
304.051	88.56
304.281	96.56
304.511	94.56
304.741	80.56
304.971	85.56
305.201	99.56
305.431	100.56
305.661	82.56
305.891	82.56
306.121	100.56
306.352	103.56
306.582	104.56
306.812	79.56
307.042	93.56
307.272	97.56
307.502	89.56
307.731	93.56
307.961	101.56
308.191	96.56
308.421	98.56
308.651	90.56
308.881	94.56
309.111	83.56
309.341	91.56
309.571	93.56
309.8	93.56
310.03	86.56
310.26	100.56
310.49	98.56
310.72	93.56
310.949	99.56
311.179	90.56
311.409	96.56
311.639	84.56
311.868	97.56
312.098	97.56
312.328	100.56
312.557	102.56
312.787	97.56
313.017	95.56
313.246	99.56
313.476	114.56
313.706	91.56
313.935	97.56
314.165	94.56
314.394	104.56
314.624	100.56
314.853	100.56
315.083	102.56
315.312	86.56
315.542	92.56
315.771	93.56
316.001	99.56
316.23	109.56
316.46	101.56
316.689	100.56
316.919	83.56
317.148	92.56
317.377	89.56
317.607	95.56
317.836	103.56
318.065	94.56
318.295	101.56
318.524	91.56
318.753	88.56
318.983	83.56
319.212	107.56
319.441	108.56
319.67	103.56
319.9	114.56
320.129	100.56
320.358	86.56
320.587	85.56
320.816	92.56
321.046	118.56
321.275	104.56
321.504	110.56
321.733	99.56
321.962	105.56
322.191	86.56
322.42	101.56
322.649	105.56
322.878	123.56
323.108	113.56
323.337	112.56
323.566	115.56
323.795	150.56
324.024	174.56
324.253	350.56
324.482	735.56
324.71	1493.56
324.939	1994.56
325.168	760.56
325.397	231.56
325.626	128.56
325.855	110.56
326.084	136.56
326.313	140.56
326.542	144.56
326.77	219.56
326.999	416.56
327.228	847.56
327.457	1466.56
327.686	1188.56
327.914	330.56
328.143	190.56
328.372	156.56
328.6	142.56
328.829	118.56
329.058	111.56
329.287	131.56
329.515	109.56
329.744	96.56
329.972	111.56
330.201	126.56
330.43	141.56
330.658	142.56
330.887	140.56
331.115	101.56
331.344	102.56
331.572	102.56
331.801	102.56
332.03	100.56
332.258	80.56
332.486	101.56
332.715	101.56
332.943	93.56
333.172	95.56
333.4	84.56
333.629	93.56
333.857	129.56
334.085	127.56
334.314	120.56
334.542	142.56
334.771	134.56
334.999	110.56
335.227	97.56
335.455	105.56
335.684	103.56
335.912	101.56
336.14	94.56
336.369	101.56
336.597	75.56
336.825	90.56
337.053	85.56
337.281	96.56
337.51	94.56
337.738	78.56
337.966	90.56
338.194	98.56
338.422	90.56
338.65	85.56
338.878	104.56
339.106	80.56
339.334	93.56
339.562	99.56
339.79	95.56
340.018	93.56
340.246	88.56
340.474	107.56
340.702	74.56
340.93	91.56
341.158	91.56
341.386	93.56
341.614	106.56
341.842	93.56
342.07	97.56
342.298	94.56
342.526	93.56
342.754	86.56
342.981	89.56
343.209	82.56
343.437	113.56
343.665	99.56
343.893	86.56
344.12	87.56
344.348	86.56
344.576	84.56
344.804	90.56
345.031	92.56
345.259	97.56
345.487	99.56
345.714	90.56
345.942	93.56
346.17	83.56
346.397	83.56
346.625	91.56
346.853	98.56
347.08	84.56
347.308	101.56
347.535	101.56
347.763	98.56
347.99	95.56
348.218	114.56
348.445	101.56
348.673	96.56
348.9	98.56
349.128	104.56
349.355	92.56
349.583	87.56
349.81	95.56
350.037	86.56
350.265	102.56
350.492	88.56
350.72	101.56
350.947	100.56
351.174	106.56
351.402	115.56
351.629	101.56
351.856	100.56
352.083	99.56
352.311	89.56
352.538	104.56
352.765	105.56
352.992	105.56
353.22	107.56
353.447	106.56
353.674	100.56
353.901	101.56
354.128	91.56
354.355	101.56
354.583	100.56
354.81	98.56
355.037	94.56
355.264	91.56
355.491	102.56
355.718	100.56
355.945	102.56
356.172	85.56
356.399	100.56
356.626	86.56
356.853	89.56
357.08	93.56
357.307	99.56
357.534	91.56
357.761	88.56
357.988	101.56
358.215	99.56
358.441	79.56
358.668	88.56
358.895	91.56
359.122	90.56
359.349	88.56
359.576	99.56
359.802	98.56
360.029	106.56
360.256	102.56
360.483	89.56
360.709	89.56
360.936	89.56
361.163	82.56
361.39	100.56
361.616	86.56
361.843	84.56
362.07	106.56
362.296	97.56
362.523	76.56
362.749	91.56
362.976	90.56
363.203	98.56
363.429	95.56
363.656	82.56
363.882	73.56
364.109	87.56
364.335	91.56
364.562	93.56
364.788	103.56
365.015	94.56
365.241	91.56
365.468	100.56
365.694	97.56
365.92	91.56
366.147	85.56
366.373	87.56
366.599	89.56
366.826	94.56
367.052	98.56
367.278	93.56
367.505	95.56
367.731	99.56
367.957	96.56
368.184	99.56
368.41	97.56
368.636	99.56
368.862	129.56
369.089	105.56
369.315	88.56
369.541	89.56
369.767	84.56
369.993	75.56
370.219	83.56
370.445	79.56
370.672	94.56
370.898	109.56
371.124	84.56
371.35	95.56
371.576	86.56
371.802	86.56
372.028	91.56
372.254	96.56
372.48	86.56
372.706	95.56
372.932	80.56
373.158	91.56
373.384	97.56
373.61	82.56
373.835	79.56
374.061	87.56
374.287	99.56
374.513	88.56
374.739	93.56
374.965	80.56
375.191	79.56
375.416	83.56
375.642	96.56
375.868	92.56
376.094	79.56
376.319	105.56
376.545	87.56
376.771	85.56
376.997	89.56
377.222	90.56
377.448	90.56
377.674	75.56
377.899	97.56
378.125	91.56
378.35	102.56
378.576	94.56
378.802	87.56
379.027	93.56
379.253	88.56
379.478	81.56
379.704	90.56
379.929	93.56
380.155	85.56
380.38	82.56
380.606	98.56
380.831	99.56
381.057	88.56
381.282	104.56
381.507	106.56
381.733	90.56
381.958	86.56
382.184	91.56
382.409	88.56
382.634	90.56
382.86	98.56
383.085	91.56
383.31	92.56
383.535	102.56
383.761	85.56
383.986	99.56
384.211	101.56
384.436	102.56
384.662	104.56
384.887	93.56
385.112	93.56
385.337	106.56
385.562	103.56
385.787	98.56
386.013	109.56
386.238	110.56
386.463	105.56
386.688	103.56
386.913	94.56
387.138	93.56
387.363	93.56
387.588	109.56
387.813	109.56
388.038	99.56
388.263	90.56
388.488	95.56
388.713	88.56
388.938	102.56
389.163	100.56
389.387	78.56
389.612	90.56
389.837	90.56
390.062	94.56
390.287	86.56
390.512	103.56
390.736	95.56
390.961	97.56
391.186	94.56
391.411	91.56
391.636	92.56
391.86	87.56
392.085	87.56
392.31	91.56
392.534	80.56
392.759	88.56
392.984	82.56
393.208	78.56
393.433	92.56
393.658	94.56
393.882	96.56
394.107	89.56
394.331	86.56
394.556	73.56
394.78	84.56
395.005	82.56
395.229	79.56
395.454	95.56
395.678	91.56
395.903	82.56
396.127	100.56
396.352	94.56
396.576	89.56
396.801	93.56
397.025	91.56
397.249	87.56
397.474	92.56
397.698	91.56
397.922	91.56
398.147	75.56
398.371	82.56
398.595	86.56
398.82	91.56
399.044	81.56
399.268	74.56
399.492	79.56
399.717	99.56
399.941	79.56
400.165	91.56
400.389	74.56
400.613	87.56
400.837	81.56
401.062	88.56
401.286	89.56
401.51	91.56
401.734	103.56
401.958	99.56
402.182	146.56
402.406	155.56
402.63	122.56
402.854	85.56
403.078	90.56
403.302	89.56
403.526	84.56
403.75	86.56
403.974	88.56
404.198	89.56
404.422	88.56
404.645	76.56
404.869	95.56
405.093	91.56
405.317	90.56
405.541	89.56
405.765	107.56
405.988	120.56
406.212	159.56
406.436	228.56
406.66	133.56
406.883	99.56
407.107	88.56
407.331	88.56
407.555	112.56
407.778	89.56
408.002	90.56
408.226	99.56
408.449	89.56
408.673	100.56
408.896	79.56
409.12	94.56
409.344	81.56
409.567	102.56
409.791	79.56
410.014	86.56
410.238	99.56
410.461	95.56
410.685	105.56
410.908	96.56
411.132	108.56
411.355	83.56
411.578	89.56
411.802	78.56
412.025	96.56
412.249	83.56
412.472	83.56
412.695	106.56
412.919	77.56
413.142	92.56
413.365	90.56
413.589	85.56
413.812	89.56
414.035	97.56
414.258	95.56
414.482	88.56
414.705	83.56
414.928	102.56
415.151	89.56
415.374	87.56
415.597	85.56
415.821	80.56
416.044	82.56
416.267	84.56
416.49	91.56
416.713	92.56
416.936	89.56
417.159	94.56
417.382	93.56
417.605	93.56
417.828	91.56
418.051	87.56
418.274	93.56
418.497	85.56
418.72	97.56
418.943	100.56
419.166	84.56
419.389	95.56
419.611	84.56
419.834	87.56
420.057	79.56
420.28	92.56
420.503	83.56
420.726	83.56
420.948	100.56
421.171	83.56
421.394	87.56
421.617	91.56
421.839	87.56
422.062	95.56
422.285	90.56
422.507	83.56
422.73	103.56
422.953	93.56
423.175	95.56
423.398	91.56
423.621	80.56
423.843	85.56
424.066	85.56
424.288	86.56
424.511	91.56
424.733	82.56
424.956	95.56
425.178	99.56
425.401	98.56
425.623	93.56
425.846	85.56
426.068	79.56
426.291	74.56
426.513	79.56
426.735	92.56
426.958	99.56
427.18	109.56
427.402	128.56
427.625	153.56
427.847	134.56
428.069	119.56
428.292	98.56
428.514	87.56
428.736	98.56
428.958	82.56
429.181	79.56
429.403	79.56
429.625	91.56
429.847	99.56
430.069	94.56
430.292	98.56
430.514	87.56
430.736	84.56
430.958	82.56
431.18	79.56
431.402	107.56
431.624	92.56
431.846	85.56
432.068	89.56
432.29	80.56
432.512	88.56
432.734	84.56
432.956	80.56
433.178	95.56
433.4	94.56
433.622	93.56
433.844	94.56
434.066	97.56
434.287	100.56
434.509	110.56
434.731	90.56
434.953	85.56
435.175	76.56
435.397	80.56
435.618	101.56
435.84	100.56
436.062	106.56
436.284	106.56
436.505	107.56
436.727	91.56
436.949	91.56
437.17	92.56
437.392	91.56
437.614	93.56
437.835	108.56
438.057	114.56
438.278	95.56
438.5	108.56
438.721	122.56
438.943	94.56
439.165	102.56
439.386	81.56
439.608	95.56
439.829	75.56
440.05	96.56
440.272	132.56
440.493	96.56
440.715	73.56
440.936	92.56
441.158	91.56
441.379	83.56
441.6	91.56
441.822	88.56
442.043	80.56
442.264	101.56
442.486	104.56
442.707	92.56
442.928	77.56
443.149	109.56
443.371	126.56
443.592	113.56
443.813	112.56
444.034	90.56
444.255	83.56
444.476	96.56
444.698	100.56
444.919	90.56
445.14	119.56
445.361	119.56
445.582	112.56
445.803	129.56
446.024	127.56
446.245	128.56
446.466	103.56
446.687	79.56
446.908	80.56
447.129	86.56
447.35	95.56
447.571	98.56
447.792	88.56
448.013	107.56
448.234	96.56
448.455	91.56
448.675	114.56
448.896	109.56
449.117	96.56
449.338	107.56
449.559	140.56
449.779	134.56
450	89.56
450.221	78.56
450.442	92.56
450.662	97.56
450.883	108.56
451.104	97.56
451.324	87.56
451.545	95.56
451.766	99.56
451.986	70.56
452.207	86.56
452.428	80.56
452.648	105.56
452.869	114.56
453.089	109.56
453.31	103.56
453.53	88.56
453.751	83.56
453.971	118.56
454.192	108.56
454.412	89.56
454.633	86.56
454.853	82.56
455.073	95.56
455.294	85.56
455.514	85.56
455.734	91.56
455.955	84.56
456.175	91.56
456.395	95.56
456.616	100.56
456.836	97.56
457.056	79.56
457.276	92.56
457.497	98.56
457.717	68.56
457.937	80.56
458.157	99.56
458.377	87.56
458.598	101.56
458.818	148.56
459.038	154.56
459.258	99.56
459.478	98.56
459.698	92.56
459.918	78.56
460.138	87.56
460.358	86.56
460.578	92.56
460.798	93.56
461.018	103.56
461.238	87.56
461.458	85.56
461.678	76.56
461.898	76.56
462.118	67.56
462.338	78.56
462.558	84.56
462.777	91.56
462.997	79.56
463.217	94.56
463.437	80.56
463.657	75.56
463.876	91.56
464.096	98.56
464.316	91.56
464.536	95.56
464.755	83.56
464.975	104.56
465.195	150.56
465.414	155.56
465.634	87.56
465.854	94.56
466.073	79.56
466.293	92.56
466.512	78.56
466.732	80.56
466.951	88.56
467.171	89.56
467.391	90.56
467.61	99.56
467.829	98.56
468.049	97.56
468.268	105.56
468.488	105.56
468.707	80.56
468.927	70.56
469.146	97.56
469.365	99.56
469.585	92.56
469.804	104.56
470.023	88.56
470.243	84.56
470.462	87.56
470.681	120.56
470.901	87.56
471.12	91.56
471.339	85.56
471.558	76.56
471.777	93.56
471.997	99.56
472.216	122.56
472.435	160.56
472.654	101.56
472.873	95.56
473.092	79.56
473.311	82.56
473.53	65.56
473.749	80.56
473.968	90.56
474.187	93.56
474.406	88.56
474.625	78.56
474.844	86.56
475.063	94.56
475.282	88.56
475.501	88.56
475.72	110.56
475.939	86.56
476.158	92.56
476.377	86.56
476.596	79.56
476.814	85.56
477.033	88.56
477.252	96.56
477.471	86.56
477.69	89.56
477.908	91.56
478.127	83.56
478.346	87.56
478.564	90.56
478.783	93.56
479.002	90.56
479.22	104.56
479.439	87.56
479.658	100.56
479.876	91.56
480.095	91.56
480.313	77.56
480.532	100.56
480.751	103.56
480.969	113.56
481.188	226.56
481.406	157.56
481.624	102.56
481.843	98.56
482.061	89.56
482.28	80.56
482.498	100.56
482.717	91.56
482.935	80.56
483.153	80.56
483.372	83.56
483.59	88.56
483.808	96.56
484.027	101.56
484.245	100.56
484.463	87.56
484.681	87.56
484.9	91.56
485.118	94.56
485.336	91.56
485.554	94.56
485.772	96.56
485.99	105.56
486.209	114.56
486.427	108.56
486.645	101.56
486.863	101.56
487.081	106.56
487.299	108.56
487.517	85.56
487.735	85.56
487.953	90.56
488.171	87.56
488.389	92.56
488.607	101.56
488.825	86.56
489.043	85.56
489.261	94.56
489.479	85.56
489.696	86.56
489.914	91.56
490.132	90.56
490.35	87.56
490.568	88.56
490.786	92.56
491.003	83.56
491.221	92.56
491.439	92.56
491.657	89.56
491.874	93.56
492.092	84.56
492.31	86.56
492.527	95.56
492.745	78.56
492.963	82.56
493.18	90.56
493.398	86.56
493.615	89.56
493.833	108.56
494.05	103.56
494.268	79.56
494.485	100.56
494.703	88.56
494.92	94.56
495.138	83.56
495.355	84.56
495.573	92.56
495.79	84.56
496.008	86.56
496.225	83.56
496.442	84.56
496.66	94.56
496.877	84.56
497.094	98.56
497.312	95.56
497.529	77.56
497.746	96.56
497.963	86.56
498.181	102.56
498.398	92.56
498.615	108.56
498.832	118.56
499.049	99.56
499.267	101.56
499.484	96.56
499.701	91.56
499.918	90.56
500.135	90.56
500.352	104.56
500.569	94.56
500.786	95.56
501.003	80.56
501.22	103.56
501.437	87.56
501.654	101.56
501.871	107.56
502.088	97.56
502.305	90.56
502.522	84.56
502.739	91.56
502.956	96.56
503.172	82.56
503.389	100.56
503.606	114.56
503.823	102.56
504.04	95.56
504.256	91.56
504.473	102.56
504.69	84.56
504.907	98.56
505.123	97.56
505.34	80.56
505.557	84.56
505.773	84.56
505.99	99.56
506.207	100.56
506.423	97.56
506.64	84.56
506.856	85.56
507.073	106.56
507.289	92.56
507.506	95.56
507.722	108.56
507.939	106.56
508.155	108.56
508.372	87.56
508.588	100.56
508.805	106.56
509.021	90.56
509.238	124.56
509.454	105.56
509.67	100.56
509.887	90.56
510.103	134.56
510.319	212.56
510.536	746.56
510.752	2455.56
510.968	707.56
511.184	162.56
511.401	119.56
511.617	87.56
511.833	84.56
512.049	103.56
512.265	94.56
512.481	78.56
512.698	95.56
512.914	100.56
513.13	94.56
513.346	91.56
513.562	99.56
513.778	91.56
513.994	116.56
514.21	92.56
514.426	105.56
514.642	143.56
514.858	111.56
515.074	156.56
515.29	413.56
515.506	1420.56
515.721	538.56
