Data from Circ_2012_H10_HRD10591_00056.txt Node
Date: Wed Jan 03 10:06:01 EST 2024
User: Yrep
Spectrometer: HR+D1059
Trigger mode: 1
Integration Time (sec): 1.000000E-1
Scans to average: 1
Electric dark correction enabled: true
Nonlinearity correction enabled: false
Boxcar width: 0
XAxis mode: Wavelengths
Number of Pixels in Spectrum: 2048
>>>>>Begin Spectral Data<<<<<
223.165	-8.5
223.4	-8.5
223.635	-8.5
223.869	-19.5
224.104	-28.5
224.338	-9.5
224.573	-17.5
224.808	-8.5
225.042	-13.5
225.277	-17.5
225.511	0.5
225.746	14.5
225.98	5.5
226.215	15.5
226.449	15.5
226.683	19.5
226.918	12.5
227.152	39.5
227.387	41.5
227.621	46.5
227.856	32.5
228.09	45.5
228.324	48.5
228.559	52.5
228.793	63.5
229.027	67.5
229.262	60.5
229.496	67.5
229.73	99.5
229.964	82.5
230.199	83.5
230.433	84.5
230.667	75.5
230.901	87.5
231.136	78.5
231.37	84.5
231.604	93.5
231.838	66.5
232.072	75.5
232.306	72.5
232.541	66.5
232.775	63.5
233.009	71.5
233.243	71.5
233.477	72.5
233.711	84.5
233.945	59.5
234.179	83.5
234.413	90.5
234.647	98.5
234.881	80.5
235.115	78.5
235.349	84.5
235.583	82.5
235.817	74.5
236.051	71.5
236.285	82.5
236.519	76.5
236.753	74.5
236.987	67.5
237.221	84.5
237.455	77.5
237.689	62.5
237.922	74.5
238.156	82.5
238.39	76.5
238.624	77.5
238.858	82.5
239.091	73.5
239.325	71.5
239.559	68.5
239.793	72.5
240.027	74.5
240.26	87.5
240.494	96.5
240.728	79.5
240.961	68.5
241.195	72.5
241.429	82.5
241.662	79.5
241.896	71.5
242.13	64.5
242.363	74.5
242.597	75.5
242.83	82.5
243.064	82.5
243.298	74.5
243.531	86.5
243.765	79.5
243.998	81.5
244.232	86.5
244.465	86.5
244.699	76.5
244.932	90.5
245.166	90.5
245.399	74.5
245.633	67.5
245.866	71.5
246.099	66.5
246.333	73.5
246.566	77.5
246.8	89.5
247.033	79.5
247.266	87.5
247.5	77.5
247.733	76.5
247.966	94.5
248.2	90.5
248.433	83.5
248.666	79.5
248.899	80.5
249.133	92.5
249.366	94.5
249.599	85.5
249.832	90.5
250.066	90.5
250.299	68.5
250.532	76.5
250.765	68.5
250.998	75.5
251.231	73.5
251.465	74.5
251.698	78.5
251.931	70.5
252.164	92.5
252.397	86.5
252.63	69.5
252.863	89.5
253.096	88.5
253.329	69.5
253.562	75.5
253.795	75.5
254.028	85.5
254.261	77.5
254.494	90.5
254.727	75.5
254.96	88.5
255.193	86.5
255.426	78.5
255.659	73.5
255.892	93.5
256.124	82.5
256.357	73.5
256.59	77.5
256.823	71.5
257.056	69.5
257.289	84.5
257.521	75.5
257.754	83.5
257.987	80.5
258.22	83.5
258.452	73.5
258.685	90.5
258.918	94.5
259.151	74.5
259.383	90.5
259.616	78.5
259.849	86.5
260.081	91.5
260.314	90.5
260.547	77.5
260.779	83.5
261.012	88.5
261.244	91.5
261.477	88.5
261.71	78.5
261.942	104.5
262.175	126.5
262.407	89.5
262.64	76.5
262.872	84.5
263.105	101.5
263.337	93.5
263.57	115.5
263.802	89.5
264.035	82.5
264.267	88.5
264.499	85.5
264.732	78.5
264.964	75.5
265.197	85.5
265.429	78.5
265.661	71.5
265.894	97.5
266.126	86.5
266.358	91.5
266.591	81.5
266.823	81.5
267.055	74.5
267.287	86.5
267.52	82.5
267.752	70.5
267.984	84.5
268.216	75.5
268.448	89.5
268.681	90.5
268.913	95.5
269.145	76.5
269.377	84.5
269.609	93.5
269.841	84.5
270.073	90.5
270.306	81.5
270.538	81.5
270.77	78.5
271.002	92.5
271.234	91.5
271.466	82.5
271.698	73.5
271.93	77.5
272.162	65.5
272.394	95.5
272.626	93.5
272.858	82.5
273.09	93.5
273.322	67.5
273.553	79.5
273.785	82.5
274.017	89.5
274.249	106.5
274.481	80.5
274.713	83.5
274.945	88.5
275.176	82.5
275.408	77.5
275.64	92.5
275.872	93.5
276.104	76.5
276.335	96.5
276.567	108.5
276.799	111.5
277.031	91.5
277.262	79.5
277.494	84.5
277.726	89.5
277.957	92.5
278.189	90.5
278.421	99.5
278.652	87.5
278.884	89.5
279.115	80.5
279.347	87.5
279.579	86.5
279.81	95.5
280.042	86.5
280.273	94.5
280.505	85.5
280.736	92.5
280.968	79.5
281.199	81.5
281.431	80.5
281.662	79.5
281.894	83.5
282.125	104.5
282.356	133.5
282.588	156.5
282.819	112.5
283.051	91.5
283.282	93.5
283.513	81.5
283.745	70.5
283.976	76.5
284.207	83.5
284.439	82.5
284.67	93.5
284.901	79.5
285.132	82.5
285.364	68.5
285.595	67.5
285.826	84.5
286.057	86.5
286.288	92.5
286.52	80.5
286.751	94.5
286.982	94.5
287.213	90.5
287.444	88.5
287.675	83.5
287.906	76.5
288.138	95.5
288.369	78.5
288.6	98.5
288.831	87.5
289.062	98.5
289.293	85.5
289.524	92.5
289.755	90.5
289.986	89.5
290.217	91.5
290.448	78.5
290.679	98.5
290.91	101.5
291.141	81.5
291.371	95.5
291.602	95.5
291.833	89.5
292.064	88.5
292.295	94.5
292.526	95.5
292.757	88.5
292.987	86.5
293.218	92.5
293.449	87.5
293.68	85.5
293.91	97.5
294.141	101.5
294.372	88.5
294.603	81.5
294.833	86.5
295.064	90.5
295.295	87.5
295.525	97.5
295.756	102.5
295.987	123.5
296.217	141.5
296.448	133.5
296.679	86.5
296.909	86.5
297.14	85.5
297.37	97.5
297.601	94.5
297.831	78.5
298.062	86.5
298.292	104.5
298.523	92.5
298.753	86.5
298.984	90.5
299.214	93.5
299.445	96.5
299.675	74.5
299.905	97.5
300.136	86.5
300.366	87.5
300.597	79.5
300.827	91.5
301.057	105.5
301.288	100.5
301.518	93.5
301.748	91.5
301.979	102.5
302.209	93.5
302.439	82.5
302.669	88.5
302.9	97.5
303.13	92.5
303.36	92.5
303.59	87.5
303.82	100.5
304.051	90.5
304.281	91.5
304.511	103.5
304.741	98.5
304.971	90.5
305.201	83.5
305.431	81.5
305.661	84.5
305.891	84.5
306.121	98.5
306.352	110.5
306.582	98.5
306.812	102.5
307.042	98.5
307.272	98.5
307.502	93.5
307.731	94.5
307.961	94.5
308.191	89.5
308.421	92.5
308.651	98.5
308.881	97.5
309.111	100.5
309.341	88.5
309.571	92.5
309.8	101.5
310.03	86.5
310.26	95.5
310.49	92.5
310.72	100.5
310.949	98.5
311.179	95.5
311.409	94.5
311.639	90.5
311.868	92.5
312.098	93.5
312.328	93.5
312.557	108.5
312.787	104.5
313.017	98.5
313.246	95.5
313.476	94.5
313.706	89.5
313.935	102.5
314.165	90.5
314.394	101.5
314.624	94.5
314.853	106.5
315.083	91.5
315.312	100.5
315.542	95.5
315.771	79.5
316.001	91.5
316.23	95.5
316.46	91.5
316.689	93.5
316.919	95.5
317.148	80.5
317.377	90.5
317.607	101.5
317.836	94.5
318.065	93.5
318.295	83.5
318.524	84.5
318.753	88.5
318.983	100.5
319.212	93.5
319.441	104.5
319.67	108.5
319.9	99.5
320.129	91.5
320.358	93.5
320.587	86.5
320.816	95.5
321.046	98.5
321.275	105.5
321.504	85.5
321.733	107.5
321.962	93.5
322.191	97.5
322.42	99.5
322.649	110.5
322.878	115.5
323.108	99.5
323.337	119.5
323.566	130.5
323.795	143.5
324.024	217.5
324.253	401.5
324.482	852.5
324.71	1705.5
324.939	2236.5
325.168	834.5
325.397	255.5
325.626	147.5
325.855	150.5
326.084	135.5
326.313	144.5
326.542	167.5
326.77	239.5
326.999	470.5
327.228	958.5
327.457	1727.5
327.686	1378.5
327.914	373.5
328.143	204.5
328.372	160.5
328.6	128.5
328.829	120.5
329.058	126.5
329.287	118.5
329.515	106.5
329.744	94.5
329.972	109.5
330.201	144.5
330.43	154.5
330.658	139.5
330.887	126.5
331.115	135.5
331.344	95.5
331.572	101.5
331.801	92.5
332.03	102.5
332.258	88.5
332.486	108.5
332.715	103.5
332.943	95.5
333.172	102.5
333.4	74.5
333.629	101.5
333.857	112.5
334.085	117.5
334.314	126.5
334.542	166.5
334.771	151.5
334.999	115.5
335.227	105.5
335.455	89.5
335.684	97.5
335.912	88.5
336.14	87.5
336.369	100.5
336.597	96.5
336.825	95.5
337.053	93.5
337.281	102.5
337.51	77.5
337.738	84.5
337.966	94.5
338.194	101.5
338.422	95.5
338.65	87.5
338.878	103.5
339.106	96.5
339.334	99.5
339.562	91.5
339.79	91.5
340.018	85.5
340.246	104.5
340.474	101.5
340.702	94.5
340.93	92.5
341.158	85.5
341.386	90.5
341.614	92.5
341.842	101.5
342.07	90.5
342.298	101.5
342.526	78.5
342.754	77.5
342.981	75.5
343.209	87.5
343.437	97.5
343.665	88.5
343.893	85.5
344.12	95.5
344.348	94.5
344.576	90.5
344.804	80.5
345.031	88.5
345.259	98.5
345.487	88.5
345.714	106.5
345.942	105.5
346.17	87.5
346.397	95.5
346.625	94.5
346.853	91.5
347.08	90.5
347.308	77.5
347.535	89.5
347.763	77.5
347.99	90.5
348.218	116.5
348.445	103.5
348.673	85.5
348.9	87.5
349.128	96.5
349.355	90.5
349.583	102.5
349.81	94.5
350.037	108.5
350.265	96.5
350.492	100.5
350.72	93.5
350.947	90.5
351.174	113.5
351.402	100.5
351.629	108.5
351.856	93.5
352.083	98.5
352.311	109.5
352.538	107.5
352.765	106.5
352.992	102.5
353.22	111.5
353.447	122.5
353.674	97.5
353.901	93.5
354.128	106.5
354.355	115.5
354.583	102.5
354.81	97.5
355.037	99.5
355.264	91.5
355.491	107.5
355.718	93.5
355.945	85.5
356.172	105.5
356.399	94.5
356.626	99.5
356.853	86.5
357.08	89.5
357.307	77.5
357.534	96.5
357.761	87.5
357.988	88.5
358.215	85.5
358.441	101.5
358.668	95.5
358.895	86.5
359.122	88.5
359.349	92.5
359.576	79.5
359.802	102.5
360.029	100.5
360.256	105.5
360.483	97.5
360.709	86.5
360.936	92.5
361.163	80.5
361.39	87.5
361.616	90.5
361.843	97.5
362.07	95.5
362.296	88.5
362.523	92.5
362.749	91.5
362.976	81.5
363.203	88.5
363.429	88.5
363.656	81.5
363.882	80.5
364.109	76.5
364.335	94.5
364.562	94.5
364.788	86.5
365.015	95.5
365.241	98.5
365.468	98.5
365.694	106.5
365.92	93.5
366.147	82.5
366.373	80.5
366.599	94.5
366.826	92.5
367.052	87.5
367.278	91.5
367.505	83.5
367.731	101.5
367.957	93.5
368.184	82.5
368.41	90.5
368.636	117.5
368.862	124.5
369.089	105.5
369.315	100.5
369.541	98.5
369.767	86.5
369.993	89.5
370.219	81.5
370.445	75.5
370.672	82.5
370.898	92.5
371.124	95.5
371.35	86.5
371.576	90.5
371.802	80.5
372.028	89.5
372.254	79.5
372.48	82.5
372.706	96.5
372.932	98.5
373.158	96.5
373.384	80.5
373.61	87.5
373.835	89.5
374.061	83.5
374.287	89.5
374.513	85.5
374.739	91.5
374.965	78.5
375.191	87.5
375.416	96.5
375.642	101.5
375.868	100.5
376.094	82.5
376.319	102.5
376.545	78.5
376.771	68.5
376.997	81.5
377.222	94.5
377.448	92.5
377.674	90.5
377.899	94.5
378.125	79.5
378.35	87.5
378.576	86.5
378.802	80.5
379.027	106.5
379.253	100.5
379.478	87.5
379.704	91.5
379.929	91.5
380.155	86.5
380.38	92.5
380.606	89.5
380.831	96.5
381.057	90.5
381.282	90.5
381.507	101.5
381.733	83.5
381.958	102.5
382.184	94.5
382.409	85.5
382.634	107.5
382.86	88.5
383.085	104.5
383.31	95.5
383.535	104.5
383.761	98.5
383.986	102.5
384.211	98.5
384.436	104.5
384.662	86.5
384.887	99.5
385.112	90.5
385.337	88.5
385.562	91.5
385.787	96.5
386.013	111.5
386.238	101.5
386.463	111.5
386.688	114.5
386.913	103.5
387.138	97.5
387.363	88.5
387.588	112.5
387.813	90.5
388.038	113.5
388.263	103.5
388.488	100.5
388.713	98.5
388.938	100.5
389.163	93.5
389.387	100.5
389.612	97.5
389.837	95.5
390.062	87.5
390.287	92.5
390.512	87.5
390.736	94.5
390.961	89.5
391.186	107.5
391.411	81.5
391.636	94.5
391.86	89.5
392.085	89.5
392.31	93.5
392.534	91.5
392.759	91.5
392.984	75.5
393.208	94.5
393.433	75.5
393.658	85.5
393.882	76.5
394.107	83.5
394.331	102.5
394.556	86.5
394.78	83.5
395.005	79.5
395.229	97.5
395.454	90.5
395.678	91.5
395.903	86.5
396.127	69.5
396.352	80.5
396.576	88.5
396.801	86.5
397.025	92.5
397.249	84.5
397.474	80.5
397.698	80.5
397.922	77.5
398.147	100.5
398.371	86.5
398.595	92.5
398.82	94.5
399.044	79.5
399.268	101.5
399.492	82.5
399.717	86.5
399.941	82.5
400.165	90.5
400.389	96.5
400.613	97.5
400.837	96.5
401.062	103.5
401.286	98.5
401.51	98.5
401.734	102.5
401.958	98.5
402.182	135.5
402.406	156.5
402.63	115.5
402.854	96.5
403.078	83.5
403.302	94.5
403.526	89.5
403.75	86.5
403.974	84.5
404.198	91.5
404.422	77.5
404.645	103.5
404.869	102.5
405.093	88.5
405.317	92.5
405.541	95.5
405.765	89.5
405.988	115.5
406.212	178.5
406.436	237.5
406.66	137.5
406.883	92.5
407.107	97.5
407.331	93.5
407.555	100.5
407.778	92.5
408.002	88.5
408.226	103.5
408.449	82.5
408.673	82.5
408.896	87.5
409.12	99.5
409.344	99.5
409.567	102.5
409.791	80.5
410.014	82.5
410.238	94.5
410.461	92.5
410.685	93.5
410.908	104.5
411.132	107.5
411.355	100.5
411.578	85.5
411.802	98.5
412.025	81.5
412.249	97.5
412.472	85.5
412.695	88.5
412.919	98.5
413.142	86.5
413.365	92.5
413.589	90.5
413.812	81.5
414.035	85.5
414.258	90.5
414.482	88.5
414.705	88.5
414.928	90.5
415.151	88.5
415.374	98.5
415.597	83.5
415.821	99.5
416.044	98.5
416.267	88.5
416.49	86.5
416.713	73.5
416.936	91.5
417.159	87.5
417.382	86.5
417.605	83.5
417.828	86.5
418.051	103.5
418.274	91.5
418.497	90.5
418.72	91.5
418.943	99.5
419.166	86.5
419.389	84.5
419.611	101.5
419.834	91.5
420.057	92.5
420.28	98.5
420.503	92.5
420.726	101.5
420.948	85.5
421.171	96.5
421.394	103.5
421.617	87.5
421.839	89.5
422.062	100.5
422.285	70.5
422.507	102.5
422.73	91.5
422.953	92.5
423.175	99.5
423.398	91.5
423.621	83.5
423.843	100.5
424.066	91.5
424.288	91.5
424.511	82.5
424.733	109.5
424.956	105.5
425.178	97.5
425.401	100.5
425.623	91.5
425.846	98.5
426.068	86.5
426.291	84.5
426.513	91.5
426.735	98.5
426.958	94.5
427.18	106.5
427.402	128.5
427.625	162.5
427.847	135.5
428.069	116.5
428.292	109.5
428.514	98.5
428.736	92.5
428.958	69.5
429.181	88.5
429.403	81.5
429.625	90.5
429.847	94.5
430.069	107.5
430.292	88.5
430.514	81.5
430.736	68.5
430.958	113.5
431.18	89.5
431.402	78.5
431.624	81.5
431.846	82.5
432.068	90.5
432.29	102.5
432.512	87.5
432.734	91.5
432.956	102.5
433.178	102.5
433.4	83.5
433.622	85.5
433.844	89.5
434.066	90.5
434.287	83.5
434.509	88.5
434.731	90.5
434.953	89.5
435.175	86.5
435.397	99.5
435.618	86.5
435.84	89.5
436.062	120.5
436.284	118.5
436.505	101.5
436.727	106.5
436.949	86.5
437.17	89.5
437.392	93.5
437.614	99.5
437.835	101.5
438.057	119.5
438.278	105.5
438.5	104.5
438.721	104.5
438.943	94.5
439.165	81.5
439.386	82.5
439.608	103.5
439.829	114.5
440.05	115.5
440.272	152.5
440.493	103.5
440.715	78.5
440.936	89.5
441.158	86.5
441.379	86.5
441.6	106.5
441.822	102.5
442.043	92.5
442.264	107.5
442.486	94.5
442.707	91.5
442.928	102.5
443.149	128.5
443.371	121.5
443.592	112.5
443.813	117.5
444.034	103.5
444.255	99.5
444.476	96.5
444.698	98.5
444.919	78.5
445.14	109.5
445.361	123.5
445.582	126.5
445.803	139.5
446.024	134.5
446.245	123.5
446.466	102.5
446.687	94.5
446.908	67.5
447.129	83.5
447.35	94.5
447.571	91.5
447.792	100.5
448.013	110.5
448.234	100.5
448.455	106.5
448.675	111.5
448.896	124.5
449.117	91.5
449.338	118.5
449.559	119.5
449.779	119.5
450	90.5
450.221	95.5
450.442	88.5
450.662	93.5
450.883	110.5
451.104	118.5
451.324	90.5
451.545	84.5
451.766	89.5
451.986	83.5
452.207	84.5
452.428	79.5
452.648	100.5
452.869	100.5
453.089	118.5
453.31	112.5
453.53	74.5
453.751	85.5
453.971	111.5
454.192	119.5
454.412	102.5
454.633	101.5
454.853	81.5
455.073	90.5
455.294	99.5
455.514	106.5
455.734	93.5
455.955	99.5
456.175	82.5
456.395	85.5
456.616	90.5
456.836	98.5
457.056	81.5
457.276	73.5
457.497	90.5
457.717	101.5
457.937	85.5
458.157	100.5
458.377	97.5
458.598	104.5
458.818	156.5
459.038	170.5
459.258	125.5
459.478	84.5
459.698	102.5
459.918	106.5
460.138	87.5
460.358	69.5
460.578	76.5
460.798	86.5
461.018	90.5
461.238	90.5
461.458	87.5
461.678	75.5
461.898	84.5
462.118	92.5
462.338	85.5
462.558	84.5
462.777	92.5
462.997	84.5
463.217	84.5
463.437	111.5
463.657	91.5
463.876	89.5
464.096	80.5
464.316	80.5
464.536	110.5
464.755	84.5
464.975	116.5
465.195	154.5
465.414	170.5
465.634	99.5
465.854	90.5
466.073	81.5
466.293	100.5
466.512	93.5
466.732	93.5
466.951	82.5
467.171	90.5
467.391	83.5
467.61	94.5
467.829	81.5
468.049	91.5
468.268	121.5
468.488	84.5
468.707	87.5
468.927	83.5
469.146	77.5
469.365	82.5
469.585	87.5
469.804	92.5
470.023	94.5
470.243	96.5
470.462	105.5
470.681	109.5
470.901	101.5
471.12	94.5
471.339	83.5
471.558	87.5
471.777	87.5
471.997	84.5
472.216	147.5
472.435	190.5
472.654	121.5
472.873	93.5
473.092	93.5
473.311	83.5
473.53	99.5
473.749	87.5
473.968	84.5
474.187	108.5
474.406	102.5
474.625	85.5
474.844	86.5
475.063	87.5
475.282	77.5
475.501	81.5
475.72	93.5
475.939	94.5
476.158	70.5
476.377	89.5
476.596	78.5
476.814	100.5
477.033	90.5
477.252	80.5
477.471	78.5
477.69	98.5
477.908	86.5
478.127	80.5
478.346	90.5
478.564	92.5
478.783	115.5
479.002	94.5
479.22	95.5
479.439	85.5
479.658	96.5
479.876	96.5
480.095	96.5
480.313	97.5
480.532	89.5
480.751	94.5
480.969	134.5
481.188	256.5
481.406	207.5
481.624	109.5
481.843	90.5
482.061	93.5
482.28	82.5
482.498	93.5
482.717	72.5
482.935	100.5
483.153	83.5
483.372	84.5
483.59	88.5
483.808	79.5
484.027	83.5
484.245	84.5
484.463	94.5
484.681	72.5
484.9	95.5
485.118	98.5
485.336	89.5
485.554	97.5
485.772	88.5
485.99	102.5
486.209	99.5
486.427	109.5
486.645	107.5
486.863	91.5
487.081	111.5
487.299	113.5
487.517	83.5
487.735	90.5
487.953	92.5
488.171	104.5
488.389	101.5
488.607	86.5
488.825	98.5
489.043	95.5
489.261	97.5
489.479	101.5
489.696	103.5
489.914	84.5
490.132	86.5
490.35	87.5
490.568	108.5
490.786	83.5
491.003	97.5
491.221	99.5
491.439	94.5
491.657	111.5
491.874	99.5
492.092	77.5
492.31	102.5
492.527	95.5
492.745	91.5
492.963	90.5
493.18	101.5
493.398	103.5
493.615	106.5
493.833	92.5
494.05	76.5
494.268	82.5
494.485	79.5
494.703	91.5
494.92	93.5
495.138	86.5
495.355	87.5
495.573	75.5
495.79	77.5
496.008	86.5
496.225	99.5
496.442	84.5
496.66	92.5
496.877	84.5
497.094	91.5
497.312	83.5
497.529	97.5
497.746	101.5
497.963	100.5
498.181	103.5
498.398	91.5
498.615	114.5
498.832	106.5
499.049	76.5
499.267	90.5
499.484	88.5
499.701	102.5
499.918	93.5
500.135	84.5
500.352	94.5
500.569	76.5
500.786	101.5
501.003	102.5
501.22	100.5
501.437	87.5
501.654	103.5
501.871	101.5
502.088	91.5
502.305	92.5
502.522	80.5
502.739	94.5
502.956	95.5
503.172	88.5
503.389	106.5
503.606	101.5
503.823	92.5
504.04	94.5
504.256	83.5
504.473	88.5
504.69	88.5
504.907	86.5
505.123	78.5
505.34	101.5
505.557	86.5
505.773	99.5
505.99	95.5
506.207	101.5
506.423	100.5
506.64	83.5
506.856	100.5
507.073	85.5
507.289	80.5
507.506	102.5
507.722	103.5
507.939	98.5
508.155	79.5
508.372	93.5
508.588	87.5
508.805	79.5
509.021	96.5
509.238	106.5
509.454	96.5
509.67	106.5
509.887	87.5
510.103	130.5
510.319	229.5
510.536	827.5
510.752	2708.5
510.968	750.5
511.184	172.5
511.401	118.5
511.617	96.5
511.833	97.5
512.049	88.5
512.265	100.5
512.481	104.5
512.698	81.5
512.914	93.5
513.13	107.5
513.346	96.5
513.562	105.5
513.778	101.5
513.994	91.5
514.21	100.5
514.426	116.5
514.642	129.5
514.858	116.5
515.074	159.5
515.29	476.5
515.506	1663.5
515.721	628.5
515.937	173.5
516.153	117.5
516.369	104.5
516.585	95.5
516.801	92.5
517.016	91.5
517.232	106.5
517.448	89.5
517.664	96.5
517.879	87.5
518.095	92.5
518.311	86.5
518.527	106.5
518.742	104.5
518.958	87.5
519.173	90.5
519.389	75.5
519.605	85.5
519.82	98.5
520.036	93.5
520.251	125.5
520.467	115.5
520.682	104.5
520.898	91.5
521.113	110.5
521.329	144.5
521.544	186.5
521.76	586.5
521.975	2712.5
522.19	1718.5
522.406	339.5
522.621	135.5
522.836	102.5
523.052	90.5
523.267	89.5
523.482	88.5
523.698	102.5
523.913	108.5
524.128	104.5
524.343	86.5
524.559	95.5
524.774	86.5
524.989	93.5
525.204	85.5
525.419	82.5
525.634	87.5
525.849	98.5
526.064	92.5
526.28	96.5
526.495	103.5
526.71	82.5
526.925	93.5
527.14	83.5
527.355	89.5
527.57	96.5
527.785	93.5
527.999	86.5
528.214	83.5
528.429	95.5
528.644	79.5
528.859	76.5
529.074	107.5
529.289	128.5
529.503	186.5
529.718	115.5
529.933	87.5
530.148	84.5
530.363	100.5
530.577	80.5
530.792	83.5
531.007	80.5
531.221	92.5
531.436	93.5
531.651	92.5
531.865	87.5
532.08	90.5
532.295	105.5
532.509	85.5
532.724	89.5
532.938	89.5
533.153	89.5
533.367	72.5
533.582	92.5
533.796	90.5
534.011	68.5
534.225	94.5
534.44	103.5
534.654	87.5
534.868	93.5
535.083	86.5
