Data from Circ_2012_H10_HRD10591_00054.txt Node
Date: Wed Jan 03 10:06:01 EST 2024
User: Yrep
Spectrometer: HR+D1059
Trigger mode: 1
Integration Time (sec): 1.000000E-1
Scans to average: 1
Electric dark correction enabled: true
Nonlinearity correction enabled: false
Boxcar width: 0
XAxis mode: Wavelengths
Number of Pixels in Spectrum: 2048
>>>>>Begin Spectral Data<<<<<
223.165	-14.19
223.4	-14.19
223.635	-14.19
223.869	-19.19
224.104	-13.19
224.338	-3.19
224.573	-11.19
224.808	-11.19
225.042	-23.19
225.277	-11.19
225.511	-8.19
225.746	5.81
225.98	3.81
226.215	16.81
226.449	23.81
226.683	6.81
226.918	31.81
227.152	25.81
227.387	37.81
227.621	32.81
227.856	35.81
228.09	32.81
228.324	37.81
228.559	54.81
228.793	57.81
229.027	54.81
229.262	62.81
229.496	67.81
229.73	86.81
229.964	88.81
230.199	58.81
230.433	85.81
230.667	78.81
230.901	65.81
231.136	78.81
231.37	67.81
231.604	80.81
231.838	87.81
232.072	78.81
232.306	86.81
232.541	78.81
232.775	83.81
233.009	75.81
233.243	81.81
233.477	84.81
233.711	73.81
233.945	96.81
234.179	97.81
234.413	76.81
234.647	84.81
234.881	95.81
235.115	82.81
235.349	75.81
235.583	74.81
235.817	85.81
236.051	75.81
236.285	67.81
236.519	74.81
236.753	67.81
236.987	73.81
237.221	83.81
237.455	75.81
237.689	65.81
237.922	61.81
238.156	70.81
238.39	75.81
238.624	64.81
238.858	75.81
239.091	73.81
239.325	70.81
239.559	78.81
239.793	65.81
240.027	64.81
240.26	91.81
240.494	77.81
240.728	85.81
240.961	81.81
241.195	81.81
241.429	75.81
241.662	85.81
241.896	72.81
242.13	77.81
242.363	77.81
242.597	75.81
242.83	82.81
243.064	75.81
243.298	68.81
243.531	86.81
243.765	90.81
243.998	59.81
244.232	84.81
244.465	87.81
244.699	73.81
244.932	81.81
245.166	86.81
245.399	86.81
245.633	76.81
245.866	65.81
246.099	72.81
246.333	71.81
246.566	80.81
246.8	78.81
247.033	83.81
247.266	70.81
247.5	72.81
247.733	77.81
247.966	63.81
248.2	83.81
248.433	78.81
248.666	69.81
248.899	84.81
249.133	71.81
249.366	93.81
249.599	82.81
249.832	78.81
250.066	73.81
250.299	68.81
250.532	77.81
250.765	74.81
250.998	93.81
251.231	61.81
251.465	64.81
251.698	74.81
251.931	73.81
252.164	82.81
252.397	77.81
252.63	80.81
252.863	80.81
253.096	66.81
253.329	72.81
253.562	76.81
253.795	61.81
254.028	77.81
254.261	74.81
254.494	76.81
254.727	77.81
254.96	83.81
255.193	73.81
255.426	66.81
255.659	67.81
255.892	75.81
256.124	81.81
256.357	78.81
256.59	88.81
256.823	76.81
257.056	93.81
257.289	72.81
257.521	85.81
257.754	66.81
257.987	72.81
258.22	74.81
258.452	72.81
258.685	81.81
258.918	89.81
259.151	57.81
259.383	73.81
259.616	75.81
259.849	64.81
260.081	61.81
260.314	78.81
260.547	81.81
260.779	84.81
261.012	93.81
261.244	93.81
261.477	93.81
261.71	89.81
261.942	87.81
262.175	109.81
262.407	100.81
262.64	76.81
262.872	72.81
263.105	86.81
263.337	100.81
263.57	83.81
263.802	75.81
264.035	86.81
264.267	82.81
264.499	76.81
264.732	88.81
264.964	76.81
265.197	70.81
265.429	78.81
265.661	73.81
265.894	67.81
266.126	77.81
266.358	74.81
266.591	85.81
266.823	86.81
267.055	69.81
267.287	77.81
267.52	77.81
267.752	77.81
267.984	83.81
268.216	74.81
268.448	82.81
268.681	77.81
268.913	91.81
269.145	75.81
269.377	80.81
269.609	77.81
269.841	73.81
270.073	79.81
270.306	99.81
270.538	86.81
270.77	86.81
271.002	71.81
271.234	61.81
271.466	77.81
271.698	94.81
271.93	83.81
272.162	86.81
272.394	84.81
272.626	78.81
272.858	80.81
273.09	89.81
273.322	73.81
273.553	83.81
273.785	78.81
274.017	97.81
274.249	81.81
274.481	91.81
274.713	92.81
274.945	85.81
275.176	88.81
275.408	100.81
275.64	75.81
275.872	83.81
276.104	87.81
276.335	100.81
276.567	99.81
276.799	98.81
277.031	92.81
277.262	79.81
277.494	77.81
277.726	95.81
277.957	84.81
278.189	96.81
278.421	89.81
278.652	85.81
278.884	89.81
279.115	84.81
279.347	98.81
279.579	81.81
279.81	95.81
280.042	82.81
280.273	84.81
280.505	74.81
280.736	83.81
280.968	73.81
281.199	79.81
281.431	76.81
281.662	80.81
281.894	90.81
282.125	108.81
282.356	105.81
282.588	151.81
282.819	103.81
283.051	81.81
283.282	109.81
283.513	69.81
283.745	78.81
283.976	74.81
284.207	89.81
284.439	102.81
284.67	93.81
284.901	87.81
285.132	86.81
285.364	88.81
285.595	80.81
285.826	84.81
286.057	81.81
286.288	86.81
286.52	84.81
286.751	91.81
286.982	75.81
287.213	82.81
287.444	86.81
287.675	83.81
287.906	89.81
288.138	90.81
288.369	82.81
288.6	88.81
288.831	90.81
289.062	88.81
289.293	85.81
289.524	86.81
289.755	91.81
289.986	78.81
290.217	92.81
290.448	84.81
290.679	80.81
290.91	88.81
291.141	71.81
291.371	77.81
291.602	91.81
291.833	91.81
292.064	83.81
292.295	92.81
292.526	89.81
292.757	85.81
292.987	82.81
293.218	83.81
293.449	78.81
293.68	77.81
293.91	100.81
294.141	86.81
294.372	73.81
294.603	82.81
294.833	89.81
295.064	88.81
295.295	88.81
295.525	83.81
295.756	102.81
295.987	95.81
296.217	139.81
296.448	125.81
296.679	103.81
296.909	77.81
297.14	100.81
297.37	92.81
297.601	66.81
297.831	72.81
298.062	88.81
298.292	87.81
298.523	94.81
298.753	76.81
298.984	85.81
299.214	64.81
299.445	83.81
299.675	92.81
299.905	94.81
300.136	102.81
300.366	89.81
300.597	77.81
300.827	87.81
301.057	96.81
301.288	94.81
301.518	91.81
301.748	81.81
301.979	96.81
302.209	93.81
302.439	85.81
302.669	83.81
302.9	85.81
303.13	87.81
303.36	84.81
303.59	105.81
303.82	105.81
304.051	106.81
304.281	88.81
304.511	86.81
304.741	80.81
304.971	93.81
305.201	89.81
305.431	82.81
305.661	75.81
305.891	97.81
306.121	82.81
306.352	81.81
306.582	95.81
306.812	98.81
307.042	87.81
307.272	92.81
307.502	97.81
307.731	98.81
307.961	94.81
308.191	82.81
308.421	87.81
308.651	85.81
308.881	86.81
309.111	91.81
309.341	105.81
309.571	96.81
309.8	92.81
310.03	103.81
310.26	87.81
310.49	78.81
310.72	117.81
310.949	97.81
311.179	105.81
311.409	101.81
311.639	88.81
311.868	85.81
312.098	87.81
312.328	91.81
312.557	104.81
312.787	98.81
313.017	87.81
313.246	92.81
313.476	100.81
313.706	85.81
313.935	96.81
314.165	91.81
314.394	87.81
314.624	92.81
314.853	93.81
315.083	83.81
315.312	81.81
315.542	86.81
315.771	96.81
316.001	86.81
316.23	100.81
316.46	90.81
316.689	95.81
316.919	83.81
317.148	83.81
317.377	91.81
317.607	86.81
317.836	82.81
318.065	84.81
318.295	89.81
318.524	102.81
318.753	99.81
318.983	90.81
319.212	93.81
319.441	117.81
319.67	104.81
319.9	105.81
320.129	89.81
320.358	74.81
320.587	110.81
320.816	94.81
321.046	86.81
321.275	99.81
321.504	103.81
321.733	99.81
321.962	91.81
322.191	92.81
322.42	96.81
322.649	114.81
322.878	120.81
323.108	118.81
323.337	131.81
323.566	128.81
323.795	134.81
324.024	172.81
324.253	377.81
324.482	788.81
324.71	1580.81
324.939	2055.81
325.168	753.81
325.397	221.81
325.626	151.81
325.855	119.81
326.084	137.81
326.313	143.81
326.542	161.81
326.77	211.81
326.999	417.81
327.228	844.81
327.457	1520.81
327.686	1247.81
327.914	351.81
328.143	171.81
328.372	162.81
328.6	117.81
328.829	116.81
329.058	128.81
329.287	129.81
329.515	107.81
329.744	88.81
329.972	103.81
330.201	115.81
330.43	129.81
330.658	127.81
330.887	125.81
331.115	113.81
331.344	94.81
331.572	104.81
331.801	109.81
332.03	98.81
332.258	89.81
332.486	83.81
332.715	97.81
332.943	93.81
333.172	103.81
333.4	104.81
333.629	102.81
333.857	115.81
334.085	104.81
334.314	132.81
334.542	153.81
334.771	149.81
334.999	96.81
335.227	94.81
335.455	90.81
335.684	98.81
335.912	98.81
336.14	99.81
336.369	103.81
336.597	104.81
336.825	100.81
337.053	79.81
337.281	97.81
337.51	103.81
337.738	99.81
337.966	89.81
338.194	94.81
338.422	88.81
338.65	95.81
338.878	92.81
339.106	92.81
339.334	72.81
339.562	85.81
339.79	87.81
340.018	80.81
340.246	98.81
340.474	101.81
340.702	77.81
340.93	95.81
341.158	90.81
341.386	91.81
341.614	110.81
341.842	93.81
342.07	85.81
342.298	76.81
342.526	87.81
342.754	86.81
342.981	75.81
343.209	90.81
343.437	98.81
343.665	81.81
343.893	90.81
344.12	90.81
344.348	82.81
344.576	97.81
344.804	99.81
345.031	85.81
345.259	105.81
345.487	88.81
345.714	82.81
345.942	100.81
346.17	101.81
346.397	91.81
346.625	90.81
346.853	86.81
347.08	88.81
347.308	106.81
347.535	81.81
347.763	109.81
347.99	96.81
348.218	97.81
348.445	99.81
348.673	99.81
348.9	86.81
349.128	92.81
349.355	93.81
349.583	73.81
349.81	95.81
350.037	94.81
350.265	78.81
350.492	86.81
350.72	86.81
350.947	90.81
351.174	102.81
351.402	92.81
351.629	94.81
351.856	108.81
352.083	101.81
352.311	97.81
352.538	96.81
352.765	107.81
352.992	100.81
353.22	112.81
353.447	90.81
353.674	100.81
353.901	94.81
354.128	85.81
354.355	111.81
354.583	90.81
354.81	94.81
355.037	92.81
355.264	94.81
355.491	91.81
355.718	89.81
355.945	97.81
356.172	89.81
356.399	89.81
356.626	88.81
356.853	94.81
357.08	84.81
357.307	86.81
357.534	88.81
357.761	104.81
357.988	98.81
358.215	95.81
358.441	106.81
358.668	103.81
358.895	91.81
359.122	82.81
359.349	87.81
359.576	106.81
359.802	92.81
360.029	99.81
360.256	96.81
360.483	89.81
360.709	93.81
360.936	86.81
361.163	94.81
361.39	97.81
361.616	98.81
361.843	91.81
362.07	74.81
362.296	88.81
362.523	105.81
362.749	89.81
362.976	86.81
363.203	87.81
363.429	82.81
363.656	94.81
363.882	85.81
364.109	92.81
364.335	92.81
364.562	93.81
364.788	101.81
365.015	84.81
365.241	90.81
365.468	99.81
365.694	120.81
365.92	91.81
366.147	80.81
366.373	93.81
366.599	85.81
366.826	73.81
367.052	98.81
367.278	85.81
367.505	84.81
367.731	86.81
367.957	94.81
368.184	83.81
368.41	84.81
368.636	108.81
368.862	128.81
369.089	105.81
369.315	87.81
369.541	103.81
369.767	84.81
369.993	94.81
370.219	89.81
370.445	78.81
370.672	73.81
370.898	98.81
371.124	104.81
371.35	77.81
371.576	92.81
371.802	83.81
372.028	90.81
372.254	84.81
372.48	66.81
372.706	86.81
372.932	86.81
373.158	83.81
373.384	90.81
373.61	80.81
373.835	88.81
374.061	76.81
374.287	94.81
374.513	97.81
374.739	93.81
374.965	89.81
375.191	77.81
375.416	93.81
375.642	75.81
375.868	74.81
376.094	96.81
376.319	87.81
376.545	88.81
376.771	81.81
376.997	86.81
377.222	92.81
377.448	96.81
377.674	89.81
377.899	87.81
378.125	94.81
378.35	90.81
378.576	84.81
378.802	84.81
379.027	91.81
379.253	91.81
379.478	82.81
379.704	98.81
379.929	91.81
380.155	72.81
380.38	88.81
380.606	93.81
380.831	100.81
381.057	90.81
381.282	85.81
381.507	81.81
381.733	86.81
381.958	87.81
382.184	106.81
382.409	96.81
382.634	94.81
382.86	98.81
383.085	96.81
383.31	75.81
383.535	99.81
383.761	92.81
383.986	100.81
384.211	89.81
384.436	103.81
384.662	112.81
384.887	85.81
385.112	96.81
385.337	96.81
385.562	89.81
385.787	95.81
386.013	99.81
386.238	108.81
386.463	92.81
386.688	101.81
386.913	104.81
387.138	96.81
387.363	100.81
387.588	99.81
387.813	91.81
388.038	100.81
388.263	113.81
388.488	104.81
388.713	114.81
388.938	101.81
389.163	99.81
389.387	88.81
389.612	95.81
389.837	100.81
390.062	81.81
390.287	96.81
390.512	112.81
390.736	99.81
390.961	73.81
391.186	89.81
391.411	89.81
391.636	82.81
391.86	70.81
392.085	89.81
392.31	78.81
392.534	70.81
392.759	76.81
392.984	89.81
393.208	81.81
393.433	83.81
393.658	83.81
393.882	85.81
394.107	77.81
394.331	95.81
394.556	94.81
394.78	84.81
395.005	71.81
395.229	90.81
395.454	88.81
395.678	96.81
395.903	74.81
396.127	77.81
396.352	91.81
396.576	83.81
396.801	96.81
397.025	88.81
397.249	89.81
397.474	83.81
397.698	82.81
397.922	95.81
398.147	89.81
398.371	96.81
398.595	92.81
398.82	78.81
399.044	93.81
399.268	89.81
399.492	86.81
399.717	80.81
399.941	88.81
400.165	91.81
400.389	95.81
400.613	87.81
400.837	96.81
401.062	87.81
401.286	92.81
401.51	98.81
401.734	99.81
401.958	89.81
402.182	116.81
402.406	149.81
402.63	104.81
402.854	96.81
403.078	92.81
403.302	82.81
403.526	88.81
403.75	73.81
403.974	82.81
404.198	98.81
404.422	76.81
404.645	77.81
404.869	85.81
405.093	82.81
405.317	83.81
405.541	112.81
405.765	99.81
405.988	114.81
406.212	165.81
406.436	225.81
406.66	137.81
406.883	100.81
407.107	101.81
407.331	97.81
407.555	101.81
407.778	104.81
408.002	97.81
408.226	89.81
408.449	79.81
408.673	81.81
408.896	80.81
409.12	89.81
409.344	92.81
409.567	105.81
409.791	90.81
410.014	84.81
410.238	95.81
410.461	88.81
410.685	89.81
410.908	98.81
411.132	98.81
411.355	108.81
411.578	87.81
411.802	82.81
412.025	87.81
412.249	90.81
412.472	90.81
412.695	102.81
412.919	89.81
413.142	85.81
413.365	76.81
413.589	86.81
413.812	83.81
414.035	98.81
414.258	86.81
414.482	98.81
414.705	94.81
414.928	84.81
415.151	76.81
415.374	109.81
415.597	87.81
415.821	90.81
416.044	93.81
416.267	76.81
416.49	82.81
416.713	90.81
416.936	96.81
417.159	77.81
417.382	84.81
417.605	80.81
417.828	87.81
418.051	85.81
418.274	90.81
418.497	82.81
418.72	73.81
418.943	78.81
419.166	100.81
419.389	88.81
419.611	90.81
419.834	89.81
420.057	95.81
420.28	84.81
420.503	81.81
420.726	77.81
420.948	84.81
421.171	98.81
421.394	96.81
421.617	85.81
421.839	77.81
422.062	92.81
422.285	84.81
422.507	101.81
422.73	96.81
422.953	91.81
423.175	106.81
423.398	91.81
423.621	93.81
423.843	77.81
424.066	82.81
424.288	90.81
424.511	91.81
424.733	105.81
424.956	106.81
425.178	93.81
425.401	97.81
425.623	118.81
425.846	95.81
426.068	81.81
426.291	75.81
426.513	75.81
426.735	93.81
426.958	100.81
427.18	104.81
427.402	123.81
427.625	162.81
427.847	123.81
428.069	114.81
428.292	93.81
428.514	99.81
428.736	85.81
428.958	81.81
429.181	94.81
429.403	71.81
429.625	68.81
429.847	85.81
430.069	97.81
430.292	82.81
430.514	84.81
430.736	78.81
430.958	80.81
431.18	76.81
431.402	97.81
431.624	87.81
431.846	89.81
432.068	92.81
432.29	96.81
432.512	91.81
432.734	85.81
432.956	82.81
433.178	101.81
433.4	97.81
433.622	89.81
433.844	72.81
434.066	97.81
434.287	90.81
434.509	101.81
434.731	83.81
434.953	73.81
435.175	99.81
435.397	73.81
435.618	85.81
435.84	105.81
436.062	101.81
436.284	105.81
436.505	92.81
436.727	88.81
436.949	88.81
437.17	82.81
437.392	93.81
437.614	75.81
437.835	117.81
438.057	115.81
438.278	98.81
438.5	90.81
438.721	124.81
438.943	81.81
439.165	91.81
439.386	93.81
439.608	88.81
439.829	93.81
440.05	107.81
440.272	127.81
440.493	99.81
440.715	72.81
440.936	79.81
441.158	100.81
441.379	78.81
441.6	100.81
441.822	101.81
442.043	76.81
442.264	95.81
442.486	97.81
442.707	89.81
442.928	97.81
443.149	129.81
443.371	120.81
443.592	105.81
443.813	120.81
444.034	103.81
444.255	97.81
444.476	67.81
444.698	88.81
444.919	89.81
445.14	133.81
445.361	124.81
445.582	106.81
445.803	136.81
446.024	132.81
446.245	139.81
446.466	110.81
446.687	65.81
446.908	87.81
447.129	78.81
447.35	98.81
447.571	87.81
447.792	84.81
448.013	91.81
448.234	109.81
448.455	87.81
448.675	104.81
448.896	117.81
449.117	105.81
449.338	113.81
449.559	122.81
449.779	134.81
450	83.81
450.221	86.81
450.442	92.81
450.662	102.81
450.883	109.81
451.104	93.81
451.324	97.81
451.545	92.81
451.766	75.81
451.986	96.81
452.207	89.81
452.428	86.81
452.648	88.81
452.869	101.81
453.089	100.81
453.31	106.81
453.53	93.81
453.751	93.81
453.971	88.81
454.192	107.81
454.412	93.81
454.633	95.81
454.853	76.81
455.073	88.81
455.294	89.81
455.514	82.81
455.734	83.81
455.955	86.81
456.175	89.81
456.395	91.81
456.616	84.81
456.836	90.81
457.056	82.81
457.276	89.81
457.497	93.81
457.717	89.81
457.937	86.81
458.157	76.81
458.377	96.81
458.598	94.81
458.818	142.81
459.038	143.81
459.258	100.81
459.478	92.81
459.698	82.81
459.918	83.81
460.138	82.81
460.358	72.81
460.578	94.81
460.798	83.81
461.018	95.81
461.238	90.81
461.458	76.81
461.678	64.81
461.898	68.81
462.118	85.81
462.338	91.81
462.558	91.81
462.777	100.81
462.997	74.81
463.217	76.81
463.437	96.81
463.657	84.81
463.876	72.81
464.096	90.81
464.316	90.81
464.536	96.81
464.755	90.81
464.975	98.81
465.195	161.81
465.414	162.81
465.634	83.81
465.854	75.81
466.073	90.81
466.293	103.81
466.512	81.81
466.732	64.81
466.951	89.81
467.171	97.81
467.391	69.81
467.61	98.81
467.829	101.81
468.049	106.81
468.268	112.81
468.488	86.81
468.707	91.81
468.927	81.81
469.146	79.81
469.365	88.81
469.585	86.81
469.804	100.81
470.023	95.81
470.243	95.81
470.462	96.81
470.681	100.81
470.901	96.81
471.12	83.81
471.339	85.81
471.558	90.81
471.777	76.81
471.997	98.81
472.216	139.81
472.435	177.81
472.654	105.81
472.873	83.81
473.092	96.81
473.311	95.81
473.53	85.81
473.749	74.81
473.968	97.81
474.187	92.81
474.406	109.81
474.625	77.81
474.844	95.81
475.063	85.81
475.282	89.81
475.501	80.81
475.72	92.81
475.939	99.81
476.158	72.81
476.377	86.81
476.596	98.81
476.814	80.81
477.033	91.81
477.252	94.81
477.471	83.81
477.69	101.81
477.908	84.81
478.127	96.81
478.346	91.81
478.564	99.81
478.783	85.81
479.002	109.81
479.22	102.81
479.439	92.81
479.658	100.81
479.876	90.81
480.095	88.81
480.313	101.81
480.532	97.81
480.751	107.81
480.969	122.81
481.188	251.81
481.406	177.81
481.624	97.81
481.843	101.81
482.061	78.81
482.28	78.81
482.498	78.81
482.717	77.81
482.935	87.81
483.153	96.81
483.372	90.81
483.59	77.81
483.808	77.81
484.027	81.81
484.245	95.81
484.463	89.81
484.681	101.81
484.9	91.81
485.118	98.81
485.336	88.81
485.554	87.81
485.772	96.81
485.99	83.81
486.209	85.81
486.427	98.81
486.645	114.81
486.863	120.81
487.081	99.81
487.299	101.81
487.517	96.81
487.735	92.81
487.953	84.81
488.171	100.81
488.389	96.81
488.607	93.81
488.825	96.81
489.043	94.81
489.261	95.81
489.479	88.81
489.696	89.81
489.914	80.81
490.132	94.81
490.35	92.81
490.568	91.81
490.786	86.81
491.003	89.81
491.221	76.81
491.439	88.81
491.657	91.81
491.874	90.81
492.092	84.81
492.31	91.81
492.527	87.81
492.745	85.81
492.963	87.81
493.18	94.81
493.398	89.81
493.615	102.81
493.833	96.81
494.05	73.81
494.268	80.81
494.485	77.81
494.703	89.81
494.92	80.81
495.138	91.81
495.355	101.81
495.573	77.81
495.79	99.81
496.008	88.81
496.225	80.81
496.442	78.81
496.66	84.81
496.877	77.81
497.094	89.81
497.312	93.81
497.529	92.81
497.746	76.81
497.963	83.81
498.181	90.81
498.398	100.81
498.615	105.81
498.832	97.81
499.049	79.81
499.267	89.81
499.484	91.81
499.701	89.81
499.918	85.81
500.135	81.81
500.352	82.81
500.569	85.81
500.786	85.81
501.003	90.81
501.22	99.81
501.437	93.81
501.654	93.81
501.871	105.81
502.088	77.81
502.305	88.81
502.522	89.81
502.739	92.81
502.956	96.81
503.172	73.81
503.389	88.81
503.606	95.81
503.823	92.81
504.04	82.81
504.256	87.81
504.473	85.81
504.69	83.81
504.907	102.81
505.123	98.81
505.34	94.81
505.557	83.81
505.773	84.81
505.99	92.81
506.207	87.81
506.423	93.81
506.64	91.81
506.856	95.81
507.073	84.81
507.289	98.81
507.506	88.81
507.722	105.81
507.939	124.81
508.155	95.81
508.372	87.81
508.588	77.81
508.805	95.81
509.021	107.81
509.238	104.81
509.454	106.81
509.67	99.81
509.887	100.81
510.103	132.81
510.319	216.81
510.536	760.81
510.752	2493.81
510.968	738.81
511.184	151.81
511.401	122.81
511.617	108.81
511.833	97.81
512.049	94.81
512.265	84.81
512.481	90.81
512.698	102.81
512.914	97.81
513.13	102.81
513.346	96.81
513.562	100.81
513.778	108.81
513.994	96.81
514.21	95.81
514.426	110.81
514.642	122.81
514.858	134.81
515.074	168.81
515.29	437.81
515.506	1478.81
515.721	556.81
515.937	140.81
516.153	110.81
516.369	97.81
