Data from Circ_2012_H10_HRD10591_00071.txt Node
Date: Wed Jan 03 10:06:04 EST 2024
User: Yrep
Spectrometer: HR+D1059
Trigger mode: 1
Integration Time (sec): 1.000000E-1
Scans to average: 1
Electric dark correction enabled: true
Nonlinearity correction enabled: false
Boxcar width: 0
XAxis mode: Wavelengths
Number of Pixels in Spectrum: 2048
>>>>>Begin Spectral Data<<<<<
223.165	-14.88
223.4	-14.88
223.635	-14.88
223.869	-27.88
224.104	-19.88
224.338	-35.88
224.573	-15.88
224.808	-6.88
225.042	-4.88
225.277	-8.88
225.511	-2.88
225.746	3.12
225.98	1.12
226.215	27.12
226.449	33.12
226.683	21.12
226.918	10.12
227.152	42.12
227.387	32.12
227.621	57.12
227.856	38.12
228.09	39.12
228.324	49.12
228.559	53.12
228.793	55.12
229.027	50.12
229.262	87.12
229.496	71.12
229.73	84.12
229.964	84.12
230.199	70.12
230.433	66.12
230.667	82.12
230.901	76.12
231.136	77.12
231.37	66.12
231.604	76.12
231.838	76.12
232.072	91.12
232.306	67.12
232.541	69.12
232.775	83.12
233.009	67.12
233.243	61.12
233.477	89.12
233.711	91.12
233.945	77.12
234.179	66.12
234.413	65.12
234.647	75.12
234.881	74.12
235.115	85.12
235.349	82.12
235.583	87.12
235.817	66.12
236.051	78.12
236.285	85.12
236.519	82.12
236.753	74.12
236.987	77.12
237.221	77.12
237.455	75.12
237.689	62.12
237.922	79.12
238.156	85.12
238.39	68.12
238.624	77.12
238.858	76.12
239.091	78.12
239.325	77.12
239.559	80.12
239.793	65.12
240.027	82.12
240.26	86.12
240.494	58.12
240.728	61.12
240.961	74.12
241.195	72.12
241.429	76.12
241.662	71.12
241.896	69.12
242.13	68.12
242.363	78.12
242.597	75.12
242.83	68.12
243.064	74.12
243.298	71.12
243.531	75.12
243.765	75.12
243.998	74.12
244.232	76.12
244.465	88.12
244.699	66.12
244.932	73.12
245.166	81.12
245.399	74.12
245.633	75.12
245.866	70.12
246.099	69.12
246.333	76.12
246.566	72.12
246.8	71.12
247.033	69.12
247.266	77.12
247.5	77.12
247.733	84.12
247.966	70.12
248.2	85.12
248.433	82.12
248.666	86.12
248.899	80.12
249.133	81.12
249.366	97.12
249.599	97.12
249.832	76.12
250.066	74.12
250.299	70.12
250.532	73.12
250.765	98.12
250.998	71.12
251.231	74.12
251.465	79.12
251.698	73.12
251.931	76.12
252.164	79.12
252.397	72.12
252.63	81.12
252.863	83.12
253.096	78.12
253.329	93.12
253.562	72.12
253.795	71.12
254.028	74.12
254.261	73.12
254.494	87.12
254.727	78.12
254.96	86.12
255.193	89.12
255.426	68.12
255.659	82.12
255.892	82.12
256.124	82.12
256.357	102.12
256.59	72.12
256.823	73.12
257.056	85.12
257.289	75.12
257.521	85.12
257.754	90.12
257.987	71.12
258.22	80.12
258.452	85.12
258.685	81.12
258.918	67.12
259.151	84.12
259.383	76.12
259.616	71.12
259.849	79.12
260.081	73.12
260.314	55.12
260.547	73.12
260.779	78.12
261.012	81.12
261.244	89.12
261.477	82.12
261.71	79.12
261.942	94.12
262.175	102.12
262.407	76.12
262.64	72.12
262.872	87.12
263.105	80.12
263.337	79.12
263.57	81.12
263.802	83.12
264.035	82.12
264.267	82.12
264.499	77.12
264.732	86.12
264.964	70.12
265.197	76.12
265.429	77.12
265.661	89.12
265.894	74.12
266.126	75.12
266.358	90.12
266.591	75.12
266.823	80.12
267.055	97.12
267.287	71.12
267.52	74.12
267.752	86.12
267.984	84.12
268.216	70.12
268.448	85.12
268.681	77.12
268.913	75.12
269.145	80.12
269.377	83.12
269.609	84.12
269.841	85.12
270.073	84.12
270.306	64.12
270.538	90.12
270.77	90.12
271.002	68.12
271.234	91.12
271.466	77.12
271.698	77.12
271.93	76.12
272.162	81.12
272.394	85.12
272.626	82.12
272.858	74.12
273.09	84.12
273.322	80.12
273.553	77.12
273.785	80.12
274.017	85.12
274.249	92.12
274.481	90.12
274.713	84.12
274.945	82.12
275.176	88.12
275.408	77.12
275.64	93.12
275.872	84.12
276.104	84.12
276.335	80.12
276.567	97.12
276.799	108.12
277.031	95.12
277.262	96.12
277.494	82.12
277.726	83.12
277.957	75.12
278.189	78.12
278.421	88.12
278.652	90.12
278.884	67.12
279.115	88.12
279.347	78.12
279.579	61.12
279.81	78.12
280.042	77.12
280.273	75.12
280.505	94.12
280.736	81.12
280.968	87.12
281.199	86.12
281.431	92.12
281.662	82.12
281.894	78.12
282.125	77.12
282.356	108.12
282.588	108.12
282.819	100.12
283.051	95.12
283.282	90.12
283.513	94.12
283.745	73.12
283.976	86.12
284.207	91.12
284.439	91.12
284.67	85.12
284.901	84.12
285.132	90.12
285.364	94.12
285.595	90.12
285.826	87.12
286.057	76.12
286.288	73.12
286.52	74.12
286.751	76.12
286.982	90.12
287.213	83.12
287.444	83.12
287.675	91.12
287.906	92.12
288.138	84.12
288.369	91.12
288.6	90.12
288.831	74.12
289.062	89.12
289.293	82.12
289.524	77.12
289.755	81.12
289.986	64.12
290.217	84.12
290.448	74.12
290.679	89.12
290.91	84.12
291.141	88.12
291.371	92.12
291.602	75.12
291.833	90.12
292.064	87.12
292.295	87.12
292.526	88.12
292.757	101.12
292.987	81.12
293.218	79.12
293.449	79.12
293.68	94.12
293.91	91.12
294.141	88.12
294.372	79.12
294.603	82.12
294.833	90.12
295.064	92.12
295.295	91.12
295.525	84.12
295.756	93.12
295.987	118.12
296.217	136.12
296.448	115.12
296.679	89.12
296.909	87.12
297.14	92.12
297.37	81.12
297.601	96.12
297.831	80.12
298.062	78.12
298.292	97.12
298.523	83.12
298.753	84.12
298.984	80.12
299.214	99.12
299.445	95.12
299.675	78.12
299.905	110.12
300.136	91.12
300.366	80.12
300.597	87.12
300.827	105.12
301.057	106.12
301.288	102.12
301.518	81.12
301.748	87.12
301.979	87.12
302.209	96.12
302.439	83.12
302.669	87.12
302.9	85.12
303.13	84.12
303.36	89.12
303.59	105.12
303.82	115.12
304.051	87.12
304.281	84.12
304.511	78.12
304.741	91.12
304.971	83.12
305.201	94.12
305.431	93.12
305.661	100.12
305.891	81.12
306.121	75.12
306.352	101.12
306.582	104.12
306.812	87.12
307.042	79.12
307.272	85.12
307.502	97.12
307.731	105.12
307.961	87.12
308.191	79.12
308.421	81.12
308.651	86.12
308.881	97.12
309.111	92.12
309.341	90.12
309.571	94.12
309.8	85.12
310.03	94.12
310.26	98.12
310.49	100.12
310.72	82.12
310.949	97.12
311.179	97.12
311.409	86.12
311.639	85.12
311.868	93.12
312.098	85.12
312.328	95.12
312.557	103.12
312.787	100.12
313.017	92.12
313.246	94.12
313.476	85.12
313.706	95.12
313.935	100.12
314.165	105.12
314.394	99.12
314.624	102.12
314.853	91.12
315.083	93.12
315.312	97.12
315.542	90.12
315.771	76.12
316.001	95.12
316.23	87.12
316.46	84.12
316.689	98.12
316.919	93.12
317.148	97.12
317.377	86.12
317.607	87.12
317.836	103.12
318.065	84.12
318.295	73.12
318.524	97.12
318.753	79.12
318.983	91.12
319.212	102.12
319.441	92.12
319.67	87.12
319.9	86.12
320.129	91.12
320.358	97.12
320.587	88.12
320.816	102.12
321.046	105.12
321.275	90.12
321.504	110.12
321.733	94.12
321.962	97.12
322.191	96.12
322.42	96.12
322.649	97.12
322.878	98.12
323.108	95.12
323.337	110.12
323.566	132.12
323.795	147.12
324.024	198.12
324.253	369.12
324.482	781.12
324.71	1535.12
324.939	2078.12
325.168	777.12
325.397	235.12
325.626	126.12
325.855	125.12
326.084	106.12
326.313	108.12
326.542	147.12
326.77	215.12
326.999	453.12
327.228	857.12
327.457	1580.12
327.686	1253.12
327.914	377.12
328.143	205.12
328.372	177.12
328.6	130.12
328.829	125.12
329.058	133.12
329.287	125.12
329.515	120.12
329.744	98.12
329.972	115.12
330.201	151.12
330.43	190.12
330.658	147.12
330.887	138.12
331.115	113.12
331.344	89.12
331.572	96.12
331.801	101.12
332.03	93.12
332.258	106.12
332.486	89.12
332.715	96.12
332.943	95.12
333.172	94.12
333.4	101.12
333.629	95.12
333.857	115.12
334.085	119.12
334.314	142.12
334.542	183.12
334.771	189.12
334.999	126.12
335.227	95.12
335.455	79.12
335.684	82.12
335.912	89.12
336.14	94.12
336.369	97.12
336.597	109.12
336.825	91.12
337.053	104.12
337.281	88.12
337.51	93.12
337.738	103.12
337.966	94.12
338.194	104.12
338.422	102.12
338.65	97.12
338.878	98.12
339.106	89.12
339.334	89.12
339.562	95.12
339.79	89.12
340.018	83.12
340.246	91.12
340.474	88.12
340.702	97.12
340.93	85.12
341.158	101.12
341.386	97.12
341.614	86.12
341.842	94.12
342.07	91.12
342.298	89.12
342.526	67.12
342.754	88.12
342.981	95.12
343.209	95.12
343.437	93.12
343.665	94.12
343.893	83.12
344.12	87.12
344.348	83.12
344.576	83.12
344.804	86.12
345.031	81.12
345.259	96.12
345.487	101.12
345.714	101.12
345.942	97.12
346.17	86.12
346.397	76.12
346.625	78.12
346.853	98.12
347.08	80.12
347.308	114.12
347.535	90.12
347.763	94.12
347.99	93.12
348.218	98.12
348.445	98.12
348.673	90.12
348.9	87.12
349.128	90.12
349.355	92.12
349.583	105.12
349.81	96.12
350.037	93.12
350.265	100.12
350.492	98.12
350.72	82.12
350.947	91.12
351.174	98.12
351.402	104.12
351.629	95.12
351.856	103.12
352.083	97.12
352.311	98.12
352.538	118.12
352.765	103.12
352.992	107.12
353.22	111.12
353.447	104.12
353.674	100.12
353.901	88.12
354.128	92.12
354.355	90.12
354.583	94.12
354.81	87.12
355.037	89.12
355.264	86.12
355.491	93.12
355.718	111.12
355.945	105.12
356.172	96.12
356.399	98.12
356.626	89.12
356.853	102.12
357.08	95.12
357.307	96.12
357.534	92.12
357.761	101.12
357.988	85.12
358.215	89.12
358.441	95.12
358.668	80.12
358.895	90.12
359.122	82.12
359.349	83.12
359.576	94.12
359.802	95.12
360.029	101.12
360.256	101.12
360.483	87.12
360.709	95.12
360.936	94.12
361.163	93.12
361.39	92.12
361.616	94.12
361.843	78.12
362.07	79.12
362.296	95.12
362.523	92.12
362.749	93.12
362.976	94.12
363.203	100.12
363.429	86.12
363.656	104.12
363.882	96.12
364.109	113.12
364.335	91.12
364.562	76.12
364.788	91.12
365.015	85.12
365.241	95.12
365.468	94.12
365.694	105.12
365.92	90.12
366.147	92.12
366.373	82.12
366.599	82.12
366.826	89.12
367.052	80.12
367.278	81.12
367.505	91.12
367.731	97.12
367.957	87.12
368.184	92.12
368.41	92.12
368.636	108.12
368.862	110.12
369.089	102.12
369.315	100.12
369.541	90.12
369.767	96.12
369.993	83.12
370.219	78.12
370.445	77.12
370.672	82.12
370.898	82.12
371.124	90.12
371.35	89.12
371.576	93.12
371.802	80.12
372.028	87.12
372.254	93.12
372.48	86.12
372.706	86.12
372.932	91.12
373.158	85.12
373.384	88.12
373.61	82.12
373.835	83.12
374.061	96.12
374.287	94.12
374.513	70.12
374.739	63.12
374.965	97.12
375.191	83.12
375.416	95.12
375.642	88.12
375.868	83.12
376.094	76.12
376.319	79.12
376.545	89.12
376.771	91.12
376.997	93.12
377.222	97.12
377.448	76.12
377.674	81.12
377.899	72.12
378.125	87.12
378.35	88.12
378.576	86.12
378.802	83.12
379.027	90.12
379.253	96.12
379.478	94.12
379.704	101.12
379.929	86.12
380.155	79.12
380.38	86.12
380.606	101.12
380.831	82.12
381.057	98.12
381.282	89.12
381.507	101.12
381.733	97.12
381.958	88.12
382.184	106.12
382.409	107.12
382.634	102.12
382.86	114.12
383.085	88.12
383.31	101.12
383.535	104.12
383.761	92.12
383.986	100.12
384.211	102.12
384.436	94.12
384.662	98.12
384.887	98.12
385.112	106.12
385.337	106.12
385.562	90.12
385.787	94.12
386.013	96.12
386.238	111.12
386.463	93.12
386.688	93.12
386.913	105.12
387.138	102.12
387.363	107.12
387.588	106.12
387.813	85.12
388.038	101.12
388.263	99.12
388.488	91.12
388.713	100.12
388.938	98.12
389.163	98.12
389.387	85.12
389.612	91.12
389.837	90.12
390.062	90.12
390.287	82.12
390.512	88.12
390.736	83.12
390.961	88.12
391.186	74.12
391.411	93.12
391.636	100.12
391.86	92.12
392.085	87.12
392.31	79.12
392.534	76.12
392.759	79.12
392.984	81.12
393.208	95.12
393.433	89.12
393.658	99.12
393.882	82.12
394.107	83.12
394.331	97.12
394.556	92.12
394.78	85.12
395.005	92.12
395.229	87.12
395.454	99.12
395.678	91.12
395.903	90.12
396.127	94.12
396.352	94.12
396.576	77.12
396.801	71.12
397.025	92.12
397.249	90.12
397.474	74.12
397.698	76.12
397.922	98.12
398.147	90.12
398.371	88.12
398.595	98.12
398.82	76.12
399.044	89.12
399.268	83.12
399.492	67.12
399.717	93.12
399.941	85.12
400.165	92.12
400.389	82.12
400.613	88.12
400.837	86.12
401.062	72.12
401.286	83.12
401.51	77.12
401.734	87.12
401.958	101.12
402.182	107.12
402.406	149.12
402.63	124.12
402.854	93.12
403.078	86.12
403.302	102.12
403.526	71.12
403.75	94.12
403.974	95.12
404.198	79.12
404.422	87.12
404.645	83.12
404.869	85.12
405.093	94.12
405.317	105.12
405.541	97.12
405.765	101.12
405.988	107.12
406.212	174.12
406.436	221.12
406.66	147.12
406.883	111.12
407.107	98.12
407.331	93.12
407.555	102.12
407.778	94.12
408.002	87.12
408.226	83.12
408.449	74.12
408.673	78.12
408.896	97.12
409.12	95.12
409.344	81.12
409.567	94.12
409.791	85.12
410.014	81.12
410.238	77.12
410.461	82.12
410.685	91.12
410.908	87.12
411.132	100.12
411.355	92.12
411.578	94.12
411.802	99.12
412.025	89.12
412.249	88.12
412.472	107.12
412.695	106.12
412.919	90.12
413.142	91.12
413.365	92.12
413.589	90.12
413.812	91.12
414.035	92.12
414.258	108.12
414.482	86.12
414.705	69.12
414.928	92.12
415.151	81.12
415.374	86.12
415.597	73.12
415.821	91.12
416.044	81.12
416.267	79.12
416.49	84.12
416.713	98.12
416.936	83.12
417.159	77.12
417.382	90.12
417.605	108.12
417.828	78.12
418.051	91.12
418.274	78.12
418.497	90.12
418.72	78.12
418.943	95.12
419.166	85.12
419.389	80.12
419.611	79.12
419.834	79.12
420.057	88.12
420.28	80.12
420.503	75.12
420.726	78.12
420.948	87.12
421.171	81.12
421.394	94.12
421.617	87.12
421.839	100.12
422.062	84.12
422.285	87.12
422.507	95.12
422.73	95.12
422.953	80.12
423.175	82.12
423.398	93.12
423.621	82.12
423.843	72.12
424.066	80.12
424.288	86.12
424.511	88.12
424.733	107.12
424.956	105.12
425.178	87.12
425.401	100.12
425.623	102.12
425.846	81.12
426.068	86.12
426.291	75.12
426.513	79.12
426.735	79.12
426.958	84.12
427.18	104.12
427.402	134.12
427.625	166.12
427.847	147.12
428.069	133.12
428.292	78.12
428.514	85.12
428.736	81.12
428.958	69.12
429.181	84.12
429.403	100.12
429.625	92.12
429.847	87.12
430.069	96.12
430.292	85.12
430.514	85.12
430.736	92.12
430.958	99.12
431.18	85.12
431.402	95.12
431.624	84.12
431.846	104.12
432.068	90.12
432.29	79.12
432.512	78.12
432.734	76.12
432.956	93.12
433.178	98.12
433.4	103.12
433.622	83.12
433.844	94.12
434.066	101.12
434.287	99.12
434.509	80.12
434.731	85.12
434.953	92.12
435.175	80.12
435.397	83.12
435.618	89.12
435.84	101.12
436.062	100.12
436.284	103.12
436.505	97.12
436.727	90.12
436.949	86.12
437.17	87.12
437.392	93.12
437.614	89.12
437.835	91.12
438.057	108.12
438.278	109.12
438.5	99.12
438.721	119.12
438.943	104.12
439.165	85.12
439.386	93.12
439.608	84.12
439.829	90.12
440.05	128.12
440.272	122.12
440.493	100.12
440.715	81.12
440.936	79.12
441.158	99.12
441.379	82.12
441.6	94.12
441.822	75.12
442.043	100.12
442.264	87.12
442.486	91.12
442.707	96.12
442.928	100.12
443.149	115.12
443.371	115.12
443.592	98.12
443.813	104.12
444.034	115.12
444.255	90.12
444.476	91.12
444.698	79.12
444.919	88.12
445.14	126.12
445.361	121.12
445.582	106.12
445.803	121.12
446.024	129.12
446.245	142.12
446.466	106.12
446.687	95.12
446.908	90.12
447.129	83.12
447.35	78.12
447.571	90.12
447.792	80.12
448.013	88.12
448.234	101.12
448.455	110.12
448.675	106.12
448.896	110.12
449.117	99.12
449.338	96.12
449.559	126.12
449.779	111.12
450	105.12
450.221	84.12
450.442	84.12
450.662	83.12
450.883	83.12
451.104	118.12
451.324	93.12
451.545	90.12
451.766	97.12
451.986	82.12
452.207	98.12
452.428	95.12
452.648	81.12
452.869	98.12
453.089	110.12
453.31	113.12
453.53	83.12
453.751	92.12
453.971	86.12
454.192	95.12
454.412	79.12
454.633	78.12
454.853	75.12
455.073	93.12
455.294	82.12
455.514	93.12
455.734	79.12
455.955	89.12
456.175	85.12
456.395	72.12
456.616	78.12
456.836	70.12
457.056	79.12
457.276	87.12
457.497	86.12
457.717	92.12
457.937	97.12
458.157	90.12
458.377	86.12
458.598	101.12
458.818	139.12
459.038	164.12
459.258	115.12
459.478	95.12
459.698	101.12
459.918	96.12
460.138	74.12
460.358	89.12
460.578	79.12
460.798	98.12
461.018	86.12
461.238	83.12
461.458	90.12
461.678	80.12
461.898	77.12
462.118	76.12
462.338	79.12
462.558	84.12
462.777	77.12
462.997	88.12
463.217	78.12
463.437	85.12
463.657	83.12
463.876	90.12
464.096	92.12
464.316	78.12
464.536	103.12
464.755	87.12
464.975	110.12
465.195	155.12
465.414	137.12
465.634	94.12
465.854	88.12
466.073	81.12
466.293	87.12
466.512	75.12
466.732	84.12
466.951	78.12
467.171	98.12
467.391	97.12
467.61	112.12
467.829	99.12
468.049	106.12
468.268	126.12
468.488	92.12
468.707	98.12
468.927	97.12
469.146	82.12
469.365	92.12
469.585	84.12
469.804	90.12
470.023	86.12
470.243	85.12
470.462	98.12
470.681	103.12
470.901	87.12
471.12	94.12
471.339	88.12
471.558	81.12
471.777	65.12
471.997	93.12
472.216	145.12
472.435	207.12
472.654	107.12
472.873	91.12
473.092	81.12
473.311	82.12
473.53	91.12
473.749	91.12
473.968	92.12
474.187	89.12
474.406	91.12
474.625	85.12
474.844	71.12
475.063	82.12
475.282	79.12
475.501	90.12
475.72	97.12
475.939	81.12
476.158	95.12
476.377	77.12
476.596	87.12
476.814	103.12
477.033	79.12
477.252	90.12
477.471	77.12
477.69	85.12
477.908	82.12
478.127	91.12
478.346	84.12
478.564	89.12
478.783	83.12
479.002	89.12
479.22	90.12
479.439	93.12
479.658	96.12
479.876	88.12
480.095	93.12
480.313	91.12
480.532	77.12
480.751	99.12
480.969	147.12
481.188	329.12
481.406	246.12
481.624	117.12
481.843	93.12
482.061	86.12
482.28	94.12
482.498	94.12
482.717	90.12
482.935	104.12
483.153	90.12
483.372	86.12
483.59	84.12
483.808	83.12
484.027	83.12
484.245	91.12
484.463	77.12
484.681	90.12
484.9	87.12
485.118	84.12
485.336	92.12
485.554	82.12
485.772	103.12
485.99	101.12
486.209	90.12
486.427	103.12
486.645	105.12
486.863	92.12
487.081	101.12
487.299	94.12
487.517	79.12
487.735	83.12
487.953	89.12
488.171	85.12
488.389	92.12
488.607	82.12
488.825	76.12
489.043	90.12
489.261	96.12
489.479	92.12
489.696	88.12
489.914	100.12
490.132	83.12
490.35	92.12
490.568	79.12
490.786	94.12
491.003	91.12
491.221	99.12
491.439	86.12
491.657	106.12
491.874	82.12
492.092	91.12
492.31	93.12
492.527	89.12
492.745	99.12
492.963	88.12
493.18	107.12
493.398	97.12
493.615	85.12
493.833	84.12
494.05	77.12
494.268	87.12
494.485	78.12
494.703	95.12
494.92	86.12
495.138	89.12
495.355	86.12
495.573	94.12
495.79	89.12
496.008	92.12
496.225	84.12
496.442	86.12
496.66	93.12
496.877	103.12
497.094	86.12
497.312	82.12
497.529	93.12
497.746	101.12
497.963	91.12
498.181	85.12
498.398	86.12
498.615	96.12
498.832	100.12
499.049	85.12
499.267	94.12
499.484	79.12
499.701	88.12
499.918	67.12
500.135	91.12
500.352	100.12
500.569	87.12
500.786	76.12
501.003	91.12
501.22	86.12
501.437	88.12
501.654	94.12
501.871	98.12
502.088	96.12
502.305	80.12
502.522	75.12
502.739	84.12
502.956	85.12
503.172	82.12
503.389	101.12
503.606	105.12
503.823	82.12
504.04	91.12
504.256	80.12
504.473	91.12
504.69	89.12
504.907	98.12
505.123	82.12
505.34	92.12
505.557	83.12
505.773	85.12
505.99	82.12
506.207	93.12
506.423	90.12
506.64	80.12
506.856	73.12
507.073	81.12
507.289	83.12
507.506	82.12
507.722	101.12
507.939	107.12
508.155	96.12
508.372	82.12
508.588	100.12
508.805	89.12
509.021	93.12
509.238	100.12
509.454	91.12
509.67	94.12
509.887	94.12
510.103	122.12
510.319	212.12
510.536	733.12
510.752	2387.12
510.968	695.12
511.184	157.12
511.401	102.12
511.617	102.12
511.833	92.12
512.049	99.12
512.265	87.12
512.481	79.12
512.698	78.12
512.914	76.12
513.13	84.12
513.346	79.12
513.562	100.12
513.778	102.12
513.994	98.12
514.21	101.12
514.426	118.12
514.642	130.12
514.858	132.12
515.074	150.12
515.29	421.12
515.506	1436.12
515.721	548.12
515.937	158.12
516.153	105.12
516.369	85.12
516.585	99.12
