Data from Circ_2012_H10_HRD10591_00041.txt Node
Date: Wed Jan 03 10:05:58 EST 2024
User: Yrep
Spectrometer: HR+D1059
Trigger mode: 1
Integration Time (sec): 1.000000E-1
Scans to average: 1
Electric dark correction enabled: true
Nonlinearity correction enabled: false
Boxcar width: 0
XAxis mode: Wavelengths
Number of Pixels in Spectrum: 2048
>>>>>Begin Spectral Data<<<<<
223.165	-15.38
223.4	-15.38
223.635	-15.38
223.869	-17.38
224.104	-24.38
224.338	-14.38
224.573	-20.38
224.808	1.62
225.042	-15.38
225.277	-9.38
225.511	1.62
225.746	6.62
225.98	3.62
226.215	2.62
226.449	10.62
226.683	13.62
226.918	39.62
227.152	36.62
227.387	30.62
227.621	46.62
227.856	41.62
228.09	35.62
228.324	34.62
228.559	43.62
228.793	66.62
229.027	64.62
229.262	62.62
229.496	51.62
229.73	66.62
229.964	72.62
230.199	76.62
230.433	86.62
230.667	83.62
230.901	75.62
231.136	84.62
231.37	74.62
231.604	69.62
231.838	82.62
232.072	74.62
232.306	73.62
232.541	77.62
232.775	78.62
233.009	91.62
233.243	74.62
233.477	81.62
233.711	81.62
233.945	67.62
234.179	83.62
234.413	71.62
234.647	62.62
234.881	70.62
235.115	71.62
235.349	96.62
235.583	84.62
235.817	82.62
236.051	82.62
236.285	72.62
236.519	62.62
236.753	66.62
236.987	95.62
237.221	76.62
237.455	77.62
237.689	68.62
237.922	79.62
238.156	76.62
238.39	90.62
238.624	82.62
238.858	74.62
239.091	82.62
239.325	72.62
239.559	62.62
239.793	70.62
240.027	59.62
240.26	79.62
240.494	82.62
240.728	63.62
240.961	80.62
241.195	64.62
241.429	71.62
241.662	64.62
241.896	65.62
242.13	71.62
242.363	61.62
242.597	90.62
242.83	64.62
243.064	82.62
243.298	68.62
243.531	67.62
243.765	71.62
243.998	76.62
244.232	70.62
244.465	75.62
244.699	86.62
244.932	88.62
245.166	76.62
245.399	69.62
245.633	70.62
245.866	73.62
246.099	76.62
246.333	67.62
246.566	73.62
246.8	77.62
247.033	84.62
247.266	85.62
247.5	71.62
247.733	70.62
247.966	76.62
248.2	75.62
248.433	72.62
248.666	76.62
248.899	81.62
249.133	75.62
249.366	95.62
249.599	86.62
249.832	76.62
250.066	94.62
250.299	76.62
250.532	79.62
250.765	83.62
250.998	71.62
251.231	86.62
251.465	87.62
251.698	73.62
251.931	79.62
252.164	86.62
252.397	67.62
252.63	71.62
252.863	71.62
253.096	67.62
253.329	75.62
253.562	89.62
253.795	69.62
254.028	69.62
254.261	76.62
254.494	75.62
254.727	85.62
254.96	99.62
255.193	84.62
255.426	78.62
255.659	89.62
255.892	90.62
256.124	84.62
256.357	65.62
256.59	79.62
256.823	77.62
257.056	74.62
257.289	80.62
257.521	68.62
257.754	78.62
257.987	80.62
258.22	73.62
258.452	68.62
258.685	62.62
258.918	88.62
259.151	76.62
259.383	72.62
259.616	78.62
259.849	69.62
260.081	83.62
260.314	79.62
260.547	79.62
260.779	83.62
261.012	76.62
261.244	79.62
261.477	82.62
261.71	95.62
261.942	112.62
262.175	111.62
262.407	92.62
262.64	68.62
262.872	82.62
263.105	66.62
263.337	80.62
263.57	86.62
263.802	92.62
264.035	80.62
264.267	84.62
264.499	81.62
264.732	80.62
264.964	71.62
265.197	91.62
265.429	80.62
265.661	82.62
265.894	74.62
266.126	73.62
266.358	76.62
266.591	72.62
266.823	95.62
267.055	86.62
267.287	66.62
267.52	93.62
267.752	82.62
267.984	84.62
268.216	81.62
268.448	87.62
268.681	70.62
268.913	73.62
269.145	74.62
269.377	91.62
269.609	71.62
269.841	79.62
270.073	73.62
270.306	77.62
270.538	82.62
270.77	75.62
271.002	65.62
271.234	62.62
271.466	69.62
271.698	77.62
271.93	74.62
272.162	84.62
272.394	76.62
272.626	77.62
272.858	86.62
273.09	86.62
273.322	85.62
273.553	82.62
273.785	91.62
274.017	80.62
274.249	78.62
274.481	75.62
274.713	80.62
274.945	80.62
275.176	79.62
275.408	88.62
275.64	66.62
275.872	81.62
276.104	85.62
276.335	83.62
276.567	91.62
276.799	105.62
277.031	89.62
277.262	87.62
277.494	71.62
277.726	85.62
277.957	77.62
278.189	76.62
278.421	94.62
278.652	94.62
278.884	85.62
279.115	80.62
279.347	77.62
279.579	70.62
279.81	79.62
280.042	91.62
280.273	87.62
280.505	93.62
280.736	77.62
280.968	79.62
281.199	83.62
281.431	84.62
281.662	76.62
281.894	83.62
282.125	89.62
282.356	131.62
282.588	139.62
282.819	117.62
283.051	94.62
283.282	93.62
283.513	87.62
283.745	95.62
283.976	86.62
284.207	70.62
284.439	76.62
284.67	93.62
284.901	87.62
285.132	94.62
285.364	70.62
285.595	78.62
285.826	83.62
286.057	101.62
286.288	76.62
286.52	73.62
286.751	80.62
286.982	79.62
287.213	79.62
287.444	70.62
287.675	70.62
287.906	92.62
288.138	77.62
288.369	89.62
288.6	101.62
288.831	94.62
289.062	83.62
289.293	63.62
289.524	82.62
289.755	67.62
289.986	97.62
290.217	83.62
290.448	92.62
290.679	101.62
290.91	72.62
291.141	74.62
291.371	81.62
291.602	82.62
291.833	76.62
292.064	81.62
292.295	89.62
292.526	81.62
292.757	86.62
292.987	82.62
293.218	80.62
293.449	77.62
293.68	80.62
293.91	78.62
294.141	99.62
294.372	83.62
294.603	83.62
294.833	92.62
295.064	83.62
295.295	78.62
295.525	85.62
295.756	98.62
295.987	104.62
296.217	108.62
296.448	122.62
296.679	94.62
296.909	100.62
297.14	75.62
297.37	94.62
297.601	72.62
297.831	87.62
298.062	96.62
298.292	80.62
298.523	88.62
298.753	95.62
298.984	85.62
299.214	82.62
299.445	91.62
299.675	96.62
299.905	94.62
300.136	94.62
300.366	90.62
300.597	88.62
300.827	84.62
301.057	97.62
301.288	111.62
301.518	87.62
301.748	94.62
301.979	97.62
302.209	99.62
302.439	83.62
302.669	91.62
302.9	83.62
303.13	87.62
303.36	108.62
303.59	97.62
303.82	89.62
304.051	95.62
304.281	84.62
304.511	89.62
304.741	76.62
304.971	86.62
305.201	88.62
305.431	80.62
305.661	98.62
305.891	94.62
306.121	94.62
306.352	92.62
306.582	99.62
306.812	90.62
307.042	87.62
307.272	94.62
307.502	90.62
307.731	98.62
307.961	83.62
308.191	82.62
308.421	87.62
308.651	99.62
308.881	105.62
309.111	98.62
309.341	102.62
309.571	98.62
309.8	90.62
310.03	100.62
310.26	99.62
310.49	108.62
310.72	85.62
310.949	92.62
311.179	106.62
311.409	92.62
311.639	88.62
311.868	93.62
312.098	88.62
312.328	88.62
312.557	95.62
312.787	107.62
313.017	78.62
313.246	86.62
313.476	89.62
313.706	78.62
313.935	81.62
314.165	83.62
314.394	99.62
314.624	89.62
314.853	94.62
315.083	82.62
315.312	80.62
315.542	86.62
315.771	82.62
316.001	86.62
316.23	106.62
316.46	79.62
316.689	89.62
316.919	90.62
317.148	87.62
317.377	81.62
317.607	97.62
317.836	86.62
318.065	83.62
318.295	80.62
318.524	79.62
318.753	87.62
318.983	97.62
319.212	89.62
319.441	99.62
319.67	104.62
319.9	105.62
320.129	89.62
320.358	106.62
320.587	101.62
320.816	101.62
321.046	95.62
321.275	96.62
321.504	90.62
321.733	81.62
321.962	96.62
322.191	91.62
322.42	90.62
322.649	98.62
322.878	99.62
323.108	115.62
323.337	126.62
323.566	130.62
323.795	143.62
324.024	195.62
324.253	375.62
324.482	783.62
324.71	1613.62
324.939	2144.62
325.168	806.62
325.397	225.62
325.626	151.62
325.855	131.62
326.084	129.62
326.313	148.62
326.542	163.62
326.77	233.62
326.999	455.62
327.228	918.62
327.457	1669.62
327.686	1296.62
327.914	358.62
328.143	200.62
328.372	140.62
328.6	119.62
328.829	104.62
329.058	113.62
329.287	124.62
329.515	107.62
329.744	104.62
329.972	101.62
330.201	133.62
330.43	136.62
330.658	122.62
330.887	139.62
331.115	118.62
331.344	94.62
331.572	93.62
331.801	100.62
332.03	86.62
332.258	103.62
332.486	89.62
332.715	95.62
332.943	88.62
333.172	100.62
333.4	98.62
333.629	102.62
333.857	114.62
334.085	98.62
334.314	116.62
334.542	127.62
334.771	124.62
334.999	97.62
335.227	84.62
335.455	104.62
335.684	93.62
335.912	97.62
336.14	97.62
336.369	101.62
336.597	104.62
336.825	99.62
337.053	87.62
337.281	88.62
337.51	88.62
337.738	78.62
337.966	87.62
338.194	99.62
338.422	95.62
338.65	100.62
338.878	80.62
339.106	82.62
339.334	87.62
339.562	93.62
339.79	92.62
340.018	73.62
340.246	75.62
340.474	85.62
340.702	97.62
340.93	97.62
341.158	94.62
341.386	87.62
341.614	97.62
341.842	90.62
342.07	88.62
342.298	73.62
342.526	84.62
342.754	78.62
342.981	88.62
343.209	85.62
343.437	100.62
343.665	89.62
343.893	101.62
344.12	99.62
344.348	88.62
344.576	77.62
344.804	93.62
345.031	90.62
345.259	97.62
345.487	86.62
345.714	90.62
345.942	93.62
346.17	87.62
346.397	83.62
346.625	95.62
346.853	89.62
347.08	87.62
347.308	102.62
347.535	91.62
347.763	119.62
347.99	96.62
348.218	88.62
348.445	100.62
348.673	91.62
348.9	80.62
349.128	94.62
349.355	88.62
349.583	93.62
349.81	96.62
350.037	86.62
350.265	77.62
350.492	76.62
350.72	94.62
350.947	97.62
351.174	107.62
351.402	110.62
351.629	86.62
351.856	85.62
352.083	80.62
352.311	98.62
352.538	127.62
352.765	97.62
352.992	114.62
353.22	101.62
353.447	96.62
353.674	89.62
353.901	91.62
354.128	88.62
354.355	81.62
354.583	99.62
354.81	85.62
355.037	95.62
355.264	101.62
355.491	95.62
355.718	96.62
355.945	91.62
356.172	91.62
356.399	89.62
356.626	88.62
356.853	90.62
357.08	80.62
357.307	81.62
357.534	112.62
357.761	93.62
357.988	89.62
358.215	86.62
358.441	86.62
358.668	90.62
358.895	76.62
359.122	99.62
359.349	86.62
359.576	95.62
359.802	99.62
360.029	103.62
360.256	98.62
360.483	84.62
360.709	75.62
360.936	83.62
361.163	88.62
361.39	79.62
361.616	79.62
361.843	73.62
362.07	92.62
362.296	91.62
362.523	95.62
362.749	89.62
362.976	81.62
363.203	82.62
363.429	101.62
363.656	99.62
363.882	83.62
364.109	75.62
364.335	84.62
364.562	99.62
364.788	89.62
365.015	110.62
365.241	96.62
365.468	101.62
365.694	99.62
365.92	95.62
366.147	96.62
366.373	82.62
366.599	82.62
366.826	88.62
367.052	87.62
367.278	74.62
367.505	86.62
367.731	105.62
367.957	91.62
368.184	84.62
368.41	97.62
368.636	105.62
368.862	116.62
369.089	98.62
369.315	88.62
369.541	86.62
369.767	90.62
369.993	95.62
370.219	72.62
370.445	86.62
370.672	82.62
370.898	84.62
371.124	72.62
371.35	83.62
371.576	80.62
371.802	78.62
372.028	87.62
372.254	80.62
372.48	81.62
372.706	91.62
372.932	98.62
373.158	85.62
373.384	81.62
373.61	90.62
373.835	79.62
374.061	62.62
374.287	84.62
374.513	78.62
374.739	95.62
374.965	92.62
375.191	73.62
375.416	75.62
375.642	83.62
375.868	87.62
376.094	91.62
376.319	81.62
376.545	87.62
376.771	74.62
376.997	92.62
377.222	79.62
377.448	96.62
377.674	94.62
377.899	84.62
378.125	88.62
378.35	88.62
378.576	100.62
378.802	93.62
379.027	85.62
379.253	81.62
379.478	97.62
379.704	73.62
379.929	79.62
380.155	86.62
380.38	85.62
380.606	102.62
380.831	96.62
381.057	102.62
381.282	90.62
381.507	93.62
381.733	98.62
381.958	91.62
382.184	90.62
382.409	98.62
382.634	96.62
382.86	107.62
383.085	113.62
383.31	93.62
383.535	91.62
383.761	98.62
383.986	102.62
384.211	82.62
384.436	106.62
384.662	97.62
384.887	86.62
385.112	88.62
385.337	101.62
385.562	93.62
385.787	110.62
386.013	94.62
386.238	115.62
386.463	106.62
386.688	114.62
386.913	86.62
387.138	104.62
387.363	102.62
387.588	86.62
387.813	93.62
388.038	91.62
388.263	98.62
388.488	103.62
388.713	90.62
388.938	107.62
389.163	72.62
389.387	87.62
389.612	95.62
389.837	89.62
390.062	93.62
390.287	104.62
390.512	84.62
390.736	84.62
390.961	86.62
391.186	87.62
391.411	104.62
391.636	97.62
391.86	81.62
392.085	78.62
392.31	75.62
392.534	84.62
392.759	91.62
392.984	91.62
393.208	73.62
393.433	90.62
393.658	93.62
393.882	100.62
394.107	89.62
394.331	88.62
394.556	95.62
394.78	74.62
395.005	78.62
395.229	86.62
395.454	84.62
395.678	84.62
395.903	99.62
396.127	90.62
396.352	88.62
396.576	79.62
396.801	92.62
397.025	89.62
397.249	78.62
397.474	98.62
397.698	115.62
397.922	84.62
398.147	86.62
398.371	89.62
398.595	80.62
398.82	81.62
399.044	80.62
399.268	72.62
399.492	88.62
399.717	89.62
399.941	86.62
400.165	72.62
400.389	78.62
400.613	80.62
400.837	89.62
401.062	89.62
401.286	91.62
401.51	75.62
401.734	88.62
401.958	116.62
402.182	108.62
402.406	162.62
402.63	117.62
402.854	88.62
403.078	83.62
403.302	87.62
403.526	84.62
403.75	86.62
403.974	94.62
404.198	101.62
404.422	77.62
404.645	87.62
404.869	83.62
405.093	99.62
405.317	88.62
405.541	87.62
405.765	104.62
405.988	118.62
406.212	169.62
406.436	219.62
406.66	132.62
406.883	99.62
407.107	92.62
407.331	84.62
407.555	121.62
407.778	88.62
408.002	95.62
408.226	90.62
408.449	89.62
408.673	90.62
408.896	100.62
409.12	88.62
409.344	91.62
409.567	78.62
409.791	90.62
410.014	96.62
410.238	91.62
410.461	100.62
410.685	97.62
410.908	102.62
411.132	99.62
411.355	95.62
411.578	98.62
411.802	88.62
412.025	89.62
412.249	83.62
412.472	96.62
412.695	83.62
412.919	91.62
413.142	82.62
413.365	85.62
413.589	83.62
413.812	86.62
414.035	76.62
414.258	81.62
414.482	73.62
414.705	82.62
414.928	91.62
415.151	80.62
415.374	88.62
415.597	91.62
415.821	86.62
416.044	83.62
416.267	89.62
416.49	97.62
416.713	88.62
416.936	94.62
417.159	83.62
417.382	98.62
417.605	85.62
417.828	81.62
418.051	84.62
418.274	100.62
418.497	72.62
418.72	90.62
418.943	83.62
419.166	89.62
419.389	86.62
419.611	76.62
419.834	81.62
420.057	75.62
420.28	79.62
420.503	77.62
420.726	88.62
420.948	88.62
421.171	88.62
421.394	94.62
421.617	82.62
421.839	94.62
422.062	87.62
422.285	88.62
422.507	89.62
422.73	98.62
422.953	92.62
423.175	89.62
423.398	91.62
423.621	88.62
423.843	84.62
424.066	77.62
424.288	94.62
424.511	82.62
424.733	86.62
424.956	84.62
425.178	88.62
425.401	89.62
425.623	96.62
425.846	104.62
426.068	90.62
426.291	76.62
426.513	81.62
426.735	90.62
426.958	85.62
427.18	108.62
427.402	127.62
427.625	149.62
427.847	117.62
428.069	92.62
428.292	84.62
428.514	80.62
428.736	76.62
428.958	76.62
429.181	83.62
429.403	71.62
429.625	84.62
429.847	92.62
430.069	91.62
430.292	76.62
430.514	81.62
430.736	91.62
430.958	84.62
431.18	82.62
431.402	81.62
431.624	75.62
431.846	75.62
432.068	84.62
432.29	78.62
432.512	89.62
432.734	90.62
432.956	84.62
433.178	87.62
433.4	87.62
433.622	80.62
433.844	86.62
434.066	86.62
434.287	80.62
434.509	92.62
434.731	87.62
434.953	84.62
435.175	75.62
435.397	89.62
435.618	82.62
435.84	98.62
436.062	104.62
436.284	105.62
436.505	114.62
436.727	98.62
436.949	101.62
437.17	92.62
437.392	77.62
437.614	82.62
437.835	95.62
438.057	117.62
438.278	99.62
438.5	87.62
438.721	107.62
438.943	109.62
439.165	81.62
439.386	90.62
439.608	100.62
439.829	88.62
440.05	124.62
440.272	138.62
440.493	94.62
440.715	79.62
440.936	88.62
441.158	86.62
441.379	90.62
441.6	82.62
441.822	79.62
442.043	95.62
442.264	96.62
442.486	86.62
442.707	89.62
442.928	106.62
443.149	120.62
443.371	119.62
443.592	105.62
443.813	100.62
444.034	102.62
444.255	96.62
444.476	97.62
444.698	87.62
444.919	94.62
445.14	129.62
445.361	120.62
445.582	116.62
445.803	136.62
446.024	135.62
446.245	130.62
446.466	108.62
446.687	76.62
446.908	69.62
447.129	75.62
447.35	74.62
447.571	88.62
447.792	102.62
448.013	93.62
448.234	100.62
448.455	91.62
448.675	98.62
448.896	116.62
449.117	97.62
449.338	116.62
449.559	103.62
449.779	119.62
450	99.62
450.221	77.62
450.442	80.62
450.662	88.62
450.883	103.62
451.104	98.62
451.324	90.62
451.545	89.62
451.766	87.62
451.986	80.62
452.207	91.62
452.428	100.62
452.648	93.62
452.869	114.62
453.089	106.62
453.31	98.62
453.53	75.62
453.751	91.62
453.971	99.62
454.192	111.62
454.412	80.62
454.633	97.62
454.853	84.62
455.073	76.62
455.294	87.62
455.514	94.62
455.734	91.62
455.955	76.62
456.175	65.62
456.395	78.62
456.616	79.62
456.836	88.62
457.056	85.62
457.276	101.62
457.497	85.62
457.717	90.62
457.937	82.62
458.157	97.62
458.377	83.62
458.598	107.62
458.818	146.62
459.038	145.62
459.258	95.62
459.478	86.62
459.698	96.62
459.918	89.62
460.138	88.62
460.358	83.62
460.578	88.62
460.798	94.62
461.018	87.62
461.238	91.62
461.458	87.62
461.678	91.62
461.898	78.62
462.118	92.62
462.338	84.62
462.558	95.62
462.777	81.62
462.997	71.62
463.217	70.62
463.437	76.62
463.657	75.62
463.876	87.62
464.096	98.62
464.316	74.62
464.536	92.62
464.755	94.62
464.975	113.62
465.195	145.62
465.414	145.62
465.634	89.62
465.854	79.62
466.073	80.62
466.293	85.62
466.512	74.62
466.732	76.62
466.951	85.62
467.171	84.62
467.391	79.62
467.61	106.62
467.829	97.62
468.049	87.62
468.268	109.62
468.488	94.62
468.707	83.62
468.927	95.62
469.146	78.62
469.365	97.62
469.585	87.62
469.804	99.62
470.023	98.62
470.243	80.62
470.462	89.62
470.681	104.62
470.901	84.62
471.12	79.62
471.339	76.62
471.558	75.62
471.777	90.62
471.997	112.62
472.216	112.62
472.435	150.62
472.654	108.62
472.873	80.62
473.092	86.62
473.311	76.62
473.53	83.62
473.749	87.62
473.968	97.62
474.187	93.62
474.406	95.62
474.625	89.62
474.844	89.62
475.063	80.62
475.282	77.62
475.501	79.62
475.72	90.62
475.939	69.62
476.158	82.62
476.377	89.62
476.596	82.62
476.814	76.62
477.033	92.62
477.252	90.62
477.471	81.62
477.69	88.62
477.908	90.62
478.127	83.62
478.346	103.62
478.564	94.62
478.783	95.62
479.002	86.62
479.22	84.62
479.439	112.62
479.658	100.62
479.876	98.62
480.095	97.62
480.313	90.62
480.532	97.62
480.751	87.62
480.969	126.62
481.188	206.62
481.406	140.62
481.624	95.62
481.843	80.62
482.061	75.62
482.28	114.62
482.498	88.62
482.717	80.62
482.935	88.62
483.153	87.62
483.372	74.62
483.59	75.62
483.808	81.62
484.027	93.62
484.245	76.62
484.463	80.62
484.681	86.62
484.9	73.62
485.118	88.62
485.336	90.62
485.554	96.62
485.772	78.62
485.99	99.62
486.209	112.62
486.427	89.62
486.645	100.62
486.863	98.62
487.081	92.62
487.299	87.62
487.517	99.62
487.735	83.62
487.953	84.62
488.171	97.62
488.389	91.62
488.607	103.62
488.825	100.62
489.043	88.62
489.261	80.62
489.479	86.62
489.696	93.62
489.914	83.62
490.132	78.62
490.35	93.62
490.568	90.62
490.786	98.62
491.003	82.62
491.221	83.62
491.439	85.62
491.657	84.62
491.874	90.62
492.092	94.62
492.31	97.62
492.527	76.62
492.745	86.62
492.963	95.62
493.18	85.62
493.398	82.62
493.615	84.62
493.833	89.62
494.05	80.62
494.268	78.62
494.485	68.62
494.703	84.62
494.92	110.62
495.138	91.62
495.355	87.62
495.573	78.62
495.79	87.62
496.008	71.62
496.225	84.62
496.442	82.62
496.66	85.62
496.877	90.62
497.094	98.62
497.312	100.62
497.529	87.62
497.746	89.62
497.963	106.62
498.181	107.62
498.398	88.62
498.615	112.62
498.832	102.62
499.049	89.62
499.267	81.62
499.484	84.62
499.701	96.62
499.918	91.62
500.135	82.62
500.352	62.62
500.569	72.62
500.786	93.62
501.003	78.62
501.22	91.62
501.437	88.62
501.654	97.62
501.871	109.62
502.088	90.62
502.305	83.62
502.522	91.62
502.739	80.62
502.956	84.62
503.172	88.62
503.389	94.62
503.606	91.62
503.823	87.62
504.04	91.62
504.256	84.62
504.473	82.62
504.69	86.62
504.907	88.62
505.123	88.62
505.34	89.62
505.557	84.62
505.773	92.62
505.99	88.62
506.207	88.62
506.423	81.62
506.64	68.62
506.856	84.62
507.073	86.62
507.289	86.62
507.506	102.62
507.722	112.62
507.939	108.62
508.155	99.62
508.372	92.62
508.588	75.62
508.805	90.62
509.021	91.62
509.238	87.62
509.454	87.62
509.67	98.62
509.887	104.62
510.103	117.62
510.319	210.62
510.536	776.62
510.752	2490.62
510.968	704.62
511.184	154.62
511.401	127.62
511.617	119.62
511.833	91.62
512.049	86.62
512.265	70.62
512.481	89.62
512.698	91.62
512.914	92.62
513.13	95.62
513.346	94.62
513.562	96.62
513.778	91.62
513.994	84.62
514.21	95.62
514.426	117.62
514.642	130.62
514.858	130.62
515.074	155.62
515.29	445.62
515.506	1466.62
515.721	562.62
515.937	153.62
516.153	110.62
516.369	95.62
516.585	86.62
516.801	86.62
517.016	85.62
