Data from Circ_2012_H10_HRD10591_00081.txt Node
Date: Wed Jan 03 10:06:06 EST 2024
User: Yrep
Spectrometer: HR+D1059
Trigger mode: 1
Integration Time (sec): 1.000000E-1
Scans to average: 1
Electric dark correction enabled: true
Nonlinearity correction enabled: false
Boxcar width: 0
XAxis mode: Wavelengths
Number of Pixels in Spectrum: 2048
>>>>>Begin Spectral Data<<<<<
223.165	-11.12
223.4	-11.12
223.635	-11.12
223.869	-8.12
224.104	-22.12
224.338	-23.12
224.573	2.88
224.808	-24.12
225.042	-15.12
225.277	13.88
225.511	-19.12
225.746	-3.12
225.98	-2.12
226.215	20.88
226.449	18.88
226.683	26.88
226.918	20.88
227.152	23.88
227.387	25.88
227.621	42.88
227.856	42.88
228.09	40.88
228.324	43.88
228.559	59.88
228.793	49.88
229.027	56.88
229.262	63.88
229.496	71.88
229.73	78.88
229.964	84.88
230.199	77.88
230.433	72.88
230.667	67.88
230.901	81.88
231.136	75.88
231.37	63.88
231.604	76.88
231.838	69.88
232.072	75.88
232.306	72.88
232.541	65.88
232.775	91.88
233.009	76.88
233.243	74.88
233.477	75.88
233.711	79.88
233.945	76.88
234.179	77.88
234.413	83.88
234.647	72.88
234.881	71.88
235.115	76.88
235.349	80.88
235.583	90.88
235.817	69.88
236.051	76.88
236.285	76.88
236.519	82.88
236.753	84.88
236.987	77.88
237.221	88.88
237.455	90.88
237.689	70.88
237.922	75.88
238.156	66.88
238.39	64.88
238.624	85.88
238.858	89.88
239.091	81.88
239.325	75.88
239.559	83.88
239.793	73.88
240.027	66.88
240.26	78.88
240.494	88.88
240.728	69.88
240.961	66.88
241.195	79.88
241.429	61.88
241.662	81.88
241.896	80.88
242.13	64.88
242.363	73.88
242.597	82.88
242.83	83.88
243.064	74.88
243.298	74.88
243.531	72.88
243.765	72.88
243.998	81.88
244.232	81.88
244.465	85.88
244.699	83.88
244.932	81.88
245.166	83.88
245.399	69.88
245.633	82.88
245.866	67.88
246.099	75.88
246.333	79.88
246.566	69.88
246.8	91.88
247.033	68.88
247.266	68.88
247.5	73.88
247.733	74.88
247.966	78.88
248.2	88.88
248.433	80.88
248.666	85.88
248.899	80.88
249.133	90.88
249.366	96.88
249.599	102.88
249.832	78.88
250.066	86.88
250.299	67.88
250.532	63.88
250.765	77.88
250.998	68.88
251.231	78.88
251.465	62.88
251.698	83.88
251.931	83.88
252.164	77.88
252.397	80.88
252.63	76.88
252.863	82.88
253.096	84.88
253.329	83.88
253.562	71.88
253.795	80.88
254.028	94.88
254.261	79.88
254.494	81.88
254.727	101.88
254.96	78.88
255.193	76.88
255.426	82.88
255.659	74.88
255.892	85.88
256.124	69.88
256.357	79.88
256.59	86.88
256.823	75.88
257.056	65.88
257.289	76.88
257.521	80.88
257.754	86.88
257.987	77.88
258.22	78.88
258.452	83.88
258.685	74.88
258.918	81.88
259.151	75.88
259.383	84.88
259.616	85.88
259.849	96.88
260.081	93.88
260.314	78.88
260.547	78.88
260.779	81.88
261.012	78.88
261.244	82.88
261.477	71.88
261.71	75.88
261.942	98.88
262.175	110.88
262.407	82.88
262.64	81.88
262.872	68.88
263.105	80.88
263.337	76.88
263.57	71.88
263.802	83.88
264.035	91.88
264.267	93.88
264.499	77.88
264.732	84.88
264.964	72.88
265.197	72.88
265.429	85.88
265.661	92.88
265.894	87.88
266.126	75.88
266.358	85.88
266.591	77.88
266.823	85.88
267.055	80.88
267.287	66.88
267.52	70.88
267.752	82.88
267.984	92.88
268.216	77.88
268.448	77.88
268.681	79.88
268.913	91.88
269.145	74.88
269.377	77.88
269.609	70.88
269.841	70.88
270.073	68.88
270.306	68.88
270.538	90.88
270.77	101.88
271.002	82.88
271.234	97.88
271.466	83.88
271.698	87.88
271.93	74.88
272.162	80.88
272.394	87.88
272.626	78.88
272.858	78.88
273.09	82.88
273.322	85.88
273.553	77.88
273.785	82.88
274.017	97.88
274.249	94.88
274.481	77.88
274.713	83.88
274.945	81.88
275.176	80.88
275.408	82.88
275.64	84.88
275.872	80.88
276.104	90.88
276.335	104.88
276.567	99.88
276.799	107.88
277.031	102.88
277.262	86.88
277.494	92.88
277.726	81.88
277.957	72.88
278.189	84.88
278.421	101.88
278.652	85.88
278.884	83.88
279.115	82.88
279.347	75.88
279.579	85.88
279.81	81.88
280.042	97.88
280.273	89.88
280.505	81.88
280.736	83.88
280.968	92.88
281.199	85.88
281.431	92.88
281.662	89.88
281.894	77.88
282.125	94.88
282.356	114.88
282.588	140.88
282.819	110.88
283.051	85.88
283.282	89.88
283.513	86.88
283.745	93.88
283.976	85.88
284.207	93.88
284.439	92.88
284.67	98.88
284.901	84.88
285.132	93.88
285.364	97.88
285.595	88.88
285.826	81.88
286.057	94.88
286.288	86.88
286.52	95.88
286.751	90.88
286.982	93.88
287.213	83.88
287.444	100.88
287.675	97.88
287.906	84.88
288.138	85.88
288.369	93.88
288.6	81.88
288.831	77.88
289.062	100.88
289.293	83.88
289.524	94.88
289.755	92.88
289.986	74.88
290.217	84.88
290.448	96.88
290.679	84.88
290.91	97.88
291.141	73.88
291.371	81.88
291.602	92.88
291.833	77.88
292.064	89.88
292.295	94.88
292.526	104.88
292.757	92.88
292.987	85.88
293.218	83.88
293.449	84.88
293.68	87.88
293.91	78.88
294.141	82.88
294.372	73.88
294.603	98.88
294.833	84.88
295.064	84.88
295.295	74.88
295.525	76.88
295.756	95.88
295.987	128.88
296.217	134.88
296.448	130.88
296.679	101.88
296.909	82.88
297.14	92.88
297.37	100.88
297.601	67.88
297.831	81.88
298.062	96.88
298.292	85.88
298.523	78.88
298.753	82.88
298.984	108.88
299.214	88.88
299.445	92.88
299.675	90.88
299.905	96.88
300.136	91.88
300.366	76.88
300.597	83.88
300.827	94.88
301.057	106.88
301.288	88.88
301.518	102.88
301.748	86.88
301.979	94.88
302.209	97.88
302.439	89.88
302.669	78.88
302.9	78.88
303.13	82.88
303.36	94.88
303.59	102.88
303.82	122.88
304.051	85.88
304.281	87.88
304.511	87.88
304.741	91.88
304.971	78.88
305.201	92.88
305.431	77.88
305.661	77.88
305.891	78.88
306.121	108.88
306.352	100.88
306.582	112.88
306.812	87.88
307.042	84.88
307.272	90.88
307.502	103.88
307.731	99.88
307.961	86.88
308.191	91.88
308.421	99.88
308.651	93.88
308.881	98.88
309.111	81.88
309.341	92.88
309.571	101.88
309.8	84.88
310.03	88.88
310.26	102.88
310.49	101.88
310.72	96.88
310.949	104.88
311.179	102.88
311.409	101.88
311.639	100.88
311.868	96.88
312.098	85.88
312.328	94.88
312.557	90.88
312.787	98.88
313.017	96.88
313.246	83.88
313.476	83.88
313.706	90.88
313.935	92.88
314.165	88.88
314.394	105.88
314.624	99.88
314.853	89.88
315.083	102.88
315.312	82.88
315.542	89.88
315.771	95.88
316.001	82.88
316.23	86.88
316.46	103.88
316.689	78.88
316.919	78.88
317.148	89.88
317.377	95.88
317.607	87.88
317.836	84.88
318.065	100.88
318.295	92.88
318.524	96.88
318.753	84.88
318.983	78.88
319.212	88.88
319.441	109.88
319.67	98.88
319.9	100.88
320.129	84.88
320.358	102.88
320.587	98.88
320.816	104.88
321.046	102.88
321.275	105.88
321.504	87.88
321.733	83.88
321.962	101.88
322.191	101.88
322.42	89.88
322.649	93.88
322.878	99.88
323.108	109.88
323.337	133.88
323.566	133.88
323.795	164.88
324.024	182.88
324.253	344.88
324.482	714.88
324.71	1450.88
324.939	1949.88
325.168	711.88
325.397	231.88
325.626	144.88
325.855	122.88
326.084	119.88
326.313	138.88
326.542	144.88
326.77	225.88
326.999	403.88
327.228	837.88
327.457	1467.88
327.686	1217.88
327.914	334.88
328.143	196.88
328.372	160.88
328.6	124.88
328.829	112.88
329.058	133.88
329.287	124.88
329.515	109.88
329.744	83.88
329.972	118.88
330.201	126.88
330.43	157.88
330.658	127.88
330.887	106.88
331.115	114.88
331.344	79.88
331.572	102.88
331.801	96.88
332.03	88.88
332.258	101.88
332.486	87.88
332.715	99.88
332.943	77.88
333.172	98.88
333.4	89.88
333.629	120.88
333.857	101.88
334.085	118.88
334.314	127.88
334.542	185.88
334.771	158.88
334.999	112.88
335.227	98.88
335.455	88.88
335.684	101.88
335.912	96.88
336.14	104.88
336.369	94.88
336.597	91.88
336.825	91.88
337.053	93.88
337.281	82.88
337.51	85.88
337.738	92.88
337.966	93.88
338.194	94.88
338.422	101.88
338.65	89.88
338.878	81.88
339.106	81.88
339.334	101.88
339.562	79.88
339.79	97.88
340.018	98.88
340.246	99.88
340.474	85.88
340.702	73.88
340.93	99.88
341.158	72.88
341.386	92.88
341.614	94.88
341.842	99.88
342.07	98.88
342.298	85.88
342.526	89.88
342.754	95.88
342.981	105.88
343.209	86.88
343.437	106.88
343.665	90.88
343.893	82.88
344.12	85.88
344.348	98.88
344.576	92.88
344.804	77.88
345.031	86.88
345.259	102.88
345.487	89.88
345.714	91.88
345.942	91.88
346.17	82.88
346.397	99.88
346.625	82.88
346.853	103.88
347.08	81.88
347.308	97.88
347.535	90.88
347.763	86.88
347.99	92.88
348.218	102.88
348.445	93.88
348.673	104.88
348.9	96.88
349.128	93.88
349.355	87.88
349.583	79.88
349.81	81.88
350.037	89.88
350.265	93.88
350.492	90.88
350.72	97.88
350.947	98.88
351.174	99.88
351.402	93.88
351.629	98.88
351.856	93.88
352.083	94.88
352.311	85.88
352.538	90.88
352.765	97.88
352.992	113.88
353.22	113.88
353.447	90.88
353.674	86.88
353.901	93.88
354.128	92.88
354.355	93.88
354.583	97.88
354.81	93.88
355.037	105.88
355.264	92.88
355.491	97.88
355.718	87.88
355.945	96.88
356.172	92.88
356.399	99.88
356.626	95.88
356.853	90.88
357.08	84.88
357.307	101.88
357.534	83.88
357.761	81.88
357.988	78.88
358.215	95.88
358.441	75.88
358.668	102.88
358.895	84.88
359.122	93.88
359.349	89.88
359.576	87.88
359.802	101.88
360.029	104.88
360.256	98.88
360.483	98.88
360.709	85.88
360.936	88.88
361.163	106.88
361.39	93.88
361.616	81.88
361.843	87.88
362.07	88.88
362.296	98.88
362.523	87.88
362.749	92.88
362.976	96.88
363.203	83.88
363.429	78.88
363.656	80.88
363.882	99.88
364.109	90.88
364.335	97.88
364.562	83.88
364.788	82.88
365.015	89.88
365.241	105.88
365.468	115.88
365.694	97.88
365.92	75.88
366.147	74.88
366.373	87.88
366.599	84.88
366.826	90.88
367.052	89.88
367.278	88.88
367.505	86.88
367.731	84.88
367.957	85.88
368.184	88.88
368.41	86.88
368.636	113.88
368.862	116.88
369.089	90.88
369.315	99.88
369.541	91.88
369.767	92.88
369.993	93.88
370.219	92.88
370.445	89.88
370.672	91.88
370.898	73.88
371.124	84.88
371.35	85.88
371.576	68.88
371.802	73.88
372.028	88.88
372.254	91.88
372.48	90.88
372.706	81.88
372.932	78.88
373.158	96.88
373.384	82.88
373.61	86.88
373.835	93.88
374.061	88.88
374.287	78.88
374.513	98.88
374.739	102.88
374.965	85.88
375.191	91.88
375.416	83.88
375.642	84.88
375.868	79.88
376.094	84.88
376.319	92.88
376.545	80.88
376.771	88.88
376.997	84.88
377.222	79.88
377.448	89.88
377.674	87.88
377.899	87.88
378.125	76.88
378.35	93.88
378.576	68.88
378.802	95.88
379.027	87.88
379.253	85.88
379.478	92.88
379.704	86.88
379.929	90.88
380.155	89.88
380.38	83.88
380.606	90.88
380.831	101.88
381.057	109.88
381.282	93.88
381.507	87.88
381.733	85.88
381.958	84.88
382.184	104.88
382.409	84.88
382.634	101.88
382.86	88.88
383.085	98.88
383.31	100.88
383.535	90.88
383.761	92.88
383.986	97.88
384.211	108.88
384.436	93.88
384.662	87.88
384.887	104.88
385.112	88.88
385.337	93.88
385.562	94.88
385.787	109.88
386.013	109.88
386.238	101.88
386.463	101.88
386.688	98.88
386.913	105.88
387.138	98.88
387.363	93.88
387.588	80.88
387.813	104.88
388.038	95.88
388.263	90.88
388.488	100.88
388.713	103.88
388.938	84.88
389.163	98.88
389.387	93.88
389.612	95.88
389.837	93.88
390.062	101.88
390.287	92.88
390.512	88.88
390.736	89.88
390.961	96.88
391.186	102.88
391.411	89.88
391.636	88.88
391.86	77.88
392.085	83.88
392.31	85.88
392.534	80.88
392.759	92.88
392.984	94.88
393.208	79.88
393.433	91.88
393.658	80.88
393.882	67.88
394.107	84.88
394.331	89.88
394.556	93.88
394.78	93.88
395.005	71.88
395.229	73.88
395.454	70.88
395.678	77.88
395.903	86.88
396.127	88.88
396.352	73.88
396.576	83.88
396.801	102.88
397.025	86.88
397.249	89.88
397.474	88.88
397.698	87.88
397.922	86.88
398.147	72.88
398.371	81.88
398.595	92.88
398.82	85.88
399.044	72.88
399.268	80.88
399.492	69.88
399.717	93.88
399.941	103.88
400.165	93.88
400.389	81.88
400.613	78.88
400.837	80.88
401.062	86.88
401.286	85.88
401.51	91.88
401.734	82.88
401.958	84.88
402.182	117.88
402.406	147.88
402.63	119.88
402.854	86.88
403.078	88.88
403.302	88.88
403.526	98.88
403.75	74.88
403.974	83.88
404.198	83.88
404.422	88.88
404.645	60.88
404.869	86.88
405.093	91.88
405.317	91.88
405.541	92.88
405.765	98.88
405.988	98.88
406.212	158.88
406.436	208.88
406.66	135.88
406.883	93.88
407.107	86.88
407.331	98.88
407.555	96.88
407.778	100.88
408.002	83.88
408.226	83.88
408.449	87.88
408.673	81.88
408.896	75.88
409.12	84.88
409.344	86.88
409.567	84.88
409.791	89.88
410.014	87.88
410.238	97.88
410.461	88.88
410.685	91.88
410.908	98.88
411.132	100.88
411.355	92.88
411.578	73.88
411.802	90.88
412.025	77.88
412.249	84.88
412.472	84.88
412.695	103.88
412.919	82.88
413.142	77.88
413.365	82.88
413.589	85.88
413.812	75.88
414.035	89.88
414.258	85.88
414.482	82.88
414.705	86.88
414.928	88.88
415.151	91.88
415.374	102.88
415.597	88.88
415.821	93.88
416.044	92.88
416.267	106.88
416.49	94.88
416.713	105.88
416.936	71.88
417.159	84.88
417.382	85.88
417.605	102.88
417.828	84.88
418.051	83.88
418.274	88.88
418.497	91.88
418.72	86.88
418.943	78.88
419.166	67.88
419.389	76.88
419.611	91.88
419.834	79.88
420.057	86.88
420.28	89.88
420.503	80.88
420.726	85.88
420.948	88.88
421.171	83.88
421.394	81.88
421.617	89.88
421.839	89.88
422.062	91.88
422.285	98.88
422.507	91.88
422.73	87.88
422.953	99.88
423.175	86.88
423.398	84.88
423.621	89.88
423.843	68.88
424.066	78.88
424.288	77.88
424.511	93.88
424.733	81.88
424.956	90.88
425.178	91.88
425.401	85.88
425.623	92.88
425.846	95.88
426.068	77.88
426.291	93.88
426.513	92.88
426.735	86.88
426.958	84.88
427.18	100.88
427.402	121.88
427.625	163.88
427.847	118.88
428.069	109.88
428.292	77.88
428.514	81.88
428.736	86.88
428.958	88.88
429.181	85.88
429.403	90.88
429.625	89.88
429.847	86.88
430.069	81.88
430.292	88.88
430.514	89.88
430.736	82.88
430.958	97.88
431.18	74.88
431.402	82.88
431.624	75.88
431.846	61.88
432.068	81.88
432.29	84.88
432.512	88.88
432.734	77.88
432.956	89.88
433.178	81.88
433.4	76.88
433.622	98.88
433.844	85.88
434.066	86.88
434.287	86.88
434.509	93.88
434.731	76.88
434.953	83.88
435.175	87.88
435.397	81.88
435.618	72.88
435.84	86.88
436.062	106.88
436.284	105.88
436.505	99.88
436.727	91.88
436.949	90.88
437.17	80.88
437.392	88.88
437.614	91.88
437.835	76.88
438.057	100.88
438.278	113.88
438.5	106.88
438.721	120.88
438.943	94.88
439.165	71.88
439.386	74.88
439.608	82.88
439.829	97.88
440.05	115.88
440.272	128.88
440.493	88.88
440.715	84.88
440.936	86.88
441.158	80.88
441.379	96.88
441.6	85.88
441.822	88.88
442.043	101.88
442.264	106.88
442.486	85.88
442.707	87.88
442.928	88.88
443.149	117.88
443.371	108.88
443.592	101.88
443.813	102.88
444.034	113.88
444.255	86.88
444.476	85.88
444.698	90.88
444.919	86.88
445.14	125.88
445.361	104.88
445.582	103.88
445.803	104.88
446.024	117.88
446.245	118.88
446.466	99.88
446.687	96.88
446.908	88.88
447.129	87.88
447.35	87.88
447.571	88.88
447.792	93.88
448.013	83.88
448.234	87.88
448.455	89.88
448.675	91.88
448.896	107.88
449.117	96.88
449.338	107.88
449.559	114.88
449.779	136.88
450	88.88
450.221	83.88
450.442	85.88
450.662	92.88
450.883	105.88
451.104	98.88
451.324	79.88
451.545	84.88
451.766	84.88
451.986	75.88
452.207	77.88
452.428	78.88
452.648	89.88
452.869	95.88
453.089	114.88
453.31	117.88
453.53	97.88
453.751	92.88
453.971	107.88
454.192	115.88
454.412	85.88
454.633	100.88
454.853	76.88
455.073	63.88
455.294	64.88
455.514	87.88
455.734	82.88
455.955	68.88
456.175	91.88
456.395	83.88
456.616	78.88
456.836	90.88
457.056	88.88
457.276	89.88
457.497	75.88
457.717	79.88
457.937	82.88
458.157	85.88
458.377	73.88
458.598	91.88
458.818	128.88
459.038	146.88
459.258	93.88
459.478	72.88
459.698	77.88
459.918	74.88
460.138	98.88
460.358	87.88
460.578	75.88
460.798	87.88
461.018	85.88
461.238	76.88
461.458	84.88
461.678	66.88
461.898	78.88
462.118	90.88
462.338	89.88
462.558	81.88
462.777	72.88
462.997	75.88
463.217	89.88
463.437	71.88
463.657	67.88
463.876	86.88
464.096	94.88
464.316	88.88
464.536	92.88
464.755	78.88
464.975	92.88
465.195	161.88
465.414	140.88
465.634	108.88
465.854	77.88
466.073	89.88
466.293	71.88
466.512	83.88
466.732	102.88
466.951	81.88
467.171	97.88
467.391	77.88
467.61	90.88
467.829	99.88
468.049	123.88
468.268	115.88
468.488	101.88
468.707	82.88
468.927	84.88
469.146	87.88
469.365	82.88
469.585	87.88
469.804	90.88
470.023	80.88
470.243	97.88
470.462	78.88
470.681	102.88
470.901	73.88
471.12	92.88
471.339	83.88
471.558	103.88
471.777	82.88
471.997	87.88
472.216	150.88
472.435	230.88
472.654	123.88
472.873	85.88
473.092	76.88
473.311	73.88
473.53	85.88
473.749	101.88
473.968	72.88
474.187	98.88
474.406	85.88
474.625	73.88
474.844	84.88
475.063	74.88
475.282	88.88
475.501	88.88
475.72	98.88
475.939	70.88
476.158	95.88
476.377	77.88
476.596	90.88
476.814	68.88
477.033	96.88
477.252	99.88
477.471	86.88
477.69	88.88
477.908	91.88
478.127	90.88
478.346	87.88
478.564	91.88
478.783	82.88
479.002	93.88
479.22	75.88
479.439	91.88
479.658	104.88
479.876	82.88
480.095	90.88
480.313	94.88
480.532	101.88
480.751	83.88
480.969	139.88
481.188	326.88
481.406	238.88
481.624	103.88
481.843	78.88
482.061	97.88
482.28	84.88
482.498	87.88
482.717	84.88
482.935	87.88
483.153	76.88
483.372	78.88
483.59	93.88
483.808	82.88
484.027	85.88
484.245	83.88
484.463	105.88
484.681	105.88
484.9	82.88
485.118	85.88
485.336	83.88
485.554	96.88
485.772	89.88
485.99	89.88
486.209	95.88
486.427	111.88
486.645	99.88
486.863	112.88
487.081	99.88
487.299	97.88
487.517	88.88
487.735	97.88
487.953	92.88
488.171	73.88
488.389	97.88
488.607	90.88
488.825	92.88
489.043	89.88
489.261	93.88
489.479	86.88
489.696	96.88
489.914	82.88
490.132	70.88
490.35	84.88
490.568	88.88
490.786	87.88
491.003	98.88
491.221	78.88
491.439	87.88
491.657	91.88
491.874	88.88
492.092	71.88
492.31	87.88
492.527	108.88
492.745	93.88
492.963	86.88
493.18	85.88
493.398	87.88
493.615	83.88
493.833	93.88
494.05	85.88
494.268	85.88
494.485	102.88
494.703	73.88
494.92	84.88
495.138	93.88
495.355	85.88
495.573	82.88
495.79	90.88
496.008	88.88
496.225	81.88
496.442	78.88
496.66	98.88
496.877	85.88
497.094	97.88
497.312	84.88
497.529	99.88
497.746	95.88
497.963	79.88
498.181	86.88
498.398	91.88
498.615	122.88
498.832	103.88
499.049	91.88
499.267	87.88
499.484	75.88
499.701	85.88
499.918	89.88
500.135	92.88
500.352	81.88
500.569	88.88
500.786	80.88
501.003	72.88
501.22	85.88
501.437	89.88
501.654	88.88
501.871	90.88
502.088	96.88
502.305	75.88
502.522	92.88
502.739	92.88
502.956	97.88
503.172	89.88
503.389	78.88
503.606	93.88
503.823	94.88
504.04	106.88
504.256	88.88
504.473	89.88
504.69	78.88
504.907	80.88
505.123	96.88
505.34	81.88
505.557	84.88
505.773	89.88
505.99	88.88
506.207	75.88
506.423	83.88
506.64	85.88
506.856	79.88
507.073	84.88
507.289	90.88
507.506	102.88
507.722	110.88
507.939	102.88
508.155	91.88
508.372	97.88
508.588	96.88
508.805	85.88
509.021	92.88
509.238	91.88
509.454	97.88
509.67	87.88
509.887	94.88
510.103	130.88
510.319	185.88
510.536	681.88
510.752	2132.88
510.968	644.88
511.184	146.88
511.401	110.88
511.617	88.88
511.833	89.88
512.049	88.88
512.265	97.88
512.481	92.88
512.698	92.88
512.914	95.88
513.13	105.88
513.346	102.88
513.562	98.88
513.778	86.88
513.994	92.88
514.21	88.88
514.426	108.88
514.642	114.88
514.858	116.88
515.074	152.88
515.29	384.88
515.506	1314.88
515.721	510.88
515.937	156.88
516.153	108.88
516.369	91.88
516.585	104.88
516.801	95.88
