Data from Circ_2012_H10_HRD10591_00063.txt Node
Date: Wed Jan 03 10:06:03 EST 2024
User: Yrep
Spectrometer: HR+D1059
Trigger mode: 1
Integration Time (sec): 1.000000E-1
Scans to average: 1
Electric dark correction enabled: true
Nonlinearity correction enabled: false
Boxcar width: 0
XAxis mode: Wavelengths
Number of Pixels in Spectrum: 2048
>>>>>Begin Spectral Data<<<<<
223.165	-3.44
223.4	-3.44
223.635	-3.44
223.869	-25.44
224.104	-12.44
224.338	-14.44
224.573	-17.44
224.808	-14.44
225.042	-3.44
225.277	-7.44
225.511	1.56
225.746	10.56
225.98	3.56
226.215	13.56
226.449	13.56
226.683	7.56
226.918	21.56
227.152	26.56
227.387	18.56
227.621	38.56
227.856	42.56
228.09	43.56
228.324	43.56
228.559	56.56
228.793	49.56
229.027	58.56
229.262	67.56
229.496	69.56
229.73	77.56
229.964	85.56
230.199	79.56
230.433	85.56
230.667	89.56
230.901	84.56
231.136	89.56
231.37	77.56
231.604	73.56
231.838	76.56
232.072	94.56
232.306	83.56
232.541	80.56
232.775	98.56
233.009	87.56
233.243	89.56
233.477	90.56
233.711	74.56
233.945	63.56
234.179	74.56
234.413	73.56
234.647	78.56
234.881	86.56
235.115	81.56
235.349	93.56
235.583	72.56
235.817	88.56
236.051	82.56
236.285	77.56
236.519	73.56
236.753	85.56
236.987	77.56
237.221	72.56
237.455	79.56
237.689	76.56
237.922	80.56
238.156	90.56
238.39	73.56
238.624	74.56
238.858	77.56
239.091	74.56
239.325	86.56
239.559	70.56
239.793	84.56
240.027	77.56
240.26	73.56
240.494	70.56
240.728	82.56
240.961	90.56
241.195	66.56
241.429	75.56
241.662	70.56
241.896	84.56
242.13	83.56
242.363	78.56
242.597	87.56
242.83	81.56
243.064	78.56
243.298	71.56
243.531	77.56
243.765	66.56
243.998	82.56
244.232	76.56
244.465	80.56
244.699	84.56
244.932	71.56
245.166	59.56
245.399	78.56
245.633	72.56
245.866	65.56
246.099	74.56
246.333	79.56
246.566	77.56
246.8	62.56
247.033	77.56
247.266	62.56
247.5	72.56
247.733	88.56
247.966	82.56
248.2	76.56
248.433	87.56
248.666	65.56
248.899	75.56
249.133	78.56
249.366	100.56
249.599	95.56
249.832	89.56
250.066	67.56
250.299	74.56
250.532	82.56
250.765	87.56
250.998	69.56
251.231	72.56
251.465	66.56
251.698	73.56
251.931	74.56
252.164	84.56
252.397	79.56
252.63	90.56
252.863	75.56
253.096	79.56
253.329	79.56
253.562	75.56
253.795	63.56
254.028	71.56
254.261	92.56
254.494	69.56
254.727	85.56
254.96	73.56
255.193	71.56
255.426	81.56
255.659	87.56
255.892	84.56
256.124	85.56
256.357	75.56
256.59	68.56
256.823	69.56
257.056	90.56
257.289	92.56
257.521	81.56
257.754	75.56
257.987	92.56
258.22	91.56
258.452	80.56
258.685	76.56
258.918	85.56
259.151	90.56
259.383	75.56
259.616	83.56
259.849	80.56
260.081	77.56
260.314	83.56
260.547	86.56
260.779	83.56
261.012	74.56
261.244	83.56
261.477	89.56
261.71	86.56
261.942	87.56
262.175	108.56
262.407	93.56
262.64	87.56
262.872	78.56
263.105	80.56
263.337	63.56
263.57	70.56
263.802	84.56
264.035	70.56
264.267	76.56
264.499	94.56
264.732	71.56
264.964	88.56
265.197	69.56
265.429	86.56
265.661	80.56
265.894	83.56
266.126	85.56
266.358	88.56
266.591	77.56
266.823	68.56
267.055	83.56
267.287	95.56
267.52	78.56
267.752	94.56
267.984	90.56
268.216	84.56
268.448	87.56
268.681	92.56
268.913	76.56
269.145	76.56
269.377	92.56
269.609	87.56
269.841	79.56
270.073	89.56
270.306	78.56
270.538	62.56
270.77	81.56
271.002	76.56
271.234	88.56
271.466	100.56
271.698	74.56
271.93	79.56
272.162	82.56
272.394	89.56
272.626	94.56
272.858	86.56
273.09	83.56
273.322	88.56
273.553	71.56
273.785	85.56
274.017	91.56
274.249	83.56
274.481	90.56
274.713	82.56
274.945	85.56
275.176	76.56
275.408	101.56
275.64	77.56
275.872	89.56
276.104	82.56
276.335	92.56
276.567	102.56
276.799	88.56
277.031	86.56
277.262	101.56
277.494	80.56
277.726	90.56
277.957	75.56
278.189	87.56
278.421	76.56
278.652	89.56
278.884	87.56
279.115	80.56
279.347	74.56
279.579	76.56
279.81	87.56
280.042	72.56
280.273	90.56
280.505	93.56
280.736	87.56
280.968	79.56
281.199	84.56
281.431	73.56
281.662	91.56
281.894	91.56
282.125	102.56
282.356	115.56
282.588	133.56
282.819	118.56
283.051	97.56
283.282	98.56
283.513	86.56
283.745	86.56
283.976	80.56
284.207	94.56
284.439	85.56
284.67	57.56
284.901	78.56
285.132	83.56
285.364	90.56
285.595	98.56
285.826	97.56
286.057	85.56
286.288	77.56
286.52	71.56
286.751	77.56
286.982	79.56
287.213	96.56
287.444	80.56
287.675	75.56
287.906	87.56
288.138	87.56
288.369	97.56
288.6	85.56
288.831	87.56
289.062	90.56
289.293	82.56
289.524	96.56
289.755	100.56
289.986	79.56
290.217	73.56
290.448	92.56
290.679	91.56
290.91	75.56
291.141	88.56
291.371	91.56
291.602	90.56
291.833	90.56
292.064	93.56
292.295	82.56
292.526	98.56
292.757	83.56
292.987	76.56
293.218	84.56
293.449	103.56
293.68	89.56
293.91	87.56
294.141	93.56
294.372	85.56
294.603	84.56
294.833	92.56
295.064	85.56
295.295	89.56
295.525	92.56
295.756	101.56
295.987	108.56
296.217	128.56
296.448	132.56
296.679	98.56
296.909	83.56
297.14	98.56
297.37	97.56
297.601	83.56
297.831	89.56
298.062	89.56
298.292	78.56
298.523	93.56
298.753	76.56
298.984	81.56
299.214	94.56
299.445	86.56
299.675	99.56
299.905	100.56
300.136	92.56
300.366	88.56
300.597	87.56
300.827	88.56
301.057	87.56
301.288	111.56
301.518	98.56
301.748	88.56
301.979	92.56
302.209	86.56
302.439	81.56
302.669	97.56
302.9	84.56
303.13	80.56
303.36	100.56
303.59	95.56
303.82	103.56
304.051	97.56
304.281	84.56
304.511	92.56
304.741	81.56
304.971	87.56
305.201	98.56
305.431	91.56
305.661	98.56
305.891	88.56
306.121	98.56
306.352	113.56
306.582	98.56
306.812	89.56
307.042	97.56
307.272	99.56
307.502	82.56
307.731	93.56
307.961	100.56
308.191	88.56
308.421	84.56
308.651	88.56
308.881	86.56
309.111	96.56
309.341	86.56
309.571	92.56
309.8	95.56
310.03	100.56
310.26	94.56
310.49	98.56
310.72	99.56
310.949	110.56
311.179	114.56
311.409	101.56
311.639	101.56
311.868	90.56
312.098	101.56
312.328	97.56
312.557	93.56
312.787	107.56
313.017	112.56
313.246	106.56
313.476	89.56
313.706	94.56
313.935	89.56
314.165	90.56
314.394	88.56
314.624	100.56
314.853	94.56
315.083	85.56
315.312	83.56
315.542	82.56
315.771	98.56
316.001	83.56
316.23	93.56
316.46	93.56
316.689	78.56
316.919	95.56
317.148	80.56
317.377	89.56
317.607	90.56
317.836	115.56
318.065	82.56
318.295	91.56
318.524	75.56
318.753	95.56
318.983	93.56
319.212	107.56
319.441	101.56
319.67	105.56
319.9	92.56
320.129	81.56
320.358	103.56
320.587	100.56
320.816	107.56
321.046	87.56
321.275	110.56
321.504	95.56
321.733	108.56
321.962	112.56
322.191	114.56
322.42	107.56
322.649	113.56
322.878	113.56
323.108	117.56
323.337	132.56
323.566	133.56
323.795	134.56
324.024	212.56
324.253	413.56
324.482	873.56
324.71	1797.56
324.939	2371.56
325.168	870.56
325.397	251.56
325.626	146.56
325.855	133.56
326.084	132.56
326.313	134.56
326.542	167.56
326.77	249.56
326.999	471.56
327.228	971.56
327.457	1822.56
327.686	1484.56
327.914	397.56
328.143	210.56
328.372	169.56
328.6	144.56
328.829	130.56
329.058	153.56
329.287	137.56
329.515	113.56
329.744	104.56
329.972	131.56
330.201	153.56
330.43	177.56
330.658	156.56
330.887	145.56
331.115	120.56
331.344	90.56
331.572	114.56
331.801	107.56
332.03	95.56
332.258	102.56
332.486	92.56
332.715	99.56
332.943	99.56
333.172	99.56
333.4	102.56
333.629	94.56
333.857	122.56
334.085	127.56
334.314	140.56
334.542	202.56
334.771	202.56
334.999	115.56
335.227	108.56
335.455	100.56
335.684	114.56
335.912	94.56
336.14	87.56
336.369	113.56
336.597	91.56
336.825	88.56
337.053	99.56
337.281	78.56
337.51	75.56
337.738	101.56
337.966	98.56
338.194	96.56
338.422	106.56
338.65	101.56
338.878	94.56
339.106	97.56
339.334	94.56
339.562	79.56
339.79	85.56
340.018	88.56
340.246	90.56
340.474	90.56
340.702	107.56
340.93	83.56
341.158	105.56
341.386	99.56
341.614	95.56
341.842	105.56
342.07	108.56
342.298	98.56
342.526	90.56
342.754	96.56
342.981	83.56
343.209	87.56
343.437	92.56
343.665	78.56
343.893	70.56
344.12	95.56
344.348	93.56
344.576	93.56
344.804	90.56
345.031	99.56
345.259	99.56
345.487	74.56
345.714	88.56
345.942	97.56
346.17	76.56
346.397	85.56
346.625	93.56
346.853	98.56
347.08	80.56
347.308	113.56
347.535	91.56
347.763	118.56
347.99	99.56
348.218	89.56
348.445	102.56
348.673	105.56
348.9	91.56
349.128	97.56
349.355	107.56
349.583	83.56
349.81	83.56
350.037	85.56
350.265	102.56
350.492	100.56
350.72	109.56
350.947	92.56
351.174	107.56
351.402	109.56
351.629	92.56
351.856	100.56
352.083	89.56
352.311	97.56
352.538	100.56
352.765	110.56
352.992	110.56
353.22	118.56
353.447	97.56
353.674	93.56
353.901	87.56
354.128	85.56
354.355	93.56
354.583	91.56
354.81	90.56
355.037	90.56
355.264	109.56
355.491	92.56
355.718	91.56
355.945	99.56
356.172	96.56
356.399	82.56
356.626	83.56
356.853	100.56
357.08	85.56
357.307	93.56
357.534	97.56
357.761	91.56
357.988	96.56
358.215	100.56
358.441	97.56
358.668	78.56
358.895	82.56
359.122	94.56
359.349	101.56
359.576	95.56
359.802	90.56
360.029	104.56
360.256	126.56
360.483	106.56
360.709	89.56
360.936	98.56
361.163	86.56
361.39	99.56
361.616	93.56
361.843	98.56
362.07	97.56
362.296	108.56
362.523	93.56
362.749	97.56
362.976	102.56
363.203	84.56
363.429	79.56
363.656	87.56
363.882	94.56
364.109	84.56
364.335	89.56
364.562	85.56
364.788	79.56
365.015	103.56
365.241	112.56
365.468	104.56
365.694	98.56
365.92	97.56
366.147	89.56
366.373	84.56
366.599	84.56
366.826	89.56
367.052	95.56
367.278	93.56
367.505	84.56
367.731	91.56
367.957	86.56
368.184	87.56
368.41	91.56
368.636	114.56
368.862	131.56
369.089	121.56
369.315	86.56
369.541	94.56
369.767	86.56
369.993	102.56
370.219	98.56
370.445	71.56
370.672	88.56
370.898	89.56
371.124	71.56
371.35	82.56
371.576	85.56
371.802	77.56
372.028	79.56
372.254	93.56
372.48	99.56
372.706	83.56
372.932	88.56
373.158	81.56
373.384	92.56
373.61	104.56
373.835	99.56
374.061	88.56
374.287	98.56
374.513	90.56
374.739	86.56
374.965	108.56
375.191	81.56
375.416	90.56
375.642	90.56
375.868	86.56
376.094	83.56
376.319	105.56
376.545	80.56
376.771	87.56
376.997	90.56
377.222	76.56
377.448	77.56
377.674	85.56
377.899	97.56
378.125	85.56
378.35	94.56
378.576	94.56
378.802	90.56
379.027	92.56
379.253	102.56
379.478	94.56
379.704	91.56
379.929	94.56
380.155	90.56
380.38	84.56
380.606	107.56
380.831	85.56
381.057	97.56
381.282	94.56
381.507	98.56
381.733	90.56
381.958	90.56
382.184	89.56
382.409	100.56
382.634	112.56
382.86	97.56
383.085	111.56
383.31	98.56
383.535	97.56
383.761	102.56
383.986	111.56
384.211	90.56
384.436	92.56
384.662	87.56
384.887	90.56
385.112	103.56
385.337	95.56
385.562	97.56
385.787	101.56
386.013	105.56
386.238	104.56
386.463	103.56
386.688	114.56
386.913	89.56
387.138	109.56
387.363	106.56
387.588	93.56
387.813	107.56
388.038	93.56
388.263	109.56
388.488	96.56
388.713	94.56
388.938	93.56
389.163	90.56
389.387	93.56
389.612	93.56
389.837	96.56
390.062	92.56
390.287	87.56
390.512	98.56
390.736	85.56
390.961	106.56
391.186	96.56
391.411	86.56
391.636	100.56
391.86	76.56
392.085	80.56
392.31	73.56
392.534	89.56
392.759	94.56
392.984	90.56
393.208	93.56
393.433	111.56
393.658	78.56
393.882	79.56
394.107	87.56
394.331	93.56
394.556	89.56
394.78	92.56
395.005	84.56
395.229	87.56
395.454	83.56
395.678	88.56
395.903	94.56
396.127	93.56
396.352	101.56
396.576	99.56
396.801	84.56
397.025	91.56
397.249	88.56
397.474	96.56
397.698	94.56
397.922	86.56
398.147	79.56
398.371	92.56
398.595	92.56
398.82	88.56
399.044	96.56
399.268	90.56
399.492	74.56
399.717	85.56
399.941	85.56
400.165	88.56
400.389	85.56
400.613	94.56
400.837	86.56
401.062	84.56
401.286	89.56
401.51	92.56
401.734	92.56
401.958	107.56
402.182	129.56
402.406	194.56
402.63	124.56
402.854	81.56
403.078	92.56
403.302	91.56
403.526	79.56
403.75	74.56
403.974	90.56
404.198	83.56
404.422	92.56
404.645	98.56
404.869	91.56
405.093	92.56
405.317	94.56
405.541	100.56
405.765	93.56
405.988	109.56
406.212	182.56
406.436	240.56
406.66	163.56
406.883	97.56
407.107	102.56
407.331	90.56
407.555	90.56
407.778	78.56
408.002	99.56
408.226	89.56
408.449	81.56
408.673	76.56
408.896	83.56
409.12	94.56
409.344	80.56
409.567	86.56
409.791	97.56
410.014	92.56
410.238	87.56
410.461	88.56
410.685	79.56
410.908	95.56
411.132	103.56
411.355	102.56
411.578	92.56
411.802	84.56
412.025	84.56
412.249	84.56
412.472	90.56
412.695	95.56
412.919	107.56
413.142	94.56
413.365	68.56
413.589	84.56
413.812	84.56
414.035	76.56
414.258	88.56
414.482	86.56
414.705	87.56
414.928	85.56
415.151	86.56
415.374	86.56
415.597	79.56
415.821	85.56
416.044	93.56
416.267	88.56
416.49	90.56
416.713	100.56
416.936	90.56
417.159	106.56
417.382	83.56
417.605	95.56
417.828	96.56
418.051	89.56
418.274	79.56
418.497	94.56
418.72	86.56
418.943	67.56
419.166	79.56
419.389	82.56
419.611	78.56
419.834	95.56
420.057	79.56
420.28	94.56
420.503	92.56
420.726	76.56
420.948	85.56
421.171	107.56
421.394	93.56
421.617	90.56
421.839	95.56
422.062	86.56
422.285	107.56
422.507	96.56
422.73	104.56
422.953	94.56
423.175	91.56
423.398	71.56
423.621	89.56
423.843	94.56
424.066	89.56
424.288	87.56
424.511	76.56
424.733	94.56
424.956	101.56
425.178	91.56
425.401	102.56
425.623	108.56
425.846	87.56
426.068	93.56
426.291	92.56
426.513	100.56
426.735	79.56
426.958	93.56
427.18	109.56
427.402	134.56
427.625	168.56
427.847	145.56
428.069	101.56
428.292	90.56
428.514	87.56
428.736	94.56
428.958	93.56
429.181	94.56
429.403	88.56
429.625	89.56
429.847	82.56
430.069	97.56
430.292	103.56
430.514	89.56
430.736	92.56
430.958	95.56
431.18	80.56
431.402	99.56
431.624	82.56
431.846	75.56
432.068	84.56
432.29	103.56
432.512	76.56
432.734	76.56
432.956	105.56
433.178	104.56
433.4	101.56
433.622	84.56
433.844	90.56
434.066	96.56
434.287	91.56
434.509	78.56
434.731	78.56
434.953	87.56
435.175	91.56
435.397	97.56
435.618	107.56
435.84	94.56
436.062	121.56
436.284	93.56
436.505	95.56
436.727	100.56
436.949	98.56
437.17	90.56
437.392	74.56
437.614	86.56
437.835	106.56
438.057	120.56
438.278	109.56
438.5	114.56
438.721	117.56
438.943	86.56
439.165	91.56
439.386	86.56
439.608	111.56
439.829	95.56
440.05	127.56
440.272	146.56
440.493	86.56
440.715	85.56
440.936	93.56
441.158	86.56
441.379	93.56
441.6	92.56
441.822	99.56
442.043	87.56
442.264	125.56
442.486	102.56
442.707	83.56
442.928	104.56
443.149	142.56
443.371	147.56
443.592	106.56
443.813	108.56
444.034	114.56
444.255	71.56
444.476	86.56
444.698	86.56
444.919	82.56
445.14	135.56
445.361	117.56
445.582	118.56
445.803	141.56
446.024	146.56
446.245	139.56
446.466	102.56
446.687	94.56
446.908	83.56
447.129	85.56
447.35	85.56
447.571	87.56
447.792	90.56
448.013	95.56
448.234	109.56
448.455	108.56
448.675	124.56
448.896	128.56
449.117	95.56
449.338	97.56
449.559	125.56
449.779	121.56
450	92.56
450.221	80.56
450.442	114.56
450.662	100.56
450.883	91.56
451.104	114.56
451.324	99.56
451.545	84.56
451.766	94.56
451.986	87.56
452.207	79.56
452.428	86.56
452.648	104.56
452.869	92.56
453.089	106.56
453.31	125.56
453.53	90.56
453.751	79.56
453.971	104.56
454.192	123.56
454.412	90.56
454.633	93.56
454.853	86.56
455.073	83.56
455.294	88.56
455.514	88.56
455.734	92.56
455.955	90.56
456.175	76.56
456.395	80.56
456.616	98.56
456.836	89.56
457.056	79.56
457.276	65.56
457.497	86.56
457.717	82.56
457.937	89.56
458.157	92.56
458.377	98.56
458.598	112.56
458.818	149.56
459.038	162.56
459.258	123.56
459.478	90.56
459.698	79.56
459.918	95.56
460.138	81.56
460.358	75.56
460.578	85.56
460.798	94.56
461.018	93.56
461.238	88.56
461.458	82.56
461.678	81.56
461.898	98.56
462.118	89.56
462.338	86.56
462.558	83.56
462.777	79.56
462.997	81.56
463.217	82.56
463.437	87.56
463.657	92.56
463.876	87.56
464.096	94.56
464.316	103.56
464.536	83.56
464.755	90.56
464.975	117.56
465.195	166.56
465.414	168.56
465.634	105.56
465.854	89.56
466.073	93.56
466.293	91.56
466.512	86.56
466.732	82.56
466.951	87.56
467.171	93.56
467.391	95.56
467.61	99.56
467.829	96.56
468.049	129.56
468.268	141.56
468.488	85.56
468.707	83.56
468.927	100.56
469.146	91.56
469.365	100.56
469.585	96.56
469.804	89.56
470.023	91.56
470.243	96.56
470.462	106.56
470.681	111.56
470.901	89.56
471.12	89.56
471.339	74.56
471.558	83.56
471.777	89.56
471.997	105.56
472.216	142.56
472.435	230.56
472.654	113.56
472.873	99.56
473.092	82.56
473.311	78.56
473.53	81.56
473.749	79.56
473.968	101.56
474.187	94.56
474.406	86.56
474.625	76.56
474.844	77.56
475.063	89.56
475.282	95.56
475.501	90.56
475.72	86.56
475.939	61.56
476.158	86.56
476.377	88.56
476.596	82.56
476.814	102.56
477.033	79.56
477.252	77.56
477.471	78.56
477.69	92.56
477.908	79.56
478.127	86.56
478.346	86.56
478.564	97.56
478.783	96.56
479.002	90.56
479.22	100.56
479.439	102.56
479.658	103.56
479.876	89.56
480.095	92.56
480.313	77.56
480.532	94.56
480.751	105.56
480.969	148.56
481.188	362.56
481.406	253.56
481.624	111.56
481.843	79.56
482.061	73.56
482.28	85.56
482.498	93.56
482.717	79.56
482.935	80.56
483.153	80.56
483.372	95.56
483.59	82.56
483.808	95.56
484.027	92.56
484.245	93.56
484.463	93.56
484.681	104.56
484.9	78.56
485.118	84.56
485.336	102.56
485.554	87.56
485.772	100.56
485.99	106.56
486.209	106.56
486.427	110.56
486.645	99.56
486.863	122.56
487.081	113.56
487.299	101.56
487.517	98.56
487.735	101.56
487.953	92.56
488.171	83.56
488.389	107.56
488.607	99.56
488.825	92.56
489.043	92.56
489.261	75.56
489.479	89.56
489.696	90.56
489.914	76.56
490.132	87.56
490.35	85.56
490.568	86.56
490.786	75.56
491.003	84.56
491.221	86.56
491.439	97.56
491.657	103.56
491.874	86.56
492.092	87.56
492.31	83.56
492.527	77.56
492.745	91.56
492.963	77.56
493.18	88.56
493.398	105.56
493.615	98.56
493.833	93.56
494.05	87.56
494.268	102.56
494.485	79.56
494.703	94.56
494.92	88.56
495.138	86.56
495.355	95.56
495.573	84.56
495.79	82.56
496.008	90.56
496.225	93.56
496.442	99.56
496.66	89.56
496.877	85.56
497.094	103.56
497.312	90.56
497.529	76.56
497.746	94.56
497.963	98.56
498.181	93.56
498.398	93.56
498.615	110.56
498.832	92.56
499.049	76.56
499.267	99.56
499.484	103.56
499.701	94.56
499.918	78.56
500.135	85.56
500.352	77.56
500.569	85.56
500.786	91.56
501.003	103.56
501.22	85.56
501.437	91.56
501.654	95.56
501.871	109.56
502.088	93.56
502.305	90.56
502.522	87.56
502.739	83.56
502.956	71.56
503.172	90.56
503.389	98.56
503.606	102.56
503.823	98.56
504.04	95.56
504.256	98.56
504.473	97.56
504.69	86.56
504.907	81.56
505.123	83.56
505.34	91.56
505.557	86.56
505.773	83.56
505.99	91.56
506.207	86.56
506.423	97.56
506.64	100.56
506.856	90.56
507.073	97.56
507.289	95.56
507.506	115.56
507.722	106.56
507.939	131.56
508.155	94.56
508.372	97.56
508.588	91.56
508.805	84.56
509.021	92.56
509.238	92.56
509.454	94.56
509.67	103.56
509.887	106.56
510.103	125.56
510.319	215.56
510.536	817.56
510.752	2729.56
510.968	776.56
511.184	158.56
511.401	110.56
511.617	107.56
511.833	81.56
512.049	93.56
512.265	95.56
512.481	91.56
512.698	90.56
512.914	87.56
513.13	93.56
513.346	101.56
513.562	94.56
513.778	86.56
513.994	101.56
514.21	94.56
514.426	111.56
514.642	143.56
514.858	138.56
515.074	181.56
515.29	487.56
515.506	1726.56
515.721	660.56
