Data from Circ_2012_H10_HRD10591_00007.txt Node
Date: Wed Jan 03 10:05:51 EST 2024
User: Yrep
Spectrometer: HR+D1059
Trigger mode: 1
Integration Time (sec): 1.000000E-1
Scans to average: 1
Electric dark correction enabled: true
Nonlinearity correction enabled: false
Boxcar width: 0
XAxis mode: Wavelengths
Number of Pixels in Spectrum: 2048
>>>>>Begin Spectral Data<<<<<
223.165	-7.94
223.4	-7.94
223.635	-7.94
223.869	-23.94
224.104	-16.94
224.338	-3.94
224.573	-9.94
224.808	0.06
225.042	-2.94
225.277	-9.94
225.511	-4.94
225.746	-14.94
225.98	1.06
226.215	11.06
226.449	14.06
226.683	14.06
226.918	27.06
227.152	28.06
227.387	38.06
227.621	47.06
227.856	47.06
228.09	49.06
228.324	45.06
228.559	61.06
228.793	59.06
229.027	67.06
229.262	69.06
229.496	78.06
229.73	95.06
229.964	84.06
230.199	72.06
230.433	79.06
230.667	78.06
230.901	77.06
231.136	74.06
231.37	81.06
231.604	91.06
231.838	84.06
232.072	73.06
232.306	85.06
232.541	88.06
232.775	68.06
233.009	81.06
233.243	83.06
233.477	81.06
233.711	79.06
233.945	83.06
234.179	79.06
234.413	98.06
234.647	86.06
234.881	90.06
235.115	79.06
235.349	72.06
235.583	70.06
235.817	74.06
236.051	94.06
236.285	71.06
236.519	81.06
236.753	68.06
236.987	84.06
237.221	82.06
237.455	95.06
237.689	91.06
237.922	83.06
238.156	85.06
238.39	88.06
238.624	65.06
238.858	75.06
239.091	80.06
239.325	79.06
239.559	103.06
239.793	87.06
240.027	92.06
240.26	79.06
240.494	75.06
240.728	92.06
240.961	89.06
241.195	79.06
241.429	68.06
241.662	91.06
241.896	72.06
242.13	74.06
242.363	68.06
242.597	92.06
242.83	75.06
243.064	74.06
243.298	68.06
243.531	73.06
243.765	75.06
243.998	84.06
244.232	92.06
244.465	89.06
244.699	97.06
244.932	87.06
245.166	93.06
245.399	76.06
245.633	74.06
245.866	76.06
246.099	91.06
246.333	70.06
246.566	71.06
246.8	70.06
247.033	88.06
247.266	87.06
247.5	74.06
247.733	87.06
247.966	81.06
248.2	87.06
248.433	77.06
248.666	67.06
248.899	93.06
249.133	95.06
249.366	116.06
249.599	106.06
249.832	103.06
250.066	88.06
250.299	67.06
250.532	72.06
250.765	53.06
250.998	78.06
251.231	79.06
251.465	95.06
251.698	79.06
251.931	73.06
252.164	81.06
252.397	69.06
252.63	83.06
252.863	90.06
253.096	74.06
253.329	96.06
253.562	73.06
253.795	75.06
254.028	88.06
254.261	80.06
254.494	79.06
254.727	71.06
254.96	76.06
255.193	82.06
255.426	75.06
255.659	78.06
255.892	75.06
256.124	81.06
256.357	85.06
256.59	80.06
256.823	57.06
257.056	79.06
257.289	79.06
257.521	81.06
257.754	72.06
257.987	65.06
258.22	100.06
258.452	89.06
258.685	90.06
258.918	82.06
259.151	94.06
259.383	86.06
259.616	81.06
259.849	97.06
260.081	81.06
260.314	79.06
260.547	76.06
260.779	72.06
261.012	80.06
261.244	82.06
261.477	75.06
261.71	103.06
261.942	121.06
262.175	141.06
262.407	75.06
262.64	79.06
262.872	76.06
263.105	69.06
263.337	90.06
263.57	74.06
263.802	78.06
264.035	84.06
264.267	87.06
264.499	84.06
264.732	80.06
264.964	95.06
265.197	81.06
265.429	79.06
265.661	80.06
265.894	84.06
266.126	88.06
266.358	87.06
266.591	85.06
266.823	85.06
267.055	80.06
267.287	77.06
267.52	78.06
267.752	84.06
267.984	84.06
268.216	83.06
268.448	91.06
268.681	92.06
268.913	91.06
269.145	83.06
269.377	88.06
269.609	87.06
269.841	83.06
270.073	88.06
270.306	94.06
270.538	91.06
270.77	79.06
271.002	74.06
271.234	84.06
271.466	79.06
271.698	72.06
271.93	91.06
272.162	94.06
272.394	89.06
272.626	107.06
272.858	98.06
273.09	93.06
273.322	81.06
273.553	84.06
273.785	82.06
274.017	79.06
274.249	97.06
274.481	92.06
274.713	80.06
274.945	100.06
275.176	85.06
275.408	81.06
275.64	89.06
275.872	89.06
276.104	84.06
276.335	98.06
276.567	110.06
276.799	142.06
277.031	113.06
277.262	96.06
277.494	83.06
277.726	97.06
277.957	80.06
278.189	98.06
278.421	98.06
278.652	76.06
278.884	87.06
279.115	96.06
279.347	92.06
279.579	96.06
279.81	90.06
280.042	89.06
280.273	83.06
280.505	77.06
280.736	99.06
280.968	80.06
281.199	89.06
281.431	82.06
281.662	79.06
281.894	105.06
282.125	106.06
282.356	147.06
282.588	177.06
282.819	145.06
283.051	97.06
283.282	96.06
283.513	94.06
283.745	85.06
283.976	83.06
284.207	95.06
284.439	76.06
284.67	79.06
284.901	91.06
285.132	84.06
285.364	77.06
285.595	99.06
285.826	82.06
286.057	88.06
286.288	87.06
286.52	100.06
286.751	87.06
286.982	88.06
287.213	82.06
287.444	93.06
287.675	94.06
287.906	75.06
288.138	103.06
288.369	96.06
288.6	101.06
288.831	81.06
289.062	95.06
289.293	81.06
289.524	70.06
289.755	79.06
289.986	73.06
290.217	84.06
290.448	94.06
290.679	96.06
290.91	89.06
291.141	80.06
291.371	81.06
291.602	83.06
291.833	76.06
292.064	76.06
292.295	86.06
292.526	86.06
292.757	84.06
292.987	93.06
293.218	99.06
293.449	95.06
293.68	96.06
293.91	84.06
294.141	101.06
294.372	87.06
294.603	89.06
294.833	88.06
295.064	88.06
295.295	96.06
295.525	96.06
295.756	105.06
295.987	136.06
296.217	181.06
296.448	139.06
296.679	96.06
296.909	92.06
297.14	83.06
297.37	94.06
297.601	92.06
297.831	89.06
298.062	101.06
298.292	110.06
298.523	83.06
298.753	83.06
298.984	94.06
299.214	79.06
299.445	100.06
299.675	95.06
299.905	95.06
300.136	96.06
300.366	90.06
300.597	102.06
300.827	93.06
301.057	110.06
301.288	117.06
301.518	99.06
301.748	80.06
301.979	106.06
302.209	91.06
302.439	98.06
302.669	82.06
302.9	81.06
303.13	83.06
303.36	92.06
303.59	110.06
303.82	119.06
304.051	106.06
304.281	91.06
304.511	98.06
304.741	96.06
304.971	88.06
305.201	97.06
305.431	86.06
305.661	86.06
305.891	84.06
306.121	117.06
306.352	103.06
306.582	122.06
306.812	96.06
307.042	91.06
307.272	103.06
307.502	84.06
307.731	97.06
307.961	77.06
308.191	80.06
308.421	85.06
308.651	99.06
308.881	83.06
309.111	93.06
309.341	101.06
309.571	108.06
309.8	109.06
310.03	102.06
310.26	98.06
310.49	115.06
310.72	102.06
310.949	112.06
311.179	118.06
311.409	110.06
311.639	115.06
311.868	105.06
312.098	91.06
312.328	111.06
312.557	124.06
312.787	125.06
313.017	102.06
313.246	106.06
313.476	90.06
313.706	104.06
313.935	108.06
314.165	115.06
314.394	111.06
314.624	123.06
314.853	104.06
315.083	97.06
315.312	111.06
315.542	103.06
315.771	100.06
316.001	91.06
316.23	96.06
316.46	90.06
316.689	90.06
316.919	90.06
317.148	88.06
317.377	91.06
317.607	86.06
317.836	91.06
318.065	101.06
318.295	92.06
318.524	81.06
318.753	94.06
318.983	90.06
319.212	109.06
319.441	118.06
319.67	131.06
319.9	96.06
320.129	89.06
320.358	87.06
320.587	101.06
320.816	119.06
321.046	121.06
321.275	103.06
321.504	102.06
321.733	109.06
321.962	88.06
322.191	117.06
322.42	109.06
322.649	113.06
322.878	130.06
323.108	127.06
323.337	140.06
323.566	148.06
323.795	194.06
324.024	263.06
324.253	563.06
324.482	1207.06
324.71	2584.06
324.939	3360.06
325.168	1205.06
325.397	344.06
325.626	183.06
325.855	155.06
326.084	149.06
326.313	143.06
326.542	174.06
326.77	291.06
326.999	646.06
327.228	1333.06
327.457	2447.06
327.686	1879.06
327.914	503.06
328.143	247.06
328.372	194.06
328.6	149.06
328.829	151.06
329.058	164.06
329.287	154.06
329.515	127.06
329.744	110.06
329.972	129.06
330.201	106.06
330.43	118.06
330.658	164.06
330.887	197.06
331.115	159.06
331.344	108.06
331.572	104.06
331.801	117.06
332.03	107.06
332.258	113.06
332.486	89.06
332.715	97.06
332.943	90.06
333.172	94.06
333.4	95.06
333.629	118.06
333.857	126.06
334.085	109.06
334.314	104.06
334.542	104.06
334.771	115.06
334.999	110.06
335.227	91.06
335.455	116.06
335.684	114.06
335.912	80.06
336.14	102.06
336.369	109.06
336.597	107.06
336.825	96.06
337.053	99.06
337.281	107.06
337.51	81.06
337.738	100.06
337.966	121.06
338.194	104.06
338.422	92.06
338.65	89.06
338.878	95.06
339.106	99.06
339.334	89.06
339.562	106.06
339.79	98.06
340.018	106.06
340.246	96.06
340.474	104.06
340.702	104.06
340.93	94.06
341.158	104.06
341.386	99.06
341.614	108.06
341.842	103.06
342.07	103.06
342.298	104.06
342.526	96.06
342.754	93.06
342.981	97.06
343.209	90.06
343.437	99.06
343.665	100.06
343.893	81.06
344.12	93.06
344.348	91.06
344.576	104.06
344.804	100.06
345.031	110.06
345.259	99.06
345.487	119.06
345.714	113.06
345.942	95.06
346.17	86.06
346.397	96.06
346.625	98.06
346.853	100.06
347.08	95.06
347.308	108.06
347.535	93.06
347.763	109.06
347.99	109.06
348.218	110.06
348.445	115.06
348.673	107.06
348.9	95.06
349.128	99.06
349.355	86.06
349.583	70.06
349.81	100.06
350.037	104.06
350.265	95.06
350.492	92.06
350.72	101.06
350.947	113.06
351.174	125.06
351.402	117.06
351.629	107.06
351.856	119.06
352.083	115.06
352.311	136.06
352.538	130.06
352.765	125.06
352.992	116.06
353.22	119.06
353.447	117.06
353.674	120.06
353.901	92.06
354.128	101.06
354.355	102.06
354.583	94.06
354.81	94.06
355.037	86.06
355.264	109.06
355.491	96.06
355.718	95.06
355.945	91.06
356.172	93.06
356.399	94.06
356.626	90.06
356.853	96.06
357.08	97.06
357.307	98.06
357.534	101.06
357.761	92.06
357.988	94.06
358.215	84.06
358.441	97.06
358.668	95.06
358.895	79.06
359.122	91.06
359.349	89.06
359.576	99.06
359.802	112.06
360.029	133.06
360.256	142.06
360.483	128.06
360.709	99.06
360.936	101.06
361.163	96.06
361.39	99.06
361.616	93.06
361.843	94.06
362.07	103.06
362.296	115.06
362.523	102.06
362.749	99.06
362.976	100.06
363.203	96.06
363.429	90.06
363.656	82.06
363.882	104.06
364.109	97.06
364.335	81.06
364.562	95.06
364.788	106.06
365.015	100.06
365.241	99.06
365.468	112.06
365.694	118.06
365.92	96.06
366.147	95.06
366.373	92.06
366.599	104.06
366.826	97.06
367.052	86.06
367.278	91.06
367.505	93.06
367.731	101.06
367.957	93.06
368.184	97.06
368.41	109.06
368.636	122.06
368.862	115.06
369.089	131.06
369.315	98.06
369.541	88.06
369.767	86.06
369.993	102.06
370.219	84.06
370.445	79.06
370.672	97.06
370.898	91.06
371.124	83.06
371.35	89.06
371.576	88.06
371.802	88.06
372.028	100.06
372.254	90.06
372.48	89.06
372.706	86.06
372.932	91.06
373.158	91.06
373.384	95.06
373.61	91.06
373.835	92.06
374.061	90.06
374.287	111.06
374.513	93.06
374.739	81.06
374.965	89.06
375.191	74.06
375.416	91.06
375.642	79.06
375.868	86.06
376.094	94.06
376.319	91.06
376.545	82.06
376.771	85.06
376.997	86.06
377.222	102.06
377.448	100.06
377.674	81.06
377.899	98.06
378.125	107.06
378.35	96.06
378.576	99.06
378.802	89.06
379.027	89.06
379.253	91.06
379.478	95.06
379.704	101.06
379.929	95.06
380.155	97.06
380.38	102.06
380.606	92.06
380.831	94.06
381.057	95.06
381.282	94.06
381.507	95.06
381.733	103.06
381.958	83.06
382.184	110.06
382.409	94.06
382.634	112.06
382.86	101.06
383.085	120.06
383.31	101.06
383.535	104.06
383.761	108.06
383.986	101.06
384.211	93.06
384.436	101.06
384.662	101.06
384.887	95.06
385.112	109.06
385.337	112.06
385.562	101.06
385.787	104.06
386.013	115.06
386.238	123.06
386.463	110.06
386.688	111.06
386.913	104.06
387.138	116.06
387.363	123.06
387.588	99.06
387.813	90.06
388.038	105.06
388.263	112.06
388.488	100.06
388.713	102.06
388.938	97.06
389.163	95.06
389.387	106.06
389.612	108.06
389.837	95.06
390.062	117.06
390.287	91.06
390.512	79.06
390.736	95.06
390.961	99.06
391.186	107.06
391.411	84.06
391.636	91.06
391.86	90.06
392.085	92.06
392.31	94.06
392.534	84.06
392.759	106.06
392.984	98.06
393.208	93.06
393.433	110.06
393.658	99.06
393.882	94.06
394.107	85.06
394.331	90.06
394.556	98.06
394.78	103.06
395.005	89.06
395.229	88.06
395.454	93.06
395.678	85.06
395.903	93.06
396.127	81.06
396.352	95.06
396.576	95.06
396.801	97.06
397.025	99.06
397.249	67.06
397.474	77.06
397.698	86.06
397.922	97.06
398.147	99.06
398.371	101.06
398.595	87.06
398.82	78.06
399.044	88.06
399.268	96.06
399.492	86.06
399.717	99.06
399.941	102.06
400.165	71.06
400.389	101.06
400.613	92.06
400.837	82.06
401.062	91.06
401.286	112.06
401.51	89.06
401.734	92.06
401.958	106.06
402.182	161.06
402.406	197.06
402.63	157.06
402.854	104.06
403.078	109.06
403.302	94.06
403.526	100.06
403.75	97.06
403.974	96.06
404.198	86.06
404.422	95.06
404.645	95.06
404.869	100.06
405.093	109.06
405.317	108.06
405.541	123.06
405.765	109.06
405.988	143.06
406.212	237.06
406.436	321.06
406.66	204.06
406.883	127.06
407.107	115.06
407.331	109.06
407.555	110.06
407.778	101.06
408.002	91.06
408.226	80.06
408.449	94.06
408.673	93.06
408.896	97.06
409.12	100.06
409.344	89.06
409.567	82.06
409.791	67.06
410.014	99.06
410.238	101.06
410.461	94.06
410.685	95.06
410.908	97.06
411.132	111.06
411.355	117.06
411.578	99.06
411.802	87.06
412.025	93.06
412.249	87.06
412.472	104.06
412.695	88.06
412.919	79.06
413.142	102.06
413.365	80.06
413.589	80.06
413.812	93.06
414.035	89.06
414.258	96.06
414.482	107.06
414.705	96.06
414.928	103.06
415.151	107.06
415.374	99.06
415.597	84.06
415.821	78.06
416.044	93.06
416.267	99.06
416.49	84.06
416.713	93.06
416.936	95.06
417.159	91.06
417.382	90.06
417.605	102.06
417.828	103.06
418.051	101.06
418.274	106.06
418.497	85.06
418.72	87.06
418.943	83.06
419.166	94.06
419.389	104.06
419.611	85.06
419.834	96.06
420.057	115.06
420.28	96.06
420.503	84.06
420.726	91.06
420.948	93.06
421.171	90.06
421.394	83.06
421.617	99.06
421.839	96.06
422.062	76.06
422.285	95.06
422.507	99.06
422.73	106.06
422.953	92.06
423.175	100.06
423.398	89.06
423.621	89.06
423.843	90.06
424.066	93.06
424.288	86.06
424.511	88.06
424.733	90.06
424.956	117.06
425.178	112.06
425.401	111.06
425.623	97.06
425.846	95.06
426.068	112.06
426.291	100.06
426.513	96.06
426.735	96.06
426.958	93.06
427.18	125.06
427.402	170.06
427.625	220.06
427.847	155.06
428.069	113.06
428.292	96.06
428.514	93.06
428.736	93.06
428.958	72.06
429.181	85.06
429.403	102.06
429.625	84.06
429.847	93.06
430.069	108.06
430.292	84.06
430.514	88.06
430.736	88.06
430.958	98.06
431.18	79.06
431.402	88.06
431.624	87.06
431.846	78.06
432.068	85.06
432.29	89.06
432.512	93.06
432.734	85.06
432.956	98.06
433.178	100.06
433.4	116.06
433.622	107.06
433.844	96.06
434.066	98.06
434.287	98.06
434.509	94.06
434.731	101.06
434.953	101.06
435.175	86.06
435.397	94.06
435.618	96.06
435.84	108.06
436.062	149.06
436.284	129.06
436.505	110.06
436.727	117.06
436.949	95.06
437.17	91.06
437.392	106.06
437.614	94.06
437.835	129.06
438.057	142.06
438.278	122.06
438.5	105.06
438.721	121.06
438.943	104.06
439.165	85.06
439.386	96.06
439.608	96.06
439.829	105.06
440.05	148.06
440.272	187.06
440.493	100.06
440.715	83.06
440.936	85.06
441.158	97.06
441.379	85.06
441.6	98.06
441.822	93.06
442.043	94.06
442.264	119.06
442.486	104.06
442.707	91.06
442.928	134.06
443.149	160.06
443.371	176.06
443.592	123.06
443.813	133.06
444.034	117.06
444.255	94.06
444.476	91.06
444.698	90.06
444.919	91.06
445.14	127.06
445.361	144.06
445.582	154.06
445.803	178.06
446.024	163.06
446.245	163.06
446.466	118.06
446.687	87.06
446.908	99.06
447.129	78.06
447.35	92.06
447.571	108.06
447.792	92.06
448.013	90.06
448.234	122.06
448.455	117.06
448.675	118.06
448.896	122.06
449.117	105.06
449.338	125.06
449.559	146.06
449.779	143.06
450	83.06
450.221	94.06
450.442	94.06
450.662	103.06
450.883	122.06
451.104	149.06
451.324	91.06
451.545	89.06
451.766	92.06
451.986	84.06
452.207	95.06
452.428	102.06
452.648	106.06
452.869	127.06
453.089	124.06
453.31	149.06
453.53	102.06
453.751	101.06
453.971	122.06
454.192	131.06
454.412	100.06
454.633	88.06
454.853	86.06
455.073	93.06
455.294	104.06
455.514	104.06
455.734	91.06
455.955	80.06
456.175	84.06
456.395	98.06
456.616	86.06
456.836	81.06
457.056	94.06
457.276	78.06
457.497	80.06
457.717	96.06
457.937	86.06
458.157	100.06
458.377	84.06
458.598	117.06
458.818	216.06
459.038	216.06
459.258	128.06
459.478	87.06
459.698	96.06
459.918	78.06
460.138	93.06
460.358	69.06
460.578	83.06
460.798	82.06
461.018	93.06
461.238	94.06
461.458	85.06
461.678	93.06
461.898	93.06
462.118	92.06
462.338	93.06
462.558	94.06
462.777	96.06
462.997	89.06
463.217	92.06
463.437	75.06
463.657	87.06
463.876	73.06
464.096	82.06
464.316	97.06
464.536	108.06
464.755	115.06
464.975	146.06
465.195	259.06
465.414	208.06
465.634	109.06
465.854	86.06
466.073	82.06
466.293	81.06
466.512	90.06
466.732	86.06
466.951	83.06
467.171	101.06
467.391	109.06
467.61	122.06
467.829	101.06
468.049	90.06
468.268	89.06
468.488	86.06
468.707	87.06
468.927	79.06
469.146	100.06
469.365	107.06
469.585	90.06
469.804	104.06
470.023	106.06
470.243	95.06
470.462	112.06
470.681	127.06
470.901	99.06
471.12	94.06
471.339	97.06
471.558	87.06
471.777	97.06
471.997	75.06
472.216	94.06
472.435	116.06
472.654	100.06
472.873	85.06
473.092	92.06
473.311	82.06
473.53	93.06
473.749	97.06
473.968	96.06
474.187	101.06
474.406	89.06
474.625	80.06
474.844	78.06
475.063	93.06
475.282	81.06
475.501	84.06
475.72	80.06
475.939	79.06
476.158	80.06
476.377	85.06
476.596	65.06
476.814	104.06
477.033	95.06
477.252	111.06
477.471	92.06
477.69	106.06
477.908	91.06
478.127	91.06
478.346	76.06
478.564	85.06
478.783	118.06
479.002	99.06
479.22	102.06
479.439	118.06
479.658	131.06
479.876	105.06
480.095	95.06
480.313	104.06
480.532	76.06
480.751	82.06
480.969	92.06
481.188	124.06
481.406	104.06
481.624	96.06
481.843	88.06
482.061	91.06
482.28	96.06
482.498	80.06
482.717	92.06
482.935	89.06
483.153	99.06
483.372	85.06
483.59	94.06
483.808	89.06
484.027	96.06
484.245	97.06
484.463	96.06
484.681	87.06
484.9	91.06
485.118	105.06
485.336	93.06
485.554	104.06
485.772	98.06
485.99	123.06
486.209	102.06
486.427	111.06
486.645	106.06
486.863	103.06
487.081	85.06
487.299	103.06
487.517	88.06
487.735	89.06
487.953	90.06
488.171	101.06
488.389	101.06
488.607	115.06
488.825	100.06
489.043	87.06
489.261	103.06
489.479	97.06
489.696	81.06
489.914	89.06
490.132	94.06
490.35	82.06
490.568	98.06
490.786	92.06
491.003	94.06
491.221	81.06
491.439	101.06
491.657	105.06
491.874	87.06
492.092	109.06
492.31	96.06
492.527	82.06
492.745	100.06
492.963	90.06
493.18	87.06
493.398	92.06
493.615	91.06
493.833	92.06
494.05	103.06
494.268	96.06
494.485	89.06
494.703	90.06
494.92	90.06
495.138	90.06
495.355	88.06
495.573	87.06
495.79	86.06
496.008	97.06
496.225	97.06
496.442	89.06
496.66	88.06
496.877	88.06
497.094	106.06
497.312	85.06
497.529	84.06
497.746	92.06
497.963	95.06
498.181	106.06
498.398	89.06
498.615	115.06
498.832	107.06
499.049	87.06
499.267	104.06
499.484	88.06
499.701	84.06
499.918	90.06
500.135	92.06
500.352	114.06
500.569	86.06
500.786	87.06
501.003	94.06
501.22	91.06
501.437	77.06
501.654	85.06
501.871	122.06
502.088	98.06
502.305	91.06
502.522	89.06
502.739	105.06
502.956	95.06
503.172	94.06
503.389	105.06
503.606	119.06
503.823	92.06
504.04	91.06
504.256	93.06
504.473	97.06
504.69	97.06
504.907	90.06
505.123	87.06
505.34	96.06
505.557	90.06
505.773	87.06
505.99	107.06
506.207	99.06
506.423	92.06
506.64	93.06
506.856	96.06
507.073	97.06
507.289	95.06
507.506	119.06
507.722	134.06
507.939	135.06
508.155	113.06
508.372	101.06
508.588	90.06
508.805	113.06
509.021	99.06
509.238	104.06
509.454	105.06
509.67	116.06
509.887	113.06
510.103	145.06
510.319	278.06
510.536	1063.06
510.752	3635.06
510.968	995.06
511.184	197.06
511.401	127.06
511.617	109.06
511.833	99.06
512.049	102.06
512.265	101.06
512.481	96.06
512.698	86.06
512.914	92.06
513.13	89.06
513.346	95.06
513.562	101.06
513.778	104.06
