Data from Circ_2012_H10_HRD10591_00061.txt Node
Date: Wed Jan 03 10:06:02 EST 2024
User: Yrep
Spectrometer: HR+D1059
Trigger mode: 1
Integration Time (sec): 1.000000E-1
Scans to average: 1
Electric dark correction enabled: true
Nonlinearity correction enabled: false
Boxcar width: 0
XAxis mode: Wavelengths
Number of Pixels in Spectrum: 2048
>>>>>Begin Spectral Data<<<<<
223.165	-13.12
223.4	-13.12
223.635	-13.12
223.869	-16.12
224.104	-29.12
224.338	-10.12
224.573	-8.12
224.808	-15.12
225.042	5.88
225.277	-5.12
225.511	-2.12
225.746	-7.12
225.98	17.88
226.215	10.88
226.449	10.88
226.683	14.88
226.918	22.88
227.152	22.88
227.387	46.88
227.621	32.88
227.856	37.88
228.09	33.88
228.324	38.88
228.559	56.88
228.793	63.88
229.027	66.88
229.262	66.88
229.496	61.88
229.73	72.88
229.964	84.88
230.199	63.88
230.433	70.88
230.667	82.88
230.901	73.88
231.136	67.88
231.37	80.88
231.604	64.88
231.838	68.88
232.072	67.88
232.306	85.88
232.541	69.88
232.775	83.88
233.009	78.88
233.243	79.88
233.477	56.88
233.711	64.88
233.945	74.88
234.179	86.88
234.413	69.88
234.647	76.88
234.881	74.88
235.115	70.88
235.349	71.88
235.583	87.88
235.817	63.88
236.051	63.88
236.285	69.88
236.519	75.88
236.753	66.88
236.987	68.88
237.221	70.88
237.455	97.88
237.689	68.88
237.922	74.88
238.156	74.88
238.39	81.88
238.624	65.88
238.858	74.88
239.091	71.88
239.325	75.88
239.559	78.88
239.793	72.88
240.027	70.88
240.26	74.88
240.494	74.88
240.728	76.88
240.961	74.88
241.195	88.88
241.429	80.88
241.662	66.88
241.896	60.88
242.13	88.88
242.363	70.88
242.597	49.88
242.83	81.88
243.064	66.88
243.298	71.88
243.531	59.88
243.765	72.88
243.998	72.88
244.232	81.88
244.465	70.88
244.699	77.88
244.932	72.88
245.166	84.88
245.399	74.88
245.633	70.88
245.866	74.88
246.099	76.88
246.333	80.88
246.566	79.88
246.8	81.88
247.033	85.88
247.266	71.88
247.5	89.88
247.733	87.88
247.966	65.88
248.2	82.88
248.433	86.88
248.666	64.88
248.899	88.88
249.133	72.88
249.366	77.88
249.599	77.88
249.832	86.88
250.066	70.88
250.299	84.88
250.532	87.88
250.765	78.88
250.998	88.88
251.231	81.88
251.465	74.88
251.698	79.88
251.931	85.88
252.164	79.88
252.397	78.88
252.63	57.88
252.863	82.88
253.096	69.88
253.329	69.88
253.562	81.88
253.795	75.88
254.028	77.88
254.261	81.88
254.494	80.88
254.727	73.88
254.96	91.88
255.193	67.88
255.426	79.88
255.659	63.88
255.892	69.88
256.124	79.88
256.357	83.88
256.59	79.88
256.823	89.88
257.056	81.88
257.289	66.88
257.521	82.88
257.754	88.88
257.987	86.88
258.22	92.88
258.452	65.88
258.685	77.88
258.918	75.88
259.151	80.88
259.383	61.88
259.616	59.88
259.849	79.88
260.081	79.88
260.314	79.88
260.547	67.88
260.779	74.88
261.012	86.88
261.244	67.88
261.477	93.88
261.71	95.88
261.942	105.88
262.175	99.88
262.407	79.88
262.64	74.88
262.872	88.88
263.105	82.88
263.337	80.88
263.57	82.88
263.802	78.88
264.035	72.88
264.267	79.88
264.499	80.88
264.732	93.88
264.964	71.88
265.197	90.88
265.429	81.88
265.661	75.88
265.894	71.88
266.126	77.88
266.358	90.88
266.591	70.88
266.823	71.88
267.055	82.88
267.287	63.88
267.52	82.88
267.752	85.88
267.984	86.88
268.216	84.88
268.448	83.88
268.681	85.88
268.913	86.88
269.145	90.88
269.377	69.88
269.609	90.88
269.841	81.88
270.073	75.88
270.306	83.88
270.538	82.88
270.77	77.88
271.002	93.88
271.234	71.88
271.466	91.88
271.698	94.88
271.93	79.88
272.162	85.88
272.394	85.88
272.626	85.88
272.858	75.88
273.09	83.88
273.322	84.88
273.553	87.88
273.785	82.88
274.017	79.88
274.249	94.88
274.481	77.88
274.713	75.88
274.945	70.88
275.176	75.88
275.408	89.88
275.64	79.88
275.872	73.88
276.104	76.88
276.335	96.88
276.567	97.88
276.799	104.88
277.031	76.88
277.262	79.88
277.494	76.88
277.726	82.88
277.957	88.88
278.189	75.88
278.421	95.88
278.652	77.88
278.884	89.88
279.115	90.88
279.347	83.88
279.579	81.88
279.81	82.88
280.042	96.88
280.273	91.88
280.505	94.88
280.736	72.88
280.968	76.88
281.199	89.88
281.431	71.88
281.662	85.88
281.894	79.88
282.125	85.88
282.356	100.88
282.588	130.88
282.819	94.88
283.051	100.88
283.282	77.88
283.513	90.88
283.745	75.88
283.976	79.88
284.207	79.88
284.439	83.88
284.67	87.88
284.901	73.88
285.132	78.88
285.364	85.88
285.595	92.88
285.826	88.88
286.057	86.88
286.288	83.88
286.52	67.88
286.751	86.88
286.982	70.88
287.213	90.88
287.444	89.88
287.675	89.88
287.906	68.88
288.138	81.88
288.369	80.88
288.6	76.88
288.831	80.88
289.062	73.88
289.293	88.88
289.524	87.88
289.755	82.88
289.986	69.88
290.217	99.88
290.448	76.88
290.679	71.88
290.91	82.88
291.141	89.88
291.371	82.88
291.602	80.88
291.833	90.88
292.064	71.88
292.295	81.88
292.526	87.88
292.757	85.88
292.987	76.88
293.218	89.88
293.449	87.88
293.68	81.88
293.91	84.88
294.141	87.88
294.372	78.88
294.603	94.88
294.833	99.88
295.064	83.88
295.295	90.88
295.525	75.88
295.756	102.88
295.987	104.88
296.217	124.88
296.448	114.88
296.679	88.88
296.909	86.88
297.14	95.88
297.37	88.88
297.601	85.88
297.831	80.88
298.062	90.88
298.292	94.88
298.523	86.88
298.753	97.88
298.984	81.88
299.214	72.88
299.445	93.88
299.675	82.88
299.905	75.88
300.136	79.88
300.366	96.88
300.597	87.88
300.827	85.88
301.057	79.88
301.288	96.88
301.518	83.88
301.748	87.88
301.979	101.88
302.209	86.88
302.439	74.88
302.669	82.88
302.9	82.88
303.13	79.88
303.36	66.88
303.59	97.88
303.82	118.88
304.051	93.88
304.281	111.88
304.511	93.88
304.741	89.88
304.971	85.88
305.201	74.88
305.431	79.88
305.661	80.88
305.891	96.88
306.121	97.88
306.352	86.88
306.582	84.88
306.812	102.88
307.042	82.88
307.272	93.88
307.502	103.88
307.731	96.88
307.961	87.88
308.191	105.88
308.421	93.88
308.651	72.88
308.881	87.88
309.111	72.88
309.341	79.88
309.571	91.88
309.8	95.88
310.03	94.88
310.26	87.88
310.49	82.88
310.72	88.88
310.949	79.88
311.179	81.88
311.409	83.88
311.639	68.88
311.868	75.88
312.098	78.88
312.328	90.88
312.557	89.88
312.787	102.88
313.017	81.88
313.246	85.88
313.476	82.88
313.706	87.88
313.935	102.88
314.165	117.88
314.394	86.88
314.624	95.88
314.853	81.88
315.083	95.88
315.312	81.88
315.542	82.88
315.771	94.88
316.001	96.88
316.23	89.88
316.46	88.88
316.689	81.88
316.919	94.88
317.148	94.88
317.377	96.88
317.607	101.88
317.836	94.88
318.065	81.88
318.295	98.88
318.524	85.88
318.753	84.88
318.983	82.88
319.212	91.88
319.441	101.88
319.67	121.88
319.9	85.88
320.129	92.88
320.358	91.88
320.587	89.88
320.816	83.88
321.046	89.88
321.275	83.88
321.504	88.88
321.733	84.88
321.962	92.88
322.191	93.88
322.42	102.88
322.649	99.88
322.878	105.88
323.108	113.88
323.337	120.88
323.566	118.88
323.795	138.88
324.024	195.88
324.253	358.88
324.482	738.88
324.71	1495.88
324.939	1967.88
325.168	720.88
325.397	221.88
325.626	141.88
325.855	107.88
326.084	111.88
326.313	127.88
326.542	143.88
326.77	190.88
326.999	412.88
327.228	843.88
327.457	1533.88
327.686	1227.88
327.914	346.88
328.143	185.88
328.372	146.88
328.6	122.88
328.829	117.88
329.058	110.88
329.287	117.88
329.515	97.88
329.744	117.88
329.972	103.88
330.201	128.88
330.43	142.88
330.658	136.88
330.887	116.88
331.115	124.88
331.344	111.88
331.572	106.88
331.801	95.88
332.03	103.88
332.258	93.88
332.486	90.88
332.715	90.88
332.943	89.88
333.172	104.88
333.4	96.88
333.629	104.88
333.857	130.88
334.085	116.88
334.314	113.88
334.542	167.88
334.771	156.88
334.999	102.88
335.227	83.88
335.455	108.88
335.684	91.88
335.912	92.88
336.14	98.88
336.369	112.88
336.597	91.88
336.825	82.88
337.053	87.88
337.281	93.88
337.51	84.88
337.738	95.88
337.966	88.88
338.194	95.88
338.422	91.88
338.65	79.88
338.878	94.88
339.106	81.88
339.334	101.88
339.562	87.88
339.79	89.88
340.018	85.88
340.246	63.88
340.474	89.88
340.702	91.88
340.93	96.88
341.158	90.88
341.386	93.88
341.614	74.88
341.842	83.88
342.07	86.88
342.298	82.88
342.526	85.88
342.754	89.88
342.981	79.88
343.209	80.88
343.437	96.88
343.665	91.88
343.893	83.88
344.12	76.88
344.348	83.88
344.576	87.88
344.804	89.88
345.031	77.88
345.259	87.88
345.487	81.88
345.714	84.88
345.942	81.88
346.17	97.88
346.397	105.88
346.625	76.88
346.853	82.88
347.08	93.88
347.308	83.88
347.535	96.88
347.763	102.88
347.99	101.88
348.218	92.88
348.445	86.88
348.673	96.88
348.9	91.88
349.128	100.88
349.355	88.88
349.583	90.88
349.81	98.88
350.037	92.88
350.265	79.88
350.492	98.88
350.72	94.88
350.947	89.88
351.174	92.88
351.402	105.88
351.629	92.88
351.856	94.88
352.083	90.88
352.311	106.88
352.538	91.88
352.765	97.88
352.992	107.88
353.22	106.88
353.447	86.88
353.674	87.88
353.901	88.88
354.128	90.88
354.355	79.88
354.583	100.88
354.81	96.88
355.037	70.88
355.264	85.88
355.491	91.88
355.718	90.88
355.945	94.88
356.172	85.88
356.399	87.88
356.626	85.88
356.853	91.88
357.08	91.88
357.307	96.88
357.534	99.88
357.761	82.88
357.988	94.88
358.215	93.88
358.441	83.88
358.668	84.88
358.895	89.88
359.122	85.88
359.349	85.88
359.576	89.88
359.802	94.88
360.029	93.88
360.256	105.88
360.483	85.88
360.709	74.88
360.936	91.88
361.163	84.88
361.39	92.88
361.616	83.88
361.843	83.88
362.07	113.88
362.296	94.88
362.523	72.88
362.749	93.88
362.976	75.88
363.203	79.88
363.429	80.88
363.656	94.88
363.882	86.88
364.109	92.88
364.335	84.88
364.562	90.88
364.788	83.88
365.015	101.88
365.241	101.88
365.468	111.88
365.694	95.88
365.92	86.88
366.147	83.88
366.373	71.88
366.599	90.88
366.826	93.88
367.052	92.88
367.278	78.88
367.505	73.88
367.731	93.88
367.957	97.88
368.184	78.88
368.41	90.88
368.636	94.88
368.862	113.88
369.089	106.88
369.315	58.88
369.541	80.88
369.767	96.88
369.993	74.88
370.219	89.88
370.445	80.88
370.672	82.88
370.898	86.88
371.124	87.88
371.35	83.88
371.576	93.88
371.802	81.88
372.028	93.88
372.254	89.88
372.48	80.88
372.706	86.88
372.932	84.88
373.158	82.88
373.384	88.88
373.61	80.88
373.835	82.88
374.061	78.88
374.287	87.88
374.513	93.88
374.739	86.88
374.965	90.88
375.191	91.88
375.416	89.88
375.642	95.88
375.868	92.88
376.094	94.88
376.319	81.88
376.545	85.88
376.771	86.88
376.997	87.88
377.222	74.88
377.448	94.88
377.674	96.88
377.899	91.88
378.125	87.88
378.35	96.88
378.576	93.88
378.802	86.88
379.027	80.88
379.253	86.88
379.478	88.88
379.704	86.88
379.929	90.88
380.155	111.88
380.38	96.88
380.606	86.88
380.831	103.88
381.057	92.88
381.282	86.88
381.507	83.88
381.733	100.88
381.958	87.88
382.184	110.88
382.409	93.88
382.634	102.88
382.86	94.88
383.085	80.88
383.31	82.88
383.535	90.88
383.761	90.88
383.986	82.88
384.211	90.88
384.436	94.88
384.662	88.88
384.887	101.88
385.112	107.88
385.337	102.88
385.562	99.88
385.787	89.88
386.013	117.88
386.238	102.88
386.463	109.88
386.688	102.88
386.913	85.88
387.138	98.88
387.363	83.88
387.588	93.88
387.813	101.88
388.038	98.88
388.263	115.88
388.488	113.88
388.713	104.88
388.938	83.88
389.163	89.88
389.387	98.88
389.612	97.88
389.837	98.88
390.062	71.88
390.287	93.88
390.512	92.88
390.736	94.88
390.961	81.88
391.186	91.88
391.411	98.88
391.636	87.88
391.86	84.88
392.085	80.88
392.31	78.88
392.534	79.88
392.759	80.88
392.984	67.88
393.208	64.88
393.433	75.88
393.658	82.88
393.882	94.88
394.107	85.88
394.331	86.88
394.556	100.88
394.78	91.88
395.005	74.88
395.229	80.88
395.454	82.88
395.678	79.88
395.903	81.88
396.127	80.88
396.352	101.88
396.576	73.88
396.801	85.88
397.025	83.88
397.249	96.88
397.474	76.88
397.698	88.88
397.922	78.88
398.147	84.88
398.371	98.88
398.595	76.88
398.82	87.88
399.044	84.88
399.268	83.88
399.492	94.88
399.717	87.88
399.941	94.88
400.165	100.88
400.389	84.88
400.613	93.88
400.837	81.88
401.062	89.88
401.286	82.88
401.51	95.88
401.734	94.88
401.958	94.88
402.182	116.88
402.406	154.88
402.63	113.88
402.854	93.88
403.078	69.88
403.302	81.88
403.526	77.88
403.75	86.88
403.974	83.88
404.198	87.88
404.422	75.88
404.645	84.88
404.869	89.88
405.093	78.88
405.317	96.88
405.541	94.88
405.765	102.88
405.988	112.88
406.212	152.88
406.436	214.88
406.66	126.88
406.883	91.88
407.107	99.88
407.331	94.88
407.555	86.88
407.778	90.88
408.002	97.88
408.226	103.88
408.449	95.88
408.673	89.88
408.896	90.88
409.12	93.88
409.344	88.88
409.567	85.88
409.791	88.88
410.014	105.88
410.238	71.88
410.461	84.88
410.685	95.88
410.908	89.88
411.132	108.88
411.355	107.88
411.578	91.88
411.802	86.88
412.025	90.88
412.249	81.88
412.472	93.88
412.695	95.88
412.919	87.88
413.142	82.88
413.365	91.88
413.589	90.88
413.812	79.88
414.035	83.88
414.258	87.88
414.482	89.88
414.705	96.88
414.928	99.88
415.151	91.88
415.374	87.88
415.597	88.88
415.821	77.88
416.044	64.88
416.267	85.88
416.49	82.88
416.713	82.88
416.936	98.88
417.159	101.88
417.382	86.88
417.605	81.88
417.828	102.88
418.051	87.88
418.274	74.88
418.497	86.88
418.72	102.88
418.943	90.88
419.166	96.88
419.389	95.88
419.611	94.88
419.834	97.88
420.057	67.88
420.28	106.88
420.503	81.88
420.726	90.88
420.948	84.88
421.171	89.88
421.394	101.88
421.617	94.88
421.839	99.88
422.062	77.88
422.285	86.88
422.507	85.88
422.73	106.88
422.953	88.88
423.175	88.88
423.398	80.88
423.621	86.88
423.843	80.88
424.066	88.88
424.288	79.88
424.511	91.88
424.733	87.88
424.956	95.88
425.178	94.88
425.401	95.88
425.623	87.88
425.846	88.88
426.068	80.88
426.291	94.88
426.513	94.88
426.735	101.88
426.958	99.88
427.18	96.88
427.402	127.88
427.625	153.88
427.847	117.88
428.069	98.88
428.292	85.88
428.514	83.88
428.736	87.88
428.958	100.88
429.181	109.88
429.403	83.88
429.625	94.88
429.847	101.88
430.069	90.88
430.292	95.88
430.514	70.88
430.736	90.88
430.958	87.88
431.18	84.88
431.402	70.88
431.624	93.88
431.846	71.88
432.068	90.88
432.29	79.88
432.512	80.88
432.734	90.88
432.956	71.88
433.178	94.88
433.4	98.88
433.622	95.88
433.844	89.88
434.066	79.88
434.287	73.88
434.509	88.88
434.731	90.88
434.953	79.88
435.175	87.88
435.397	69.88
435.618	103.88
435.84	83.88
436.062	116.88
436.284	99.88
436.505	92.88
436.727	105.88
436.949	94.88
437.17	78.88
437.392	90.88
437.614	72.88
437.835	90.88
438.057	99.88
438.278	93.88
438.5	98.88
438.721	112.88
438.943	101.88
439.165	77.88
439.386	82.88
439.608	95.88
439.829	95.88
440.05	105.88
440.272	130.88
440.493	102.88
440.715	80.88
440.936	69.88
441.158	88.88
441.379	82.88
441.6	94.88
441.822	86.88
442.043	90.88
442.264	106.88
442.486	88.88
442.707	88.88
442.928	97.88
443.149	106.88
443.371	117.88
443.592	110.88
443.813	105.88
444.034	93.88
444.255	92.88
444.476	85.88
444.698	88.88
444.919	69.88
445.14	124.88
445.361	114.88
445.582	110.88
445.803	124.88
446.024	121.88
446.245	119.88
446.466	95.88
446.687	71.88
446.908	87.88
447.129	91.88
447.35	84.88
447.571	87.88
447.792	81.88
448.013	91.88
448.234	100.88
448.455	99.88
448.675	92.88
448.896	108.88
449.117	88.88
449.338	104.88
449.559	122.88
449.779	127.88
450	93.88
450.221	94.88
450.442	75.88
450.662	84.88
450.883	100.88
451.104	98.88
451.324	75.88
451.545	93.88
451.766	80.88
451.986	88.88
452.207	82.88
452.428	91.88
452.648	98.88
452.869	90.88
453.089	102.88
453.31	90.88
453.53	79.88
453.751	95.88
453.971	90.88
454.192	97.88
454.412	93.88
454.633	81.88
454.853	86.88
455.073	99.88
455.294	89.88
455.514	94.88
455.734	82.88
455.955	81.88
456.175	83.88
456.395	85.88
456.616	72.88
456.836	83.88
457.056	85.88
457.276	84.88
457.497	82.88
457.717	80.88
457.937	77.88
458.157	83.88
458.377	75.88
458.598	99.88
458.818	126.88
459.038	152.88
459.258	113.88
459.478	93.88
459.698	93.88
459.918	81.88
460.138	80.88
460.358	96.88
460.578	89.88
460.798	84.88
461.018	77.88
461.238	89.88
461.458	72.88
461.678	84.88
461.898	67.88
462.118	81.88
462.338	81.88
462.558	75.88
462.777	83.88
462.997	93.88
463.217	83.88
463.437	97.88
463.657	88.88
463.876	88.88
464.096	92.88
464.316	88.88
464.536	89.88
464.755	92.88
464.975	89.88
465.195	133.88
465.414	150.88
465.634	90.88
465.854	87.88
466.073	88.88
466.293	86.88
466.512	84.88
466.732	71.88
466.951	91.88
467.171	89.88
467.391	88.88
467.61	112.88
467.829	100.88
468.049	112.88
468.268	125.88
468.488	85.88
468.707	84.88
468.927	91.88
469.146	94.88
469.365	83.88
469.585	88.88
469.804	94.88
470.023	85.88
470.243	94.88
470.462	100.88
470.681	101.88
470.901	87.88
471.12	93.88
471.339	99.88
471.558	74.88
471.777	83.88
471.997	94.88
472.216	131.88
472.435	182.88
472.654	81.88
472.873	92.88
473.092	82.88
473.311	88.88
473.53	88.88
473.749	85.88
473.968	91.88
474.187	100.88
474.406	99.88
474.625	89.88
474.844	83.88
475.063	90.88
475.282	91.88
475.501	93.88
475.72	81.88
475.939	83.88
476.158	82.88
476.377	90.88
476.596	94.88
476.814	83.88
477.033	87.88
477.252	97.88
477.471	73.88
477.69	96.88
477.908	69.88
478.127	76.88
478.346	86.88
478.564	74.88
478.783	83.88
479.002	87.88
479.22	97.88
479.439	91.88
479.658	102.88
479.876	99.88
480.095	86.88
480.313	83.88
480.532	87.88
480.751	92.88
480.969	130.88
481.188	269.88
481.406	187.88
481.624	82.88
481.843	96.88
482.061	78.88
482.28	81.88
482.498	81.88
482.717	83.88
482.935	79.88
483.153	80.88
483.372	85.88
483.59	78.88
483.808	81.88
484.027	87.88
484.245	90.88
484.463	81.88
484.681	92.88
484.9	85.88
485.118	91.88
485.336	83.88
485.554	83.88
485.772	90.88
485.99	102.88
486.209	89.88
486.427	92.88
486.645	111.88
486.863	97.88
487.081	93.88
487.299	105.88
487.517	88.88
487.735	65.88
487.953	88.88
488.171	92.88
488.389	91.88
488.607	91.88
488.825	88.88
489.043	81.88
489.261	83.88
489.479	83.88
489.696	82.88
489.914	70.88
490.132	73.88
490.35	86.88
490.568	81.88
490.786	83.88
491.003	81.88
491.221	63.88
491.439	84.88
491.657	86.88
491.874	84.88
492.092	83.88
492.31	91.88
492.527	85.88
492.745	91.88
492.963	80.88
493.18	88.88
493.398	96.88
493.615	67.88
493.833	78.88
494.05	80.88
494.268	86.88
494.485	84.88
494.703	98.88
494.92	75.88
495.138	77.88
495.355	86.88
495.573	86.88
495.79	96.88
496.008	87.88
496.225	81.88
496.442	76.88
496.66	81.88
496.877	86.88
497.094	71.88
497.312	79.88
497.529	82.88
497.746	92.88
497.963	80.88
498.181	80.88
498.398	104.88
498.615	106.88
498.832	84.88
499.049	86.88
499.267	94.88
499.484	80.88
499.701	76.88
499.918	82.88
500.135	76.88
500.352	84.88
500.569	94.88
500.786	90.88
501.003	91.88
501.22	85.88
501.437	88.88
501.654	89.88
501.871	94.88
502.088	92.88
502.305	79.88
502.522	89.88
502.739	73.88
502.956	81.88
503.172	101.88
503.389	82.88
503.606	94.88
503.823	88.88
504.04	93.88
504.256	86.88
504.473	85.88
504.69	77.88
504.907	99.88
505.123	84.88
505.34	95.88
505.557	85.88
505.773	75.88
505.99	85.88
506.207	80.88
506.423	81.88
506.64	67.88
506.856	91.88
507.073	91.88
507.289	85.88
507.506	88.88
507.722	122.88
507.939	97.88
508.155	86.88
508.372	93.88
508.588	85.88
508.805	86.88
509.021	94.88
509.238	116.88
509.454	88.88
509.67	99.88
509.887	113.88
510.103	114.88
510.319	182.88
510.536	692.88
510.752	2271.88
510.968	646.88
511.184	147.88
511.401	103.88
511.617	96.88
511.833	84.88
512.049	87.88
512.265	65.88
512.481	78.88
512.698	82.88
512.914	88.88
513.13	91.88
513.346	82.88
513.562	82.88
513.778	94.88
513.994	88.88
514.21	90.88
514.426	115.88
514.642	130.88
514.858	117.88
515.074	165.88
515.29	390.88
515.506	1291.88
515.721	498.88
515.937	146.88
516.153	116.88
516.369	85.88
516.585	96.88
516.801	91.88
517.016	92.88
517.232	106.88
