Data from Circ_2012_H10_HRD10591_00030.txt Node
Date: Wed Jan 03 10:05:56 EST 2024
User: Yrep
Spectrometer: HR+D1059
Trigger mode: 1
Integration Time (sec): 1.000000E-1
Scans to average: 1
Electric dark correction enabled: true
Nonlinearity correction enabled: false
Boxcar width: 0
XAxis mode: Wavelengths
Number of Pixels in Spectrum: 2048
>>>>>Begin Spectral Data<<<<<
223.165	-13.75
223.4	-13.75
223.635	-13.75
223.869	-37.75
224.104	-15.75
224.338	-12.75
224.573	-6.75
224.808	-11.75
225.042	-0.75
225.277	-8.75
225.511	-10.75
225.746	-0.75
225.98	6.25
226.215	21.25
226.449	16.25
226.683	19.25
226.918	24.25
227.152	32.25
227.387	36.25
227.621	44.25
227.856	55.25
228.09	43.25
228.324	60.25
228.559	51.25
228.793	62.25
229.027	56.25
229.262	77.25
229.496	68.25
229.73	86.25
229.964	76.25
230.199	83.25
230.433	94.25
230.667	65.25
230.901	79.25
231.136	77.25
231.37	78.25
231.604	77.25
231.838	89.25
232.072	70.25
232.306	84.25
232.541	80.25
232.775	81.25
233.009	62.25
233.243	77.25
233.477	76.25
233.711	101.25
233.945	64.25
234.179	66.25
234.413	67.25
234.647	81.25
234.881	93.25
235.115	101.25
235.349	81.25
235.583	83.25
235.817	77.25
236.051	72.25
236.285	69.25
236.519	72.25
236.753	91.25
236.987	87.25
237.221	91.25
237.455	82.25
237.689	79.25
237.922	74.25
238.156	61.25
238.39	66.25
238.624	75.25
238.858	88.25
239.091	88.25
239.325	78.25
239.559	76.25
239.793	53.25
240.027	83.25
240.26	81.25
240.494	80.25
240.728	79.25
240.961	78.25
241.195	66.25
241.429	90.25
241.662	76.25
241.896	80.25
242.13	77.25
242.363	77.25
242.597	80.25
242.83	75.25
243.064	74.25
243.298	79.25
243.531	75.25
243.765	72.25
243.998	74.25
244.232	72.25
244.465	69.25
244.699	95.25
244.932	74.25
245.166	85.25
245.399	68.25
245.633	88.25
245.866	68.25
246.099	77.25
246.333	81.25
246.566	85.25
246.8	74.25
247.033	71.25
247.266	77.25
247.5	71.25
247.733	61.25
247.966	69.25
248.2	79.25
248.433	79.25
248.666	84.25
248.899	80.25
249.133	100.25
249.366	95.25
249.599	104.25
249.832	79.25
250.066	87.25
250.299	80.25
250.532	83.25
250.765	65.25
250.998	64.25
251.231	64.25
251.465	89.25
251.698	74.25
251.931	88.25
252.164	73.25
252.397	81.25
252.63	87.25
252.863	88.25
253.096	87.25
253.329	90.25
253.562	63.25
253.795	78.25
254.028	63.25
254.261	80.25
254.494	84.25
254.727	71.25
254.96	78.25
255.193	78.25
255.426	72.25
255.659	90.25
255.892	79.25
256.124	86.25
256.357	93.25
256.59	87.25
256.823	88.25
257.056	84.25
257.289	89.25
257.521	85.25
257.754	64.25
257.987	76.25
258.22	82.25
258.452	83.25
258.685	78.25
258.918	78.25
259.151	75.25
259.383	83.25
259.616	78.25
259.849	87.25
260.081	95.25
260.314	76.25
260.547	86.25
260.779	82.25
261.012	79.25
261.244	85.25
261.477	92.25
261.71	86.25
261.942	116.25
262.175	125.25
262.407	96.25
262.64	80.25
262.872	89.25
263.105	88.25
263.337	71.25
263.57	101.25
263.802	82.25
264.035	82.25
264.267	88.25
264.499	78.25
264.732	100.25
264.964	86.25
265.197	82.25
265.429	84.25
265.661	81.25
265.894	88.25
266.126	79.25
266.358	86.25
266.591	89.25
266.823	80.25
267.055	94.25
267.287	82.25
267.52	90.25
267.752	85.25
267.984	82.25
268.216	93.25
268.448	86.25
268.681	81.25
268.913	73.25
269.145	85.25
269.377	76.25
269.609	87.25
269.841	80.25
270.073	82.25
270.306	86.25
270.538	80.25
270.77	92.25
271.002	99.25
271.234	85.25
271.466	83.25
271.698	78.25
271.93	94.25
272.162	82.25
272.394	69.25
272.626	80.25
272.858	85.25
273.09	84.25
273.322	87.25
273.553	91.25
273.785	96.25
274.017	76.25
274.249	83.25
274.481	82.25
274.713	87.25
274.945	82.25
275.176	76.25
275.408	79.25
275.64	87.25
275.872	75.25
276.104	89.25
276.335	89.25
276.567	104.25
276.799	114.25
277.031	116.25
277.262	86.25
277.494	76.25
277.726	89.25
277.957	96.25
278.189	87.25
278.421	77.25
278.652	92.25
278.884	69.25
279.115	87.25
279.347	83.25
279.579	88.25
279.81	86.25
280.042	71.25
280.273	76.25
280.505	93.25
280.736	91.25
280.968	84.25
281.199	87.25
281.431	82.25
281.662	87.25
281.894	84.25
282.125	91.25
282.356	110.25
282.588	139.25
282.819	113.25
283.051	91.25
283.282	95.25
283.513	84.25
283.745	74.25
283.976	79.25
284.207	82.25
284.439	78.25
284.67	74.25
284.901	80.25
285.132	85.25
285.364	70.25
285.595	86.25
285.826	84.25
286.057	88.25
286.288	86.25
286.52	85.25
286.751	87.25
286.982	84.25
287.213	89.25
287.444	84.25
287.675	99.25
287.906	85.25
288.138	95.25
288.369	99.25
288.6	104.25
288.831	85.25
289.062	85.25
289.293	98.25
289.524	82.25
289.755	83.25
289.986	83.25
290.217	87.25
290.448	87.25
290.679	94.25
290.91	85.25
291.141	84.25
291.371	79.25
291.602	76.25
291.833	74.25
292.064	93.25
292.295	90.25
292.526	100.25
292.757	94.25
292.987	88.25
293.218	76.25
293.449	90.25
293.68	93.25
293.91	93.25
294.141	96.25
294.372	84.25
294.603	96.25
294.833	101.25
295.064	103.25
295.295	95.25
295.525	87.25
295.756	102.25
295.987	123.25
296.217	148.25
296.448	138.25
296.679	98.25
296.909	98.25
297.14	87.25
297.37	95.25
297.601	79.25
297.831	92.25
298.062	91.25
298.292	92.25
298.523	84.25
298.753	80.25
298.984	79.25
299.214	80.25
299.445	95.25
299.675	99.25
299.905	116.25
300.136	96.25
300.366	83.25
300.597	94.25
300.827	98.25
301.057	88.25
301.288	102.25
301.518	96.25
301.748	80.25
301.979	102.25
302.209	83.25
302.439	85.25
302.669	103.25
302.9	91.25
303.13	93.25
303.36	78.25
303.59	100.25
303.82	91.25
304.051	93.25
304.281	85.25
304.511	94.25
304.741	96.25
304.971	87.25
305.201	76.25
305.431	87.25
305.661	93.25
305.891	92.25
306.121	104.25
306.352	107.25
306.582	122.25
306.812	95.25
307.042	110.25
307.272	91.25
307.502	101.25
307.731	84.25
307.961	93.25
308.191	87.25
308.421	98.25
308.651	98.25
308.881	102.25
309.111	86.25
309.341	90.25
309.571	104.25
309.8	101.25
310.03	88.25
310.26	95.25
310.49	95.25
310.72	105.25
310.949	95.25
311.179	99.25
311.409	102.25
311.639	91.25
311.868	95.25
312.098	93.25
312.328	104.25
312.557	83.25
312.787	101.25
313.017	104.25
313.246	100.25
313.476	85.25
313.706	82.25
313.935	89.25
314.165	102.25
314.394	93.25
314.624	94.25
314.853	113.25
315.083	106.25
315.312	87.25
315.542	98.25
315.771	96.25
316.001	84.25
316.23	100.25
316.46	97.25
316.689	103.25
316.919	93.25
317.148	111.25
317.377	107.25
317.607	88.25
317.836	85.25
318.065	91.25
318.295	99.25
318.524	78.25
318.753	88.25
318.983	106.25
319.212	106.25
319.441	116.25
319.67	97.25
319.9	86.25
320.129	107.25
320.358	99.25
320.587	87.25
320.816	90.25
321.046	118.25
321.275	105.25
321.504	103.25
321.733	100.25
321.962	98.25
322.191	100.25
322.42	98.25
322.649	102.25
322.878	107.25
323.108	123.25
323.337	122.25
323.566	135.25
323.795	156.25
324.024	209.25
324.253	426.25
324.482	916.25
324.71	1858.25
324.939	2442.25
325.168	893.25
325.397	266.25
325.626	152.25
325.855	126.25
326.084	130.25
326.313	140.25
326.542	148.25
326.77	244.25
326.999	498.25
327.228	996.25
327.457	1865.25
327.686	1469.25
327.914	391.25
328.143	205.25
328.372	167.25
328.6	118.25
328.829	122.25
329.058	134.25
329.287	111.25
329.515	86.25
329.744	114.25
329.972	96.25
330.201	117.25
330.43	141.25
330.658	118.25
330.887	125.25
331.115	123.25
331.344	98.25
331.572	100.25
331.801	100.25
332.03	111.25
332.258	98.25
332.486	102.25
332.715	91.25
332.943	91.25
333.172	115.25
333.4	109.25
333.629	107.25
333.857	113.25
334.085	110.25
334.314	106.25
334.542	141.25
334.771	133.25
334.999	108.25
335.227	99.25
335.455	92.25
335.684	104.25
335.912	94.25
336.14	94.25
336.369	91.25
336.597	103.25
336.825	98.25
337.053	94.25
337.281	89.25
337.51	81.25
337.738	111.25
337.966	89.25
338.194	107.25
338.422	110.25
338.65	92.25
338.878	88.25
339.106	81.25
339.334	98.25
339.562	86.25
339.79	90.25
340.018	96.25
340.246	103.25
340.474	87.25
340.702	80.25
340.93	84.25
341.158	83.25
341.386	93.25
341.614	99.25
341.842	94.25
342.07	92.25
342.298	109.25
342.526	83.25
342.754	87.25
342.981	91.25
343.209	86.25
343.437	104.25
343.665	102.25
343.893	89.25
344.12	105.25
344.348	82.25
344.576	93.25
344.804	79.25
345.031	98.25
345.259	97.25
345.487	85.25
345.714	99.25
345.942	90.25
346.17	89.25
346.397	101.25
346.625	101.25
346.853	99.25
347.08	92.25
347.308	95.25
347.535	105.25
347.763	116.25
347.99	94.25
348.218	105.25
348.445	103.25
348.673	108.25
348.9	114.25
349.128	85.25
349.355	97.25
349.583	90.25
349.81	83.25
350.037	95.25
350.265	101.25
350.492	97.25
350.72	99.25
350.947	98.25
351.174	106.25
351.402	111.25
351.629	99.25
351.856	95.25
352.083	101.25
352.311	119.25
352.538	101.25
352.765	104.25
352.992	97.25
353.22	114.25
353.447	120.25
353.674	96.25
353.901	107.25
354.128	98.25
354.355	86.25
354.583	81.25
354.81	98.25
355.037	94.25
355.264	96.25
355.491	103.25
355.718	105.25
355.945	90.25
356.172	93.25
356.399	99.25
356.626	91.25
356.853	87.25
357.08	86.25
357.307	101.25
357.534	87.25
357.761	94.25
357.988	102.25
358.215	109.25
358.441	91.25
358.668	84.25
358.895	99.25
359.122	93.25
359.349	88.25
359.576	100.25
359.802	90.25
360.029	112.25
360.256	105.25
360.483	89.25
360.709	100.25
360.936	109.25
361.163	98.25
361.39	95.25
361.616	104.25
361.843	97.25
362.07	110.25
362.296	95.25
362.523	87.25
362.749	93.25
362.976	84.25
363.203	114.25
363.429	92.25
363.656	99.25
363.882	93.25
364.109	95.25
364.335	84.25
364.562	84.25
364.788	83.25
365.015	99.25
365.241	119.25
365.468	105.25
365.694	88.25
365.92	91.25
366.147	107.25
366.373	86.25
366.599	94.25
366.826	89.25
367.052	84.25
367.278	84.25
367.505	85.25
367.731	93.25
367.957	86.25
368.184	89.25
368.41	98.25
368.636	101.25
368.862	114.25
369.089	126.25
369.315	116.25
369.541	104.25
369.767	100.25
369.993	101.25
370.219	92.25
370.445	82.25
370.672	84.25
370.898	85.25
371.124	82.25
371.35	79.25
371.576	90.25
371.802	86.25
372.028	86.25
372.254	89.25
372.48	88.25
372.706	81.25
372.932	95.25
373.158	87.25
373.384	89.25
373.61	83.25
373.835	89.25
374.061	82.25
374.287	93.25
374.513	80.25
374.739	93.25
374.965	92.25
375.191	93.25
375.416	87.25
375.642	92.25
375.868	92.25
376.094	91.25
376.319	98.25
376.545	93.25
376.771	91.25
376.997	101.25
377.222	99.25
377.448	104.25
377.674	87.25
377.899	98.25
378.125	78.25
378.35	95.25
378.576	95.25
378.802	112.25
379.027	100.25
379.253	88.25
379.478	90.25
379.704	84.25
379.929	90.25
380.155	91.25
380.38	87.25
380.606	95.25
380.831	101.25
381.057	112.25
381.282	101.25
381.507	102.25
381.733	91.25
381.958	103.25
382.184	106.25
382.409	92.25
382.634	98.25
382.86	94.25
383.085	94.25
383.31	114.25
383.535	102.25
383.761	74.25
383.986	99.25
384.211	100.25
384.436	97.25
384.662	99.25
384.887	105.25
385.112	98.25
385.337	118.25
385.562	92.25
385.787	111.25
386.013	125.25
386.238	99.25
386.463	100.25
386.688	98.25
386.913	106.25
387.138	100.25
387.363	99.25
387.588	102.25
387.813	98.25
388.038	111.25
388.263	109.25
388.488	110.25
388.713	101.25
388.938	102.25
389.163	92.25
389.387	110.25
389.612	111.25
389.837	82.25
390.062	87.25
390.287	100.25
390.512	101.25
390.736	90.25
390.961	104.25
391.186	90.25
391.411	99.25
391.636	89.25
391.86	90.25
392.085	84.25
392.31	80.25
392.534	83.25
392.759	84.25
392.984	87.25
393.208	101.25
393.433	81.25
393.658	98.25
393.882	73.25
394.107	98.25
394.331	100.25
394.556	93.25
394.78	94.25
395.005	92.25
395.229	92.25
395.454	88.25
395.678	93.25
395.903	96.25
396.127	104.25
396.352	79.25
396.576	84.25
396.801	101.25
397.025	93.25
397.249	88.25
397.474	94.25
397.698	78.25
397.922	98.25
398.147	78.25
398.371	80.25
398.595	100.25
398.82	76.25
399.044	84.25
399.268	80.25
399.492	74.25
399.717	92.25
399.941	99.25
400.165	90.25
400.389	96.25
400.613	106.25
400.837	97.25
401.062	89.25
401.286	93.25
401.51	92.25
401.734	96.25
401.958	89.25
402.182	126.25
402.406	168.25
402.63	109.25
402.854	99.25
403.078	84.25
403.302	91.25
403.526	86.25
403.75	97.25
403.974	104.25
404.198	97.25
404.422	81.25
404.645	86.25
404.869	100.25
405.093	92.25
405.317	105.25
405.541	92.25
405.765	98.25
405.988	114.25
406.212	182.25
406.436	243.25
406.66	154.25
406.883	101.25
407.107	96.25
407.331	105.25
407.555	102.25
407.778	83.25
408.002	97.25
408.226	85.25
408.449	88.25
408.673	94.25
408.896	80.25
409.12	84.25
409.344	92.25
409.567	70.25
409.791	101.25
410.014	86.25
410.238	103.25
410.461	96.25
410.685	97.25
410.908	116.25
411.132	109.25
411.355	89.25
411.578	84.25
411.802	93.25
412.025	91.25
412.249	94.25
412.472	85.25
412.695	92.25
412.919	77.25
413.142	98.25
413.365	94.25
413.589	81.25
413.812	91.25
414.035	105.25
414.258	95.25
414.482	84.25
414.705	101.25
414.928	84.25
415.151	87.25
415.374	84.25
415.597	95.25
415.821	86.25
416.044	88.25
416.267	84.25
416.49	87.25
416.713	87.25
416.936	85.25
417.159	95.25
417.382	73.25
417.605	78.25
417.828	86.25
418.051	94.25
418.274	71.25
418.497	79.25
418.72	83.25
418.943	88.25
419.166	86.25
419.389	107.25
419.611	100.25
419.834	96.25
420.057	89.25
420.28	80.25
420.503	92.25
420.726	82.25
420.948	91.25
421.171	99.25
421.394	89.25
421.617	82.25
421.839	94.25
422.062	85.25
422.285	79.25
422.507	99.25
422.73	121.25
422.953	94.25
423.175	89.25
423.398	92.25
423.621	85.25
423.843	92.25
424.066	95.25
424.288	93.25
424.511	99.25
424.733	104.25
424.956	113.25
425.178	80.25
425.401	96.25
425.623	109.25
425.846	99.25
426.068	99.25
426.291	85.25
426.513	99.25
426.735	103.25
426.958	92.25
427.18	114.25
427.402	125.25
427.625	175.25
427.847	131.25
428.069	116.25
428.292	83.25
428.514	87.25
428.736	91.25
428.958	84.25
429.181	73.25
429.403	84.25
429.625	90.25
429.847	94.25
430.069	99.25
430.292	99.25
430.514	90.25
430.736	83.25
430.958	82.25
431.18	87.25
431.402	99.25
431.624	78.25
431.846	73.25
432.068	86.25
432.29	70.25
432.512	92.25
432.734	95.25
432.956	90.25
433.178	98.25
433.4	95.25
433.622	101.25
433.844	93.25
434.066	79.25
434.287	97.25
434.509	85.25
434.731	98.25
434.953	87.25
435.175	79.25
435.397	100.25
435.618	96.25
435.84	102.25
436.062	125.25
436.284	110.25
436.505	98.25
436.727	102.25
436.949	98.25
437.17	92.25
437.392	87.25
437.614	103.25
437.835	98.25
438.057	122.25
438.278	116.25
438.5	115.25
438.721	120.25
438.943	111.25
439.165	99.25
439.386	73.25
439.608	114.25
439.829	90.25
440.05	117.25
440.272	132.25
440.493	108.25
440.715	95.25
440.936	87.25
441.158	88.25
441.379	99.25
441.6	94.25
441.822	83.25
442.043	92.25
442.264	122.25
442.486	97.25
442.707	100.25
442.928	104.25
443.149	125.25
443.371	141.25
443.592	109.25
443.813	116.25
444.034	104.25
444.255	91.25
444.476	98.25
444.698	84.25
444.919	92.25
445.14	133.25
445.361	126.25
445.582	112.25
445.803	154.25
446.024	134.25
446.245	150.25
446.466	115.25
446.687	94.25
446.908	88.25
447.129	94.25
447.35	88.25
447.571	87.25
447.792	103.25
448.013	93.25
448.234	109.25
448.455	95.25
448.675	107.25
448.896	118.25
449.117	104.25
449.338	118.25
449.559	123.25
449.779	137.25
450	98.25
450.221	86.25
450.442	90.25
450.662	102.25
450.883	117.25
451.104	115.25
451.324	95.25
451.545	85.25
451.766	90.25
451.986	72.25
452.207	80.25
452.428	93.25
452.648	97.25
452.869	109.25
453.089	121.25
453.31	128.25
453.53	114.25
453.751	86.25
453.971	92.25
454.192	114.25
454.412	98.25
454.633	96.25
454.853	87.25
455.073	88.25
455.294	98.25
455.514	102.25
455.734	86.25
455.955	87.25
456.175	81.25
456.395	74.25
456.616	85.25
456.836	94.25
457.056	67.25
457.276	92.25
457.497	87.25
457.717	71.25
457.937	80.25
458.157	82.25
458.377	89.25
458.598	119.25
458.818	167.25
459.038	175.25
459.258	133.25
459.478	104.25
459.698	80.25
459.918	83.25
460.138	91.25
460.358	80.25
460.578	78.25
460.798	85.25
461.018	88.25
461.238	87.25
461.458	92.25
461.678	96.25
461.898	80.25
462.118	81.25
462.338	74.25
462.558	88.25
462.777	88.25
462.997	95.25
463.217	86.25
463.437	80.25
463.657	79.25
463.876	77.25
464.096	84.25
464.316	102.25
464.536	110.25
464.755	95.25
464.975	115.25
465.195	163.25
465.414	168.25
465.634	118.25
465.854	83.25
466.073	89.25
466.293	86.25
466.512	101.25
466.732	87.25
466.951	96.25
467.171	102.25
467.391	94.25
467.61	119.25
467.829	89.25
468.049	88.25
468.268	102.25
468.488	88.25
468.707	94.25
468.927	112.25
469.146	80.25
469.365	92.25
469.585	94.25
469.804	105.25
470.023	98.25
470.243	82.25
470.462	113.25
470.681	100.25
470.901	90.25
471.12	76.25
471.339	72.25
471.558	90.25
471.777	98.25
471.997	99.25
472.216	101.25
472.435	136.25
472.654	107.25
472.873	93.25
473.092	81.25
473.311	78.25
473.53	92.25
473.749	81.25
473.968	96.25
474.187	99.25
474.406	93.25
474.625	95.25
474.844	85.25
475.063	89.25
475.282	84.25
475.501	79.25
475.72	80.25
475.939	74.25
476.158	92.25
476.377	87.25
476.596	102.25
476.814	95.25
477.033	92.25
477.252	70.25
477.471	88.25
477.69	97.25
477.908	107.25
478.127	95.25
478.346	88.25
478.564	79.25
478.783	94.25
479.002	101.25
479.22	99.25
479.439	101.25
479.658	103.25
479.876	100.25
480.095	77.25
480.313	90.25
480.532	88.25
480.751	95.25
480.969	130.25
481.188	185.25
481.406	158.25
481.624	101.25
481.843	76.25
482.061	89.25
482.28	92.25
482.498	89.25
482.717	89.25
482.935	93.25
483.153	76.25
483.372	91.25
483.59	72.25
483.808	89.25
484.027	92.25
484.245	78.25
484.463	94.25
484.681	93.25
484.9	91.25
485.118	98.25
485.336	91.25
485.554	95.25
485.772	100.25
485.99	107.25
486.209	109.25
486.427	107.25
486.645	108.25
486.863	105.25
487.081	96.25
487.299	99.25
487.517	98.25
487.735	94.25
487.953	106.25
488.171	90.25
488.389	102.25
488.607	107.25
488.825	82.25
489.043	79.25
489.261	89.25
489.479	92.25
489.696	99.25
489.914	90.25
490.132	101.25
490.35	100.25
490.568	91.25
490.786	86.25
491.003	95.25
491.221	94.25
491.439	91.25
491.657	88.25
491.874	106.25
492.092	91.25
492.31	103.25
492.527	94.25
492.745	93.25
492.963	85.25
493.18	97.25
493.398	110.25
493.615	92.25
493.833	93.25
494.05	95.25
494.268	66.25
494.485	90.25
494.703	92.25
494.92	93.25
495.138	76.25
495.355	99.25
495.573	94.25
495.79	91.25
496.008	96.25
496.225	111.25
496.442	96.25
496.66	92.25
496.877	86.25
497.094	91.25
497.312	104.25
497.529	77.25
497.746	80.25
497.963	94.25
498.181	88.25
498.398	107.25
498.615	118.25
498.832	107.25
499.049	91.25
499.267	93.25
499.484	80.25
499.701	101.25
499.918	100.25
500.135	95.25
500.352	105.25
500.569	95.25
500.786	84.25
501.003	91.25
501.22	91.25
501.437	87.25
501.654	84.25
501.871	99.25
502.088	92.25
502.305	95.25
502.522	110.25
502.739	105.25
502.956	96.25
503.172	97.25
503.389	87.25
503.606	107.25
503.823	94.25
504.04	99.25
504.256	110.25
504.473	81.25
504.69	106.25
504.907	102.25
505.123	94.25
505.34	105.25
505.557	95.25
505.773	90.25
505.99	94.25
506.207	102.25
506.423	103.25
506.64	85.25
506.856	90.25
507.073	99.25
507.289	94.25
507.506	98.25
507.722	130.25
507.939	116.25
508.155	100.25
508.372	89.25
508.588	95.25
508.805	77.25
509.021	92.25
509.238	96.25
509.454	111.25
509.67	103.25
509.887	117.25
510.103	145.25
510.319	229.25
510.536	843.25
510.752	2799.25
510.968	771.25
511.184	173.25
511.401	104.25
511.617	98.25
511.833	101.25
512.049	99.25
512.265	99.25
512.481	94.25
512.698	88.25
512.914	95.25
513.13	88.25
513.346	89.25
513.562	96.25
513.778	101.25
513.994	100.25
514.21	101.25
514.426	122.25
514.642	152.25
514.858	133.25
515.074	182.25
