Data from Circ_2012_H10_HRD10591_00032.txt Node
Date: Wed Jan 03 10:05:56 EST 2024
User: Yrep
Spectrometer: HR+D1059
Trigger mode: 1
Integration Time (sec): 1.000000E-1
Scans to average: 1
Electric dark correction enabled: true
Nonlinearity correction enabled: false
Boxcar width: 0
XAxis mode: Wavelengths
Number of Pixels in Spectrum: 2048
>>>>>Begin Spectral Data<<<<<
223.165	-14.81
223.4	-14.81
223.635	-14.81
223.869	-19.81
224.104	-15.81
224.338	-12.81
224.573	-23.81
224.808	-7.81
225.042	-7.81
225.277	-9.81
225.511	1.19
225.746	-2.81
225.98	14.19
226.215	15.19
226.449	2.19
226.683	21.19
226.918	28.19
227.152	33.19
227.387	43.19
227.621	32.19
227.856	55.19
228.09	54.19
228.324	56.19
228.559	47.19
228.793	61.19
229.027	73.19
229.262	79.19
229.496	72.19
229.73	78.19
229.964	79.19
230.199	77.19
230.433	58.19
230.667	73.19
230.901	85.19
231.136	76.19
231.37	80.19
231.604	64.19
231.838	87.19
232.072	88.19
232.306	88.19
232.541	88.19
232.775	74.19
233.009	85.19
233.243	81.19
233.477	85.19
233.711	88.19
233.945	81.19
234.179	90.19
234.413	85.19
234.647	76.19
234.881	77.19
235.115	81.19
235.349	73.19
235.583	72.19
235.817	104.19
236.051	83.19
236.285	77.19
236.519	82.19
236.753	69.19
236.987	78.19
237.221	94.19
237.455	76.19
237.689	73.19
237.922	79.19
238.156	72.19
238.39	85.19
238.624	77.19
238.858	87.19
239.091	85.19
239.325	89.19
239.559	96.19
239.793	77.19
240.027	90.19
240.26	72.19
240.494	79.19
240.728	55.19
240.961	68.19
241.195	85.19
241.429	80.19
241.662	79.19
241.896	65.19
242.13	81.19
242.363	95.19
242.597	82.19
242.83	80.19
243.064	92.19
243.298	93.19
243.531	90.19
243.765	72.19
243.998	74.19
244.232	85.19
244.465	86.19
244.699	55.19
244.932	80.19
245.166	86.19
245.399	75.19
245.633	73.19
245.866	78.19
246.099	77.19
246.333	87.19
246.566	67.19
246.8	84.19
247.033	74.19
247.266	86.19
247.5	89.19
247.733	73.19
247.966	81.19
248.2	84.19
248.433	62.19
248.666	76.19
248.899	94.19
249.133	77.19
249.366	104.19
249.599	105.19
249.832	84.19
250.066	98.19
250.299	79.19
250.532	71.19
250.765	85.19
250.998	81.19
251.231	78.19
251.465	85.19
251.698	82.19
251.931	79.19
252.164	81.19
252.397	84.19
252.63	79.19
252.863	88.19
253.096	79.19
253.329	79.19
253.562	86.19
253.795	71.19
254.028	85.19
254.261	87.19
254.494	83.19
254.727	82.19
254.96	80.19
255.193	75.19
255.426	67.19
255.659	77.19
255.892	83.19
256.124	72.19
256.357	82.19
256.59	79.19
256.823	81.19
257.056	77.19
257.289	74.19
257.521	68.19
257.754	82.19
257.987	93.19
258.22	86.19
258.452	81.19
258.685	85.19
258.918	66.19
259.151	80.19
259.383	89.19
259.616	78.19
259.849	67.19
260.081	87.19
260.314	85.19
260.547	79.19
260.779	84.19
261.012	89.19
261.244	102.19
261.477	91.19
261.71	86.19
261.942	119.19
262.175	125.19
262.407	88.19
262.64	93.19
262.872	98.19
263.105	86.19
263.337	90.19
263.57	78.19
263.802	76.19
264.035	84.19
264.267	93.19
264.499	84.19
264.732	73.19
264.964	91.19
265.197	75.19
265.429	77.19
265.661	79.19
265.894	96.19
266.126	77.19
266.358	85.19
266.591	92.19
266.823	88.19
267.055	93.19
267.287	97.19
267.52	87.19
267.752	84.19
267.984	103.19
268.216	84.19
268.448	83.19
268.681	76.19
268.913	84.19
269.145	90.19
269.377	96.19
269.609	83.19
269.841	80.19
270.073	84.19
270.306	90.19
270.538	86.19
270.77	90.19
271.002	94.19
271.234	82.19
271.466	80.19
271.698	91.19
271.93	90.19
272.162	94.19
272.394	86.19
272.626	93.19
272.858	75.19
273.09	96.19
273.322	83.19
273.553	84.19
273.785	89.19
274.017	90.19
274.249	77.19
274.481	83.19
274.713	86.19
274.945	80.19
275.176	77.19
275.408	82.19
275.64	101.19
275.872	93.19
276.104	99.19
276.335	104.19
276.567	106.19
276.799	107.19
277.031	101.19
277.262	88.19
277.494	93.19
277.726	82.19
277.957	79.19
278.189	82.19
278.421	76.19
278.652	88.19
278.884	82.19
279.115	83.19
279.347	81.19
279.579	92.19
279.81	95.19
280.042	85.19
280.273	90.19
280.505	88.19
280.736	72.19
280.968	80.19
281.199	86.19
281.431	89.19
281.662	86.19
281.894	93.19
282.125	99.19
282.356	108.19
282.588	135.19
282.819	112.19
283.051	96.19
283.282	103.19
283.513	85.19
283.745	93.19
283.976	85.19
284.207	86.19
284.439	88.19
284.67	86.19
284.901	87.19
285.132	76.19
285.364	95.19
285.595	84.19
285.826	92.19
286.057	78.19
286.288	74.19
286.52	86.19
286.751	91.19
286.982	88.19
287.213	77.19
287.444	76.19
287.675	86.19
287.906	83.19
288.138	108.19
288.369	96.19
288.6	83.19
288.831	84.19
289.062	93.19
289.293	81.19
289.524	92.19
289.755	86.19
289.986	88.19
290.217	86.19
290.448	95.19
290.679	88.19
290.91	81.19
291.141	86.19
291.371	89.19
291.602	77.19
291.833	80.19
292.064	91.19
292.295	86.19
292.526	101.19
292.757	86.19
292.987	89.19
293.218	81.19
293.449	91.19
293.68	80.19
293.91	95.19
294.141	97.19
294.372	83.19
294.603	83.19
294.833	87.19
295.064	95.19
295.295	94.19
295.525	101.19
295.756	106.19
295.987	121.19
296.217	142.19
296.448	125.19
296.679	94.19
296.909	87.19
297.14	88.19
297.37	96.19
297.601	84.19
297.831	79.19
298.062	87.19
298.292	81.19
298.523	96.19
298.753	103.19
298.984	100.19
299.214	92.19
299.445	98.19
299.675	96.19
299.905	87.19
300.136	93.19
300.366	84.19
300.597	84.19
300.827	87.19
301.057	99.19
301.288	105.19
301.518	86.19
301.748	82.19
301.979	95.19
302.209	91.19
302.439	98.19
302.669	85.19
302.9	98.19
303.13	98.19
303.36	93.19
303.59	101.19
303.82	121.19
304.051	83.19
304.281	99.19
304.511	82.19
304.741	94.19
304.971	80.19
305.201	89.19
305.431	88.19
305.661	91.19
305.891	98.19
306.121	91.19
306.352	91.19
306.582	85.19
306.812	86.19
307.042	100.19
307.272	87.19
307.502	85.19
307.731	104.19
307.961	91.19
308.191	110.19
308.421	95.19
308.651	95.19
308.881	101.19
309.111	100.19
309.341	103.19
309.571	101.19
309.8	95.19
310.03	100.19
310.26	97.19
310.49	97.19
310.72	103.19
310.949	94.19
311.179	104.19
311.409	89.19
311.639	81.19
311.868	97.19
312.098	99.19
312.328	94.19
312.557	92.19
312.787	103.19
313.017	90.19
313.246	96.19
313.476	103.19
313.706	93.19
313.935	104.19
314.165	101.19
314.394	103.19
314.624	95.19
314.853	93.19
315.083	102.19
315.312	92.19
315.542	104.19
315.771	98.19
316.001	75.19
316.23	91.19
316.46	84.19
316.689	93.19
316.919	95.19
317.148	94.19
317.377	99.19
317.607	86.19
317.836	91.19
318.065	89.19
318.295	83.19
318.524	94.19
318.753	92.19
318.983	101.19
319.212	108.19
319.441	111.19
319.67	122.19
319.9	96.19
320.129	93.19
320.358	81.19
320.587	91.19
320.816	117.19
321.046	115.19
321.275	102.19
321.504	88.19
321.733	104.19
321.962	98.19
322.191	107.19
322.42	102.19
322.649	112.19
322.878	108.19
323.108	108.19
323.337	116.19
323.566	125.19
323.795	152.19
324.024	179.19
324.253	383.19
324.482	772.19
324.71	1606.19
324.939	2075.19
325.168	771.19
325.397	237.19
325.626	138.19
325.855	115.19
326.084	121.19
326.313	122.19
326.542	150.19
326.77	232.19
326.999	443.19
327.228	863.19
327.457	1599.19
327.686	1301.19
327.914	336.19
328.143	183.19
328.372	147.19
328.6	124.19
328.829	107.19
329.058	116.19
329.287	120.19
329.515	127.19
329.744	116.19
329.972	94.19
330.201	121.19
330.43	128.19
330.658	119.19
330.887	156.19
331.115	125.19
331.344	104.19
331.572	98.19
331.801	105.19
332.03	99.19
332.258	94.19
332.486	95.19
332.715	102.19
332.943	93.19
333.172	105.19
333.4	109.19
333.629	120.19
333.857	128.19
334.085	108.19
334.314	121.19
334.542	125.19
334.771	129.19
334.999	106.19
335.227	103.19
335.455	109.19
335.684	91.19
335.912	94.19
336.14	89.19
336.369	110.19
336.597	101.19
336.825	106.19
337.053	89.19
337.281	102.19
337.51	86.19
337.738	88.19
337.966	72.19
338.194	95.19
338.422	101.19
338.65	103.19
338.878	79.19
339.106	96.19
339.334	90.19
339.562	99.19
339.79	89.19
340.018	89.19
340.246	101.19
340.474	99.19
340.702	86.19
340.93	105.19
341.158	90.19
341.386	92.19
341.614	100.19
341.842	90.19
342.07	97.19
342.298	95.19
342.526	90.19
342.754	89.19
342.981	89.19
343.209	103.19
343.437	88.19
343.665	87.19
343.893	85.19
344.12	92.19
344.348	97.19
344.576	80.19
344.804	86.19
345.031	90.19
345.259	106.19
345.487	109.19
345.714	91.19
345.942	90.19
346.17	86.19
346.397	99.19
346.625	81.19
346.853	94.19
347.08	99.19
347.308	102.19
347.535	88.19
347.763	107.19
347.99	84.19
348.218	105.19
348.445	111.19
348.673	94.19
348.9	80.19
349.128	105.19
349.355	100.19
349.583	95.19
349.81	95.19
350.037	93.19
350.265	87.19
350.492	108.19
350.72	107.19
350.947	105.19
351.174	101.19
351.402	109.19
351.629	97.19
351.856	99.19
352.083	101.19
352.311	101.19
352.538	116.19
352.765	108.19
352.992	119.19
353.22	114.19
353.447	110.19
353.674	87.19
353.901	102.19
354.128	104.19
354.355	100.19
354.583	97.19
354.81	102.19
355.037	92.19
355.264	94.19
355.491	93.19
355.718	97.19
355.945	98.19
356.172	97.19
356.399	95.19
356.626	112.19
356.853	89.19
357.08	92.19
357.307	81.19
357.534	98.19
357.761	97.19
357.988	96.19
358.215	110.19
358.441	96.19
358.668	94.19
358.895	90.19
359.122	89.19
359.349	94.19
359.576	87.19
359.802	88.19
360.029	95.19
360.256	102.19
360.483	89.19
360.709	106.19
360.936	107.19
361.163	91.19
361.39	102.19
361.616	89.19
361.843	78.19
362.07	84.19
362.296	96.19
362.523	101.19
362.749	88.19
362.976	84.19
363.203	95.19
363.429	80.19
363.656	88.19
363.882	94.19
364.109	91.19
364.335	89.19
364.562	98.19
364.788	91.19
365.015	85.19
365.241	94.19
365.468	105.19
365.694	98.19
365.92	110.19
366.147	102.19
366.373	79.19
366.599	84.19
366.826	91.19
367.052	94.19
367.278	96.19
367.505	89.19
367.731	80.19
367.957	89.19
368.184	88.19
368.41	100.19
368.636	94.19
368.862	119.19
369.089	100.19
369.315	93.19
369.541	84.19
369.767	81.19
369.993	90.19
370.219	94.19
370.445	87.19
370.672	104.19
370.898	86.19
371.124	80.19
371.35	87.19
371.576	98.19
371.802	107.19
372.028	84.19
372.254	92.19
372.48	102.19
372.706	99.19
372.932	94.19
373.158	86.19
373.384	97.19
373.61	97.19
373.835	91.19
374.061	89.19
374.287	92.19
374.513	68.19
374.739	102.19
374.965	107.19
375.191	87.19
375.416	99.19
375.642	96.19
375.868	98.19
376.094	81.19
376.319	91.19
376.545	94.19
376.771	84.19
376.997	89.19
377.222	95.19
377.448	89.19
377.674	83.19
377.899	103.19
378.125	97.19
378.35	97.19
378.576	87.19
378.802	80.19
379.027	80.19
379.253	89.19
379.478	96.19
379.704	88.19
379.929	104.19
380.155	85.19
380.38	88.19
380.606	105.19
380.831	78.19
381.057	78.19
381.282	99.19
381.507	87.19
381.733	105.19
381.958	112.19
382.184	105.19
382.409	104.19
382.634	100.19
382.86	101.19
383.085	99.19
383.31	98.19
383.535	102.19
383.761	119.19
383.986	88.19
384.211	93.19
384.436	75.19
384.662	97.19
384.887	100.19
385.112	100.19
385.337	93.19
385.562	90.19
385.787	102.19
386.013	108.19
386.238	123.19
386.463	120.19
386.688	109.19
386.913	105.19
387.138	100.19
387.363	111.19
387.588	91.19
387.813	103.19
388.038	104.19
388.263	118.19
388.488	104.19
388.713	98.19
388.938	93.19
389.163	94.19
389.387	105.19
389.612	100.19
389.837	92.19
390.062	96.19
390.287	86.19
390.512	85.19
390.736	105.19
390.961	93.19
391.186	96.19
391.411	71.19
391.636	95.19
391.86	85.19
392.085	86.19
392.31	92.19
392.534	99.19
392.759	77.19
392.984	90.19
393.208	96.19
393.433	72.19
393.658	100.19
393.882	82.19
394.107	91.19
394.331	80.19
394.556	81.19
394.78	98.19
395.005	100.19
395.229	83.19
395.454	85.19
395.678	90.19
395.903	96.19
396.127	85.19
396.352	92.19
396.576	75.19
396.801	84.19
397.025	101.19
397.249	92.19
397.474	96.19
397.698	86.19
397.922	88.19
398.147	75.19
398.371	86.19
398.595	94.19
398.82	71.19
399.044	92.19
399.268	92.19
399.492	91.19
399.717	92.19
399.941	84.19
400.165	99.19
400.389	94.19
400.613	95.19
400.837	75.19
401.062	92.19
401.286	95.19
401.51	108.19
401.734	93.19
401.958	90.19
402.182	119.19
402.406	150.19
402.63	124.19
402.854	92.19
403.078	97.19
403.302	86.19
403.526	86.19
403.75	108.19
403.974	98.19
404.198	91.19
404.422	77.19
404.645	86.19
404.869	74.19
405.093	103.19
405.317	89.19
405.541	89.19
405.765	106.19
405.988	125.19
406.212	163.19
406.436	215.19
406.66	134.19
406.883	99.19
407.107	81.19
407.331	97.19
407.555	98.19
407.778	98.19
408.002	91.19
408.226	86.19
408.449	97.19
408.673	94.19
408.896	84.19
409.12	86.19
409.344	102.19
409.567	78.19
409.791	78.19
410.014	106.19
410.238	102.19
410.461	109.19
410.685	95.19
410.908	115.19
411.132	115.19
411.355	93.19
411.578	91.19
411.802	90.19
412.025	101.19
412.249	107.19
412.472	100.19
412.695	108.19
412.919	91.19
413.142	103.19
413.365	80.19
413.589	68.19
413.812	99.19
414.035	101.19
414.258	94.19
414.482	72.19
414.705	78.19
414.928	95.19
415.151	95.19
415.374	117.19
415.597	82.19
415.821	90.19
416.044	80.19
416.267	81.19
416.49	89.19
416.713	92.19
416.936	87.19
417.159	85.19
417.382	85.19
417.605	92.19
417.828	89.19
418.051	99.19
418.274	98.19
418.497	93.19
418.72	80.19
418.943	85.19
419.166	87.19
419.389	88.19
419.611	88.19
419.834	96.19
420.057	93.19
420.28	75.19
420.503	77.19
420.726	93.19
420.948	80.19
421.171	99.19
421.394	87.19
421.617	81.19
421.839	93.19
422.062	94.19
422.285	89.19
422.507	97.19
422.73	89.19
422.953	89.19
423.175	88.19
423.398	90.19
423.621	80.19
423.843	87.19
424.066	88.19
424.288	87.19
424.511	90.19
424.733	98.19
424.956	103.19
425.178	99.19
425.401	100.19
425.623	101.19
425.846	105.19
426.068	101.19
426.291	81.19
426.513	90.19
426.735	105.19
426.958	110.19
427.18	102.19
427.402	119.19
427.625	139.19
427.847	122.19
428.069	116.19
428.292	91.19
428.514	91.19
428.736	100.19
428.958	83.19
429.181	90.19
429.403	80.19
429.625	84.19
429.847	102.19
430.069	89.19
430.292	81.19
430.514	84.19
430.736	80.19
430.958	87.19
431.18	91.19
431.402	88.19
431.624	95.19
431.846	76.19
432.068	87.19
432.29	81.19
432.512	71.19
432.734	73.19
432.956	98.19
433.178	90.19
433.4	96.19
433.622	87.19
433.844	94.19
434.066	99.19
434.287	91.19
434.509	91.19
434.731	92.19
434.953	87.19
435.175	94.19
435.397	100.19
435.618	99.19
435.84	103.19
436.062	112.19
436.284	119.19
436.505	110.19
436.727	99.19
436.949	101.19
437.17	85.19
437.392	95.19
437.614	79.19
437.835	96.19
438.057	102.19
438.278	100.19
438.5	94.19
438.721	123.19
438.943	103.19
439.165	87.19
439.386	89.19
439.608	81.19
439.829	119.19
440.05	116.19
440.272	131.19
440.493	95.19
440.715	79.19
440.936	88.19
441.158	87.19
441.379	79.19
441.6	88.19
441.822	94.19
442.043	70.19
442.264	114.19
442.486	89.19
442.707	101.19
442.928	120.19
443.149	113.19
443.371	129.19
443.592	104.19
443.813	96.19
444.034	97.19
444.255	94.19
444.476	84.19
444.698	100.19
444.919	77.19
445.14	140.19
445.361	111.19
445.582	99.19
445.803	142.19
446.024	120.19
446.245	124.19
446.466	101.19
446.687	97.19
446.908	99.19
447.129	85.19
447.35	96.19
447.571	77.19
447.792	95.19
448.013	91.19
448.234	94.19
448.455	109.19
448.675	100.19
448.896	112.19
449.117	108.19
449.338	105.19
449.559	118.19
449.779	121.19
450	79.19
450.221	80.19
450.442	91.19
450.662	97.19
450.883	93.19
451.104	116.19
451.324	87.19
451.545	87.19
451.766	88.19
451.986	81.19
452.207	91.19
452.428	94.19
452.648	103.19
452.869	97.19
453.089	115.19
453.31	125.19
453.53	95.19
453.751	95.19
453.971	90.19
454.192	95.19
454.412	90.19
454.633	87.19
454.853	83.19
455.073	99.19
455.294	88.19
455.514	104.19
455.734	90.19
455.955	88.19
456.175	86.19
456.395	76.19
456.616	94.19
456.836	94.19
457.056	86.19
457.276	75.19
457.497	92.19
457.717	84.19
457.937	90.19
458.157	100.19
458.377	85.19
458.598	113.19
458.818	150.19
459.038	148.19
459.258	132.19
459.478	78.19
459.698	90.19
459.918	90.19
460.138	91.19
460.358	88.19
460.578	101.19
460.798	81.19
461.018	83.19
461.238	87.19
461.458	92.19
461.678	81.19
461.898	90.19
462.118	88.19
462.338	85.19
462.558	78.19
462.777	88.19
462.997	77.19
463.217	83.19
463.437	79.19
463.657	85.19
463.876	79.19
464.096	93.19
464.316	75.19
464.536	89.19
464.755	87.19
464.975	93.19
465.195	155.19
465.414	145.19
465.634	86.19
465.854	96.19
466.073	101.19
466.293	87.19
466.512	84.19
466.732	92.19
466.951	88.19
467.171	86.19
467.391	109.19
467.61	96.19
467.829	102.19
468.049	116.19
468.268	103.19
468.488	91.19
468.707	87.19
468.927	84.19
469.146	89.19
469.365	81.19
469.585	86.19
469.804	90.19
470.023	89.19
470.243	100.19
470.462	96.19
470.681	91.19
470.901	85.19
471.12	104.19
471.339	96.19
471.558	105.19
471.777	76.19
471.997	99.19
472.216	107.19
472.435	120.19
472.654	85.19
472.873	88.19
473.092	87.19
473.311	64.19
473.53	84.19
473.749	83.19
473.968	110.19
474.187	93.19
474.406	85.19
474.625	88.19
474.844	99.19
475.063	80.19
475.282	93.19
475.501	94.19
475.72	85.19
475.939	89.19
476.158	78.19
476.377	82.19
476.596	110.19
476.814	92.19
477.033	82.19
477.252	74.19
477.471	91.19
477.69	89.19
477.908	87.19
478.127	92.19
478.346	94.19
478.564	98.19
478.783	98.19
479.002	95.19
479.22	102.19
479.439	102.19
479.658	87.19
479.876	82.19
480.095	101.19
480.313	104.19
480.532	108.19
480.751	93.19
480.969	132.19
481.188	187.19
481.406	147.19
481.624	91.19
481.843	103.19
482.061	78.19
482.28	81.19
482.498	86.19
482.717	99.19
482.935	86.19
483.153	97.19
483.372	84.19
483.59	100.19
483.808	82.19
484.027	98.19
484.245	103.19
484.463	112.19
484.681	95.19
484.9	104.19
485.118	103.19
485.336	98.19
485.554	94.19
485.772	91.19
485.99	92.19
486.209	101.19
486.427	86.19
486.645	101.19
486.863	106.19
487.081	96.19
487.299	84.19
487.517	98.19
487.735	99.19
487.953	89.19
488.171	87.19
488.389	95.19
488.607	92.19
488.825	91.19
489.043	83.19
489.261	92.19
489.479	89.19
489.696	86.19
489.914	91.19
490.132	86.19
490.35	103.19
490.568	101.19
490.786	89.19
491.003	101.19
491.221	93.19
491.439	99.19
491.657	93.19
491.874	98.19
492.092	99.19
492.31	97.19
492.527	95.19
492.745	86.19
492.963	102.19
493.18	86.19
493.398	81.19
493.615	99.19
493.833	92.19
494.05	86.19
494.268	97.19
494.485	100.19
494.703	82.19
494.92	93.19
495.138	82.19
495.355	93.19
495.573	90.19
495.79	86.19
496.008	85.19
496.225	89.19
496.442	96.19
496.66	100.19
496.877	95.19
497.094	96.19
497.312	96.19
497.529	87.19
497.746	90.19
497.963	85.19
498.181	91.19
498.398	94.19
498.615	120.19
498.832	116.19
499.049	74.19
499.267	92.19
499.484	95.19
499.701	82.19
499.918	88.19
500.135	87.19
500.352	83.19
500.569	93.19
500.786	89.19
501.003	95.19
501.22	88.19
501.437	95.19
501.654	93.19
501.871	105.19
502.088	99.19
502.305	94.19
502.522	88.19
502.739	99.19
502.956	94.19
503.172	93.19
503.389	93.19
503.606	107.19
503.823	107.19
504.04	91.19
504.256	87.19
504.473	89.19
504.69	83.19
504.907	90.19
505.123	91.19
505.34	96.19
505.557	83.19
505.773	93.19
505.99	88.19
506.207	98.19
506.423	80.19
506.64	104.19
506.856	86.19
507.073	89.19
507.289	95.19
507.506	92.19
507.722	101.19
507.939	107.19
508.155	99.19
508.372	107.19
508.588	104.19
508.805	96.19
509.021	109.19
509.238	98.19
509.454	107.19
509.67	91.19
509.887	101.19
510.103	125.19
510.319	209.19
510.536	725.19
510.752	2321.19
510.968	702.19
511.184	159.19
511.401	115.19
511.617	101.19
511.833	85.19
512.049	94.19
512.265	98.19
512.481	107.19
512.698	96.19
512.914	98.19
513.13	99.19
513.346	81.19
513.562	103.19
513.778	94.19
513.994	99.19
514.21	110.19
514.426	121.19
514.642	121.19
514.858	126.19
515.074	148.19
515.29	409.19
