Data from Circ_2012_H10_HRD10591_00085.txt Node
Date: Wed Jan 03 10:06:07 EST 2024
User: Yrep
Spectrometer: HR+D1059
Trigger mode: 1
Integration Time (sec): 1.000000E-1
Scans to average: 1
Electric dark correction enabled: true
Nonlinearity correction enabled: false
Boxcar width: 0
XAxis mode: Wavelengths
Number of Pixels in Spectrum: 2048
>>>>>Begin Spectral Data<<<<<
223.165	-5.94
223.4	-5.94
223.635	-5.94
223.869	-16.94
224.104	-13.94
224.338	-20.94
224.573	-11.94
224.808	2.06
225.042	-8.94
225.277	-19.94
225.511	-11.94
225.746	-1.94
225.98	4.06
226.215	28.06
226.449	11.06
226.683	8.06
226.918	27.06
227.152	32.06
227.387	32.06
227.621	29.06
227.856	34.06
228.09	32.06
228.324	50.06
228.559	38.06
228.793	38.06
229.027	79.06
229.262	66.06
229.496	75.06
229.73	85.06
229.964	89.06
230.199	80.06
230.433	85.06
230.667	70.06
230.901	79.06
231.136	83.06
231.37	81.06
231.604	77.06
231.838	90.06
232.072	80.06
232.306	75.06
232.541	85.06
232.775	86.06
233.009	92.06
233.243	83.06
233.477	69.06
233.711	75.06
233.945	68.06
234.179	82.06
234.413	93.06
234.647	89.06
234.881	86.06
235.115	85.06
235.349	77.06
235.583	75.06
235.817	86.06
236.051	68.06
236.285	90.06
236.519	74.06
236.753	76.06
236.987	82.06
237.221	84.06
237.455	85.06
237.689	82.06
237.922	67.06
238.156	71.06
238.39	71.06
238.624	80.06
238.858	77.06
239.091	82.06
239.325	79.06
239.559	76.06
239.793	93.06
240.027	68.06
240.26	86.06
240.494	82.06
240.728	78.06
240.961	72.06
241.195	81.06
241.429	84.06
241.662	74.06
241.896	72.06
242.13	81.06
242.363	73.06
242.597	68.06
242.83	77.06
243.064	72.06
243.298	78.06
243.531	94.06
243.765	76.06
243.998	68.06
244.232	87.06
244.465	93.06
244.699	76.06
244.932	91.06
245.166	74.06
245.399	80.06
245.633	72.06
245.866	81.06
246.099	74.06
246.333	67.06
246.566	72.06
246.8	78.06
247.033	104.06
247.266	81.06
247.5	91.06
247.733	97.06
247.966	73.06
248.2	81.06
248.433	86.06
248.666	79.06
248.899	87.06
249.133	91.06
249.366	94.06
249.599	85.06
249.832	78.06
250.066	81.06
250.299	79.06
250.532	79.06
250.765	84.06
250.998	92.06
251.231	79.06
251.465	92.06
251.698	74.06
251.931	89.06
252.164	88.06
252.397	70.06
252.63	100.06
252.863	74.06
253.096	83.06
253.329	75.06
253.562	84.06
253.795	78.06
254.028	81.06
254.261	64.06
254.494	75.06
254.727	74.06
254.96	71.06
255.193	72.06
255.426	80.06
255.659	89.06
255.892	98.06
256.124	78.06
256.357	79.06
256.59	77.06
256.823	91.06
257.056	86.06
257.289	82.06
257.521	75.06
257.754	79.06
257.987	63.06
258.22	73.06
258.452	89.06
258.685	91.06
258.918	78.06
259.151	84.06
259.383	80.06
259.616	84.06
259.849	80.06
260.081	80.06
260.314	84.06
260.547	86.06
260.779	77.06
261.012	80.06
261.244	79.06
261.477	98.06
261.71	91.06
261.942	102.06
262.175	115.06
262.407	86.06
262.64	75.06
262.872	91.06
263.105	63.06
263.337	99.06
263.57	79.06
263.802	90.06
264.035	80.06
264.267	85.06
264.499	86.06
264.732	81.06
264.964	85.06
265.197	91.06
265.429	84.06
265.661	88.06
265.894	90.06
266.126	79.06
266.358	86.06
266.591	91.06
266.823	84.06
267.055	82.06
267.287	78.06
267.52	85.06
267.752	86.06
267.984	77.06
268.216	74.06
268.448	72.06
268.681	71.06
268.913	68.06
269.145	84.06
269.377	81.06
269.609	84.06
269.841	76.06
270.073	87.06
270.306	92.06
270.538	87.06
270.77	93.06
271.002	75.06
271.234	80.06
271.466	94.06
271.698	78.06
271.93	88.06
272.162	89.06
272.394	78.06
272.626	82.06
272.858	71.06
273.09	90.06
273.322	84.06
273.553	98.06
273.785	86.06
274.017	93.06
274.249	76.06
274.481	82.06
274.713	87.06
274.945	99.06
275.176	80.06
275.408	79.06
275.64	67.06
275.872	94.06
276.104	89.06
276.335	92.06
276.567	87.06
276.799	83.06
277.031	93.06
277.262	86.06
277.494	85.06
277.726	92.06
277.957	80.06
278.189	74.06
278.421	89.06
278.652	114.06
278.884	79.06
279.115	93.06
279.347	75.06
279.579	73.06
279.81	85.06
280.042	88.06
280.273	90.06
280.505	89.06
280.736	94.06
280.968	83.06
281.199	88.06
281.431	88.06
281.662	98.06
281.894	90.06
282.125	91.06
282.356	105.06
282.588	119.06
282.819	108.06
283.051	91.06
283.282	80.06
283.513	90.06
283.745	77.06
283.976	90.06
284.207	95.06
284.439	95.06
284.67	68.06
284.901	85.06
285.132	90.06
285.364	90.06
285.595	90.06
285.826	85.06
286.057	95.06
286.288	96.06
286.52	91.06
286.751	96.06
286.982	79.06
287.213	100.06
287.444	87.06
287.675	67.06
287.906	83.06
288.138	92.06
288.369	92.06
288.6	93.06
288.831	88.06
289.062	92.06
289.293	74.06
289.524	77.06
289.755	91.06
289.986	84.06
290.217	86.06
290.448	87.06
290.679	89.06
290.91	91.06
291.141	81.06
291.371	90.06
291.602	83.06
291.833	84.06
292.064	79.06
292.295	90.06
292.526	75.06
292.757	86.06
292.987	93.06
293.218	86.06
293.449	100.06
293.68	99.06
293.91	83.06
294.141	92.06
294.372	76.06
294.603	85.06
294.833	87.06
295.064	89.06
295.295	101.06
295.525	86.06
295.756	110.06
295.987	122.06
296.217	134.06
296.448	115.06
296.679	88.06
296.909	93.06
297.14	99.06
297.37	89.06
297.601	80.06
297.831	92.06
298.062	83.06
298.292	92.06
298.523	80.06
298.753	81.06
298.984	90.06
299.214	91.06
299.445	93.06
299.675	89.06
299.905	92.06
300.136	105.06
300.366	67.06
300.597	88.06
300.827	93.06
301.057	85.06
301.288	102.06
301.518	79.06
301.748	89.06
301.979	98.06
302.209	90.06
302.439	78.06
302.669	88.06
302.9	92.06
303.13	78.06
303.36	103.06
303.59	98.06
303.82	95.06
304.051	99.06
304.281	86.06
304.511	91.06
304.741	94.06
304.971	92.06
305.201	99.06
305.431	88.06
305.661	83.06
305.891	80.06
306.121	91.06
306.352	93.06
306.582	92.06
306.812	86.06
307.042	89.06
307.272	97.06
307.502	87.06
307.731	96.06
307.961	83.06
308.191	82.06
308.421	78.06
308.651	79.06
308.881	94.06
309.111	86.06
309.341	86.06
309.571	93.06
309.8	96.06
310.03	115.06
310.26	100.06
310.49	99.06
310.72	105.06
310.949	101.06
311.179	95.06
311.409	83.06
311.639	98.06
311.868	87.06
312.098	91.06
312.328	98.06
312.557	93.06
312.787	112.06
313.017	88.06
313.246	87.06
313.476	88.06
313.706	96.06
313.935	102.06
314.165	103.06
314.394	95.06
314.624	104.06
314.853	98.06
315.083	103.06
315.312	87.06
315.542	86.06
315.771	95.06
316.001	90.06
316.23	86.06
316.46	94.06
316.689	87.06
316.919	72.06
317.148	86.06
317.377	89.06
317.607	97.06
317.836	85.06
318.065	90.06
318.295	97.06
318.524	91.06
318.753	98.06
318.983	94.06
319.212	105.06
319.441	107.06
319.67	111.06
319.9	96.06
320.129	99.06
320.358	89.06
320.587	92.06
320.816	96.06
321.046	92.06
321.275	102.06
321.504	84.06
321.733	97.06
321.962	81.06
322.191	101.06
322.42	106.06
322.649	101.06
322.878	114.06
323.108	114.06
323.337	109.06
323.566	110.06
323.795	150.06
324.024	197.06
324.253	350.06
324.482	744.06
324.71	1536.06
324.939	1972.06
325.168	750.06
325.397	238.06
325.626	141.06
325.855	133.06
326.084	129.06
326.313	115.06
326.542	151.06
326.77	237.06
326.999	439.06
327.228	880.06
327.457	1551.06
327.686	1190.06
327.914	346.06
328.143	193.06
328.372	155.06
328.6	132.06
328.829	107.06
329.058	102.06
329.287	116.06
329.515	104.06
329.744	116.06
329.972	121.06
330.201	142.06
330.43	155.06
330.658	130.06
330.887	138.06
331.115	101.06
331.344	95.06
331.572	100.06
331.801	103.06
332.03	94.06
332.258	98.06
332.486	92.06
332.715	88.06
332.943	100.06
333.172	99.06
333.4	84.06
333.629	90.06
333.857	115.06
334.085	108.06
334.314	128.06
334.542	171.06
334.771	175.06
334.999	114.06
335.227	79.06
335.455	96.06
335.684	88.06
335.912	97.06
336.14	93.06
336.369	104.06
336.597	114.06
336.825	86.06
337.053	89.06
337.281	97.06
337.51	83.06
337.738	96.06
337.966	97.06
338.194	102.06
338.422	97.06
338.65	93.06
338.878	84.06
339.106	94.06
339.334	87.06
339.562	70.06
339.79	95.06
340.018	102.06
340.246	99.06
340.474	98.06
340.702	95.06
340.93	94.06
341.158	99.06
341.386	106.06
341.614	93.06
341.842	93.06
342.07	101.06
342.298	87.06
342.526	101.06
342.754	92.06
342.981	91.06
343.209	80.06
343.437	107.06
343.665	78.06
343.893	106.06
344.12	97.06
344.348	88.06
344.576	94.06
344.804	91.06
345.031	81.06
345.259	101.06
345.487	103.06
345.714	91.06
345.942	96.06
346.17	91.06
346.397	89.06
346.625	93.06
346.853	105.06
347.08	90.06
347.308	104.06
347.535	99.06
347.763	103.06
347.99	104.06
348.218	110.06
348.445	100.06
348.673	86.06
348.9	92.06
349.128	93.06
349.355	89.06
349.583	103.06
349.81	90.06
350.037	108.06
350.265	86.06
350.492	97.06
350.72	90.06
350.947	87.06
351.174	109.06
351.402	122.06
351.629	106.06
351.856	88.06
352.083	109.06
352.311	111.06
352.538	104.06
352.765	108.06
352.992	114.06
353.22	91.06
353.447	93.06
353.674	106.06
353.901	105.06
354.128	97.06
354.355	93.06
354.583	110.06
354.81	90.06
355.037	90.06
355.264	90.06
355.491	96.06
355.718	83.06
355.945	89.06
356.172	99.06
356.399	99.06
356.626	109.06
356.853	101.06
357.08	96.06
357.307	101.06
357.534	88.06
357.761	94.06
357.988	88.06
358.215	100.06
358.441	97.06
358.668	86.06
358.895	100.06
359.122	83.06
359.349	86.06
359.576	94.06
359.802	96.06
360.029	119.06
360.256	101.06
360.483	91.06
360.709	85.06
360.936	93.06
361.163	80.06
361.39	96.06
361.616	102.06
361.843	97.06
362.07	93.06
362.296	92.06
362.523	93.06
362.749	83.06
362.976	85.06
363.203	85.06
363.429	98.06
363.656	94.06
363.882	95.06
364.109	90.06
364.335	82.06
364.562	86.06
364.788	75.06
365.015	82.06
365.241	82.06
365.468	103.06
365.694	92.06
365.92	85.06
366.147	91.06
366.373	92.06
366.599	84.06
366.826	100.06
367.052	84.06
367.278	92.06
367.505	90.06
367.731	93.06
367.957	90.06
368.184	84.06
368.41	91.06
368.636	122.06
368.862	117.06
369.089	93.06
369.315	78.06
369.541	89.06
369.767	100.06
369.993	85.06
370.219	90.06
370.445	79.06
370.672	87.06
370.898	87.06
371.124	85.06
371.35	87.06
371.576	98.06
371.802	97.06
372.028	91.06
372.254	83.06
372.48	68.06
372.706	76.06
372.932	84.06
373.158	80.06
373.384	99.06
373.61	97.06
373.835	101.06
374.061	99.06
374.287	103.06
374.513	77.06
374.739	91.06
374.965	92.06
375.191	82.06
375.416	98.06
375.642	77.06
375.868	98.06
376.094	93.06
376.319	83.06
376.545	90.06
376.771	91.06
376.997	87.06
377.222	80.06
377.448	110.06
377.674	107.06
377.899	94.06
378.125	84.06
378.35	97.06
378.576	80.06
378.802	89.06
379.027	94.06
379.253	86.06
379.478	115.06
379.704	103.06
379.929	95.06
380.155	76.06
380.38	102.06
380.606	94.06
380.831	88.06
381.057	98.06
381.282	101.06
381.507	84.06
381.733	93.06
381.958	106.06
382.184	76.06
382.409	103.06
382.634	89.06
382.86	80.06
383.085	92.06
383.31	107.06
383.535	91.06
383.761	97.06
383.986	97.06
384.211	101.06
384.436	93.06
384.662	101.06
384.887	101.06
385.112	99.06
385.337	100.06
385.562	99.06
385.787	110.06
386.013	102.06
386.238	109.06
386.463	106.06
386.688	116.06
386.913	84.06
387.138	94.06
387.363	102.06
387.588	106.06
387.813	92.06
388.038	111.06
388.263	89.06
388.488	101.06
388.713	119.06
388.938	91.06
389.163	102.06
389.387	91.06
389.612	95.06
389.837	97.06
390.062	93.06
390.287	93.06
390.512	97.06
390.736	87.06
390.961	104.06
391.186	95.06
391.411	83.06
391.636	101.06
391.86	79.06
392.085	85.06
392.31	73.06
392.534	72.06
392.759	86.06
392.984	92.06
393.208	93.06
393.433	77.06
393.658	92.06
393.882	86.06
394.107	86.06
394.331	89.06
394.556	105.06
394.78	93.06
395.005	88.06
395.229	102.06
395.454	94.06
395.678	87.06
395.903	88.06
396.127	78.06
396.352	91.06
396.576	72.06
396.801	91.06
397.025	93.06
397.249	85.06
397.474	80.06
397.698	87.06
397.922	87.06
398.147	99.06
398.371	94.06
398.595	90.06
398.82	76.06
399.044	99.06
399.268	89.06
399.492	81.06
399.717	79.06
399.941	82.06
400.165	82.06
400.389	96.06
400.613	98.06
400.837	89.06
401.062	80.06
401.286	87.06
401.51	90.06
401.734	84.06
401.958	98.06
402.182	123.06
402.406	159.06
402.63	120.06
402.854	93.06
403.078	88.06
403.302	84.06
403.526	87.06
403.75	88.06
403.974	83.06
404.198	79.06
404.422	88.06
404.645	82.06
404.869	82.06
405.093	95.06
405.317	91.06
405.541	104.06
405.765	95.06
405.988	108.06
406.212	155.06
406.436	195.06
406.66	150.06
406.883	82.06
407.107	83.06
407.331	88.06
407.555	84.06
407.778	96.06
408.002	98.06
408.226	85.06
408.449	79.06
408.673	93.06
408.896	80.06
409.12	89.06
409.344	104.06
409.567	86.06
409.791	87.06
410.014	93.06
410.238	97.06
410.461	86.06
410.685	100.06
410.908	81.06
411.132	90.06
411.355	94.06
411.578	87.06
411.802	79.06
412.025	88.06
412.249	87.06
412.472	90.06
412.695	86.06
412.919	73.06
413.142	91.06
413.365	86.06
413.589	87.06
413.812	98.06
414.035	86.06
414.258	92.06
414.482	96.06
414.705	91.06
414.928	93.06
415.151	111.06
415.374	90.06
415.597	90.06
415.821	85.06
416.044	88.06
416.267	90.06
416.49	78.06
416.713	80.06
416.936	93.06
417.159	89.06
417.382	92.06
417.605	77.06
417.828	105.06
418.051	98.06
418.274	105.06
418.497	80.06
418.72	83.06
418.943	79.06
419.166	92.06
419.389	83.06
419.611	85.06
419.834	95.06
420.057	91.06
420.28	85.06
420.503	109.06
420.726	89.06
420.948	87.06
421.171	88.06
421.394	83.06
421.617	82.06
421.839	90.06
422.062	89.06
422.285	93.06
422.507	106.06
422.73	90.06
422.953	77.06
423.175	78.06
423.398	87.06
423.621	90.06
423.843	74.06
424.066	92.06
424.288	102.06
424.511	93.06
424.733	102.06
424.956	104.06
425.178	93.06
425.401	84.06
425.623	88.06
425.846	83.06
426.068	104.06
426.291	74.06
426.513	94.06
426.735	85.06
426.958	90.06
427.18	89.06
427.402	127.06
427.625	149.06
427.847	134.06
428.069	116.06
428.292	101.06
428.514	84.06
428.736	84.06
428.958	84.06
429.181	92.06
429.403	86.06
429.625	88.06
429.847	92.06
430.069	90.06
430.292	73.06
430.514	83.06
430.736	96.06
430.958	100.06
431.18	84.06
431.402	80.06
431.624	80.06
431.846	77.06
432.068	79.06
432.29	80.06
432.512	88.06
432.734	93.06
432.956	88.06
433.178	96.06
433.4	94.06
433.622	90.06
433.844	98.06
434.066	80.06
434.287	94.06
434.509	94.06
434.731	94.06
434.953	84.06
435.175	91.06
435.397	92.06
435.618	101.06
435.84	104.06
436.062	121.06
436.284	87.06
436.505	100.06
436.727	95.06
436.949	87.06
437.17	83.06
437.392	87.06
437.614	78.06
437.835	88.06
438.057	104.06
438.278	118.06
438.5	110.06
438.721	101.06
438.943	95.06
439.165	94.06
439.386	88.06
439.608	81.06
439.829	90.06
440.05	104.06
440.272	121.06
440.493	94.06
440.715	81.06
440.936	85.06
441.158	83.06
441.379	80.06
441.6	98.06
441.822	101.06
442.043	95.06
442.264	97.06
442.486	105.06
442.707	92.06
442.928	84.06
443.149	124.06
443.371	125.06
443.592	103.06
443.813	108.06
444.034	90.06
444.255	101.06
444.476	99.06
444.698	80.06
444.919	93.06
445.14	125.06
445.361	109.06
445.582	118.06
445.803	125.06
446.024	132.06
446.245	120.06
446.466	110.06
446.687	97.06
446.908	83.06
447.129	90.06
447.35	80.06
447.571	87.06
447.792	93.06
448.013	92.06
448.234	99.06
448.455	103.06
448.675	90.06
448.896	109.06
449.117	94.06
449.338	101.06
449.559	118.06
449.779	118.06
450	91.06
450.221	90.06
450.442	91.06
450.662	92.06
450.883	85.06
451.104	98.06
451.324	97.06
451.545	78.06
451.766	98.06
451.986	102.06
452.207	77.06
452.428	94.06
452.648	96.06
452.869	99.06
453.089	88.06
453.31	108.06
453.53	94.06
453.751	90.06
453.971	116.06
454.192	96.06
454.412	103.06
454.633	82.06
454.853	93.06
455.073	75.06
455.294	92.06
455.514	99.06
455.734	100.06
455.955	86.06
456.175	93.06
456.395	82.06
456.616	89.06
456.836	74.06
457.056	89.06
457.276	97.06
457.497	84.06
457.717	82.06
457.937	77.06
458.157	80.06
458.377	94.06
458.598	98.06
458.818	138.06
459.038	136.06
459.258	124.06
459.478	93.06
459.698	83.06
459.918	88.06
460.138	86.06
460.358	83.06
460.578	79.06
460.798	86.06
461.018	82.06
461.238	86.06
461.458	97.06
461.678	95.06
461.898	80.06
462.118	84.06
462.338	84.06
462.558	98.06
462.777	78.06
462.997	80.06
463.217	80.06
463.437	99.06
463.657	73.06
463.876	93.06
464.096	87.06
464.316	86.06
464.536	84.06
464.755	94.06
464.975	102.06
465.195	145.06
465.414	144.06
465.634	86.06
465.854	93.06
466.073	86.06
466.293	78.06
466.512	79.06
466.732	73.06
466.951	103.06
467.171	85.06
467.391	88.06
467.61	103.06
467.829	94.06
468.049	108.06
468.268	127.06
468.488	93.06
468.707	84.06
468.927	86.06
469.146	92.06
469.365	85.06
469.585	77.06
469.804	106.06
470.023	105.06
470.243	77.06
470.462	88.06
470.681	98.06
470.901	90.06
471.12	73.06
471.339	94.06
471.558	81.06
471.777	88.06
471.997	93.06
472.216	162.06
472.435	194.06
472.654	125.06
472.873	90.06
473.092	96.06
473.311	95.06
473.53	87.06
473.749	99.06
473.968	91.06
474.187	108.06
474.406	85.06
474.625	93.06
474.844	98.06
475.063	76.06
475.282	86.06
475.501	89.06
475.72	86.06
475.939	85.06
476.158	84.06
476.377	92.06
476.596	97.06
476.814	69.06
477.033	78.06
477.252	77.06
477.471	95.06
477.69	89.06
477.908	82.06
478.127	78.06
478.346	75.06
478.564	99.06
478.783	90.06
479.002	85.06
479.22	95.06
479.439	108.06
479.658	92.06
479.876	91.06
480.095	90.06
480.313	95.06
480.532	106.06
480.751	74.06
480.969	145.06
481.188	318.06
481.406	233.06
481.624	104.06
481.843	95.06
482.061	92.06
482.28	89.06
482.498	84.06
482.717	86.06
482.935	81.06
483.153	77.06
483.372	92.06
483.59	86.06
483.808	90.06
484.027	86.06
484.245	92.06
484.463	89.06
484.681	114.06
484.9	88.06
485.118	84.06
485.336	82.06
485.554	101.06
485.772	87.06
485.99	102.06
486.209	102.06
486.427	104.06
486.645	98.06
486.863	106.06
487.081	91.06
487.299	87.06
487.517	104.06
487.735	84.06
487.953	85.06
488.171	85.06
488.389	98.06
488.607	91.06
488.825	79.06
489.043	84.06
489.261	94.06
489.479	84.06
489.696	95.06
489.914	76.06
490.132	92.06
490.35	83.06
490.568	99.06
490.786	93.06
491.003	100.06
491.221	90.06
491.439	88.06
491.657	98.06
491.874	106.06
492.092	88.06
492.31	100.06
492.527	94.06
492.745	89.06
492.963	82.06
493.18	94.06
493.398	87.06
493.615	106.06
493.833	81.06
494.05	98.06
494.268	98.06
494.485	109.06
494.703	87.06
494.92	98.06
495.138	102.06
495.355	90.06
495.573	84.06
495.79	100.06
496.008	89.06
496.225	99.06
496.442	90.06
496.66	111.06
496.877	93.06
497.094	108.06
497.312	86.06
497.529	90.06
497.746	83.06
497.963	93.06
498.181	83.06
498.398	88.06
498.615	98.06
498.832	99.06
499.049	94.06
499.267	77.06
499.484	103.06
499.701	96.06
499.918	94.06
500.135	89.06
500.352	90.06
500.569	83.06
500.786	98.06
501.003	93.06
501.22	96.06
501.437	99.06
501.654	93.06
501.871	84.06
502.088	93.06
502.305	88.06
502.522	89.06
502.739	86.06
502.956	106.06
503.172	89.06
503.389	101.06
503.606	94.06
503.823	92.06
504.04	89.06
504.256	84.06
504.473	96.06
504.69	78.06
504.907	85.06
505.123	91.06
505.34	99.06
505.557	99.06
505.773	82.06
505.99	78.06
506.207	73.06
506.423	71.06
506.64	93.06
506.856	87.06
507.073	87.06
507.289	90.06
507.506	86.06
507.722	101.06
507.939	95.06
508.155	100.06
508.372	96.06
508.588	93.06
508.805	96.06
509.021	93.06
509.238	103.06
509.454	91.06
509.67	105.06
509.887	111.06
510.103	127.06
510.319	216.06
510.536	686.06
510.752	2268.06
510.968	641.06
511.184	140.06
511.401	106.06
511.617	104.06
511.833	98.06
512.049	82.06
512.265	104.06
512.481	79.06
512.698	81.06
512.914	86.06
513.13	98.06
513.346	102.06
513.562	86.06
513.778	96.06
513.994	101.06
514.21	98.06
514.426	115.06
514.642	128.06
514.858	109.06
515.074	156.06
515.29	401.06
515.506	1337.06
515.721	499.06
515.937	145.06
516.153	112.06
