Data from Circ_2012_H10_HRD10591_00008.txt Node
Date: Wed Jan 03 10:05:52 EST 2024
User: Yrep
Spectrometer: HR+D1059
Trigger mode: 1
Integration Time (sec): 1.000000E-1
Scans to average: 1
Electric dark correction enabled: true
Nonlinearity correction enabled: false
Boxcar width: 0
XAxis mode: Wavelengths
Number of Pixels in Spectrum: 2048
>>>>>Begin Spectral Data<<<<<
223.165	-23.81
223.4	-23.81
223.635	-23.81
223.869	-25.81
224.104	-20.81
224.338	-8.81
224.573	-18.81
224.808	-11.81
225.042	-8.81
225.277	-17.81
225.511	-5.81
225.746	3.19
225.98	2.19
226.215	21.19
226.449	13.19
226.683	25.19
226.918	40.19
227.152	37.19
227.387	36.19
227.621	51.19
227.856	39.19
228.09	47.19
228.324	65.19
228.559	63.19
228.793	53.19
229.027	71.19
229.262	75.19
229.496	85.19
229.73	99.19
229.964	102.19
230.199	97.19
230.433	72.19
230.667	67.19
230.901	83.19
231.136	71.19
231.37	86.19
231.604	86.19
231.838	86.19
232.072	76.19
232.306	90.19
232.541	83.19
232.775	94.19
233.009	83.19
233.243	83.19
233.477	75.19
233.711	80.19
233.945	87.19
234.179	86.19
234.413	81.19
234.647	75.19
234.881	69.19
235.115	80.19
235.349	78.19
235.583	79.19
235.817	83.19
236.051	69.19
236.285	85.19
236.519	75.19
236.753	74.19
236.987	85.19
237.221	87.19
237.455	89.19
237.689	83.19
237.922	101.19
238.156	76.19
238.39	84.19
238.624	77.19
238.858	88.19
239.091	74.19
239.325	87.19
239.559	86.19
239.793	80.19
240.027	83.19
240.26	71.19
240.494	93.19
240.728	86.19
240.961	61.19
241.195	72.19
241.429	79.19
241.662	81.19
241.896	79.19
242.13	84.19
242.363	85.19
242.597	73.19
242.83	84.19
243.064	84.19
243.298	76.19
243.531	82.19
243.765	71.19
243.998	65.19
244.232	73.19
244.465	78.19
244.699	80.19
244.932	77.19
245.166	80.19
245.399	79.19
245.633	87.19
245.866	80.19
246.099	73.19
246.333	74.19
246.566	88.19
246.8	75.19
247.033	80.19
247.266	76.19
247.5	81.19
247.733	82.19
247.966	71.19
248.2	92.19
248.433	83.19
248.666	90.19
248.899	81.19
249.133	80.19
249.366	111.19
249.599	96.19
249.832	78.19
250.066	96.19
250.299	91.19
250.532	87.19
250.765	86.19
250.998	85.19
251.231	73.19
251.465	77.19
251.698	80.19
251.931	73.19
252.164	85.19
252.397	78.19
252.63	79.19
252.863	92.19
253.096	86.19
253.329	85.19
253.562	76.19
253.795	68.19
254.028	86.19
254.261	91.19
254.494	88.19
254.727	79.19
254.96	81.19
255.193	72.19
255.426	78.19
255.659	93.19
255.892	80.19
256.124	88.19
256.357	72.19
256.59	90.19
256.823	81.19
257.056	80.19
257.289	78.19
257.521	75.19
257.754	73.19
257.987	77.19
258.22	93.19
258.452	84.19
258.685	91.19
258.918	71.19
259.151	82.19
259.383	90.19
259.616	91.19
259.849	76.19
260.081	91.19
260.314	81.19
260.547	84.19
260.779	86.19
261.012	67.19
261.244	97.19
261.477	98.19
261.71	108.19
261.942	124.19
262.175	134.19
262.407	90.19
262.64	81.19
262.872	75.19
263.105	80.19
263.337	88.19
263.57	80.19
263.802	81.19
264.035	80.19
264.267	95.19
264.499	100.19
264.732	100.19
264.964	79.19
265.197	97.19
265.429	91.19
265.661	81.19
265.894	79.19
266.126	92.19
266.358	86.19
266.591	92.19
266.823	88.19
267.055	82.19
267.287	87.19
267.52	103.19
267.752	76.19
267.984	91.19
268.216	98.19
268.448	74.19
268.681	77.19
268.913	84.19
269.145	84.19
269.377	91.19
269.609	87.19
269.841	81.19
270.073	73.19
270.306	84.19
270.538	81.19
270.77	101.19
271.002	81.19
271.234	79.19
271.466	95.19
271.698	84.19
271.93	88.19
272.162	102.19
272.394	96.19
272.626	91.19
272.858	74.19
273.09	75.19
273.322	92.19
273.553	87.19
273.785	82.19
274.017	77.19
274.249	87.19
274.481	87.19
274.713	106.19
274.945	78.19
275.176	92.19
275.408	95.19
275.64	84.19
275.872	96.19
276.104	93.19
276.335	74.19
276.567	101.19
276.799	135.19
277.031	115.19
277.262	107.19
277.494	86.19
277.726	90.19
277.957	83.19
278.189	78.19
278.421	93.19
278.652	85.19
278.884	87.19
279.115	80.19
279.347	95.19
279.579	102.19
279.81	91.19
280.042	90.19
280.273	95.19
280.505	86.19
280.736	103.19
280.968	99.19
281.199	89.19
281.431	96.19
281.662	93.19
281.894	87.19
282.125	93.19
282.356	140.19
282.588	176.19
282.819	121.19
283.051	93.19
283.282	84.19
283.513	92.19
283.745	88.19
283.976	97.19
284.207	93.19
284.439	91.19
284.67	76.19
284.901	111.19
285.132	107.19
285.364	97.19
285.595	98.19
285.826	91.19
286.057	91.19
286.288	95.19
286.52	87.19
286.751	87.19
286.982	96.19
287.213	88.19
287.444	102.19
287.675	84.19
287.906	100.19
288.138	86.19
288.369	110.19
288.6	92.19
288.831	93.19
289.062	87.19
289.293	88.19
289.524	82.19
289.755	79.19
289.986	82.19
290.217	81.19
290.448	97.19
290.679	88.19
290.91	102.19
291.141	91.19
291.371	87.19
291.602	97.19
291.833	84.19
292.064	88.19
292.295	87.19
292.526	72.19
292.757	96.19
292.987	99.19
293.218	89.19
293.449	96.19
293.68	82.19
293.91	95.19
294.141	87.19
294.372	73.19
294.603	87.19
294.833	73.19
295.064	88.19
295.295	87.19
295.525	90.19
295.756	116.19
295.987	127.19
296.217	175.19
296.448	140.19
296.679	100.19
296.909	99.19
297.14	95.19
297.37	96.19
297.601	91.19
297.831	100.19
298.062	91.19
298.292	89.19
298.523	100.19
298.753	99.19
298.984	91.19
299.214	95.19
299.445	106.19
299.675	99.19
299.905	95.19
300.136	86.19
300.366	91.19
300.597	101.19
300.827	104.19
301.057	111.19
301.288	124.19
301.518	99.19
301.748	88.19
301.979	99.19
302.209	91.19
302.439	102.19
302.669	84.19
302.9	88.19
303.13	96.19
303.36	100.19
303.59	99.19
303.82	94.19
304.051	102.19
304.281	91.19
304.511	92.19
304.741	90.19
304.971	77.19
305.201	74.19
305.431	94.19
305.661	91.19
305.891	93.19
306.121	104.19
306.352	111.19
306.582	101.19
306.812	95.19
307.042	98.19
307.272	87.19
307.502	89.19
307.731	88.19
307.961	102.19
308.191	89.19
308.421	95.19
308.651	103.19
308.881	105.19
309.111	90.19
309.341	88.19
309.571	97.19
309.8	92.19
310.03	89.19
310.26	97.19
310.49	98.19
310.72	95.19
310.949	118.19
311.179	95.19
311.409	94.19
311.639	85.19
311.868	106.19
312.098	90.19
312.328	112.19
312.557	104.19
312.787	118.19
313.017	97.19
313.246	84.19
313.476	92.19
313.706	85.19
313.935	99.19
314.165	103.19
314.394	99.19
314.624	104.19
314.853	94.19
315.083	98.19
315.312	94.19
315.542	84.19
315.771	96.19
316.001	91.19
316.23	93.19
316.46	103.19
316.689	98.19
316.919	98.19
317.148	102.19
317.377	107.19
317.607	103.19
317.836	92.19
318.065	91.19
318.295	112.19
318.524	100.19
318.753	88.19
318.983	98.19
319.212	100.19
319.441	109.19
319.67	126.19
319.9	87.19
320.129	90.19
320.358	94.19
320.587	99.19
320.816	121.19
321.046	105.19
321.275	113.19
321.504	86.19
321.733	104.19
321.962	112.19
322.191	104.19
322.42	116.19
322.649	115.19
322.878	127.19
323.108	137.19
323.337	139.19
323.566	139.19
323.795	195.19
324.024	276.19
324.253	523.19
324.482	1126.19
324.71	2403.19
324.939	3236.19
325.168	1159.19
325.397	328.19
325.626	174.19
325.855	166.19
326.084	147.19
326.313	155.19
326.542	185.19
326.77	296.19
326.999	595.19
327.228	1274.19
327.457	2414.19
327.686	1898.19
327.914	486.19
328.143	245.19
328.372	191.19
328.6	122.19
328.829	140.19
329.058	153.19
329.287	151.19
329.515	120.19
329.744	95.19
329.972	116.19
330.201	96.19
330.43	131.19
330.658	151.19
330.887	171.19
331.115	137.19
331.344	112.19
331.572	102.19
331.801	111.19
332.03	109.19
332.258	116.19
332.486	86.19
332.715	88.19
332.943	93.19
333.172	93.19
333.4	100.19
333.629	120.19
333.857	125.19
334.085	110.19
334.314	105.19
334.542	117.19
334.771	95.19
334.999	96.19
335.227	112.19
335.455	98.19
335.684	96.19
335.912	107.19
336.14	94.19
336.369	103.19
336.597	104.19
336.825	97.19
337.053	87.19
337.281	89.19
337.51	100.19
337.738	84.19
337.966	109.19
338.194	111.19
338.422	103.19
338.65	102.19
338.878	101.19
339.106	104.19
339.334	83.19
339.562	91.19
339.79	109.19
340.018	97.19
340.246	86.19
340.474	105.19
340.702	100.19
340.93	102.19
341.158	86.19
341.386	93.19
341.614	99.19
341.842	80.19
342.07	83.19
342.298	104.19
342.526	93.19
342.754	98.19
342.981	91.19
343.209	87.19
343.437	103.19
343.665	99.19
343.893	94.19
344.12	92.19
344.348	103.19
344.576	91.19
344.804	104.19
345.031	113.19
345.259	107.19
345.487	101.19
345.714	95.19
345.942	101.19
346.17	86.19
346.397	109.19
346.625	93.19
346.853	81.19
347.08	100.19
347.308	102.19
347.535	112.19
347.763	112.19
347.99	101.19
348.218	110.19
348.445	102.19
348.673	108.19
348.9	89.19
349.128	108.19
349.355	98.19
349.583	99.19
349.81	110.19
350.037	109.19
350.265	106.19
350.492	93.19
350.72	104.19
350.947	101.19
351.174	109.19
351.402	120.19
351.629	118.19
351.856	101.19
352.083	117.19
352.311	102.19
352.538	115.19
352.765	103.19
352.992	117.19
353.22	126.19
353.447	109.19
353.674	107.19
353.901	100.19
354.128	109.19
354.355	100.19
354.583	82.19
354.81	94.19
355.037	93.19
355.264	90.19
355.491	102.19
355.718	95.19
355.945	92.19
356.172	98.19
356.399	99.19
356.626	84.19
356.853	111.19
357.08	77.19
357.307	89.19
357.534	96.19
357.761	92.19
357.988	91.19
358.215	98.19
358.441	99.19
358.668	98.19
358.895	90.19
359.122	87.19
359.349	100.19
359.576	108.19
359.802	108.19
360.029	140.19
360.256	139.19
360.483	118.19
360.709	102.19
360.936	93.19
361.163	88.19
361.39	111.19
361.616	107.19
361.843	89.19
362.07	89.19
362.296	105.19
362.523	84.19
362.749	96.19
362.976	101.19
363.203	92.19
363.429	94.19
363.656	101.19
363.882	81.19
364.109	105.19
364.335	102.19
364.562	108.19
364.788	103.19
365.015	99.19
365.241	122.19
365.468	129.19
365.694	118.19
365.92	106.19
366.147	85.19
366.373	94.19
366.599	79.19
366.826	90.19
367.052	108.19
367.278	95.19
367.505	94.19
367.731	93.19
367.957	100.19
368.184	102.19
368.41	102.19
368.636	123.19
368.862	131.19
369.089	107.19
369.315	99.19
369.541	92.19
369.767	91.19
369.993	92.19
370.219	101.19
370.445	90.19
370.672	81.19
370.898	85.19
371.124	90.19
371.35	88.19
371.576	101.19
371.802	88.19
372.028	88.19
372.254	97.19
372.48	98.19
372.706	93.19
372.932	98.19
373.158	89.19
373.384	93.19
373.61	107.19
373.835	91.19
374.061	89.19
374.287	91.19
374.513	97.19
374.739	89.19
374.965	84.19
375.191	96.19
375.416	95.19
375.642	94.19
375.868	94.19
376.094	81.19
376.319	98.19
376.545	80.19
376.771	93.19
376.997	99.19
377.222	88.19
377.448	87.19
377.674	102.19
377.899	98.19
378.125	89.19
378.35	94.19
378.576	101.19
378.802	104.19
379.027	82.19
379.253	99.19
379.478	99.19
379.704	93.19
379.929	101.19
380.155	102.19
380.38	88.19
380.606	115.19
380.831	106.19
381.057	109.19
381.282	106.19
381.507	110.19
381.733	95.19
381.958	104.19
382.184	94.19
382.409	100.19
382.634	105.19
382.86	98.19
383.085	92.19
383.31	120.19
383.535	109.19
383.761	95.19
383.986	96.19
384.211	102.19
384.436	95.19
384.662	113.19
384.887	110.19
385.112	111.19
385.337	121.19
385.562	94.19
385.787	97.19
386.013	121.19
386.238	115.19
386.463	115.19
386.688	123.19
386.913	115.19
387.138	110.19
387.363	115.19
387.588	109.19
387.813	106.19
388.038	117.19
388.263	126.19
388.488	125.19
388.713	103.19
388.938	104.19
389.163	102.19
389.387	119.19
389.612	101.19
389.837	91.19
390.062	96.19
390.287	88.19
390.512	101.19
390.736	110.19
390.961	91.19
391.186	103.19
391.411	91.19
391.636	95.19
391.86	94.19
392.085	87.19
392.31	91.19
392.534	92.19
392.759	88.19
392.984	90.19
393.208	104.19
393.433	96.19
393.658	92.19
393.882	89.19
394.107	85.19
394.331	100.19
394.556	93.19
394.78	90.19
395.005	89.19
395.229	81.19
395.454	88.19
395.678	94.19
395.903	84.19
396.127	82.19
396.352	90.19
396.576	88.19
396.801	87.19
397.025	88.19
397.249	95.19
397.474	86.19
397.698	98.19
397.922	90.19
398.147	75.19
398.371	87.19
398.595	86.19
398.82	84.19
399.044	86.19
399.268	105.19
399.492	90.19
399.717	100.19
399.941	101.19
400.165	107.19
400.389	106.19
400.613	92.19
400.837	81.19
401.062	88.19
401.286	98.19
401.51	89.19
401.734	96.19
401.958	108.19
402.182	138.19
402.406	186.19
402.63	126.19
402.854	100.19
403.078	105.19
403.302	92.19
403.526	78.19
403.75	97.19
403.974	84.19
404.198	97.19
404.422	76.19
404.645	95.19
404.869	94.19
405.093	97.19
405.317	115.19
405.541	96.19
405.765	118.19
405.988	155.19
406.212	216.19
406.436	289.19
406.66	189.19
406.883	103.19
407.107	115.19
407.331	93.19
407.555	108.19
407.778	99.19
408.002	101.19
408.226	103.19
408.449	84.19
408.673	85.19
408.896	102.19
409.12	104.19
409.344	95.19
409.567	82.19
409.791	86.19
410.014	92.19
410.238	92.19
410.461	78.19
410.685	90.19
410.908	105.19
411.132	115.19
411.355	87.19
411.578	96.19
411.802	94.19
412.025	81.19
412.249	91.19
412.472	92.19
412.695	94.19
412.919	108.19
413.142	85.19
413.365	92.19
413.589	83.19
413.812	92.19
414.035	97.19
414.258	88.19
414.482	81.19
414.705	76.19
414.928	92.19
415.151	102.19
415.374	91.19
415.597	82.19
415.821	88.19
416.044	85.19
416.267	94.19
416.49	95.19
416.713	90.19
416.936	80.19
417.159	101.19
417.382	92.19
417.605	91.19
417.828	108.19
418.051	95.19
418.274	101.19
418.497	88.19
418.72	90.19
418.943	91.19
419.166	87.19
419.389	99.19
419.611	94.19
419.834	91.19
420.057	89.19
420.28	90.19
420.503	94.19
420.726	93.19
420.948	81.19
421.171	108.19
421.394	101.19
421.617	97.19
421.839	92.19
422.062	87.19
422.285	93.19
422.507	89.19
422.73	121.19
422.953	116.19
423.175	91.19
423.398	93.19
423.621	87.19
423.843	77.19
424.066	91.19
424.288	91.19
424.511	95.19
424.733	105.19
424.956	104.19
425.178	107.19
425.401	115.19
425.623	92.19
425.846	95.19
426.068	113.19
426.291	93.19
426.513	95.19
426.735	84.19
426.958	87.19
427.18	103.19
427.402	149.19
427.625	205.19
427.847	156.19
428.069	121.19
428.292	88.19
428.514	89.19
428.736	92.19
428.958	92.19
429.181	83.19
429.403	96.19
429.625	91.19
429.847	87.19
430.069	116.19
430.292	83.19
430.514	74.19
430.736	94.19
430.958	86.19
431.18	87.19
431.402	85.19
431.624	79.19
431.846	81.19
432.068	99.19
432.29	68.19
432.512	97.19
432.734	81.19
432.956	86.19
433.178	96.19
433.4	97.19
433.622	93.19
433.844	87.19
434.066	91.19
434.287	87.19
434.509	94.19
434.731	104.19
434.953	92.19
435.175	83.19
435.397	99.19
435.618	97.19
435.84	105.19
436.062	141.19
436.284	131.19
436.505	135.19
436.727	124.19
436.949	92.19
437.17	94.19
437.392	80.19
437.614	94.19
437.835	139.19
438.057	136.19
438.278	126.19
438.5	119.19
438.721	113.19
438.943	117.19
439.165	91.19
439.386	90.19
439.608	89.19
439.829	99.19
440.05	133.19
440.272	174.19
440.493	122.19
440.715	81.19
440.936	97.19
441.158	89.19
441.379	89.19
441.6	104.19
441.822	103.19
442.043	116.19
442.264	115.19
442.486	109.19
442.707	89.19
442.928	112.19
443.149	156.19
443.371	143.19
443.592	117.19
443.813	120.19
444.034	127.19
444.255	99.19
444.476	104.19
444.698	101.19
444.919	96.19
445.14	131.19
445.361	117.19
445.582	142.19
445.803	162.19
446.024	159.19
446.245	173.19
446.466	125.19
446.687	101.19
446.908	87.19
447.129	85.19
447.35	106.19
447.571	108.19
447.792	100.19
448.013	116.19
448.234	109.19
448.455	101.19
448.675	125.19
448.896	108.19
449.117	112.19
449.338	101.19
449.559	142.19
449.779	132.19
450	107.19
450.221	80.19
450.442	101.19
450.662	99.19
450.883	116.19
451.104	136.19
451.324	104.19
451.545	98.19
451.766	89.19
451.986	93.19
452.207	93.19
452.428	98.19
452.648	111.19
452.869	105.19
453.089	142.19
453.31	145.19
453.53	113.19
453.751	98.19
453.971	108.19
454.192	131.19
454.412	92.19
454.633	93.19
454.853	85.19
455.073	92.19
455.294	110.19
455.514	118.19
455.734	100.19
455.955	99.19
456.175	92.19
456.395	91.19
456.616	86.19
456.836	95.19
457.056	111.19
457.276	81.19
457.497	87.19
457.717	82.19
457.937	90.19
458.157	92.19
458.377	87.19
458.598	118.19
458.818	180.19
459.038	204.19
459.258	146.19
459.478	103.19
459.698	88.19
459.918	94.19
460.138	79.19
460.358	89.19
460.578	94.19
460.798	78.19
461.018	107.19
461.238	81.19
461.458	84.19
461.678	71.19
461.898	92.19
462.118	78.19
462.338	80.19
462.558	98.19
462.777	89.19
462.997	102.19
463.217	87.19
463.437	86.19
463.657	91.19
463.876	78.19
464.096	97.19
464.316	91.19
464.536	95.19
464.755	108.19
464.975	116.19
465.195	219.19
465.414	209.19
465.634	116.19
465.854	92.19
466.073	101.19
466.293	91.19
466.512	94.19
466.732	86.19
466.951	89.19
467.171	90.19
467.391	97.19
467.61	116.19
467.829	91.19
468.049	93.19
468.268	98.19
468.488	95.19
468.707	88.19
468.927	84.19
469.146	93.19
469.365	92.19
469.585	87.19
469.804	104.19
470.023	116.19
470.243	87.19
470.462	105.19
470.681	131.19
470.901	89.19
471.12	93.19
471.339	98.19
471.558	88.19
471.777	99.19
471.997	90.19
472.216	90.19
472.435	110.19
472.654	92.19
472.873	94.19
473.092	89.19
473.311	81.19
473.53	86.19
473.749	90.19
473.968	98.19
474.187	122.19
474.406	91.19
474.625	102.19
474.844	89.19
475.063	95.19
475.282	91.19
475.501	76.19
475.72	93.19
475.939	85.19
476.158	88.19
476.377	82.19
476.596	90.19
476.814	90.19
477.033	100.19
477.252	89.19
477.471	79.19
477.69	94.19
477.908	101.19
478.127	82.19
478.346	111.19
478.564	99.19
478.783	95.19
479.002	87.19
479.22	96.19
479.439	90.19
479.658	106.19
479.876	111.19
480.095	86.19
480.313	96.19
480.532	101.19
480.751	108.19
480.969	99.19
481.188	131.19
481.406	110.19
481.624	97.19
481.843	75.19
482.061	93.19
482.28	85.19
482.498	95.19
482.717	82.19
482.935	93.19
483.153	98.19
483.372	92.19
483.59	91.19
483.808	96.19
484.027	99.19
484.245	91.19
484.463	99.19
484.681	104.19
484.9	89.19
485.118	91.19
485.336	92.19
485.554	100.19
485.772	116.19
485.99	100.19
486.209	102.19
486.427	108.19
486.645	116.19
486.863	116.19
487.081	109.19
487.299	98.19
487.517	88.19
487.735	106.19
487.953	105.19
488.171	98.19
488.389	94.19
488.607	97.19
488.825	101.19
489.043	101.19
489.261	92.19
489.479	86.19
489.696	98.19
489.914	97.19
490.132	85.19
490.35	92.19
490.568	89.19
490.786	86.19
491.003	91.19
491.221	101.19
491.439	86.19
491.657	93.19
491.874	107.19
492.092	81.19
492.31	85.19
492.527	81.19
492.745	92.19
492.963	89.19
493.18	97.19
493.398	94.19
493.615	97.19
493.833	104.19
494.05	91.19
494.268	104.19
494.485	98.19
494.703	78.19
494.92	77.19
495.138	112.19
495.355	87.19
495.573	98.19
495.79	101.19
496.008	93.19
496.225	87.19
496.442	108.19
496.66	104.19
496.877	89.19
497.094	91.19
497.312	78.19
497.529	102.19
497.746	88.19
497.963	89.19
498.181	89.19
498.398	107.19
498.615	112.19
498.832	116.19
499.049	97.19
499.267	102.19
499.484	90.19
499.701	84.19
499.918	84.19
500.135	86.19
500.352	90.19
500.569	86.19
500.786	97.19
501.003	93.19
501.22	103.19
501.437	93.19
501.654	99.19
501.871	120.19
502.088	104.19
502.305	101.19
502.522	102.19
502.739	85.19
502.956	91.19
503.172	103.19
503.389	95.19
503.606	117.19
503.823	117.19
504.04	87.19
504.256	89.19
504.473	100.19
504.69	90.19
504.907	81.19
505.123	89.19
505.34	86.19
505.557	106.19
505.773	105.19
505.99	102.19
506.207	90.19
506.423	85.19
506.64	82.19
506.856	77.19
507.073	108.19
507.289	96.19
507.506	105.19
507.722	126.19
507.939	123.19
508.155	97.19
508.372	99.19
508.588	99.19
508.805	107.19
509.021	106.19
509.238	113.19
509.454	91.19
509.67	106.19
509.887	139.19
510.103	159.19
510.319	249.19
510.536	1016.19
510.752	3616.19
510.968	973.19
511.184	190.19
511.401	131.19
511.617	100.19
511.833	117.19
512.049	109.19
512.265	100.19
512.481	100.19
512.698	87.19
512.914	98.19
513.13	92.19
513.346	104.19
513.562	102.19
