Data from Circ_2012_H10_HRD10591_00052.txt Node
Date: Wed Jan 03 10:06:00 EST 2024
User: Yrep
Spectrometer: HR+D1059
Trigger mode: 1
Integration Time (sec): 1.000000E-1
Scans to average: 1
Electric dark correction enabled: true
Nonlinearity correction enabled: false
Boxcar width: 0
XAxis mode: Wavelengths
Number of Pixels in Spectrum: 2048
>>>>>Begin Spectral Data<<<<<
223.165	-19.31
223.4	-19.31
223.635	-19.31
223.869	-11.31
224.104	-15.31
224.338	-21.31
224.573	-13.31
224.808	-19.31
225.042	-7.31
225.277	0.69
225.511	4.69
225.746	-0.31
225.98	6.69
226.215	19.69
226.449	2.69
226.683	20.69
226.918	28.69
227.152	23.69
227.387	37.69
227.621	35.69
227.856	41.69
228.09	58.69
228.324	54.69
228.559	41.69
228.793	62.69
229.027	70.69
229.262	61.69
229.496	81.69
229.73	72.69
229.964	101.69
230.199	62.69
230.433	66.69
230.667	81.69
230.901	78.69
231.136	75.69
231.37	62.69
231.604	91.69
231.838	85.69
232.072	90.69
232.306	89.69
232.541	89.69
232.775	63.69
233.009	76.69
233.243	68.69
233.477	82.69
233.711	84.69
233.945	85.69
234.179	91.69
234.413	70.69
234.647	69.69
234.881	84.69
235.115	87.69
235.349	74.69
235.583	58.69
235.817	68.69
236.051	78.69
236.285	77.69
236.519	65.69
236.753	80.69
236.987	72.69
237.221	92.69
237.455	85.69
237.689	64.69
237.922	78.69
238.156	70.69
238.39	79.69
238.624	79.69
238.858	64.69
239.091	72.69
239.325	65.69
239.559	84.69
239.793	83.69
240.027	61.69
240.26	75.69
240.494	82.69
240.728	77.69
240.961	75.69
241.195	74.69
241.429	67.69
241.662	68.69
241.896	83.69
242.13	58.69
242.363	59.69
242.597	72.69
242.83	54.69
243.064	68.69
243.298	71.69
243.531	64.69
243.765	78.69
243.998	70.69
244.232	70.69
244.465	73.69
244.699	72.69
244.932	78.69
245.166	67.69
245.399	70.69
245.633	58.69
245.866	75.69
246.099	77.69
246.333	85.69
246.566	69.69
246.8	66.69
247.033	75.69
247.266	76.69
247.5	78.69
247.733	84.69
247.966	84.69
248.2	88.69
248.433	78.69
248.666	81.69
248.899	70.69
249.133	92.69
249.366	88.69
249.599	100.69
249.832	81.69
250.066	85.69
250.299	76.69
250.532	80.69
250.765	80.69
250.998	86.69
251.231	81.69
251.465	72.69
251.698	75.69
251.931	74.69
252.164	63.69
252.397	81.69
252.63	86.69
252.863	72.69
253.096	88.69
253.329	81.69
253.562	78.69
253.795	87.69
254.028	79.69
254.261	90.69
254.494	85.69
254.727	89.69
254.96	74.69
255.193	74.69
255.426	62.69
255.659	78.69
255.892	87.69
256.124	88.69
256.357	90.69
256.59	78.69
256.823	80.69
257.056	81.69
257.289	77.69
257.521	75.69
257.754	77.69
257.987	73.69
258.22	72.69
258.452	91.69
258.685	75.69
258.918	71.69
259.151	88.69
259.383	81.69
259.616	75.69
259.849	89.69
260.081	80.69
260.314	86.69
260.547	72.69
260.779	92.69
261.012	88.69
261.244	85.69
261.477	94.69
261.71	87.69
261.942	91.69
262.175	99.69
262.407	84.69
262.64	83.69
262.872	78.69
263.105	78.69
263.337	71.69
263.57	73.69
263.802	77.69
264.035	82.69
264.267	80.69
264.499	84.69
264.732	72.69
264.964	89.69
265.197	73.69
265.429	76.69
265.661	70.69
265.894	81.69
266.126	85.69
266.358	89.69
266.591	85.69
266.823	83.69
267.055	71.69
267.287	71.69
267.52	82.69
267.752	81.69
267.984	86.69
268.216	78.69
268.448	86.69
268.681	77.69
268.913	74.69
269.145	88.69
269.377	78.69
269.609	91.69
269.841	82.69
270.073	62.69
270.306	73.69
270.538	89.69
270.77	78.69
271.002	73.69
271.234	97.69
271.466	67.69
271.698	85.69
271.93	78.69
272.162	81.69
272.394	71.69
272.626	85.69
272.858	81.69
273.09	92.69
273.322	92.69
273.553	76.69
273.785	85.69
274.017	93.69
274.249	85.69
274.481	88.69
274.713	83.69
274.945	76.69
275.176	88.69
275.408	69.69
275.64	74.69
275.872	81.69
276.104	84.69
276.335	91.69
276.567	102.69
276.799	121.69
277.031	93.69
277.262	84.69
277.494	79.69
277.726	89.69
277.957	77.69
278.189	88.69
278.421	89.69
278.652	90.69
278.884	73.69
279.115	88.69
279.347	99.69
279.579	69.69
279.81	105.69
280.042	86.69
280.273	91.69
280.505	91.69
280.736	77.69
280.968	90.69
281.199	77.69
281.431	87.69
281.662	80.69
281.894	83.69
282.125	103.69
282.356	106.69
282.588	139.69
282.819	101.69
283.051	88.69
283.282	76.69
283.513	73.69
283.745	90.69
283.976	80.69
284.207	80.69
284.439	75.69
284.67	89.69
284.901	86.69
285.132	78.69
285.364	78.69
285.595	91.69
285.826	88.69
286.057	74.69
286.288	81.69
286.52	82.69
286.751	80.69
286.982	84.69
287.213	80.69
287.444	87.69
287.675	80.69
287.906	97.69
288.138	92.69
288.369	91.69
288.6	93.69
288.831	77.69
289.062	90.69
289.293	91.69
289.524	80.69
289.755	92.69
289.986	96.69
290.217	89.69
290.448	85.69
290.679	93.69
290.91	84.69
291.141	73.69
291.371	76.69
291.602	97.69
291.833	85.69
292.064	99.69
292.295	101.69
292.526	80.69
292.757	89.69
292.987	93.69
293.218	92.69
293.449	78.69
293.68	88.69
293.91	96.69
294.141	82.69
294.372	90.69
294.603	92.69
294.833	87.69
295.064	80.69
295.295	76.69
295.525	89.69
295.756	99.69
295.987	115.69
296.217	133.69
296.448	122.69
296.679	94.69
296.909	68.69
297.14	92.69
297.37	74.69
297.601	84.69
297.831	85.69
298.062	87.69
298.292	93.69
298.523	78.69
298.753	90.69
298.984	96.69
299.214	97.69
299.445	94.69
299.675	83.69
299.905	91.69
300.136	87.69
300.366	93.69
300.597	88.69
300.827	109.69
301.057	93.69
301.288	92.69
301.518	99.69
301.748	89.69
301.979	97.69
302.209	82.69
302.439	86.69
302.669	73.69
302.9	83.69
303.13	84.69
303.36	99.69
303.59	96.69
303.82	104.69
304.051	92.69
304.281	87.69
304.511	92.69
304.741	82.69
304.971	97.69
305.201	83.69
305.431	88.69
305.661	77.69
305.891	91.69
306.121	82.69
306.352	105.69
306.582	93.69
306.812	89.69
307.042	99.69
307.272	88.69
307.502	91.69
307.731	92.69
307.961	85.69
308.191	85.69
308.421	99.69
308.651	85.69
308.881	94.69
309.111	103.69
309.341	85.69
309.571	108.69
309.8	93.69
310.03	97.69
310.26	100.69
310.49	98.69
310.72	104.69
310.949	98.69
311.179	92.69
311.409	84.69
311.639	88.69
311.868	99.69
312.098	104.69
312.328	89.69
312.557	96.69
312.787	103.69
313.017	102.69
313.246	81.69
313.476	84.69
313.706	78.69
313.935	99.69
314.165	92.69
314.394	102.69
314.624	84.69
314.853	93.69
315.083	104.69
315.312	87.69
315.542	73.69
315.771	91.69
316.001	91.69
316.23	83.69
316.46	85.69
316.689	102.69
316.919	100.69
317.148	86.69
317.377	88.69
317.607	96.69
317.836	100.69
318.065	104.69
318.295	96.69
318.524	89.69
318.753	88.69
318.983	88.69
319.212	103.69
319.441	107.69
319.67	95.69
319.9	87.69
320.129	93.69
320.358	98.69
320.587	83.69
320.816	96.69
321.046	93.69
321.275	103.69
321.504	99.69
321.733	83.69
321.962	98.69
322.191	90.69
322.42	98.69
322.649	96.69
322.878	98.69
323.108	117.69
323.337	124.69
323.566	116.69
323.795	136.69
324.024	214.69
324.253	396.69
324.482	762.69
324.71	1544.69
324.939	2038.69
325.168	765.69
325.397	236.69
325.626	154.69
325.855	134.69
326.084	124.69
326.313	125.69
326.542	142.69
326.77	209.69
326.999	437.69
327.228	852.69
327.457	1550.69
327.686	1232.69
327.914	346.69
328.143	176.69
328.372	148.69
328.6	129.69
328.829	122.69
329.058	134.69
329.287	119.69
329.515	97.69
329.744	107.69
329.972	104.69
330.201	134.69
330.43	151.69
330.658	126.69
330.887	128.69
331.115	125.69
331.344	83.69
331.572	99.69
331.801	107.69
332.03	96.69
332.258	96.69
332.486	90.69
332.715	98.69
332.943	98.69
333.172	87.69
333.4	97.69
333.629	91.69
333.857	109.69
334.085	108.69
334.314	132.69
334.542	150.69
334.771	149.69
334.999	99.69
335.227	100.69
335.455	93.69
335.684	87.69
335.912	103.69
336.14	89.69
336.369	91.69
336.597	92.69
336.825	105.69
337.053	92.69
337.281	101.69
337.51	82.69
337.738	99.69
337.966	87.69
338.194	100.69
338.422	92.69
338.65	88.69
338.878	98.69
339.106	88.69
339.334	84.69
339.562	96.69
339.79	81.69
340.018	85.69
340.246	88.69
340.474	89.69
340.702	95.69
340.93	79.69
341.158	93.69
341.386	86.69
341.614	84.69
341.842	97.69
342.07	82.69
342.298	76.69
342.526	94.69
342.754	96.69
342.981	90.69
343.209	94.69
343.437	102.69
343.665	84.69
343.893	92.69
344.12	110.69
344.348	83.69
344.576	93.69
344.804	88.69
345.031	103.69
345.259	88.69
345.487	89.69
345.714	86.69
345.942	96.69
346.17	91.69
346.397	94.69
346.625	93.69
346.853	91.69
347.08	76.69
347.308	100.69
347.535	88.69
347.763	88.69
347.99	99.69
348.218	100.69
348.445	109.69
348.673	90.69
348.9	89.69
349.128	79.69
349.355	95.69
349.583	104.69
349.81	91.69
350.037	91.69
350.265	101.69
350.492	110.69
350.72	94.69
350.947	97.69
351.174	101.69
351.402	97.69
351.629	88.69
351.856	95.69
352.083	90.69
352.311	108.69
352.538	96.69
352.765	98.69
352.992	112.69
353.22	96.69
353.447	97.69
353.674	99.69
353.901	101.69
354.128	93.69
354.355	99.69
354.583	103.69
354.81	94.69
355.037	82.69
355.264	87.69
355.491	84.69
355.718	89.69
355.945	92.69
356.172	89.69
356.399	97.69
356.626	92.69
356.853	94.69
357.08	76.69
357.307	94.69
357.534	105.69
357.761	99.69
357.988	86.69
358.215	95.69
358.441	96.69
358.668	82.69
358.895	94.69
359.122	91.69
359.349	91.69
359.576	85.69
359.802	94.69
360.029	107.69
360.256	117.69
360.483	82.69
360.709	82.69
360.936	93.69
361.163	88.69
361.39	106.69
361.616	90.69
361.843	92.69
362.07	88.69
362.296	85.69
362.523	96.69
362.749	80.69
362.976	88.69
363.203	101.69
363.429	72.69
363.656	88.69
363.882	101.69
364.109	103.69
364.335	90.69
364.562	83.69
364.788	83.69
365.015	100.69
365.241	109.69
365.468	109.69
365.694	94.69
365.92	91.69
366.147	89.69
366.373	71.69
366.599	102.69
366.826	77.69
367.052	79.69
367.278	87.69
367.505	85.69
367.731	101.69
367.957	67.69
368.184	82.69
368.41	88.69
368.636	106.69
368.862	113.69
369.089	94.69
369.315	84.69
369.541	77.69
369.767	97.69
369.993	82.69
370.219	88.69
370.445	100.69
370.672	73.69
370.898	94.69
371.124	87.69
371.35	74.69
371.576	79.69
371.802	86.69
372.028	89.69
372.254	111.69
372.48	86.69
372.706	76.69
372.932	76.69
373.158	94.69
373.384	94.69
373.61	87.69
373.835	85.69
374.061	85.69
374.287	85.69
374.513	92.69
374.739	100.69
374.965	81.69
375.191	98.69
375.416	100.69
375.642	85.69
375.868	85.69
376.094	83.69
376.319	91.69
376.545	82.69
376.771	85.69
376.997	84.69
377.222	88.69
377.448	102.69
377.674	79.69
377.899	92.69
378.125	89.69
378.35	87.69
378.576	93.69
378.802	95.69
379.027	90.69
379.253	90.69
379.478	76.69
379.704	57.69
379.929	92.69
380.155	75.69
380.38	92.69
380.606	97.69
380.831	104.69
381.057	93.69
381.282	83.69
381.507	85.69
381.733	82.69
381.958	96.69
382.184	83.69
382.409	95.69
382.634	100.69
382.86	105.69
383.085	100.69
383.31	97.69
383.535	96.69
383.761	106.69
383.986	84.69
384.211	69.69
384.436	85.69
384.662	104.69
384.887	104.69
385.112	102.69
385.337	92.69
385.562	91.69
385.787	98.69
386.013	94.69
386.238	115.69
386.463	77.69
386.688	80.69
386.913	116.69
387.138	116.69
387.363	102.69
387.588	103.69
387.813	99.69
388.038	106.69
388.263	110.69
388.488	120.69
388.713	98.69
388.938	104.69
389.163	86.69
389.387	81.69
389.612	93.69
389.837	85.69
390.062	90.69
390.287	72.69
390.512	89.69
390.736	77.69
390.961	95.69
391.186	81.69
391.411	81.69
391.636	90.69
391.86	89.69
392.085	98.69
392.31	88.69
392.534	72.69
392.759	84.69
392.984	84.69
393.208	74.69
393.433	84.69
393.658	81.69
393.882	90.69
394.107	86.69
394.331	81.69
394.556	71.69
394.78	90.69
395.005	91.69
395.229	100.69
395.454	84.69
395.678	85.69
395.903	84.69
396.127	74.69
396.352	86.69
396.576	79.69
396.801	91.69
397.025	87.69
397.249	83.69
397.474	91.69
397.698	84.69
397.922	100.69
398.147	83.69
398.371	89.69
398.595	72.69
398.82	81.69
399.044	86.69
399.268	99.69
399.492	97.69
399.717	82.69
399.941	93.69
400.165	104.69
400.389	97.69
400.613	76.69
400.837	83.69
401.062	95.69
401.286	86.69
401.51	95.69
401.734	67.69
401.958	95.69
402.182	117.69
402.406	146.69
402.63	117.69
402.854	94.69
403.078	88.69
403.302	78.69
403.526	101.69
403.75	87.69
403.974	83.69
404.198	103.69
404.422	93.69
404.645	81.69
404.869	82.69
405.093	99.69
405.317	89.69
405.541	87.69
405.765	93.69
405.988	99.69
406.212	166.69
406.436	220.69
406.66	146.69
406.883	96.69
407.107	92.69
407.331	93.69
407.555	97.69
407.778	98.69
408.002	92.69
408.226	80.69
408.449	85.69
408.673	83.69
408.896	100.69
409.12	93.69
409.344	90.69
409.567	82.69
409.791	90.69
410.014	94.69
410.238	85.69
410.461	91.69
410.685	94.69
410.908	92.69
411.132	114.69
411.355	102.69
411.578	88.69
411.802	95.69
412.025	88.69
412.249	80.69
412.472	91.69
412.695	101.69
412.919	90.69
413.142	80.69
413.365	88.69
413.589	88.69
413.812	77.69
414.035	83.69
414.258	88.69
414.482	82.69
414.705	101.69
414.928	75.69
415.151	96.69
415.374	89.69
415.597	84.69
415.821	104.69
416.044	92.69
416.267	83.69
416.49	82.69
416.713	73.69
416.936	76.69
417.159	88.69
417.382	84.69
417.605	74.69
417.828	101.69
418.051	96.69
418.274	84.69
418.497	80.69
418.72	76.69
418.943	85.69
419.166	84.69
419.389	92.69
419.611	99.69
419.834	86.69
420.057	81.69
420.28	85.69
420.503	102.69
420.726	86.69
420.948	88.69
421.171	86.69
421.394	96.69
421.617	85.69
421.839	92.69
422.062	82.69
422.285	96.69
422.507	99.69
422.73	77.69
422.953	87.69
423.175	78.69
423.398	89.69
423.621	90.69
423.843	86.69
424.066	93.69
424.288	99.69
424.511	88.69
424.733	82.69
424.956	93.69
425.178	83.69
425.401	102.69
425.623	99.69
425.846	88.69
426.068	96.69
426.291	101.69
426.513	78.69
426.735	82.69
426.958	98.69
427.18	109.69
427.402	127.69
427.625	162.69
427.847	121.69
428.069	98.69
428.292	101.69
428.514	74.69
428.736	76.69
428.958	84.69
429.181	88.69
429.403	69.69
429.625	84.69
429.847	80.69
430.069	98.69
430.292	91.69
430.514	78.69
430.736	92.69
430.958	78.69
431.18	76.69
431.402	84.69
431.624	75.69
431.846	77.69
432.068	85.69
432.29	80.69
432.512	83.69
432.734	94.69
432.956	89.69
433.178	90.69
433.4	92.69
433.622	77.69
433.844	85.69
434.066	91.69
434.287	98.69
434.509	84.69
434.731	83.69
434.953	89.69
435.175	102.69
435.397	82.69
435.618	91.69
435.84	104.69
436.062	111.69
436.284	136.69
436.505	92.69
436.727	93.69
436.949	90.69
437.17	77.69
437.392	69.69
437.614	92.69
437.835	87.69
438.057	113.69
438.278	103.69
438.5	93.69
438.721	103.69
438.943	105.69
439.165	89.69
439.386	95.69
439.608	75.69
439.829	88.69
440.05	125.69
440.272	133.69
440.493	105.69
440.715	101.69
440.936	79.69
441.158	70.69
441.379	93.69
441.6	96.69
441.822	89.69
442.043	88.69
442.264	103.69
442.486	106.69
442.707	92.69
442.928	91.69
443.149	118.69
443.371	114.69
443.592	98.69
443.813	118.69
444.034	97.69
444.255	74.69
444.476	89.69
444.698	80.69
444.919	74.69
445.14	134.69
445.361	111.69
445.582	97.69
445.803	138.69
446.024	146.69
446.245	113.69
446.466	93.69
446.687	99.69
446.908	80.69
447.129	85.69
447.35	89.69
447.571	85.69
447.792	81.69
448.013	87.69
448.234	89.69
448.455	104.69
448.675	108.69
448.896	112.69
449.117	91.69
449.338	93.69
449.559	112.69
449.779	123.69
450	98.69
450.221	90.69
450.442	89.69
450.662	92.69
450.883	91.69
451.104	97.69
451.324	97.69
451.545	73.69
451.766	86.69
451.986	74.69
452.207	88.69
452.428	81.69
452.648	99.69
452.869	93.69
453.089	114.69
453.31	102.69
453.53	94.69
453.751	99.69
453.971	102.69
454.192	98.69
454.412	80.69
454.633	85.69
454.853	77.69
455.073	79.69
455.294	82.69
455.514	86.69
455.734	97.69
455.955	78.69
456.175	85.69
456.395	81.69
456.616	80.69
456.836	78.69
457.056	74.69
457.276	78.69
457.497	78.69
457.717	81.69
457.937	84.69
458.157	86.69
458.377	78.69
458.598	111.69
458.818	146.69
459.038	125.69
459.258	109.69
459.478	72.69
459.698	74.69
459.918	65.69
460.138	98.69
460.358	84.69
460.578	91.69
460.798	87.69
461.018	97.69
461.238	79.69
461.458	90.69
461.678	74.69
461.898	77.69
462.118	74.69
462.338	72.69
462.558	92.69
462.777	90.69
462.997	75.69
463.217	76.69
463.437	89.69
463.657	94.69
463.876	89.69
464.096	81.69
464.316	87.69
464.536	86.69
464.755	103.69
464.975	106.69
465.195	141.69
465.414	143.69
465.634	95.69
465.854	71.69
466.073	86.69
466.293	98.69
466.512	90.69
466.732	80.69
466.951	92.69
467.171	81.69
467.391	90.69
467.61	100.69
467.829	96.69
468.049	104.69
468.268	95.69
468.488	68.69
468.707	82.69
468.927	84.69
469.146	91.69
469.365	73.69
469.585	72.69
469.804	85.69
470.023	90.69
470.243	87.69
470.462	84.69
470.681	89.69
470.901	90.69
471.12	90.69
471.339	85.69
471.558	101.69
471.777	69.69
471.997	89.69
472.216	132.69
472.435	173.69
472.654	97.69
472.873	76.69
473.092	77.69
473.311	90.69
473.53	83.69
473.749	105.69
473.968	74.69
474.187	89.69
474.406	110.69
474.625	87.69
474.844	77.69
475.063	93.69
475.282	74.69
475.501	86.69
475.72	86.69
475.939	84.69
476.158	83.69
476.377	88.69
476.596	77.69
476.814	86.69
477.033	86.69
477.252	85.69
477.471	73.69
477.69	89.69
477.908	91.69
478.127	104.69
478.346	93.69
478.564	83.69
478.783	82.69
479.002	94.69
479.22	81.69
479.439	97.69
479.658	102.69
479.876	92.69
480.095	91.69
480.313	84.69
480.532	81.69
480.751	87.69
480.969	129.69
481.188	230.69
481.406	186.69
481.624	88.69
481.843	77.69
482.061	82.69
482.28	84.69
482.498	93.69
482.717	94.69
482.935	82.69
483.153	82.69
483.372	84.69
483.59	88.69
483.808	84.69
484.027	85.69
484.245	97.69
484.463	95.69
484.681	85.69
484.9	94.69
485.118	93.69
485.336	94.69
485.554	88.69
485.772	92.69
485.99	90.69
486.209	92.69
486.427	95.69
486.645	104.69
486.863	102.69
487.081	97.69
487.299	94.69
487.517	88.69
487.735	87.69
487.953	89.69
488.171	78.69
488.389	80.69
488.607	99.69
488.825	97.69
489.043	81.69
489.261	107.69
489.479	105.69
489.696	86.69
489.914	78.69
490.132	89.69
490.35	78.69
490.568	91.69
490.786	81.69
491.003	91.69
491.221	86.69
491.439	92.69
491.657	108.69
491.874	88.69
492.092	92.69
492.31	99.69
492.527	93.69
492.745	84.69
492.963	83.69
493.18	78.69
493.398	85.69
493.615	74.69
493.833	91.69
494.05	87.69
494.268	88.69
494.485	103.69
494.703	94.69
494.92	100.69
495.138	83.69
495.355	99.69
495.573	85.69
495.79	88.69
496.008	92.69
496.225	89.69
496.442	92.69
496.66	77.69
496.877	105.69
497.094	102.69
497.312	83.69
497.529	96.69
497.746	84.69
497.963	79.69
498.181	93.69
498.398	88.69
498.615	100.69
498.832	100.69
499.049	106.69
499.267	71.69
499.484	80.69
499.701	85.69
499.918	81.69
500.135	92.69
500.352	90.69
500.569	89.69
500.786	95.69
501.003	96.69
501.22	90.69
501.437	88.69
501.654	88.69
501.871	90.69
502.088	87.69
502.305	98.69
502.522	89.69
502.739	89.69
502.956	96.69
503.172	77.69
503.389	77.69
503.606	106.69
503.823	94.69
504.04	89.69
504.256	85.69
504.473	79.69
504.69	84.69
504.907	97.69
505.123	89.69
505.34	87.69
505.557	92.69
505.773	82.69
505.99	77.69
506.207	94.69
506.423	99.69
506.64	95.69
506.856	77.69
507.073	95.69
507.289	92.69
507.506	99.69
507.722	117.69
507.939	99.69
508.155	92.69
508.372	94.69
508.588	91.69
508.805	90.69
509.021	88.69
509.238	93.69
509.454	89.69
509.67	101.69
509.887	93.69
510.103	136.69
510.319	206.69
510.536	752.69
510.752	2446.69
510.968	698.69
511.184	157.69
511.401	113.69
511.617	103.69
511.833	92.69
512.049	91.69
512.265	96.69
512.481	90.69
512.698	86.69
512.914	98.69
513.13	81.69
513.346	81.69
513.562	98.69
513.778	104.69
513.994	85.69
514.21	84.69
514.426	112.69
514.642	112.69
514.858	126.69
515.074	154.69
515.29	445.69
515.506	1461.69
515.721	549.69
515.937	163.69
516.153	117.69
516.369	95.69
516.585	99.69
516.801	101.69
