Data from Circ_2012_H10_HRD10591_00057.txt Node
Date: Wed Jan 03 10:06:01 EST 2024
User: Yrep
Spectrometer: HR+D1059
Trigger mode: 1
Integration Time (sec): 1.000000E-1
Scans to average: 1
Electric dark correction enabled: true
Nonlinearity correction enabled: false
Boxcar width: 0
XAxis mode: Wavelengths
Number of Pixels in Spectrum: 2048
>>>>>Begin Spectral Data<<<<<
223.165	-15.44
223.4	-15.44
223.635	-15.44
223.869	-12.44
224.104	-12.44
224.338	-5.44
224.573	-16.44
224.808	-23.44
225.042	-1.44
225.277	2.56
225.511	-14.44
225.746	-0.44
225.98	-4.44
226.215	13.56
226.449	36.56
226.683	4.56
226.918	12.56
227.152	36.56
227.387	35.56
227.621	34.56
227.856	42.56
228.09	38.56
228.324	53.56
228.559	61.56
228.793	60.56
229.027	68.56
229.262	69.56
229.496	76.56
229.73	85.56
229.964	80.56
230.199	82.56
230.433	72.56
230.667	76.56
230.901	69.56
231.136	75.56
231.37	81.56
231.604	79.56
231.838	76.56
232.072	79.56
232.306	66.56
232.541	82.56
232.775	86.56
233.009	86.56
233.243	73.56
233.477	84.56
233.711	81.56
233.945	79.56
234.179	83.56
234.413	81.56
234.647	66.56
234.881	85.56
235.115	77.56
235.349	81.56
235.583	87.56
235.817	84.56
236.051	76.56
236.285	86.56
236.519	67.56
236.753	72.56
236.987	70.56
237.221	79.56
237.455	78.56
237.689	62.56
237.922	78.56
238.156	78.56
238.39	72.56
238.624	89.56
238.858	78.56
239.091	74.56
239.325	76.56
239.559	76.56
239.793	66.56
240.027	76.56
240.26	72.56
240.494	83.56
240.728	72.56
240.961	74.56
241.195	66.56
241.429	71.56
241.662	67.56
241.896	66.56
242.13	79.56
242.363	58.56
242.597	67.56
242.83	69.56
243.064	73.56
243.298	70.56
243.531	70.56
243.765	79.56
243.998	65.56
244.232	75.56
244.465	92.56
244.699	82.56
244.932	73.56
245.166	62.56
245.399	89.56
245.633	80.56
245.866	87.56
246.099	65.56
246.333	68.56
246.566	65.56
246.8	70.56
247.033	76.56
247.266	67.56
247.5	72.56
247.733	74.56
247.966	76.56
248.2	70.56
248.433	71.56
248.666	72.56
248.899	81.56
249.133	73.56
249.366	84.56
249.599	80.56
249.832	92.56
250.066	81.56
250.299	66.56
250.532	94.56
250.765	73.56
250.998	80.56
251.231	89.56
251.465	76.56
251.698	82.56
251.931	60.56
252.164	60.56
252.397	80.56
252.63	71.56
252.863	66.56
253.096	90.56
253.329	79.56
253.562	86.56
253.795	78.56
254.028	68.56
254.261	78.56
254.494	79.56
254.727	89.56
254.96	77.56
255.193	75.56
255.426	89.56
255.659	75.56
255.892	82.56
256.124	69.56
256.357	59.56
256.59	96.56
256.823	96.56
257.056	80.56
257.289	82.56
257.521	81.56
257.754	67.56
257.987	79.56
258.22	82.56
258.452	76.56
258.685	70.56
258.918	91.56
259.151	82.56
259.383	88.56
259.616	69.56
259.849	76.56
260.081	88.56
260.314	94.56
260.547	83.56
260.779	89.56
261.012	80.56
261.244	70.56
261.477	97.56
261.71	74.56
261.942	118.56
262.175	126.56
262.407	83.56
262.64	85.56
262.872	75.56
263.105	81.56
263.337	84.56
263.57	81.56
263.802	94.56
264.035	74.56
264.267	80.56
264.499	63.56
264.732	75.56
264.964	73.56
265.197	77.56
265.429	82.56
265.661	70.56
265.894	74.56
266.126	73.56
266.358	78.56
266.591	69.56
266.823	75.56
267.055	74.56
267.287	82.56
267.52	68.56
267.752	80.56
267.984	72.56
268.216	72.56
268.448	75.56
268.681	69.56
268.913	75.56
269.145	78.56
269.377	88.56
269.609	79.56
269.841	81.56
270.073	84.56
270.306	82.56
270.538	74.56
270.77	74.56
271.002	76.56
271.234	75.56
271.466	85.56
271.698	86.56
271.93	56.56
272.162	86.56
272.394	86.56
272.626	91.56
272.858	93.56
273.09	73.56
273.322	87.56
273.553	83.56
273.785	75.56
274.017	67.56
274.249	68.56
274.481	85.56
274.713	88.56
274.945	83.56
275.176	78.56
275.408	82.56
275.64	87.56
275.872	86.56
276.104	93.56
276.335	93.56
276.567	88.56
276.799	103.56
277.031	89.56
277.262	94.56
277.494	84.56
277.726	97.56
277.957	87.56
278.189	76.56
278.421	82.56
278.652	82.56
278.884	91.56
279.115	82.56
279.347	94.56
279.579	65.56
279.81	93.56
280.042	88.56
280.273	97.56
280.505	92.56
280.736	81.56
280.968	97.56
281.199	82.56
281.431	79.56
281.662	84.56
281.894	78.56
282.125	90.56
282.356	108.56
282.588	131.56
282.819	114.56
283.051	88.56
283.282	90.56
283.513	77.56
283.745	92.56
283.976	90.56
284.207	86.56
284.439	91.56
284.67	89.56
284.901	72.56
285.132	88.56
285.364	81.56
285.595	82.56
285.826	88.56
286.057	79.56
286.288	76.56
286.52	87.56
286.751	82.56
286.982	80.56
287.213	84.56
287.444	83.56
287.675	95.56
287.906	75.56
288.138	81.56
288.369	93.56
288.6	91.56
288.831	97.56
289.062	88.56
289.293	87.56
289.524	83.56
289.755	81.56
289.986	73.56
290.217	79.56
290.448	84.56
290.679	93.56
290.91	78.56
291.141	81.56
291.371	89.56
291.602	74.56
291.833	85.56
292.064	71.56
292.295	88.56
292.526	91.56
292.757	93.56
292.987	90.56
293.218	79.56
293.449	68.56
293.68	76.56
293.91	82.56
294.141	82.56
294.372	82.56
294.603	77.56
294.833	79.56
295.064	94.56
295.295	93.56
295.525	96.56
295.756	94.56
295.987	111.56
296.217	131.56
296.448	116.56
296.679	82.56
296.909	94.56
297.14	86.56
297.37	99.56
297.601	76.56
297.831	79.56
298.062	82.56
298.292	89.56
298.523	93.56
298.753	87.56
298.984	66.56
299.214	91.56
299.445	72.56
299.675	84.56
299.905	89.56
300.136	86.56
300.366	93.56
300.597	86.56
300.827	80.56
301.057	97.56
301.288	101.56
301.518	83.56
301.748	93.56
301.979	103.56
302.209	74.56
302.439	91.56
302.669	96.56
302.9	67.56
303.13	80.56
303.36	87.56
303.59	91.56
303.82	99.56
304.051	93.56
304.281	84.56
304.511	90.56
304.741	83.56
304.971	93.56
305.201	88.56
305.431	72.56
305.661	88.56
305.891	89.56
306.121	89.56
306.352	104.56
306.582	88.56
306.812	92.56
307.042	81.56
307.272	91.56
307.502	92.56
307.731	82.56
307.961	80.56
308.191	97.56
308.421	94.56
308.651	99.56
308.881	75.56
309.111	77.56
309.341	82.56
309.571	91.56
309.8	94.56
310.03	103.56
310.26	81.56
310.49	76.56
310.72	95.56
310.949	104.56
311.179	94.56
311.409	110.56
311.639	78.56
311.868	106.56
312.098	99.56
312.328	92.56
312.557	87.56
312.787	94.56
313.017	88.56
313.246	80.56
313.476	85.56
313.706	91.56
313.935	95.56
314.165	94.56
314.394	99.56
314.624	98.56
314.853	85.56
315.083	95.56
315.312	94.56
315.542	88.56
315.771	84.56
316.001	94.56
316.23	90.56
316.46	96.56
316.689	94.56
316.919	91.56
317.148	88.56
317.377	94.56
317.607	87.56
317.836	84.56
318.065	89.56
318.295	81.56
318.524	81.56
318.753	73.56
318.983	81.56
319.212	94.56
319.441	97.56
319.67	99.56
319.9	81.56
320.129	97.56
320.358	82.56
320.587	97.56
320.816	86.56
321.046	106.56
321.275	77.56
321.504	87.56
321.733	85.56
321.962	94.56
322.191	79.56
322.42	97.56
322.649	109.56
322.878	115.56
323.108	114.56
323.337	115.56
323.566	117.56
323.795	148.56
324.024	185.56
324.253	345.56
324.482	728.56
324.71	1544.56
324.939	2066.56
325.168	766.56
325.397	225.56
325.626	134.56
325.855	130.56
326.084	121.56
326.313	128.56
326.542	144.56
326.77	227.56
326.999	426.56
327.228	831.56
327.457	1554.56
327.686	1272.56
327.914	347.56
328.143	175.56
328.372	155.56
328.6	131.56
328.829	110.56
329.058	122.56
329.287	105.56
329.515	100.56
329.744	90.56
329.972	104.56
330.201	104.56
330.43	139.56
330.658	129.56
330.887	144.56
331.115	113.56
331.344	88.56
331.572	100.56
331.801	100.56
332.03	86.56
332.258	81.56
332.486	89.56
332.715	95.56
332.943	98.56
333.172	107.56
333.4	98.56
333.629	108.56
333.857	105.56
334.085	119.56
334.314	112.56
334.542	156.56
334.771	147.56
334.999	104.56
335.227	87.56
335.455	97.56
335.684	89.56
335.912	101.56
336.14	100.56
336.369	104.56
336.597	99.56
336.825	87.56
337.053	67.56
337.281	76.56
337.51	86.56
337.738	89.56
337.966	76.56
338.194	100.56
338.422	87.56
338.65	82.56
338.878	86.56
339.106	80.56
339.334	93.56
339.562	84.56
339.79	76.56
340.018	87.56
340.246	80.56
340.474	68.56
340.702	88.56
340.93	101.56
341.158	85.56
341.386	96.56
341.614	83.56
341.842	82.56
342.07	83.56
342.298	94.56
342.526	95.56
342.754	85.56
342.981	71.56
343.209	85.56
343.437	83.56
343.665	90.56
343.893	93.56
344.12	82.56
344.348	91.56
344.576	91.56
344.804	90.56
345.031	88.56
345.259	94.56
345.487	83.56
345.714	100.56
345.942	95.56
346.17	95.56
346.397	86.56
346.625	90.56
346.853	70.56
347.08	85.56
347.308	85.56
347.535	91.56
347.763	90.56
347.99	90.56
348.218	77.56
348.445	106.56
348.673	102.56
348.9	74.56
349.128	96.56
349.355	93.56
349.583	97.56
349.81	98.56
350.037	91.56
350.265	106.56
350.492	86.56
350.72	76.56
350.947	111.56
351.174	96.56
351.402	100.56
351.629	107.56
351.856	99.56
352.083	107.56
352.311	96.56
352.538	97.56
352.765	103.56
352.992	100.56
353.22	89.56
353.447	107.56
353.674	86.56
353.901	79.56
354.128	87.56
354.355	91.56
354.583	82.56
354.81	87.56
355.037	96.56
355.264	94.56
355.491	83.56
355.718	80.56
355.945	80.56
356.172	82.56
356.399	95.56
356.626	95.56
356.853	91.56
357.08	69.56
357.307	85.56
357.534	89.56
357.761	84.56
357.988	93.56
358.215	82.56
358.441	76.56
358.668	88.56
358.895	76.56
359.122	94.56
359.349	91.56
359.576	87.56
359.802	96.56
360.029	114.56
360.256	105.56
360.483	96.56
360.709	87.56
360.936	95.56
361.163	81.56
361.39	100.56
361.616	82.56
361.843	94.56
362.07	89.56
362.296	89.56
362.523	84.56
362.749	97.56
362.976	86.56
363.203	78.56
363.429	85.56
363.656	91.56
363.882	88.56
364.109	81.56
364.335	70.56
364.562	97.56
364.788	91.56
365.015	87.56
365.241	96.56
365.468	105.56
365.694	116.56
365.92	105.56
366.147	74.56
366.373	73.56
366.599	80.56
366.826	89.56
367.052	74.56
367.278	90.56
367.505	91.56
367.731	97.56
367.957	91.56
368.184	79.56
368.41	80.56
368.636	97.56
368.862	114.56
369.089	95.56
369.315	98.56
369.541	86.56
369.767	79.56
369.993	91.56
370.219	85.56
370.445	80.56
370.672	85.56
370.898	96.56
371.124	97.56
371.35	98.56
371.576	92.56
371.802	71.56
372.028	70.56
372.254	93.56
372.48	77.56
372.706	77.56
372.932	88.56
373.158	90.56
373.384	75.56
373.61	80.56
373.835	81.56
374.061	76.56
374.287	91.56
374.513	81.56
374.739	72.56
374.965	85.56
375.191	87.56
375.416	88.56
375.642	95.56
375.868	79.56
376.094	81.56
376.319	87.56
376.545	84.56
376.771	83.56
376.997	79.56
377.222	85.56
377.448	75.56
377.674	78.56
377.899	82.56
378.125	74.56
378.35	91.56
378.576	88.56
378.802	77.56
379.027	83.56
379.253	94.56
379.478	97.56
379.704	93.56
379.929	85.56
380.155	84.56
380.38	81.56
380.606	75.56
380.831	79.56
381.057	75.56
381.282	91.56
381.507	83.56
381.733	84.56
381.958	88.56
382.184	84.56
382.409	94.56
382.634	95.56
382.86	101.56
383.085	100.56
383.31	98.56
383.535	102.56
383.761	89.56
383.986	101.56
384.211	107.56
384.436	85.56
384.662	95.56
384.887	108.56
385.112	92.56
385.337	98.56
385.562	97.56
385.787	90.56
386.013	108.56
386.238	93.56
386.463	92.56
386.688	86.56
386.913	99.56
387.138	91.56
387.363	105.56
387.588	89.56
387.813	91.56
388.038	111.56
388.263	84.56
388.488	99.56
388.713	94.56
388.938	100.56
389.163	97.56
389.387	82.56
389.612	104.56
389.837	78.56
390.062	88.56
390.287	97.56
390.512	97.56
390.736	82.56
390.961	89.56
391.186	99.56
391.411	82.56
391.636	77.56
391.86	82.56
392.085	74.56
392.31	87.56
392.534	90.56
392.759	81.56
392.984	76.56
393.208	91.56
393.433	92.56
393.658	103.56
393.882	84.56
394.107	76.56
394.331	92.56
394.556	85.56
394.78	80.56
395.005	79.56
395.229	72.56
395.454	68.56
395.678	74.56
395.903	81.56
396.127	81.56
396.352	84.56
396.576	81.56
396.801	87.56
397.025	83.56
397.249	93.56
397.474	74.56
397.698	86.56
397.922	76.56
398.147	79.56
398.371	80.56
398.595	76.56
398.82	74.56
399.044	80.56
399.268	95.56
399.492	81.56
399.717	98.56
399.941	98.56
400.165	82.56
400.389	73.56
400.613	81.56
400.837	97.56
401.062	78.56
401.286	75.56
401.51	74.56
401.734	87.56
401.958	108.56
402.182	113.56
402.406	148.56
402.63	119.56
402.854	101.56
403.078	65.56
403.302	75.56
403.526	78.56
403.75	91.56
403.974	66.56
404.198	78.56
404.422	86.56
404.645	79.56
404.869	94.56
405.093	97.56
405.317	95.56
405.541	98.56
405.765	104.56
405.988	103.56
406.212	160.56
406.436	203.56
406.66	151.56
406.883	110.56
407.107	76.56
407.331	91.56
407.555	91.56
407.778	97.56
408.002	82.56
408.226	81.56
408.449	85.56
408.673	88.56
408.896	97.56
409.12	92.56
409.344	78.56
409.567	86.56
409.791	78.56
410.014	86.56
410.238	92.56
410.461	84.56
410.685	90.56
410.908	95.56
411.132	104.56
411.355	95.56
411.578	85.56
411.802	88.56
412.025	64.56
412.249	102.56
412.472	102.56
412.695	87.56
412.919	90.56
413.142	82.56
413.365	83.56
413.589	74.56
413.812	91.56
414.035	88.56
414.258	76.56
414.482	77.56
414.705	88.56
414.928	75.56
415.151	78.56
415.374	86.56
415.597	87.56
415.821	76.56
416.044	81.56
416.267	86.56
416.49	74.56
416.713	76.56
416.936	88.56
417.159	97.56
417.382	83.56
417.605	76.56
417.828	88.56
418.051	84.56
418.274	94.56
418.497	82.56
418.72	69.56
418.943	82.56
419.166	78.56
419.389	110.56
419.611	83.56
419.834	89.56
420.057	75.56
420.28	81.56
420.503	88.56
420.726	78.56
420.948	81.56
421.171	86.56
421.394	99.56
421.617	80.56
421.839	92.56
422.062	72.56
422.285	97.56
422.507	94.56
422.73	101.56
422.953	74.56
423.175	74.56
423.398	97.56
423.621	86.56
423.843	76.56
424.066	90.56
424.288	75.56
424.511	75.56
424.733	96.56
424.956	99.56
425.178	92.56
425.401	98.56
425.623	89.56
425.846	84.56
426.068	93.56
426.291	88.56
426.513	94.56
426.735	93.56
426.958	90.56
427.18	99.56
427.402	124.56
427.625	147.56
427.847	111.56
428.069	100.56
428.292	87.56
428.514	82.56
428.736	89.56
428.958	82.56
429.181	92.56
429.403	73.56
429.625	74.56
429.847	76.56
430.069	101.56
430.292	76.56
430.514	80.56
430.736	78.56
430.958	88.56
431.18	69.56
431.402	78.56
431.624	76.56
431.846	74.56
432.068	86.56
432.29	70.56
432.512	87.56
432.734	75.56
432.956	102.56
433.178	84.56
433.4	71.56
433.622	87.56
433.844	87.56
434.066	89.56
434.287	86.56
434.509	72.56
434.731	91.56
434.953	94.56
435.175	86.56
435.397	84.56
435.618	82.56
435.84	90.56
436.062	113.56
436.284	113.56
436.505	103.56
436.727	96.56
436.949	87.56
437.17	80.56
437.392	96.56
437.614	87.56
437.835	95.56
438.057	112.56
438.278	98.56
438.5	101.56
438.721	118.56
438.943	104.56
439.165	96.56
439.386	79.56
439.608	82.56
439.829	93.56
440.05	112.56
440.272	136.56
440.493	82.56
440.715	78.56
440.936	78.56
441.158	94.56
441.379	76.56
441.6	71.56
441.822	82.56
442.043	89.56
442.264	85.56
442.486	92.56
442.707	87.56
442.928	111.56
443.149	114.56
443.371	117.56
443.592	113.56
443.813	97.56
444.034	97.56
444.255	85.56
444.476	88.56
444.698	84.56
444.919	79.56
445.14	129.56
445.361	119.56
445.582	121.56
445.803	126.56
446.024	114.56
446.245	121.56
446.466	93.56
446.687	79.56
446.908	74.56
447.129	80.56
447.35	87.56
447.571	91.56
447.792	90.56
448.013	106.56
448.234	104.56
448.455	98.56
448.675	89.56
448.896	106.56
449.117	93.56
449.338	80.56
449.559	127.56
449.779	124.56
450	86.56
450.221	85.56
450.442	80.56
450.662	93.56
450.883	76.56
451.104	116.56
451.324	93.56
451.545	80.56
451.766	76.56
451.986	81.56
452.207	87.56
452.428	89.56
452.648	90.56
452.869	92.56
453.089	94.56
453.31	129.56
453.53	87.56
453.751	79.56
453.971	92.56
454.192	114.56
454.412	86.56
454.633	75.56
454.853	78.56
455.073	90.56
455.294	72.56
455.514	109.56
455.734	68.56
455.955	83.56
456.175	88.56
456.395	81.56
456.616	79.56
456.836	69.56
457.056	72.56
457.276	84.56
457.497	83.56
457.717	71.56
457.937	82.56
458.157	86.56
458.377	83.56
458.598	95.56
458.818	155.56
459.038	163.56
459.258	101.56
459.478	87.56
459.698	90.56
459.918	71.56
460.138	93.56
460.358	66.56
460.578	69.56
460.798	90.56
461.018	83.56
461.238	89.56
461.458	81.56
461.678	94.56
461.898	95.56
462.118	79.56
462.338	90.56
462.558	80.56
462.777	63.56
462.997	84.56
463.217	74.56
463.437	94.56
463.657	82.56
463.876	84.56
464.096	77.56
464.316	77.56
464.536	88.56
464.755	99.56
464.975	96.56
465.195	154.56
465.414	143.56
465.634	96.56
465.854	86.56
466.073	81.56
466.293	87.56
466.512	82.56
466.732	86.56
466.951	82.56
467.171	87.56
467.391	82.56
467.61	105.56
467.829	111.56
468.049	98.56
468.268	125.56
468.488	85.56
468.707	70.56
468.927	80.56
469.146	84.56
469.365	85.56
469.585	82.56
469.804	88.56
470.023	104.56
470.243	96.56
470.462	89.56
470.681	110.56
470.901	84.56
471.12	71.56
471.339	79.56
471.558	94.56
471.777	89.56
471.997	94.56
472.216	130.56
472.435	178.56
472.654	115.56
472.873	91.56
473.092	62.56
473.311	67.56
473.53	82.56
473.749	87.56
473.968	83.56
474.187	98.56
474.406	99.56
474.625	78.56
474.844	90.56
475.063	82.56
475.282	81.56
475.501	90.56
475.72	86.56
475.939	70.56
476.158	87.56
476.377	90.56
476.596	92.56
476.814	91.56
477.033	88.56
477.252	91.56
477.471	80.56
477.69	77.56
477.908	85.56
478.127	90.56
478.346	105.56
478.564	88.56
478.783	91.56
479.002	79.56
479.22	82.56
479.439	98.56
479.658	96.56
479.876	85.56
480.095	91.56
480.313	99.56
480.532	96.56
480.751	87.56
480.969	123.56
481.188	261.56
481.406	204.56
481.624	99.56
481.843	96.56
482.061	80.56
482.28	87.56
482.498	86.56
482.717	82.56
482.935	88.56
483.153	87.56
483.372	88.56
483.59	92.56
483.808	89.56
484.027	104.56
484.245	94.56
484.463	101.56
484.681	89.56
484.9	71.56
485.118	88.56
485.336	90.56
485.554	91.56
485.772	95.56
485.99	97.56
486.209	105.56
486.427	87.56
486.645	101.56
486.863	109.56
487.081	108.56
487.299	87.56
487.517	85.56
487.735	88.56
487.953	73.56
488.171	85.56
488.389	88.56
488.607	86.56
488.825	99.56
489.043	91.56
489.261	89.56
489.479	86.56
489.696	84.56
489.914	91.56
490.132	74.56
490.35	99.56
490.568	84.56
490.786	83.56
491.003	89.56
491.221	94.56
491.439	73.56
491.657	95.56
491.874	104.56
492.092	79.56
492.31	87.56
492.527	84.56
492.745	93.56
492.963	87.56
493.18	89.56
493.398	91.56
493.615	94.56
493.833	90.56
494.05	75.56
494.268	91.56
494.485	86.56
494.703	91.56
494.92	99.56
495.138	87.56
495.355	82.56
495.573	87.56
495.79	85.56
496.008	93.56
496.225	102.56
496.442	93.56
496.66	91.56
496.877	80.56
497.094	94.56
497.312	84.56
497.529	73.56
497.746	75.56
497.963	85.56
498.181	71.56
498.398	83.56
498.615	95.56
498.832	84.56
499.049	94.56
499.267	85.56
499.484	82.56
499.701	87.56
499.918	81.56
500.135	91.56
500.352	96.56
500.569	94.56
500.786	90.56
501.003	88.56
501.22	90.56
501.437	99.56
501.654	80.56
501.871	95.56
502.088	93.56
502.305	70.56
502.522	76.56
502.739	87.56
502.956	92.56
503.172	81.56
503.389	90.56
503.606	94.56
503.823	86.56
504.04	98.56
504.256	83.56
504.473	80.56
504.69	94.56
504.907	90.56
505.123	76.56
505.34	86.56
505.557	94.56
505.773	86.56
505.99	91.56
506.207	87.56
506.423	83.56
506.64	80.56
506.856	86.56
507.073	71.56
507.289	84.56
507.506	88.56
507.722	109.56
507.939	113.56
508.155	97.56
508.372	85.56
508.588	86.56
508.805	87.56
509.021	88.56
509.238	88.56
509.454	91.56
509.67	97.56
509.887	111.56
510.103	119.56
510.319	212.56
510.536	723.56
510.752	2361.56
510.968	682.56
511.184	164.56
511.401	92.56
511.617	102.56
511.833	94.56
512.049	82.56
512.265	96.56
512.481	81.56
512.698	93.56
512.914	79.56
513.13	81.56
513.346	88.56
513.562	105.56
513.778	98.56
513.994	99.56
514.21	114.56
514.426	112.56
514.642	121.56
514.858	126.56
515.074	154.56
515.29	427.56
515.506	1421.56
515.721	562.56
515.937	127.56
516.153	114.56
516.369	84.56
516.585	83.56
516.801	96.56
517.016	86.56
517.232	87.56
