Data from Circ_2012_H10_HRD10591_00069.txt Node
Date: Wed Jan 03 10:06:04 EST 2024
User: Yrep
Spectrometer: HR+D1059
Trigger mode: 1
Integration Time (sec): 1.000000E-1
Scans to average: 1
Electric dark correction enabled: true
Nonlinearity correction enabled: false
Boxcar width: 0
XAxis mode: Wavelengths
Number of Pixels in Spectrum: 2048
>>>>>Begin Spectral Data<<<<<
223.165	-22.94
223.4	-22.94
223.635	-22.94
223.869	-19.94
224.104	-3.94
224.338	-20.94
224.573	-21.94
224.808	-0.94
225.042	-20.94
225.277	-13.94
225.511	6.06
225.746	0.06
225.98	9.06
226.215	3.06
226.449	14.06
226.683	29.06
226.918	25.06
227.152	39.06
227.387	40.06
227.621	36.06
227.856	48.06
228.09	52.06
228.324	53.06
228.559	45.06
228.793	49.06
229.027	71.06
229.262	71.06
229.496	72.06
229.73	76.06
229.964	82.06
230.199	72.06
230.433	80.06
230.667	76.06
230.901	77.06
231.136	68.06
231.37	98.06
231.604	94.06
231.838	89.06
232.072	80.06
232.306	88.06
232.541	84.06
232.775	81.06
233.009	88.06
233.243	86.06
233.477	93.06
233.711	79.06
233.945	104.06
234.179	77.06
234.413	80.06
234.647	81.06
234.881	73.06
235.115	81.06
235.349	82.06
235.583	72.06
235.817	81.06
236.051	81.06
236.285	81.06
236.519	77.06
236.753	88.06
236.987	73.06
237.221	74.06
237.455	85.06
237.689	89.06
237.922	62.06
238.156	70.06
238.39	75.06
238.624	86.06
238.858	82.06
239.091	78.06
239.325	72.06
239.559	77.06
239.793	83.06
240.027	70.06
240.26	76.06
240.494	75.06
240.728	91.06
240.961	89.06
241.195	84.06
241.429	75.06
241.662	85.06
241.896	72.06
242.13	85.06
242.363	88.06
242.597	76.06
242.83	69.06
243.064	81.06
243.298	74.06
243.531	74.06
243.765	68.06
243.998	85.06
244.232	84.06
244.465	64.06
244.699	81.06
244.932	82.06
245.166	75.06
245.399	94.06
245.633	94.06
245.866	81.06
246.099	93.06
246.333	91.06
246.566	77.06
246.8	79.06
247.033	58.06
247.266	86.06
247.5	80.06
247.733	78.06
247.966	78.06
248.2	78.06
248.433	80.06
248.666	83.06
248.899	89.06
249.133	88.06
249.366	85.06
249.599	101.06
249.832	77.06
250.066	81.06
250.299	90.06
250.532	87.06
250.765	82.06
250.998	76.06
251.231	90.06
251.465	78.06
251.698	73.06
251.931	84.06
252.164	84.06
252.397	73.06
252.63	81.06
252.863	75.06
253.096	86.06
253.329	77.06
253.562	92.06
253.795	77.06
254.028	75.06
254.261	77.06
254.494	63.06
254.727	86.06
254.96	88.06
255.193	79.06
255.426	82.06
255.659	74.06
255.892	87.06
256.124	80.06
256.357	89.06
256.59	74.06
256.823	73.06
257.056	77.06
257.289	78.06
257.521	81.06
257.754	81.06
257.987	85.06
258.22	89.06
258.452	88.06
258.685	92.06
258.918	92.06
259.151	83.06
259.383	87.06
259.616	80.06
259.849	84.06
260.081	78.06
260.314	82.06
260.547	91.06
260.779	83.06
261.012	81.06
261.244	86.06
261.477	88.06
261.71	94.06
261.942	123.06
262.175	126.06
262.407	95.06
262.64	82.06
262.872	76.06
263.105	94.06
263.337	90.06
263.57	87.06
263.802	96.06
264.035	87.06
264.267	88.06
264.499	66.06
264.732	84.06
264.964	87.06
265.197	73.06
265.429	77.06
265.661	88.06
265.894	90.06
266.126	87.06
266.358	80.06
266.591	89.06
266.823	72.06
267.055	85.06
267.287	74.06
267.52	93.06
267.752	96.06
267.984	86.06
268.216	76.06
268.448	80.06
268.681	93.06
268.913	105.06
269.145	77.06
269.377	89.06
269.609	79.06
269.841	89.06
270.073	92.06
270.306	92.06
270.538	80.06
270.77	95.06
271.002	85.06
271.234	83.06
271.466	98.06
271.698	88.06
271.93	74.06
272.162	81.06
272.394	84.06
272.626	81.06
272.858	82.06
273.09	69.06
273.322	81.06
273.553	101.06
273.785	87.06
274.017	93.06
274.249	86.06
274.481	98.06
274.713	87.06
274.945	81.06
275.176	86.06
275.408	99.06
275.64	92.06
275.872	84.06
276.104	81.06
276.335	84.06
276.567	105.06
276.799	96.06
277.031	97.06
277.262	98.06
277.494	95.06
277.726	76.06
277.957	75.06
278.189	88.06
278.421	80.06
278.652	92.06
278.884	84.06
279.115	96.06
279.347	86.06
279.579	72.06
279.81	78.06
280.042	87.06
280.273	84.06
280.505	97.06
280.736	74.06
280.968	84.06
281.199	93.06
281.431	98.06
281.662	89.06
281.894	95.06
282.125	99.06
282.356	107.06
282.588	135.06
282.819	111.06
283.051	88.06
283.282	88.06
283.513	77.06
283.745	84.06
283.976	89.06
284.207	83.06
284.439	92.06
284.67	81.06
284.901	104.06
285.132	80.06
285.364	91.06
285.595	82.06
285.826	77.06
286.057	96.06
286.288	92.06
286.52	87.06
286.751	76.06
286.982	88.06
287.213	87.06
287.444	87.06
287.675	86.06
287.906	89.06
288.138	89.06
288.369	100.06
288.6	79.06
288.831	86.06
289.062	89.06
289.293	86.06
289.524	80.06
289.755	93.06
289.986	87.06
290.217	82.06
290.448	78.06
290.679	92.06
290.91	98.06
291.141	88.06
291.371	99.06
291.602	95.06
291.833	92.06
292.064	89.06
292.295	76.06
292.526	92.06
292.757	91.06
292.987	97.06
293.218	93.06
293.449	97.06
293.68	87.06
293.91	90.06
294.141	104.06
294.372	84.06
294.603	97.06
294.833	93.06
295.064	94.06
295.295	90.06
295.525	97.06
295.756	100.06
295.987	121.06
296.217	138.06
296.448	125.06
296.679	105.06
296.909	88.06
297.14	89.06
297.37	83.06
297.601	101.06
297.831	100.06
298.062	95.06
298.292	85.06
298.523	87.06
298.753	95.06
298.984	89.06
299.214	95.06
299.445	97.06
299.675	103.06
299.905	102.06
300.136	84.06
300.366	92.06
300.597	89.06
300.827	93.06
301.057	88.06
301.288	101.06
301.518	107.06
301.748	103.06
301.979	105.06
302.209	83.06
302.439	91.06
302.669	98.06
302.9	84.06
303.13	93.06
303.36	97.06
303.59	106.06
303.82	107.06
304.051	97.06
304.281	94.06
304.511	84.06
304.741	91.06
304.971	96.06
305.201	94.06
305.431	105.06
305.661	101.06
305.891	93.06
306.121	85.06
306.352	98.06
306.582	113.06
306.812	98.06
307.042	105.06
307.272	108.06
307.502	94.06
307.731	87.06
307.961	92.06
308.191	101.06
308.421	93.06
308.651	85.06
308.881	92.06
309.111	106.06
309.341	102.06
309.571	106.06
309.8	95.06
310.03	87.06
310.26	78.06
310.49	96.06
310.72	104.06
310.949	95.06
311.179	108.06
311.409	96.06
311.639	104.06
311.868	81.06
312.098	89.06
312.328	86.06
312.557	99.06
312.787	95.06
313.017	99.06
313.246	90.06
313.476	100.06
313.706	100.06
313.935	103.06
314.165	99.06
314.394	95.06
314.624	82.06
314.853	103.06
315.083	100.06
315.312	98.06
315.542	102.06
315.771	93.06
316.001	101.06
316.23	88.06
316.46	97.06
316.689	95.06
316.919	99.06
317.148	99.06
317.377	101.06
317.607	104.06
317.836	91.06
318.065	108.06
318.295	87.06
318.524	85.06
318.753	90.06
318.983	110.06
319.212	109.06
319.441	107.06
319.67	115.06
319.9	100.06
320.129	91.06
320.358	85.06
320.587	108.06
320.816	107.06
321.046	92.06
321.275	90.06
321.504	87.06
321.733	103.06
321.962	86.06
322.191	102.06
322.42	93.06
322.649	98.06
322.878	104.06
323.108	125.06
323.337	113.06
323.566	119.06
323.795	130.06
324.024	196.06
324.253	349.06
324.482	724.06
324.71	1423.06
324.939	1844.06
325.168	705.06
325.397	228.06
325.626	134.06
325.855	118.06
326.084	127.06
326.313	121.06
326.542	141.06
326.77	210.06
326.999	410.06
327.228	816.06
327.457	1472.06
327.686	1164.06
327.914	346.06
328.143	173.06
328.372	142.06
328.6	132.06
328.829	132.06
329.058	125.06
329.287	116.06
329.515	113.06
329.744	120.06
329.972	112.06
330.201	144.06
330.43	173.06
330.658	138.06
330.887	144.06
331.115	144.06
331.344	98.06
331.572	101.06
331.801	94.06
332.03	97.06
332.258	88.06
332.486	101.06
332.715	91.06
332.943	106.06
333.172	95.06
333.4	107.06
333.629	96.06
333.857	119.06
334.085	125.06
334.314	130.06
334.542	156.06
334.771	148.06
334.999	112.06
335.227	94.06
335.455	87.06
335.684	109.06
335.912	108.06
336.14	100.06
336.369	88.06
336.597	100.06
336.825	106.06
337.053	98.06
337.281	85.06
337.51	86.06
337.738	121.06
337.966	91.06
338.194	104.06
338.422	95.06
338.65	90.06
338.878	92.06
339.106	89.06
339.334	91.06
339.562	93.06
339.79	97.06
340.018	85.06
340.246	95.06
340.474	99.06
340.702	100.06
340.93	102.06
341.158	96.06
341.386	102.06
341.614	98.06
341.842	111.06
342.07	105.06
342.298	96.06
342.526	85.06
342.754	93.06
342.981	97.06
343.209	93.06
343.437	106.06
343.665	92.06
343.893	88.06
344.12	96.06
344.348	92.06
344.576	93.06
344.804	83.06
345.031	81.06
345.259	93.06
345.487	93.06
345.714	87.06
345.942	101.06
346.17	106.06
346.397	95.06
346.625	94.06
346.853	107.06
347.08	89.06
347.308	90.06
347.535	103.06
347.763	102.06
347.99	86.06
348.218	99.06
348.445	99.06
348.673	102.06
348.9	88.06
349.128	101.06
349.355	106.06
349.583	106.06
349.81	97.06
350.037	89.06
350.265	78.06
350.492	96.06
350.72	97.06
350.947	111.06
351.174	111.06
351.402	103.06
351.629	98.06
351.856	103.06
352.083	116.06
352.311	97.06
352.538	114.06
352.765	110.06
352.992	110.06
353.22	101.06
353.447	117.06
353.674	108.06
353.901	111.06
354.128	107.06
354.355	94.06
354.583	99.06
354.81	102.06
355.037	90.06
355.264	103.06
355.491	98.06
355.718	96.06
355.945	98.06
356.172	105.06
356.399	102.06
356.626	101.06
356.853	93.06
357.08	71.06
357.307	83.06
357.534	88.06
357.761	89.06
357.988	96.06
358.215	88.06
358.441	100.06
358.668	80.06
358.895	87.06
359.122	89.06
359.349	80.06
359.576	107.06
359.802	93.06
360.029	108.06
360.256	111.06
360.483	86.06
360.709	77.06
360.936	102.06
361.163	91.06
361.39	98.06
361.616	79.06
361.843	100.06
362.07	92.06
362.296	98.06
362.523	82.06
362.749	92.06
362.976	89.06
363.203	100.06
363.429	90.06
363.656	88.06
363.882	101.06
364.109	85.06
364.335	85.06
364.562	85.06
364.788	84.06
365.015	85.06
365.241	97.06
365.468	101.06
365.694	101.06
365.92	90.06
366.147	83.06
366.373	76.06
366.599	90.06
366.826	84.06
367.052	76.06
367.278	97.06
367.505	98.06
367.731	97.06
367.957	92.06
368.184	101.06
368.41	103.06
368.636	110.06
368.862	128.06
369.089	110.06
369.315	92.06
369.541	102.06
369.767	93.06
369.993	93.06
370.219	96.06
370.445	91.06
370.672	91.06
370.898	87.06
371.124	97.06
371.35	100.06
371.576	97.06
371.802	98.06
372.028	98.06
372.254	92.06
372.48	92.06
372.706	93.06
372.932	83.06
373.158	95.06
373.384	90.06
373.61	105.06
373.835	86.06
374.061	88.06
374.287	89.06
374.513	80.06
374.739	88.06
374.965	92.06
375.191	76.06
375.416	90.06
375.642	92.06
375.868	92.06
376.094	106.06
376.319	94.06
376.545	89.06
376.771	89.06
376.997	77.06
377.222	89.06
377.448	105.06
377.674	86.06
377.899	92.06
378.125	67.06
378.35	87.06
378.576	85.06
378.802	90.06
379.027	92.06
379.253	99.06
379.478	100.06
379.704	86.06
379.929	83.06
380.155	97.06
380.38	88.06
380.606	97.06
380.831	86.06
381.057	92.06
381.282	94.06
381.507	106.06
381.733	93.06
381.958	100.06
382.184	79.06
382.409	97.06
382.634	96.06
382.86	107.06
383.085	106.06
383.31	108.06
383.535	101.06
383.761	110.06
383.986	112.06
384.211	92.06
384.436	104.06
384.662	101.06
384.887	105.06
385.112	111.06
385.337	88.06
385.562	96.06
385.787	109.06
386.013	88.06
386.238	101.06
386.463	94.06
386.688	121.06
386.913	110.06
387.138	108.06
387.363	108.06
387.588	103.06
387.813	95.06
388.038	98.06
388.263	91.06
388.488	120.06
388.713	110.06
388.938	101.06
389.163	90.06
389.387	93.06
389.612	85.06
389.837	95.06
390.062	87.06
390.287	98.06
390.512	85.06
390.736	89.06
390.961	100.06
391.186	92.06
391.411	96.06
391.636	100.06
391.86	101.06
392.085	94.06
392.31	85.06
392.534	92.06
392.759	90.06
392.984	96.06
393.208	81.06
393.433	83.06
393.658	93.06
393.882	94.06
394.107	98.06
394.331	95.06
394.556	86.06
394.78	90.06
395.005	89.06
395.229	96.06
395.454	93.06
395.678	86.06
395.903	78.06
396.127	86.06
396.352	96.06
396.576	87.06
396.801	82.06
397.025	82.06
397.249	73.06
397.474	100.06
397.698	105.06
397.922	89.06
398.147	93.06
398.371	95.06
398.595	94.06
398.82	76.06
399.044	91.06
399.268	84.06
399.492	79.06
399.717	89.06
399.941	89.06
400.165	110.06
400.389	93.06
400.613	80.06
400.837	89.06
401.062	87.06
401.286	76.06
401.51	90.06
401.734	88.06
401.958	102.06
402.182	126.06
402.406	156.06
402.63	109.06
402.854	94.06
403.078	88.06
403.302	93.06
403.526	84.06
403.75	88.06
403.974	100.06
404.198	90.06
404.422	96.06
404.645	105.06
404.869	96.06
405.093	94.06
405.317	96.06
405.541	78.06
405.765	100.06
405.988	119.06
406.212	169.06
406.436	239.06
406.66	143.06
406.883	109.06
407.107	97.06
407.331	94.06
407.555	115.06
407.778	102.06
408.002	100.06
408.226	97.06
408.449	93.06
408.673	84.06
408.896	93.06
409.12	85.06
409.344	104.06
409.567	90.06
409.791	90.06
410.014	95.06
410.238	97.06
410.461	90.06
410.685	80.06
410.908	82.06
411.132	94.06
411.355	88.06
411.578	85.06
411.802	86.06
412.025	89.06
412.249	94.06
412.472	88.06
412.695	104.06
412.919	98.06
413.142	89.06
413.365	96.06
413.589	94.06
413.812	81.06
414.035	88.06
414.258	98.06
414.482	94.06
414.705	97.06
414.928	93.06
415.151	76.06
415.374	93.06
415.597	94.06
415.821	89.06
416.044	75.06
416.267	95.06
416.49	83.06
416.713	75.06
416.936	93.06
417.159	88.06
417.382	71.06
417.605	103.06
417.828	91.06
418.051	93.06
418.274	84.06
418.497	97.06
418.72	78.06
418.943	91.06
419.166	83.06
419.389	105.06
419.611	81.06
419.834	83.06
420.057	77.06
420.28	87.06
420.503	92.06
420.726	69.06
420.948	92.06
421.171	89.06
421.394	107.06
421.617	96.06
421.839	101.06
422.062	93.06
422.285	81.06
422.507	94.06
422.73	96.06
422.953	92.06
423.175	100.06
423.398	90.06
423.621	84.06
423.843	81.06
424.066	84.06
424.288	87.06
424.511	98.06
424.733	90.06
424.956	112.06
425.178	93.06
425.401	92.06
425.623	105.06
425.846	93.06
426.068	102.06
426.291	99.06
426.513	81.06
426.735	90.06
426.958	92.06
427.18	102.06
427.402	135.06
427.625	160.06
427.847	134.06
428.069	111.06
428.292	98.06
428.514	89.06
428.736	77.06
428.958	79.06
429.181	87.06
429.403	95.06
429.625	93.06
429.847	109.06
430.069	88.06
430.292	95.06
430.514	85.06
430.736	87.06
430.958	89.06
431.18	96.06
431.402	87.06
431.624	101.06
431.846	81.06
432.068	82.06
432.29	83.06
432.512	93.06
432.734	87.06
432.956	96.06
433.178	102.06
433.4	101.06
433.622	90.06
433.844	96.06
434.066	94.06
434.287	106.06
434.509	89.06
434.731	72.06
434.953	92.06
435.175	96.06
435.397	90.06
435.618	95.06
435.84	101.06
436.062	106.06
436.284	105.06
436.505	108.06
436.727	100.06
436.949	92.06
437.17	99.06
437.392	92.06
437.614	93.06
437.835	107.06
438.057	101.06
438.278	94.06
438.5	87.06
438.721	104.06
438.943	108.06
439.165	88.06
439.386	85.06
439.608	100.06
439.829	88.06
440.05	96.06
440.272	143.06
440.493	108.06
440.715	81.06
440.936	89.06
441.158	87.06
441.379	74.06
441.6	93.06
441.822	94.06
442.043	94.06
442.264	93.06
442.486	101.06
442.707	106.06
442.928	104.06
443.149	127.06
443.371	123.06
443.592	106.06
443.813	114.06
444.034	98.06
444.255	72.06
444.476	92.06
444.698	95.06
444.919	81.06
445.14	121.06
445.361	118.06
445.582	110.06
445.803	130.06
446.024	129.06
446.245	116.06
446.466	109.06
446.687	96.06
446.908	95.06
447.129	89.06
447.35	93.06
447.571	97.06
447.792	93.06
448.013	93.06
448.234	106.06
448.455	102.06
448.675	102.06
448.896	118.06
449.117	92.06
449.338	102.06
449.559	128.06
449.779	137.06
450	84.06
450.221	102.06
450.442	82.06
450.662	85.06
450.883	90.06
451.104	110.06
451.324	107.06
451.545	89.06
451.766	79.06
451.986	97.06
452.207	93.06
452.428	93.06
452.648	92.06
452.869	109.06
453.089	125.06
453.31	112.06
453.53	84.06
453.751	92.06
453.971	104.06
454.192	104.06
454.412	77.06
454.633	96.06
454.853	93.06
455.073	89.06
455.294	80.06
455.514	86.06
455.734	80.06
455.955	94.06
456.175	82.06
456.395	96.06
456.616	88.06
456.836	96.06
457.056	100.06
457.276	86.06
457.497	85.06
457.717	103.06
457.937	80.06
458.157	92.06
458.377	93.06
458.598	106.06
458.818	123.06
459.038	158.06
459.258	119.06
459.478	99.06
459.698	92.06
459.918	87.06
460.138	80.06
460.358	80.06
460.578	69.06
460.798	81.06
461.018	80.06
461.238	84.06
461.458	89.06
461.678	89.06
461.898	88.06
462.118	96.06
462.338	91.06
462.558	80.06
462.777	93.06
462.997	84.06
463.217	86.06
463.437	84.06
463.657	87.06
463.876	96.06
464.096	80.06
464.316	92.06
464.536	89.06
464.755	95.06
464.975	97.06
465.195	161.06
465.414	142.06
465.634	94.06
465.854	94.06
466.073	79.06
466.293	90.06
466.512	94.06
466.732	96.06
466.951	85.06
467.171	96.06
467.391	97.06
467.61	103.06
467.829	101.06
468.049	106.06
468.268	102.06
468.488	104.06
468.707	65.06
468.927	92.06
469.146	81.06
469.365	95.06
469.585	101.06
469.804	98.06
470.023	89.06
470.243	88.06
470.462	101.06
470.681	101.06
470.901	74.06
471.12	92.06
471.339	85.06
471.558	95.06
471.777	90.06
471.997	80.06
472.216	132.06
472.435	191.06
472.654	105.06
472.873	82.06
473.092	104.06
473.311	90.06
473.53	86.06
473.749	79.06
473.968	84.06
474.187	104.06
474.406	93.06
474.625	81.06
474.844	78.06
475.063	88.06
475.282	86.06
475.501	89.06
475.72	85.06
475.939	80.06
476.158	78.06
476.377	84.06
476.596	82.06
476.814	98.06
477.033	89.06
477.252	90.06
477.471	83.06
477.69	86.06
477.908	86.06
478.127	96.06
478.346	94.06
478.564	89.06
478.783	92.06
479.002	108.06
479.22	107.06
479.439	93.06
479.658	101.06
479.876	79.06
480.095	91.06
480.313	92.06
480.532	109.06
480.751	109.06
480.969	139.06
481.188	280.06
481.406	198.06
481.624	108.06
481.843	92.06
482.061	87.06
482.28	85.06
482.498	85.06
482.717	90.06
482.935	89.06
483.153	83.06
483.372	90.06
483.59	99.06
483.808	97.06
484.027	88.06
484.245	89.06
484.463	90.06
484.681	107.06
484.9	86.06
485.118	103.06
485.336	94.06
485.554	94.06
485.772	102.06
485.99	104.06
486.209	100.06
486.427	96.06
486.645	96.06
486.863	122.06
487.081	103.06
487.299	118.06
487.517	100.06
487.735	77.06
487.953	106.06
488.171	109.06
488.389	81.06
488.607	87.06
488.825	99.06
489.043	91.06
489.261	97.06
489.479	94.06
489.696	77.06
489.914	100.06
490.132	90.06
490.35	81.06
490.568	92.06
490.786	86.06
491.003	88.06
491.221	92.06
491.439	95.06
491.657	92.06
491.874	88.06
492.092	99.06
492.31	95.06
492.527	93.06
492.745	104.06
492.963	87.06
493.18	97.06
493.398	89.06
493.615	101.06
493.833	91.06
494.05	89.06
494.268	70.06
494.485	96.06
494.703	88.06
494.92	77.06
495.138	103.06
495.355	84.06
495.573	97.06
495.79	78.06
496.008	92.06
496.225	89.06
496.442	70.06
496.66	107.06
496.877	86.06
497.094	94.06
497.312	96.06
497.529	92.06
497.746	82.06
497.963	93.06
498.181	90.06
498.398	92.06
498.615	110.06
498.832	105.06
499.049	109.06
499.267	94.06
499.484	95.06
499.701	101.06
499.918	95.06
500.135	88.06
500.352	83.06
500.569	89.06
500.786	102.06
501.003	109.06
501.22	102.06
501.437	97.06
501.654	105.06
501.871	110.06
502.088	94.06
502.305	94.06
502.522	103.06
502.739	98.06
502.956	100.06
503.172	90.06
503.389	90.06
503.606	96.06
503.823	100.06
504.04	82.06
504.256	104.06
504.473	88.06
504.69	85.06
504.907	87.06
505.123	80.06
505.34	88.06
505.557	97.06
505.773	81.06
505.99	83.06
506.207	96.06
506.423	100.06
506.64	93.06
506.856	84.06
507.073	89.06
507.289	99.06
507.506	103.06
507.722	123.06
507.939	108.06
508.155	98.06
508.372	96.06
508.588	97.06
508.805	90.06
509.021	84.06
509.238	103.06
509.454	88.06
509.67	98.06
509.887	103.06
510.103	140.06
510.319	207.06
510.536	724.06
510.752	2287.06
510.968	662.06
511.184	150.06
511.401	120.06
511.617	98.06
511.833	88.06
512.049	99.06
512.265	118.06
512.481	102.06
512.698	80.06
512.914	88.06
513.13	97.06
513.346	104.06
513.562	98.06
513.778	87.06
513.994	100.06
514.21	107.06
514.426	133.06
514.642	123.06
514.858	119.06
515.074	159.06
