Data from Circ_2012_H10_HRD10591_00068.txt Node
Date: Wed Jan 03 10:06:04 EST 2024
User: Yrep
Spectrometer: HR+D1059
Trigger mode: 1
Integration Time (sec): 1.000000E-1
Scans to average: 1
Electric dark correction enabled: true
Nonlinearity correction enabled: false
Boxcar width: 0
XAxis mode: Wavelengths
Number of Pixels in Spectrum: 2048
>>>>>Begin Spectral Data<<<<<
223.165	-8.44
223.4	-8.44
223.635	-8.44
223.869	-22.44
224.104	-13.44
224.338	-18.44
224.573	-10.44
224.808	-4.44
225.042	-3.44
225.277	-1.44
225.511	-1.44
225.746	0.56
225.98	-2.44
226.215	13.56
226.449	15.56
226.683	14.56
226.918	4.56
227.152	37.56
227.387	39.56
227.621	47.56
227.856	38.56
228.09	58.56
228.324	52.56
228.559	47.56
228.793	169.56
229.027	430.56
229.262	474.56
229.496	571.56
229.73	755.56
229.964	771.56
230.199	538.56
230.433	475.56
230.667	447.56
230.901	441.56
231.136	419.56
231.37	421.56
231.604	443.56
231.838	439.56
232.072	448.56
232.306	445.56
232.541	441.56
232.775	456.56
233.009	469.56
233.243	471.56
233.477	459.56
233.711	472.56
233.945	496.56
234.179	519.56
234.413	476.56
234.647	496.56
234.881	484.56
235.115	501.56
235.349	535.56
235.583	546.56
235.817	564.56
236.051	611.56
236.285	620.56
236.519	598.56
236.753	664.56
236.987	829.56
237.221	1311.56
237.455	1381.56
237.689	855.56
237.922	718.56
238.156	690.56
238.39	666.56
238.624	652.56
238.858	642.56
239.091	636.56
239.325	621.56
239.559	663.56
239.793	695.56
240.027	740.56
240.26	857.56
240.494	912.56
240.728	913.56
240.961	866.56
241.195	786.56
241.429	767.56
241.662	741.56
241.896	732.56
242.13	759.56
242.363	778.56
242.597	767.56
242.83	799.56
243.064	812.56
243.298	809.56
243.531	824.56
243.765	809.56
243.998	813.56
244.232	839.56
244.465	862.56
244.699	869.56
244.932	874.56
245.166	851.56
245.399	850.56
245.633	855.56
245.866	903.56
246.099	873.56
246.333	898.56
246.566	920.56
246.8	965.56
247.033	982.56
247.266	1023.56
247.5	1068.56
247.733	1083.56
247.966	1127.56
248.2	1107.56
248.433	1134.56
248.666	1194.56
248.899	1275.56
249.133	1391.56
249.366	1378.56
249.599	1302.56
249.832	1196.56
250.066	1258.56
250.299	1354.56
250.532	1543.56
250.765	1673.56
250.998	1734.56
251.231	1606.56
251.465	1463.56
251.698	1411.56
251.931	1354.56
252.164	1332.56
252.397	1352.56
252.63	1397.56
252.863	1485.56
253.096	1595.56
253.329	1645.56
253.562	1570.56
253.795	1488.56
254.028	1511.56
254.261	1567.56
254.494	1714.56
254.727	2029.56
254.96	2065.56
255.193	1918.56
255.426	1752.56
255.659	1750.56
255.892	1946.56
256.124	2187.56
256.357	2037.56
256.59	1766.56
256.823	1653.56
257.056	1536.56
257.289	1532.56
257.521	1523.56
257.754	1501.56
257.987	1492.56
258.22	1494.56
258.452	1513.56
258.685	1484.56
258.918	1530.56
259.151	1563.56
259.383	1614.56
259.616	1637.56
259.849	1668.56
260.081	1877.56
260.314	1994.56
260.547	1900.56
260.779	1792.56
261.012	1700.56
261.244	1664.56
261.477	1609.56
261.71	1658.56
261.942	1747.56
262.175	1748.56
262.407	1659.56
262.64	1589.56
262.872	1658.56
263.105	1610.56
263.337	1610.56
263.57	1599.56
263.802	1584.56
264.035	1615.56
264.267	1640.56
264.499	1606.56
264.732	1629.56
264.964	1659.56
265.197	1682.56
265.429	1676.56
265.661	1678.56
265.894	1712.56
266.126	1673.56
266.358	1733.56
266.591	1757.56
266.823	1826.56
267.055	1846.56
267.287	1807.56
267.52	1794.56
267.752	1776.56
267.984	1792.56
268.216	1866.56
268.448	1878.56
268.681	1934.56
268.913	2047.56
269.145	2215.56
269.377	2277.56
269.609	2208.56
269.841	2189.56
270.073	2286.56
270.306	2507.56
270.538	2608.56
270.77	2484.56
271.002	2375.56
271.234	2360.56
271.466	2471.56
271.698	2602.56
271.93	2560.56
272.162	2588.56
272.394	2511.56
272.626	2399.56
272.858	2275.56
273.09	2261.56
273.322	2191.56
273.553	2182.56
273.785	2193.56
274.017	2148.56
274.249	2154.56
274.481	2188.56
274.713	2211.56
274.945	2214.56
275.176	2233.56
275.408	2218.56
275.64	2212.56
275.872	2165.56
276.104	2221.56
276.335	2266.56
276.567	2316.56
276.799	2501.56
277.031	2734.56
277.262	2811.56
277.494	2692.56
277.726	2522.56
277.957	2440.56
278.189	2430.56
278.421	2344.56
278.652	2348.56
278.884	2349.56
279.115	2372.56
279.347	2328.56
279.579	2388.56
279.81	2348.56
280.042	2373.56
280.273	2334.56
280.505	2434.56
280.736	2405.56
280.968	2421.56
281.199	2413.56
281.431	2438.56
281.662	2426.56
281.894	2390.56
282.125	2439.56
282.356	2643.56
282.588	2740.56
282.819	2626.56
283.051	2492.56
283.282	2479.56
283.513	2505.56
283.745	2572.56
283.976	2590.56
284.207	2616.56
284.439	2598.56
284.67	2539.56
284.901	2558.56
285.132	2603.56
285.364	2540.56
285.595	2546.56
285.826	2563.56
286.057	2587.56
286.288	2612.56
286.52	2637.56
286.751	2681.56
286.982	2648.56
287.213	2680.56
287.444	2680.56
287.675	2693.56
287.906	2788.56
288.138	2859.56
288.369	2874.56
288.6	2850.56
288.831	2792.56
289.062	2812.56
289.293	2746.56
289.524	2759.56
289.755	2748.56
289.986	2761.56
290.217	2739.56
290.448	2781.56
290.679	2723.56
290.91	2758.56
291.141	2728.56
291.371	2773.56
291.602	2781.56
291.833	2721.56
292.064	2770.56
292.295	2733.56
292.526	2775.56
292.757	2765.56
292.987	2772.56
293.218	2768.56
293.449	2803.56
293.68	2790.56
293.91	2784.56
294.141	2795.56
294.372	2763.56
294.603	2810.56
294.833	2830.56
295.064	2818.56
295.295	2811.56
295.525	2840.56
295.756	2857.56
295.987	2923.56
296.217	3142.56
296.448	3079.56
296.679	2896.56
296.909	2931.56
297.14	2904.56
297.37	2953.56
297.601	2960.56
297.831	2951.56
298.062	2973.56
298.292	3023.56
298.523	3103.56
298.753	3052.56
298.984	3074.56
299.214	3002.56
299.445	3006.56
299.675	3065.56
299.905	3047.56
300.136	3039.56
300.366	3075.56
300.597	3095.56
300.827	3222.56
301.057	3312.56
301.288	3338.56
301.518	3247.56
301.748	3241.56
301.979	3387.56
302.209	3320.56
302.439	3336.56
302.669	3264.56
302.9	3242.56
303.13	3205.56
303.36	3272.56
303.59	3333.56
303.82	3320.56
304.051	3258.56
304.281	3245.56
304.511	3170.56
304.741	3229.56
304.971	3232.56
305.201	3218.56
305.431	3252.56
305.661	3200.56
305.891	3245.56
306.121	3202.56
306.352	3275.56
306.582	3285.56
306.812	3194.56
307.042	3222.56
307.272	3222.56
307.502	3228.56
307.731	3240.56
307.961	3253.56
308.191	3211.56
308.421	3229.56
308.651	3288.56
308.881	3272.56
309.111	3257.56
309.341	3356.56
309.571	3386.56
309.8	3440.56
310.03	3451.56
310.26	3519.56
310.49	3567.56
310.72	3582.56
310.949	3692.56
311.179	3642.56
311.409	3515.56
311.639	3659.56
311.868	3618.56
312.098	3629.56
312.328	3742.56
312.557	3790.56
312.787	3905.56
313.017	3821.56
313.246	3759.56
313.476	3661.56
313.706	3699.56
313.935	3751.56
314.165	3869.56
314.394	3840.56
314.624	3867.56
314.853	3732.56
315.083	3690.56
315.312	3630.56
315.542	3626.56
315.771	3621.56
316.001	3616.56
316.23	3578.56
316.46	3684.56
316.689	3657.56
316.919	3699.56
317.148	3783.56
317.377	3671.56
317.607	3700.56
317.836	3622.56
318.065	3607.56
318.295	3628.56
318.524	3663.56
318.753	3657.56
318.983	3585.56
319.212	3578.56
319.441	3674.56
319.67	3712.56
319.9	3610.56
320.129	3683.56
320.358	3658.56
320.587	3671.56
320.816	3720.56
321.046	3808.56
321.275	3702.56
321.504	3745.56
321.733	3854.56
321.962	3876.56
322.191	3941.56
322.42	4079.56
322.649	4157.56
322.878	4182.56
323.108	4268.56
323.337	4475.56
323.566	4710.56
323.795	4928.56
324.024	5563.56
324.253	7192.56
324.482	10766.56
324.71	15092.56
324.939	15600.56
325.168	12882.56
325.397	6532.56
325.626	5164.56
325.855	4881.56
326.084	4761.56
326.313	4777.56
326.542	4948.56
326.77	5568.56
326.999	6947.56
327.228	10194.56
327.457	14216.56
327.686	13476.56
327.914	7407.56
328.143	6092.56
328.372	5766.56
328.6	5432.56
328.829	5266.56
329.058	5394.56
329.287	5443.56
329.515	5159.56
329.744	5066.56
329.972	5316.56
330.201	5796.56
330.43	6185.56
330.658	5931.56
330.887	5907.56
331.115	5467.56
331.344	5028.56
331.572	4975.56
331.801	5015.56
332.03	5018.56
332.258	4975.56
332.486	5004.56
332.715	5108.56
332.943	5226.56
333.172	5464.56
333.4	5630.56
333.629	5834.56
333.857	6024.56
334.085	6236.56
334.314	6607.56
334.542	7185.56
334.771	6938.56
334.999	5793.56
335.227	5565.56
335.455	5261.56
335.684	5162.56
335.912	5053.56
336.14	4967.56
336.369	4898.56
336.597	5001.56
336.825	4918.56
337.053	4830.56
337.281	4739.56
337.51	4687.56
337.738	4695.56
337.966	4582.56
338.194	4680.56
338.422	4549.56
338.65	4450.56
338.878	4505.56
339.106	4450.56
339.334	4452.56
339.562	4387.56
339.79	4316.56
340.018	4382.56
340.246	4298.56
340.474	4420.56
340.702	4317.56
340.93	4333.56
341.158	4357.56
341.386	4370.56
341.614	4255.56
341.842	4273.56
342.07	4241.56
342.298	4262.56
342.526	4251.56
342.754	4218.56
342.981	4240.56
343.209	4411.56
343.437	4525.56
343.665	4853.56
343.893	5059.56
344.12	5084.56
344.348	4901.56
344.576	4721.56
344.804	4610.56
345.031	4546.56
345.259	4491.56
345.487	4376.56
345.714	4294.56
345.942	4227.56
346.17	4164.56
346.397	4138.56
346.625	4134.56
346.853	4115.56
347.08	4133.56
347.308	4182.56
347.535	4280.56
347.763	4243.56
347.99	4265.56
348.218	4234.56
348.445	4204.56
348.673	4164.56
348.9	4129.56
349.128	4048.56
349.355	4010.56
349.583	4054.56
349.81	4055.56
350.037	4048.56
350.265	4008.56
350.492	4003.56
350.72	4049.56
350.947	4088.56
351.174	4156.56
351.402	4212.56
351.629	4105.56
351.856	4132.56
352.083	4132.56
352.311	4203.56
352.538	4190.56
352.765	4162.56
352.992	4130.56
353.22	4072.56
353.447	4044.56
353.674	3963.56
353.901	3955.56
354.128	3872.56
354.355	3871.56
354.583	3915.56
354.81	3952.56
355.037	3933.56
355.264	3887.56
355.491	3827.56
355.718	3871.56
355.945	3872.56
356.172	3846.56
356.399	3882.56
356.626	3845.56
356.853	3903.56
357.08	3866.56
357.307	3899.56
357.534	3873.56
357.761	3988.56
357.988	3936.56
358.215	3957.56
358.441	3920.56
358.668	3947.56
358.895	4010.56
359.122	3979.56
359.349	4084.56
359.576	4229.56
359.802	4370.56
360.029	4512.56
360.256	4512.56
360.483	4363.56
360.709	4141.56
360.936	4086.56
361.163	4147.56
361.39	4182.56
361.616	4142.56
361.843	4097.56
362.07	4130.56
362.296	4140.56
362.523	4101.56
362.749	4110.56
362.976	4061.56
363.203	4012.56
363.429	4003.56
363.656	4039.56
363.882	4027.56
364.109	3902.56
364.335	3920.56
364.562	3970.56
364.788	3974.56
365.015	3999.56
365.241	3988.56
365.468	4019.56
365.694	4072.56
365.92	4079.56
366.147	3922.56
366.373	4011.56
366.599	3976.56
366.826	3959.56
367.052	3970.56
367.278	3980.56
367.505	3988.56
367.731	4073.56
367.957	4031.56
368.184	4033.56
368.41	4158.56
368.636	4160.56
368.862	4179.56
369.089	4148.56
369.315	4042.56
369.541	4102.56
369.767	4130.56
369.993	4116.56
370.219	4114.56
370.445	4171.56
370.672	4139.56
370.898	4179.56
371.124	4262.56
371.35	4244.56
371.576	4234.56
371.802	4235.56
372.028	4173.56
372.254	4246.56
372.48	4268.56
372.706	4352.56
372.932	4426.56
373.158	4361.56
373.384	4294.56
373.61	4278.56
373.835	4236.56
374.061	4356.56
374.287	4374.56
374.513	4506.56
374.739	4564.56
374.965	4716.56
375.191	4666.56
375.416	4640.56
375.642	4451.56
375.868	4441.56
376.094	4397.56
376.319	4371.56
376.545	4240.56
376.771	4349.56
376.997	4274.56
377.222	4217.56
377.448	4259.56
377.674	4234.56
377.899	4171.56
378.125	4202.56
378.35	4208.56
378.576	4195.56
378.802	4230.56
379.027	4236.56
379.253	4223.56
379.478	4189.56
379.704	4241.56
379.929	4167.56
380.155	4195.56
380.38	4206.56
380.606	4210.56
380.831	4189.56
381.057	4342.56
381.282	4255.56
381.507	4275.56
381.733	4335.56
381.958	4343.56
382.184	4389.56
382.409	4479.56
382.634	4542.56
382.86	4515.56
383.085	4576.56
383.31	4624.56
383.535	4730.56
383.761	4685.56
383.986	4813.56
384.211	4860.56
384.436	4947.56
384.662	4995.56
384.887	5039.56
385.112	5077.56
385.337	5184.56
385.562	5170.56
385.787	5189.56
386.013	5250.56
386.238	5206.56
386.463	5227.56
386.688	5192.56
386.913	5099.56
387.138	5080.56
387.363	5101.56
387.588	5014.56
387.813	5005.56
388.038	4977.56
388.263	5014.56
388.488	5123.56
388.713	5071.56
388.938	5074.56
389.163	5060.56
389.387	4981.56
389.612	4955.56
389.837	5010.56
390.062	4968.56
390.287	5041.56
390.512	5028.56
390.736	5075.56
390.961	5144.56
391.186	5304.56
391.411	5405.56
391.636	5494.56
391.86	5707.56
392.085	5740.56
392.31	5654.56
392.534	5417.56
392.759	5397.56
392.984	5368.56
393.208	5239.56
393.433	5240.56
393.658	5220.56
393.882	5277.56
394.107	5301.56
394.331	5271.56
394.556	5335.56
394.78	5380.56
395.005	5428.56
395.229	5442.56
395.454	5662.56
395.678	5719.56
395.903	5695.56
396.127	5779.56
396.352	5526.56
396.576	5451.56
396.801	5366.56
397.025	5452.56
397.249	5559.56
397.474	5702.56
397.698	5743.56
397.922	5902.56
398.147	5951.56
398.371	6031.56
398.595	6153.56
398.82	6572.56
399.044	7057.56
399.268	7854.56
399.492	8929.56
399.717	9426.56
399.941	9160.56
400.165	8538.56
400.389	7883.56
400.613	7206.56
400.837	6766.56
401.062	6559.56
401.286	6414.56
401.51	6382.56
401.734	6415.56
401.958	6504.56
402.182	6617.56
402.406	6753.56
402.63	6815.56
402.854	6903.56
403.078	7028.56
403.302	7149.56
403.526	7173.56
403.75	7294.56
403.974	7453.56
404.198	7311.56
404.422	7496.56
404.645	7439.56
404.869	7517.56
405.093	7815.56
405.317	8176.56
405.541	8088.56
405.765	7489.56
405.988	7236.56
406.212	7378.56
406.436	7530.56
406.66	7658.56
406.883	7635.56
407.107	8226.56
407.331	8750.56
407.555	9225.56
407.778	8974.56
408.002	8181.56
408.226	7689.56
408.449	7639.56
408.673	7466.56
408.896	7674.56
409.12	7768.56
409.344	7398.56
409.567	6991.56
409.791	7080.56
410.014	6926.56
410.238	6911.56
410.461	6921.56
410.685	6998.56
410.908	6999.56
411.132	7242.56
411.355	7322.56
411.578	6884.56
411.802	6688.56
412.025	6776.56
412.249	7020.56
412.472	7438.56
412.695	7707.56
412.919	7066.56
413.142	6806.56
413.365	6651.56
413.589	6546.56
413.812	6354.56
414.035	6342.56
414.258	6295.56
414.482	6365.56
414.705	6406.56
414.928	6364.56
415.151	6306.56
415.374	6302.56
415.597	6331.56
415.821	6214.56
416.044	6187.56
416.267	6242.56
416.49	6210.56
416.713	6102.56
416.936	6288.56
417.159	6258.56
417.382	6313.56
417.605	6291.56
417.828	6438.56
418.051	6658.56
418.274	6440.56
418.497	6303.56
418.72	6542.56
418.943	6445.56
419.166	6747.56
419.389	7218.56
419.611	7082.56
419.834	6898.56
420.057	6921.56
420.28	6901.56
420.503	6662.56
420.726	6634.56
420.948	6735.56
421.171	7031.56
421.394	6983.56
421.617	6490.56
421.839	6445.56
422.062	6562.56
422.285	6731.56
422.507	7336.56
422.73	7817.56
422.953	7195.56
423.175	6879.56
423.398	6977.56
423.621	6941.56
423.843	7091.56
424.066	7062.56
424.288	6932.56
424.511	7177.56
424.733	7663.56
424.956	8108.56
425.178	7667.56
425.401	7698.56
425.623	7599.56
425.846	6719.56
426.068	6534.56
426.291	6494.56
426.513	6405.56
426.735	6461.56
426.958	6954.56
427.18	7704.56
427.402	8856.56
427.625	8957.56
427.847	7848.56
428.069	7266.56
428.292	6550.56
428.514	6047.56
428.736	5878.56
428.958	5953.56
429.181	5725.56
429.403	5786.56
429.625	5927.56
429.847	6194.56
430.069	6601.56
430.292	6202.56
430.514	5736.56
430.736	5734.56
430.958	5627.56
431.18	5566.56
431.402	5587.56
431.624	5545.56
431.846	5643.56
432.068	5703.56
432.29	5709.56
432.512	5586.56
432.734	5832.56
432.956	5642.56
433.178	5719.56
433.4	5760.56
433.622	5579.56
433.844	5703.56
434.066	5766.56
434.287	5838.56
434.509	5949.56
434.731	6214.56
434.953	6359.56
435.175	6509.56
435.397	6528.56
435.618	6535.56
435.84	6798.56
436.062	7490.56
436.284	7581.56
436.505	6434.56
436.727	6183.56
436.949	5876.56
437.17	5764.56
437.392	5707.56
437.614	5892.56
437.835	6279.56
438.057	7097.56
438.278	7789.56
438.5	7712.56
438.721	8471.56
438.943	7416.56
439.165	6196.56
439.386	6132.56
439.608	6201.56
439.829	6220.56
440.05	6565.56
440.272	6940.56
440.493	6363.56
440.715	6104.56
440.936	6014.56
441.158	5995.56
441.379	6101.56
441.6	6478.56
441.822	6734.56
442.043	7154.56
442.264	7854.56
442.486	7640.56
442.707	6816.56
442.928	6683.56
443.149	6783.56
443.371	7044.56
443.592	7548.56
443.813	8390.56
444.034	8444.56
444.255	7399.56
444.476	7192.56
444.698	7358.56
444.919	7554.56
445.14	7310.56
445.361	7135.56
445.582	7210.56
445.803	7824.56
446.024	8359.56
446.245	7992.56
446.466	7144.56
446.687	6305.56
446.908	6020.56
447.129	5719.56
447.35	5612.56
447.571	5555.56
447.792	5506.56
448.013	5571.56
448.234	5719.56
448.455	6325.56
448.675	7499.56
448.896	8043.56
449.117	6597.56
449.338	6790.56
449.559	7942.56
449.779	8259.56
450	6234.56
450.221	5654.56
450.442	5439.56
450.662	5345.56
450.883	5475.56
451.104	5596.56
451.324	5337.56
451.545	5284.56
451.766	5112.56
451.986	5094.56
452.207	5003.56
452.428	5015.56
452.648	5037.56
452.869	5078.56
453.089	5077.56
453.31	5189.56
453.53	5034.56
453.751	4919.56
453.971	5018.56
454.192	5102.56
454.412	4929.56
454.633	4888.56
454.853	4886.56
455.073	4842.56
455.294	5266.56
455.514	5731.56
455.734	5226.56
455.955	4783.56
456.175	4690.56
456.395	4571.56
456.616	4543.56
456.836	4608.56
457.056	4606.56
457.276	4549.56
457.497	4659.56
457.717	4685.56
457.937	4705.56
458.157	4845.56
458.377	4947.56
458.598	5210.56
458.818	5906.56
459.038	6609.56
459.258	6555.56
459.478	5889.56
459.698	5705.56
459.918	5852.56
460.138	5987.56
460.358	6138.56
460.578	6246.56
460.798	6304.56
461.018	6301.56
461.238	6130.56
461.458	6117.56
461.678	6109.56
461.898	6254.56
462.118	6306.56
462.338	6615.56
462.558	6770.56
462.777	7028.56
462.997	7695.56
463.217	8031.56
463.437	7871.56
463.657	7312.56
463.876	7013.56
464.096	7028.56
464.316	7127.56
464.536	7052.56
464.755	6885.56
464.975	6794.56
465.195	6955.56
465.414	7032.56
465.634	6109.56
465.854	5862.56
466.073	5585.56
466.293	5434.56
466.512	5223.56
466.732	5181.56
466.951	5146.56
467.171	5188.56
467.391	5188.56
467.61	5260.56
467.829	5254.56
468.049	5364.56
468.268	5277.56
468.488	5156.56
468.707	4948.56
468.927	4992.56
469.146	4930.56
469.365	5024.56
469.585	5053.56
469.804	5263.56
470.023	5407.56
470.243	5378.56
470.462	5415.56
470.681	5550.56
470.901	5470.56
471.12	5305.56
471.339	5206.56
471.558	5235.56
471.777	5204.56
471.997	5189.56
472.216	5450.56
472.435	5948.56
472.654	5459.56
472.873	5179.56
473.092	5114.56
473.311	5050.56
473.53	4997.56
473.749	5098.56
473.968	5636.56
474.187	6520.56
474.406	6159.56
474.625	5284.56
474.844	5053.56
475.063	4950.56
475.282	4963.56
475.501	5039.56
475.72	5081.56
475.939	5068.56
476.158	5113.56
476.377	5135.56
476.596	5192.56
476.814	5224.56
477.033	5354.56
477.252	5392.56
477.471	5394.56
477.69	5588.56
477.908	5728.56
478.127	5859.56
478.346	5968.56
478.564	6008.56
478.783	6104.56
479.002	6290.56
479.22	6282.56
479.439	6252.56
479.658	6403.56
479.876	6562.56
480.095	6729.56
480.313	7118.56
480.532	7083.56
480.751	6962.56
480.969	7052.56
481.188	8218.56
481.406	8114.56
481.624	6907.56
481.843	6506.56
482.061	6336.56
482.28	6110.56
482.498	5940.56
482.717	5892.56
482.935	5869.56
483.153	5897.56
483.372	5866.56
483.59	5889.56
483.808	5840.56
484.027	5890.56
484.245	5974.56
484.463	5893.56
484.681	6034.56
484.9	6086.56
485.118	6124.56
485.336	6086.56
485.554	6108.56
485.772	6193.56
485.99	6225.56
486.209	6221.56
486.427	6327.56
486.645	6345.56
486.863	6371.56
487.081	6316.56
487.299	6372.56
487.517	6323.56
487.735	6298.56
487.953	6174.56
