Data from Circ_2012_H10_HRD10591_00093.txt Node
Date: Wed Jan 03 10:06:09 EST 2024
User: Yrep
Spectrometer: HR+D1059
Trigger mode: 1
Integration Time (sec): 1.000000E-1
Scans to average: 1
Electric dark correction enabled: true
Nonlinearity correction enabled: false
Boxcar width: 0
XAxis mode: Wavelengths
Number of Pixels in Spectrum: 2048
>>>>>Begin Spectral Data<<<<<
223.165	-23
223.4	-23
223.635	-23
223.869	-24
224.104	-6
224.338	-18
224.573	-11
224.808	-25
225.042	-14
225.277	-6
225.511	-4
225.746	10
225.98	7
226.215	9
226.449	7
226.683	35
226.918	28
227.152	35
227.387	40
227.621	32
227.856	47
228.09	35
228.324	52
228.559	56
228.793	60
229.027	52
229.262	52
229.496	76
229.73	64
229.964	86
230.199	78
230.433	82
230.667	73
230.901	65
231.136	72
231.37	74
231.604	64
231.838	77
232.072	60
232.306	74
232.541	71
232.775	72
233.009	76
233.243	75
233.477	74
233.711	59
233.945	75
234.179	81
234.413	89
234.647	74
234.881	71
235.115	82
235.349	82
235.583	85
235.817	74
236.051	76
236.285	73
236.519	70
236.753	78
236.987	75
237.221	70
237.455	76
237.689	65
237.922	66
238.156	64
238.39	76
238.624	67
238.858	70
239.091	57
239.325	73
239.559	67
239.793	71
240.027	67
240.26	68
240.494	74
240.728	81
240.961	72
241.195	72
241.429	81
241.662	84
241.896	82
242.13	64
242.363	72
242.597	75
242.83	73
243.064	73
243.298	76
243.531	67
243.765	85
243.998	81
244.232	95
244.465	78
244.699	72
244.932	83
245.166	63
245.399	78
245.633	69
245.866	57
246.099	72
246.333	80
246.566	88
246.8	68
247.033	81
247.266	76
247.5	68
247.733	78
247.966	78
248.2	71
248.433	82
248.666	91
248.899	86
249.133	67
249.366	95
249.599	89
249.832	80
250.066	73
250.299	75
250.532	75
250.765	74
250.998	78
251.231	74
251.465	65
251.698	71
251.931	81
252.164	70
252.397	64
252.63	76
252.863	71
253.096	73
253.329	89
253.562	95
253.795	72
254.028	75
254.261	80
254.494	90
254.727	63
254.96	80
255.193	79
255.426	73
255.659	72
255.892	82
256.124	67
256.357	70
256.59	69
256.823	68
257.056	67
257.289	85
257.521	85
257.754	71
257.987	83
258.22	90
258.452	73
258.685	82
258.918	80
259.151	68
259.383	73
259.616	68
259.849	71
260.081	83
260.314	78
260.547	68
260.779	59
261.012	86
261.244	73
261.477	74
261.71	91
261.942	101
262.175	97
262.407	84
262.64	80
262.872	71
263.105	83
263.337	82
263.57	81
263.802	68
264.035	87
264.267	66
264.499	76
264.732	79
264.964	82
265.197	76
265.429	82
265.661	75
265.894	77
266.126	81
266.358	84
266.591	63
266.823	87
267.055	89
267.287	78
267.52	84
267.752	91
267.984	80
268.216	83
268.448	90
268.681	83
268.913	81
269.145	73
269.377	74
269.609	70
269.841	66
270.073	79
270.306	77
270.538	90
270.77	71
271.002	67
271.234	87
271.466	81
271.698	74
271.93	73
272.162	76
272.394	73
272.626	74
272.858	75
273.09	89
273.322	82
273.553	82
273.785	76
274.017	79
274.249	71
274.481	80
274.713	79
274.945	89
275.176	76
275.408	85
275.64	76
275.872	85
276.104	94
276.335	66
276.567	89
276.799	103
277.031	84
277.262	82
277.494	83
277.726	102
277.957	84
278.189	76
278.421	69
278.652	67
278.884	78
279.115	83
279.347	73
279.579	89
279.81	90
280.042	83
280.273	91
280.505	82
280.736	82
280.968	86
281.199	66
281.431	58
281.662	80
281.894	86
282.125	89
282.356	124
282.588	127
282.819	107
283.051	72
283.282	74
283.513	93
283.745	81
283.976	87
284.207	88
284.439	75
284.67	71
284.901	74
285.132	74
285.364	87
285.595	80
285.826	92
286.057	86
286.288	84
286.52	80
286.751	83
286.982	87
287.213	89
287.444	80
287.675	86
287.906	81
288.138	95
288.369	80
288.6	73
288.831	93
289.062	85
289.293	82
289.524	76
289.755	82
289.986	73
290.217	91
290.448	98
290.679	74
290.91	81
291.141	81
291.371	77
291.602	84
291.833	72
292.064	89
292.295	79
292.526	89
292.757	88
292.987	77
293.218	79
293.449	77
293.68	74
293.91	92
294.141	73
294.372	87
294.603	83
294.833	82
295.064	81
295.295	80
295.525	78
295.756	79
295.987	100
296.217	135
296.448	118
296.679	74
296.909	87
297.14	96
297.37	91
297.601	98
297.831	62
298.062	93
298.292	93
298.523	84
298.753	86
298.984	87
299.214	79
299.445	96
299.675	99
299.905	95
300.136	96
300.366	82
300.597	87
300.827	83
301.057	89
301.288	92
301.518	96
301.748	86
301.979	111
302.209	85
302.439	83
302.669	82
302.9	72
303.13	96
303.36	98
303.59	89
303.82	104
304.051	87
304.281	83
304.511	92
304.741	86
304.971	87
305.201	63
305.431	93
305.661	84
305.891	83
306.121	105
306.352	95
306.582	96
306.812	88
307.042	84
307.272	95
307.502	81
307.731	103
307.961	91
308.191	87
308.421	81
308.651	99
308.881	87
309.111	87
309.341	92
309.571	84
309.8	72
310.03	89
310.26	90
310.49	90
310.72	100
310.949	98
311.179	82
311.409	87
311.639	92
311.868	81
312.098	78
312.328	87
312.557	82
312.787	90
313.017	81
313.246	90
313.476	76
313.706	82
313.935	72
314.165	91
314.394	86
314.624	85
314.853	72
315.083	77
315.312	91
315.542	76
315.771	77
316.001	79
316.23	83
316.46	95
316.689	85
316.919	80
317.148	86
317.377	88
317.607	86
317.836	85
318.065	100
318.295	87
318.524	83
318.753	94
318.983	91
319.212	84
319.441	100
319.67	103
319.9	89
320.129	89
320.358	84
320.587	94
320.816	103
321.046	91
321.275	95
321.504	84
321.733	79
321.962	95
322.191	96
322.42	94
322.649	96
322.878	106
323.108	111
323.337	135
323.566	118
323.795	138
324.024	188
324.253	348
324.482	773
324.71	1540
324.939	2102
325.168	772
325.397	228
325.626	142
325.855	126
326.084	120
326.313	119
326.542	148
326.77	235
326.999	447
327.228	898
327.457	1662
327.686	1313
327.914	359
328.143	204
328.372	152
328.6	142
328.829	103
329.058	124
329.287	130
329.515	108
329.744	105
329.972	114
330.201	154
330.43	167
330.658	149
330.887	111
331.115	103
331.344	98
331.572	90
331.801	94
332.03	93
332.258	96
332.486	86
332.715	91
332.943	79
333.172	91
333.4	89
333.629	92
333.857	107
334.085	120
334.314	140
334.542	209
334.771	200
334.999	127
335.227	87
335.455	88
335.684	81
335.912	87
336.14	92
336.369	72
336.597	82
336.825	83
337.053	77
337.281	81
337.51	81
337.738	87
337.966	94
338.194	95
338.422	91
338.65	97
338.878	105
339.106	74
339.334	84
339.562	75
339.79	85
340.018	88
340.246	86
340.474	78
340.702	81
340.93	74
341.158	83
341.386	89
341.614	92
341.842	94
342.07	94
342.298	95
342.526	86
342.754	79
342.981	80
343.209	82
343.437	89
343.665	87
343.893	80
344.12	80
344.348	67
344.576	89
344.804	72
345.031	93
345.259	79
345.487	76
345.714	85
345.942	96
346.17	77
346.397	82
346.625	80
346.853	90
347.08	88
347.308	81
347.535	90
347.763	99
347.99	110
348.218	87
348.445	112
348.673	104
348.9	94
349.128	80
349.355	103
349.583	84
349.81	83
350.037	84
350.265	86
350.492	83
350.72	94
350.947	93
351.174	104
351.402	95
351.629	87
351.856	90
352.083	105
352.311	84
352.538	99
352.765	114
352.992	107
353.22	106
353.447	96
353.674	99
353.901	75
354.128	104
354.355	83
354.583	94
354.81	91
355.037	95
355.264	83
355.491	96
355.718	74
355.945	91
356.172	85
356.399	88
356.626	104
356.853	74
357.08	89
357.307	81
357.534	99
357.761	85
357.988	92
358.215	74
358.441	86
358.668	96
358.895	89
359.122	86
359.349	89
359.576	96
359.802	98
360.029	108
360.256	92
360.483	81
360.709	91
360.936	91
361.163	100
361.39	85
361.616	83
361.843	96
362.07	92
362.296	83
362.523	89
362.749	97
362.976	92
363.203	81
363.429	87
363.656	72
363.882	88
364.109	80
364.335	84
364.562	81
364.788	78
365.015	79
365.241	97
365.468	91
365.694	94
365.92	88
366.147	87
366.373	84
366.599	87
366.826	86
367.052	91
367.278	96
367.505	78
367.731	83
367.957	79
368.184	77
368.41	88
368.636	102
368.862	119
369.089	108
369.315	85
369.541	83
369.767	88
369.993	79
370.219	93
370.445	75
370.672	90
370.898	89
371.124	84
371.35	82
371.576	70
371.802	88
372.028	88
372.254	75
372.48	93
372.706	90
372.932	88
373.158	95
373.384	96
373.61	90
373.835	79
374.061	74
374.287	84
374.513	81
374.739	80
374.965	97
375.191	88
375.416	89
375.642	93
375.868	90
376.094	71
376.319	84
376.545	89
376.771	99
376.997	80
377.222	86
377.448	78
377.674	91
377.899	98
378.125	88
378.35	85
378.576	91
378.802	86
379.027	84
379.253	86
379.478	76
379.704	84
379.929	80
380.155	82
380.38	67
380.606	101
380.831	85
381.057	102
381.282	81
381.507	80
381.733	92
381.958	107
382.184	106
382.409	97
382.634	81
382.86	82
383.085	95
383.31	86
383.535	94
383.761	74
383.986	103
384.211	91
384.436	95
384.662	93
384.887	99
385.112	104
385.337	117
385.562	105
385.787	85
386.013	91
386.238	110
386.463	102
386.688	99
386.913	85
387.138	74
387.363	91
387.588	92
387.813	83
388.038	99
388.263	113
388.488	102
388.713	79
388.938	80
389.163	99
389.387	93
389.612	91
389.837	89
390.062	71
390.287	87
390.512	88
390.736	82
390.961	81
391.186	86
391.411	92
391.636	86
391.86	84
392.085	74
392.31	77
392.534	75
392.759	74
392.984	98
393.208	81
393.433	87
393.658	80
393.882	69
394.107	81
394.331	86
394.556	90
394.78	80
395.005	92
395.229	88
395.454	86
395.678	79
395.903	90
396.127	76
396.352	95
396.576	81
396.801	78
397.025	78
397.249	84
397.474	79
397.698	92
397.922	82
398.147	83
398.371	84
398.595	83
398.82	90
399.044	90
399.268	80
399.492	76
399.717	94
399.941	90
400.165	80
400.389	85
400.613	83
400.837	80
401.062	86
401.286	88
401.51	88
401.734	89
401.958	101
402.182	125
402.406	126
402.63	107
402.854	83
403.078	96
403.302	87
403.526	79
403.75	93
403.974	91
404.198	73
404.422	73
404.645	89
404.869	89
405.093	88
405.317	87
405.541	101
405.765	92
405.988	103
406.212	159
406.436	195
406.66	135
406.883	88
407.107	90
407.331	81
407.555	96
407.778	100
408.002	83
408.226	76
408.449	71
408.673	88
408.896	76
409.12	69
409.344	88
409.567	77
409.791	93
410.014	88
410.238	90
410.461	81
410.685	90
410.908	81
411.132	95
411.355	98
411.578	83
411.802	81
412.025	86
412.249	86
412.472	90
412.695	80
412.919	71
413.142	95
413.365	83
413.589	82
413.812	63
414.035	91
414.258	99
414.482	91
414.705	83
414.928	76
415.151	80
415.374	83
415.597	82
415.821	94
416.044	71
416.267	82
416.49	84
416.713	103
416.936	82
417.159	78
417.382	85
417.605	77
417.828	91
418.051	91
418.274	90
418.497	68
418.72	79
418.943	87
419.166	84
419.389	75
419.611	68
419.834	76
420.057	80
420.28	86
420.503	84
420.726	76
420.948	89
421.171	93
421.394	86
421.617	81
421.839	93
422.062	82
422.285	94
422.507	91
422.73	103
422.953	97
423.175	83
423.398	79
423.621	80
423.843	80
424.066	90
424.288	88
424.511	78
424.733	100
424.956	99
425.178	91
425.401	111
425.623	100
425.846	88
426.068	71
426.291	74
426.513	92
426.735	87
426.958	87
427.18	94
427.402	122
427.625	146
427.847	139
428.069	108
428.292	89
428.514	74
428.736	75
428.958	87
429.181	83
429.403	95
429.625	76
429.847	85
430.069	99
430.292	96
430.514	93
430.736	78
430.958	79
431.18	65
431.402	79
431.624	78
431.846	80
432.068	85
432.29	90
432.512	71
432.734	74
432.956	90
433.178	99
433.4	89
433.622	84
433.844	79
434.066	79
434.287	86
434.509	95
434.731	82
434.953	88
435.175	65
435.397	89
435.618	92
435.84	86
436.062	121
436.284	112
436.505	93
436.727	89
436.949	84
437.17	72
437.392	83
437.614	89
437.835	96
438.057	102
438.278	97
438.5	102
438.721	108
438.943	92
439.165	85
439.386	85
439.608	83
439.829	103
440.05	113
440.272	119
440.493	97
440.715	70
440.936	75
441.158	82
441.379	86
441.6	87
441.822	82
442.043	77
442.264	105
442.486	97
442.707	85
442.928	107
443.149	108
443.371	122
443.592	99
443.813	106
444.034	104
444.255	86
444.476	94
444.698	82
444.919	75
445.14	132
445.361	117
445.582	110
445.803	132
446.024	119
446.245	95
446.466	107
446.687	93
446.908	102
447.129	90
447.35	73
447.571	94
447.792	94
448.013	84
448.234	91
448.455	91
448.675	106
448.896	118
449.117	97
449.338	98
449.559	120
449.779	136
450	96
450.221	87
450.442	90
450.662	78
450.883	89
451.104	92
451.324	67
451.545	85
451.766	81
451.986	91
452.207	83
452.428	88
452.648	93
452.869	96
453.089	107
453.31	121
453.53	90
453.751	77
453.971	116
454.192	98
454.412	81
454.633	89
454.853	75
455.073	85
455.294	76
455.514	76
455.734	101
455.955	92
456.175	77
456.395	78
456.616	78
456.836	86
457.056	70
457.276	87
457.497	80
457.717	66
457.937	81
458.157	99
458.377	87
458.598	91
458.818	132
459.038	153
459.258	130
459.478	76
459.698	94
459.918	76
460.138	69
460.358	96
460.578	92
460.798	84
461.018	94
461.238	92
461.458	79
461.678	84
461.898	92
462.118	79
462.338	84
462.558	77
462.777	86
462.997	89
463.217	82
463.437	88
463.657	76
463.876	68
464.096	97
464.316	77
464.536	87
464.755	95
464.975	90
465.195	138
465.414	156
465.634	105
465.854	86
466.073	86
466.293	88
466.512	74
466.732	81
466.951	84
467.171	80
467.391	88
467.61	108
467.829	102
468.049	103
468.268	114
468.488	91
468.707	83
468.927	84
469.146	80
469.365	71
469.585	87
469.804	83
470.023	73
470.243	76
470.462	88
470.681	75
470.901	84
471.12	74
471.339	73
471.558	100
471.777	97
471.997	97
472.216	157
472.435	235
472.654	113
472.873	89
473.092	86
473.311	91
473.53	75
473.749	75
473.968	101
474.187	101
474.406	92
474.625	74
474.844	84
475.063	79
475.282	83
475.501	79
475.72	91
475.939	81
476.158	95
476.377	84
476.596	82
476.814	84
477.033	79
477.252	91
477.471	80
477.69	95
477.908	83
478.127	82
478.346	87
478.564	81
478.783	80
479.002	91
479.22	92
479.439	90
479.658	83
479.876	88
480.095	67
480.313	94
480.532	79
480.751	104
480.969	153
481.188	362
481.406	250
481.624	105
481.843	86
482.061	85
482.28	93
482.498	84
482.717	87
482.935	83
483.153	87
483.372	91
483.59	84
483.808	78
484.027	73
484.245	107
484.463	94
484.681	98
484.9	91
485.118	94
485.336	91
485.554	89
485.772	90
485.99	109
486.209	90
486.427	95
486.645	104
486.863	119
487.081	85
487.299	79
487.517	91
487.735	90
487.953	101
488.171	96
488.389	96
488.607	91
488.825	88
489.043	83
489.261	107
489.479	79
489.696	95
489.914	94
490.132	87
490.35	81
490.568	87
490.786	96
491.003	86
491.221	81
491.439	91
491.657	74
491.874	90
492.092	67
492.31	90
492.527	76
492.745	91
492.963	89
493.18	85
493.398	72
493.615	79
493.833	94
494.05	86
494.268	87
494.485	83
494.703	95
494.92	93
495.138	90
495.355	92
495.573	86
495.79	99
496.008	80
496.225	103
496.442	85
496.66	89
496.877	79
497.094	91
497.312	98
497.529	83
497.746	88
497.963	94
498.181	103
498.398	90
498.615	93
498.832	96
499.049	90
499.267	71
499.484	79
499.701	93
499.918	90
500.135	80
500.352	78
500.569	97
500.786	75
501.003	92
501.22	77
501.437	75
501.654	76
501.871	107
502.088	97
502.305	78
502.522	79
502.739	76
502.956	78
503.172	77
503.389	90
503.606	100
503.823	93
504.04	96
504.256	79
504.473	83
504.69	84
504.907	98
505.123	86
505.34	86
505.557	75
505.773	81
505.99	78
506.207	63
506.423	93
506.64	71
506.856	86
507.073	71
507.289	91
507.506	91
507.722	100
507.939	99
508.155	85
508.372	87
508.588	106
508.805	80
509.021	82
509.238	89
509.454	86
509.67	94
509.887	107
510.103	128
510.319	180
510.536	698
510.752	2214
510.968	633
511.184	135
511.401	124
511.617	96
511.833	91
512.049	72
512.265	82
512.481	87
512.698	84
512.914	91
513.13	87
513.346	86
513.562	86
513.778	99
513.994	93
514.21	92
514.426	104
514.642	114
514.858	109
515.074	159
515.29	395
515.506	1272
515.721	498
515.937	143
516.153	95
516.369	92
516.585	89
516.801	103
517.016	90
517.232	89
517.448	90
517.664	82
517.879	82
518.095	75
518.311	86
518.527	81
518.742	101
518.958	96
519.173	94
519.389	98
519.605	88
519.82	95
520.036	95
520.251	107
520.467	106
520.682	105
520.898	82
521.113	105
521.329	105
521.544	174
521.76	492
521.975	2106
522.19	1311
522.406	286
522.621	102
522.836	109
523.052	102
523.267	86
523.482	88
523.698	97
523.913	102
524.128	95
524.343	98
524.559	78
524.774	82
524.989	97
525.204	88
525.419	100
525.634	87
525.849	75
526.064	79
526.28	91
526.495	96
526.71	76
526.925	85
527.14	71
527.355	79
527.57	87
527.785	88
527.999	93
528.214	75
528.429	84
528.644	84
528.859	83
529.074	97
529.289	115
529.503	167
529.718	99
529.933	80
530.148	97
530.363	88
530.577	79
530.792	74
531.007	90
531.221	97
531.436	95
531.651	92
531.865	84
532.08	90
532.295	80
532.509	72
532.724	82
532.938	93
533.153	88
533.367	87
533.582	88
533.796	86
534.011	90
534.225	88
534.44	94
534.654	94
534.868	86
535.083	95
535.297	95
535.511	103
535.726	98
535.94	87
536.154	89
536.369	78
536.583	91
536.797	77
537.011	84
537.225	88
537.44	103
537.654	84
537.868	78
538.082	94
538.296	77
538.51	73
538.724	92
538.938	81
539.153	93
539.367	89
539.581	94
539.795	76
540.009	68
540.222	91
540.436	78
540.65	87
540.864	93
541.078	95
541.292	80
541.506	87
541.72	92
541.934	83
542.147	86
542.361	79
542.575	76
542.789	86
543.002	81
543.216	83
543.43	87
543.644	90
543.857	87
544.071	95
544.285	88
544.498	79
544.712	88
544.925	96
545.139	88
545.352	84
545.566	81
545.779	91
545.993	62
546.206	84
546.42	89
546.633	90
546.847	94
547.06	81
547.274	81
547.487	83
547.7	72
547.914	76
548.127	74
548.34	88
548.554	84
548.767	86
548.98	73
549.193	84
549.407	87
549.62	83
549.833	78
550.046	91
550.259	95
550.473	79
550.686	90
550.899	84
551.112	80
551.325	81
551.538	91
551.751	88
551.964	78
552.177	80
552.39	90
552.603	80
552.816	70
553.029	90
553.242	98
553.455	96
553.667	88
553.88	99
554.093	104
554.306	84
554.519	89
554.732	86
554.944	89
555.157	80
555.37	81
555.583	81
555.795	94
556.008	82
556.221	91
556.433	88
556.646	76
556.859	73
557.071	88
557.284	91
557.496	103
557.709	88
557.921	83
558.134	79
558.346	94
558.559	72
558.771	86
558.984	86
559.196	92
559.409	86
559.621	84
559.833	98
560.046	77
560.258	67
560.47	88
560.683	83
560.895	94
561.107	87
561.32	79
561.532	82
561.744	98
561.956	87
562.168	68
562.381	97
562.593	83
562.805	103
563.017	88
563.229	81
563.441	73
563.653	82
563.865	87
564.077	81
564.289	89
564.501	100
564.713	78
564.925	87
565.137	106
565.349	89
565.561	79
565.773	64
565.985	75
566.197	94
566.408	81
566.62	94
566.832	70
567.044	76
567.255	72
567.467	71
567.679	65
567.891	67
568.102	80
568.314	83
568.526	78
568.737	83
568.949	79
569.161	82
569.372	96
569.584	101
569.795	81
570.007	123
570.218	233
570.43	134
570.641	97
570.853	83
571.064	89
571.276	81
571.487	87
571.698	86
571.91	84
572.121	89
572.333	87
572.544	62
572.755	78
572.966	87
573.178	90
573.389	84
573.6	86
573.811	82
574.023	79
574.234	81
574.445	68
574.656	76
574.867	87
575.078	99
575.289	92
575.501	95
575.712	100
575.923	74
576.134	91
576.345	74
576.556	94
576.767	92
576.978	83
577.188	80
577.399	97
577.61	96
577.821	98
578.032	104
578.243	247
578.454	702
578.665	207
578.875	100
579.086	85
579.297	76
579.508	80
579.718	87
579.929	102
580.14	85
580.35	90
580.561	87
580.772	98
580.982	83
581.193	94
581.403	88
581.614	75
581.825	87
582.035	93
582.246	72
582.456	90
582.667	88
582.877	80
583.087	81
583.298	81
583.508	76
583.719	92
583.929	89
584.139	92
584.35	87
584.56	93
584.77	73
584.981	90
585.191	76
585.401	86
585.611	88
585.821	90
586.032	86
586.242	93
586.452	93
586.662	70
586.872	80
