Data from Circ_2012_H10_HRD10591_00058.txt Node
Date: Wed Jan 03 10:06:02 EST 2024
User: Yrep
Spectrometer: HR+D1059
Trigger mode: 1
Integration Time (sec): 1.000000E-1
Scans to average: 1
Electric dark correction enabled: true
Nonlinearity correction enabled: false
Boxcar width: 0
XAxis mode: Wavelengths
Number of Pixels in Spectrum: 2048
>>>>>Begin Spectral Data<<<<<
223.165	-23.12
223.4	-23.12
223.635	-23.12
223.869	-20.12
224.104	-26.12
224.338	-18.12
224.573	-13.12
224.808	-18.12
225.042	-3.12
225.277	-5.12
225.511	4.88
225.746	-3.12
225.98	9.88
226.215	18.88
226.449	20.88
226.683	28.88
226.918	20.88
227.152	25.88
227.387	35.88
227.621	29.88
227.856	38.88
228.09	41.88
228.324	38.88
228.559	47.88
228.793	159.88
229.027	435.88
229.262	520.88
229.496	605.88
229.73	794.88
229.964	790.88
230.199	525.88
230.433	476.88
230.667	435.88
230.901	465.88
231.136	428.88
231.37	438.88
231.604	460.88
231.838	438.88
232.072	469.88
232.306	467.88
232.541	440.88
232.775	451.88
233.009	468.88
233.243	473.88
233.477	477.88
233.711	489.88
233.945	492.88
234.179	484.88
234.413	502.88
234.647	504.88
234.881	517.88
235.115	526.88
235.349	538.88
235.583	514.88
235.817	576.88
236.051	653.88
236.285	599.88
236.519	602.88
236.753	693.88
236.987	877.88
237.221	1375.88
237.455	1458.88
237.689	877.88
237.922	724.88
238.156	683.88
238.39	653.88
238.624	650.88
238.858	648.88
239.091	642.88
239.325	641.88
239.559	660.88
239.793	680.88
240.027	754.88
240.26	882.88
240.494	924.88
240.728	918.88
240.961	903.88
241.195	794.88
241.429	780.88
241.662	745.88
241.896	738.88
242.13	761.88
242.363	753.88
242.597	754.88
242.83	790.88
243.064	806.88
243.298	810.88
243.531	814.88
243.765	824.88
243.998	837.88
244.232	832.88
244.465	869.88
244.699	878.88
244.932	896.88
245.166	868.88
245.399	868.88
245.633	882.88
245.866	908.88
246.099	900.88
246.333	878.88
246.566	964.88
246.8	957.88
247.033	982.88
247.266	1037.88
247.5	1063.88
247.733	1145.88
247.966	1102.88
248.2	1101.88
248.433	1127.88
248.666	1222.88
248.899	1294.88
249.133	1394.88
249.366	1384.88
249.599	1289.88
249.832	1197.88
250.066	1264.88
250.299	1349.88
250.532	1507.88
250.765	1653.88
250.998	1735.88
251.231	1690.88
251.465	1476.88
251.698	1400.88
251.931	1370.88
252.164	1355.88
252.397	1369.88
252.63	1432.88
252.863	1533.88
253.096	1637.88
253.329	1696.88
253.562	1592.88
253.795	1532.88
254.028	1496.88
254.261	1588.88
254.494	1806.88
254.727	2100.88
254.96	2189.88
255.193	1893.88
255.426	1749.88
255.659	1688.88
255.892	1905.88
256.124	2103.88
256.357	1941.88
256.59	1708.88
256.823	1670.88
257.056	1556.88
257.289	1562.88
257.521	1544.88
257.754	1552.88
257.987	1516.88
258.22	1500.88
258.452	1535.88
258.685	1551.88
258.918	1528.88
259.151	1568.88
259.383	1653.88
259.616	1653.88
259.849	1710.88
260.081	1888.88
260.314	2041.88
260.547	1994.88
260.779	1802.88
261.012	1688.88
261.244	1675.88
261.477	1677.88
261.71	1652.88
261.942	1732.88
262.175	1768.88
262.407	1684.88
262.64	1619.88
262.872	1608.88
263.105	1582.88
263.337	1641.88
263.57	1646.88
263.802	1688.88
264.035	1636.88
264.267	1646.88
264.499	1636.88
264.732	1635.88
264.964	1679.88
265.197	1728.88
265.429	1691.88
265.661	1670.88
265.894	1702.88
266.126	1696.88
266.358	1723.88
266.591	1785.88
266.823	1818.88
267.055	1824.88
267.287	1870.88
267.52	1797.88
267.752	1826.88
267.984	1863.88
268.216	1856.88
268.448	1899.88
268.681	1962.88
268.913	2077.88
269.145	2317.88
269.377	2296.88
269.609	2255.88
269.841	2228.88
270.073	2373.88
270.306	2572.88
270.538	2715.88
270.77	2569.88
271.002	2473.88
271.234	2391.88
271.466	2531.88
271.698	2625.88
271.93	2615.88
272.162	2716.88
272.394	2596.88
272.626	2452.88
272.858	2294.88
273.09	2279.88
273.322	2243.88
273.553	2216.88
273.785	2204.88
274.017	2178.88
274.249	2224.88
274.481	2220.88
274.713	2237.88
274.945	2262.88
275.176	2264.88
275.408	2238.88
275.64	2217.88
275.872	2263.88
276.104	2245.88
276.335	2282.88
276.567	2366.88
276.799	2568.88
277.031	2815.88
277.262	2843.88
277.494	2719.88
277.726	2510.88
277.957	2442.88
278.189	2412.88
278.421	2355.88
278.652	2386.88
278.884	2368.88
279.115	2286.88
279.347	2387.88
279.579	2366.88
279.81	2376.88
280.042	2361.88
280.273	2418.88
280.505	2380.88
280.736	2401.88
280.968	2371.88
281.199	2368.88
281.431	2376.88
281.662	2471.88
281.894	2472.88
282.125	2529.88
282.356	2661.88
282.588	2830.88
282.819	2664.88
283.051	2569.88
283.282	2505.88
283.513	2548.88
283.745	2599.88
283.976	2679.88
284.207	2644.88
284.439	2646.88
284.67	2596.88
284.901	2603.88
285.132	2582.88
285.364	2574.88
285.595	2574.88
285.826	2625.88
286.057	2638.88
286.288	2632.88
286.52	2632.88
286.751	2647.88
286.982	2704.88
287.213	2638.88
287.444	2676.88
287.675	2740.88
287.906	2809.88
288.138	2882.88
288.369	2871.88
288.6	2862.88
288.831	2856.88
289.062	2750.88
289.293	2787.88
289.524	2744.88
289.755	2780.88
289.986	2762.88
290.217	2733.88
290.448	2798.88
290.679	2752.88
290.91	2764.88
291.141	2744.88
291.371	2760.88
291.602	2758.88
291.833	2753.88
292.064	2799.88
292.295	2791.88
292.526	2786.88
292.757	2784.88
292.987	2824.88
293.218	2714.88
293.449	2818.88
293.68	2800.88
293.91	2855.88
294.141	2816.88
294.372	2802.88
294.603	2834.88
294.833	2844.88
295.064	2910.88
295.295	2869.88
295.525	2807.88
295.756	2909.88
295.987	2982.88
296.217	3146.88
296.448	3073.88
296.679	2978.88
296.909	2928.88
297.14	2934.88
297.37	2997.88
297.601	3010.88
297.831	3010.88
298.062	3021.88
298.292	3073.88
298.523	3062.88
298.753	3070.88
298.984	3044.88
299.214	3035.88
299.445	3053.88
299.675	3074.88
299.905	3090.88
300.136	3068.88
300.366	3132.88
300.597	3164.88
300.827	3258.88
301.057	3315.88
301.288	3340.88
301.518	3305.88
301.748	3292.88
301.979	3309.88
302.209	3360.88
302.439	3345.88
302.669	3249.88
302.9	3294.88
303.13	3214.88
303.36	3305.88
303.59	3336.88
303.82	3400.88
304.051	3317.88
304.281	3253.88
304.511	3253.88
304.741	3204.88
304.971	3276.88
305.201	3222.88
305.431	3197.88
305.661	3255.88
305.891	3221.88
306.121	3178.88
306.352	3365.88
306.582	3327.88
306.812	3189.88
307.042	3281.88
307.272	3277.88
307.502	3234.88
307.731	3307.88
307.961	3283.88
308.191	3212.88
308.421	3256.88
308.651	3318.88
308.881	3284.88
309.111	3356.88
309.341	3336.88
309.571	3421.88
309.8	3519.88
310.03	3571.88
310.26	3525.88
310.49	3550.88
310.72	3708.88
310.949	3788.88
311.179	3693.88
311.409	3602.88
311.639	3634.88
311.868	3594.88
312.098	3629.88
312.328	3734.88
312.557	3816.88
312.787	3909.88
313.017	3844.88
313.246	3794.88
313.476	3684.88
313.706	3783.88
313.935	3776.88
314.165	3907.88
314.394	3913.88
314.624	3826.88
314.853	3754.88
315.083	3724.88
315.312	3687.88
315.542	3720.88
315.771	3689.88
316.001	3627.88
316.23	3628.88
316.46	3697.88
316.689	3707.88
316.919	3718.88
317.148	3737.88
317.377	3762.88
317.607	3754.88
317.836	3691.88
318.065	3619.88
318.295	3677.88
318.524	3662.88
318.753	3726.88
318.983	3719.88
319.212	3677.88
319.441	3737.88
319.67	3769.88
319.9	3664.88
320.129	3666.88
320.358	3673.88
320.587	3734.88
320.816	3817.88
321.046	3828.88
321.275	3792.88
321.504	3831.88
321.733	3908.88
321.962	3944.88
322.191	3979.88
322.42	4093.88
322.649	4194.88
322.878	4267.88
323.108	4294.88
323.337	4556.88
323.566	4678.88
323.795	5007.88
324.024	5658.88
324.253	7429.88
324.482	11221.88
324.71	15301.88
324.939	15598.88
325.168	13097.88
325.397	6728.88
325.626	5268.88
325.855	4886.88
326.084	4788.88
326.313	4794.88
326.542	4985.88
326.77	5624.88
326.999	7152.88
327.228	10492.88
327.457	14489.88
327.686	13646.88
327.914	7526.88
328.143	6128.88
328.372	5848.88
328.6	5475.88
328.829	5331.88
329.058	5505.88
329.287	5402.88
329.515	5108.88
329.744	5042.88
329.972	5230.88
330.201	5625.88
330.43	6056.88
330.658	5902.88
330.887	5930.88
331.115	5464.88
331.344	5087.88
331.572	4964.88
331.801	5096.88
332.03	5052.88
332.258	5020.88
332.486	5044.88
332.715	5078.88
332.943	5226.88
333.172	5390.88
333.4	5622.88
333.629	5710.88
333.857	6038.88
334.085	6111.88
334.314	6484.88
334.542	6877.88
334.771	6699.88
334.999	5775.88
335.227	5463.88
335.455	5269.88
335.684	5160.88
335.912	5057.88
336.14	4950.88
336.369	4924.88
336.597	5038.88
336.825	5044.88
337.053	4844.88
337.281	4823.88
337.51	4715.88
337.738	4710.88
337.966	4683.88
338.194	4663.88
338.422	4640.88
338.65	4513.88
338.878	4555.88
339.106	4534.88
339.334	4502.88
339.562	4441.88
339.79	4352.88
340.018	4409.88
340.246	4384.88
340.474	4452.88
340.702	4382.88
340.93	4391.88
341.158	4361.88
341.386	4374.88
341.614	4316.88
341.842	4317.88
342.07	4289.88
342.298	4290.88
342.526	4260.88
342.754	4270.88
342.981	4318.88
343.209	4368.88
343.437	4580.88
343.665	4881.88
343.893	5190.88
344.12	5085.88
344.348	4976.88
344.576	4727.88
344.804	4680.88
345.031	4619.88
345.259	4556.88
345.487	4424.88
345.714	4311.88
345.942	4251.88
346.17	4172.88
346.397	4131.88
346.625	4148.88
346.853	4157.88
347.08	4197.88
347.308	4194.88
347.535	4290.88
347.763	4341.88
347.99	4200.88
348.218	4187.88
348.445	4339.88
348.673	4203.88
348.9	4151.88
349.128	4131.88
349.355	4069.88
349.583	4064.88
349.81	4070.88
350.037	4008.88
350.265	3995.88
350.492	4043.88
350.72	4025.88
350.947	4090.88
351.174	4135.88
351.402	4210.88
351.629	4145.88
351.856	4185.88
352.083	4258.88
352.311	4200.88
352.538	4260.88
352.765	4193.88
352.992	4164.88
353.22	4104.88
353.447	4128.88
353.674	4063.88
353.901	3914.88
354.128	3955.88
354.355	3923.88
354.583	3969.88
354.81	3956.88
355.037	3942.88
355.264	3941.88
355.491	3892.88
355.718	3948.88
355.945	3954.88
356.172	3943.88
356.399	3874.88
356.626	3946.88
356.853	3889.88
357.08	3915.88
357.307	3920.88
357.534	3930.88
357.761	3918.88
357.988	3940.88
358.215	3927.88
358.441	3926.88
358.668	3928.88
358.895	4003.88
359.122	4028.88
359.349	4112.88
359.576	4203.88
359.802	4469.88
360.029	4655.88
360.256	4509.88
360.483	4357.88
360.709	4144.88
360.936	4174.88
361.163	4160.88
361.39	4204.88
361.616	4203.88
361.843	4089.88
362.07	4158.88
362.296	4189.88
362.523	4141.88
362.749	4103.88
362.976	4113.88
363.203	4024.88
363.429	4050.88
363.656	4052.88
363.882	3975.88
364.109	3957.88
364.335	4025.88
364.562	4012.88
364.788	4001.88
365.015	4045.88
365.241	4009.88
365.468	4102.88
365.694	4147.88
365.92	4074.88
366.147	4106.88
366.373	4017.88
366.599	3995.88
366.826	4003.88
367.052	3992.88
367.278	4073.88
367.505	4077.88
367.731	4041.88
367.957	3999.88
368.184	4111.88
368.41	4167.88
368.636	4234.88
368.862	4244.88
369.089	4134.88
369.315	4084.88
369.541	4186.88
369.767	4169.88
369.993	4139.88
370.219	4232.88
370.445	4181.88
370.672	4133.88
370.898	4221.88
371.124	4246.88
371.35	4252.88
371.576	4258.88
371.802	4306.88
372.028	4237.88
372.254	4301.88
372.48	4338.88
372.706	4401.88
372.932	4447.88
373.158	4299.88
373.384	4393.88
373.61	4267.88
373.835	4259.88
374.061	4296.88
374.287	4429.88
374.513	4545.88
374.739	4594.88
374.965	4725.88
375.191	4701.88
375.416	4576.88
375.642	4426.88
375.868	4416.88
376.094	4409.88
376.319	4362.88
376.545	4417.88
376.771	4327.88
376.997	4316.88
377.222	4350.88
377.448	4264.88
377.674	4213.88
377.899	4257.88
378.125	4193.88
378.35	4227.88
378.576	4176.88
378.802	4236.88
379.027	4231.88
379.253	4285.88
379.478	4231.88
379.704	4300.88
379.929	4265.88
380.155	4251.88
380.38	4260.88
380.606	4327.88
380.831	4269.88
381.057	4297.88
381.282	4330.88
381.507	4314.88
381.733	4339.88
381.958	4354.88
382.184	4398.88
382.409	4455.88
382.634	4557.88
382.86	4513.88
383.085	4582.88
383.31	4690.88
383.535	4703.88
383.761	4728.88
383.986	4870.88
384.211	4890.88
384.436	4970.88
384.662	5086.88
384.887	5152.88
385.112	5125.88
385.337	5162.88
385.562	5133.88
385.787	5217.88
386.013	5233.88
386.238	5282.88
386.463	5275.88
386.688	5237.88
386.913	5125.88
387.138	5082.88
387.363	5078.88
387.588	5004.88
387.813	5072.88
388.038	5105.88
388.263	5125.88
388.488	5119.88
388.713	5080.88
388.938	5068.88
389.163	5060.88
389.387	5072.88
389.612	5042.88
389.837	5048.88
390.062	5014.88
390.287	4986.88
390.512	5057.88
390.736	5049.88
390.961	5220.88
391.186	5224.88
391.411	5422.88
391.636	5541.88
391.86	5795.88
392.085	5800.88
392.31	5653.88
392.534	5526.88
392.759	5401.88
392.984	5334.88
393.208	5305.88
393.433	5365.88
393.658	5280.88
393.882	5381.88
394.107	5296.88
394.331	5338.88
394.556	5336.88
394.78	5430.88
395.005	5554.88
395.229	5581.88
395.454	5687.88
395.678	5754.88
395.903	5781.88
396.127	5796.88
396.352	5616.88
396.576	5395.88
396.801	5383.88
397.025	5495.88
397.249	5642.88
397.474	5803.88
397.698	5638.88
397.922	5955.88
398.147	5970.88
398.371	6081.88
398.595	6226.88
398.82	6515.88
399.044	7075.88
399.268	7779.88
399.492	8910.88
399.717	9489.88
399.941	9266.88
400.165	8548.88
400.389	7940.88
400.613	7239.88
400.837	6712.88
401.062	6628.88
401.286	6554.88
401.51	6402.88
401.734	6433.88
401.958	6691.88
402.182	6620.88
402.406	6801.88
402.63	6845.88
402.854	6954.88
403.078	7021.88
403.302	7184.88
403.526	7257.88
403.75	7302.88
403.974	7426.88
404.198	7348.88
404.422	7483.88
404.645	7445.88
404.869	7485.88
405.093	7741.88
405.317	8130.88
405.541	8157.88
405.765	7491.88
405.988	7246.88
406.212	7421.88
406.436	7600.88
406.66	7766.88
406.883	7693.88
407.107	8292.88
407.331	8858.88
407.555	9357.88
407.778	8936.88
408.002	8262.88
408.226	7872.88
408.449	7737.88
408.673	7600.88
408.896	7746.88
409.12	7922.88
409.344	7433.88
409.567	7136.88
409.791	7064.88
410.014	6997.88
410.238	6944.88
410.461	6996.88
410.685	6967.88
410.908	7100.88
411.132	7320.88
411.355	7430.88
411.578	6910.88
411.802	6812.88
412.025	6855.88
412.249	7037.88
412.472	7337.88
412.695	7557.88
412.919	6989.88
413.142	6732.88
413.365	6616.88
413.589	6589.88
413.812	6361.88
414.035	6300.88
414.258	6288.88
414.482	6400.88
414.705	6464.88
414.928	6415.88
415.151	6389.88
415.374	6371.88
415.597	6347.88
415.821	6163.88
416.044	6246.88
416.267	6182.88
416.49	6207.88
416.713	6132.88
416.936	6284.88
417.159	6309.88
417.382	6248.88
417.605	6259.88
417.828	6452.88
418.051	6586.88
418.274	6488.88
418.497	6396.88
418.72	6516.88
418.943	6452.88
419.166	6863.88
419.389	7273.88
419.611	7190.88
419.834	6963.88
420.057	6880.88
420.28	6901.88
420.503	6667.88
420.726	6708.88
420.948	6732.88
421.171	7017.88
421.394	7029.88
421.617	6455.88
421.839	6503.88
422.062	6606.88
422.285	6786.88
422.507	7392.88
422.73	7954.88
422.953	7262.88
423.175	6960.88
423.398	6997.88
423.621	6964.88
423.843	7197.88
424.066	7111.88
424.288	7059.88
424.511	7284.88
424.733	7715.88
424.956	8192.88
425.178	7714.88
425.401	7887.88
425.623	7767.88
425.846	6813.88
426.068	6558.88
426.291	6529.88
426.513	6510.88
426.735	6680.88
426.958	7106.88
427.18	7893.88
427.402	9044.88
427.625	9123.88
427.847	7957.88
428.069	7235.88
428.292	6522.88
428.514	6020.88
428.736	5876.88
428.958	5861.88
429.181	5794.88
429.403	5779.88
429.625	6058.88
429.847	6281.88
430.069	6798.88
430.292	6315.88
430.514	5778.88
430.736	5892.88
430.958	5717.88
431.18	5622.88
431.402	5668.88
431.624	5598.88
431.846	5754.88
432.068	5716.88
432.29	5770.88
432.512	5722.88
432.734	5771.88
432.956	5690.88
433.178	5770.88
433.4	5758.88
433.622	5694.88
433.844	5705.88
434.066	5765.88
434.287	5919.88
434.509	6083.88
434.731	6275.88
434.953	6526.88
435.175	6586.88
435.397	6619.88
435.618	6598.88
435.84	6954.88
436.062	7761.88
436.284	7790.88
436.505	6489.88
436.727	6176.88
436.949	6004.88
437.17	5858.88
437.392	5823.88
437.614	5960.88
437.835	6320.88
438.057	7289.88
438.278	7933.88
438.5	7889.88
438.721	8656.88
438.943	7636.88
439.165	6349.88
439.386	6210.88
439.608	6312.88
439.829	6402.88
440.05	6693.88
440.272	7072.88
440.493	6427.88
440.715	6091.88
440.936	6162.88
441.158	6071.88
441.379	6234.88
441.6	6588.88
441.822	6816.88
442.043	7238.88
442.264	7958.88
442.486	7692.88
442.707	6887.88
442.928	6706.88
443.149	6953.88
443.371	7116.88
443.592	7604.88
443.813	8621.88
444.034	8559.88
444.255	7376.88
444.476	7350.88
444.698	7419.88
444.919	7492.88
445.14	7344.88
445.361	7194.88
445.582	7368.88
445.803	8015.88
446.024	8646.88
446.245	8323.88
446.466	7280.88
446.687	6370.88
446.908	6103.88
447.129	5728.88
447.35	5643.88
447.571	5597.88
447.792	5493.88
448.013	5645.88
448.234	5840.88
448.455	6491.88
448.675	7716.88
448.896	8095.88
449.117	6688.88
449.338	6921.88
449.559	8299.88
449.779	8391.88
450	6470.88
450.221	5780.88
450.442	5540.88
450.662	5443.88
450.883	5506.88
451.104	5598.88
451.324	5504.88
451.545	5272.88
451.766	5145.88
451.986	5157.88
452.207	5064.88
452.428	5071.88
452.648	5109.88
452.869	5101.88
453.089	5145.88
453.31	5222.88
453.53	5066.88
453.751	4976.88
453.971	4998.88
454.192	5129.88
454.412	4899.88
454.633	4850.88
454.853	4922.88
455.073	4908.88
455.294	5293.88
455.514	5886.88
455.734	5290.88
455.955	4842.88
456.175	4683.88
456.395	4627.88
456.616	4629.88
456.836	4666.88
457.056	4547.88
457.276	4580.88
457.497	4717.88
457.717	4686.88
457.937	4751.88
458.157	4846.88
458.377	4959.88
458.598	5344.88
458.818	5992.88
459.038	6802.88
459.258	6682.88
459.478	5883.88
459.698	5800.88
459.918	5907.88
460.138	6035.88
460.358	6255.88
460.578	6218.88
460.798	6333.88
461.018	6307.88
461.238	6214.88
461.458	6220.88
461.678	6135.88
461.898	6322.88
462.118	6349.88
462.338	6668.88
462.558	6823.88
462.777	7118.88
462.997	7702.88
463.217	8093.88
463.437	7822.88
463.657	7350.88
463.876	7092.88
464.096	7220.88
464.316	7084.88
464.536	7222.88
464.755	6841.88
464.975	6899.88
465.195	7027.88
465.414	7128.88
465.634	6195.88
465.854	5930.88
466.073	5688.88
466.293	5449.88
466.512	5292.88
466.732	5182.88
466.951	5193.88
467.171	5244.88
467.391	5277.88
467.61	5370.88
467.829	5319.88
468.049	5267.88
468.268	5366.88
468.488	5092.88
468.707	5048.88
468.927	5036.88
469.146	4985.88
469.365	5036.88
469.585	5053.88
469.804	5262.88
470.023	5365.88
470.243	5368.88
470.462	5459.88
470.681	5612.88
470.901	5534.88
471.12	5402.88
471.339	5315.88
471.558	5232.88
471.777	5196.88
471.997	5161.88
472.216	5344.88
472.435	5795.88
472.654	5509.88
472.873	5140.88
473.092	5083.88
473.311	4998.88
473.53	5112.88
473.749	5188.88
473.968	5685.88
474.187	6716.88
474.406	6300.88
474.625	5256.88
474.844	5020.88
475.063	5033.88
475.282	5021.88
475.501	5110.88
475.72	5144.88
475.939	5165.88
476.158	5189.88
476.377	5184.88
476.596	5243.88
476.814	5274.88
477.033	5346.88
477.252	5419.88
477.471	5587.88
477.69	5601.88
477.908	5783.88
478.127	5956.88
478.346	5954.88
478.564	6044.88
478.783	6144.88
479.002	6330.88
479.22	6256.88
479.439	6403.88
479.658	6516.88
479.876	6561.88
480.095	6772.88
480.313	7211.88
480.532	7156.88
480.751	6937.88
480.969	7141.88
481.188	8021.88
481.406	7938.88
481.624	6906.88
481.843	6372.88
482.061	6212.88
482.28	6117.88
482.498	6020.88
482.717	5932.88
482.935	5971.88
483.153	5863.88
483.372	5920.88
483.59	5822.88
483.808	5832.88
484.027	5948.88
484.245	5993.88
484.463	5964.88
484.681	6051.88
484.9	6065.88
485.118	6083.88
485.336	6153.88
485.554	6254.88
485.772	6288.88
485.99	6233.88
486.209	6282.88
486.427	6321.88
486.645	6368.88
486.863	6551.88
487.081	6445.88
487.299	6328.88
487.517	6332.88
487.735	6312.88
487.953	6256.88
