Data from Circ_2012_H10_HRD10591_00055.txt Node
Date: Wed Jan 03 10:06:01 EST 2024
User: Yrep
Spectrometer: HR+D1059
Trigger mode: 1
Integration Time (sec): 1.000000E-1
Scans to average: 1
Electric dark correction enabled: true
Nonlinearity correction enabled: false
Boxcar width: 0
XAxis mode: Wavelengths
Number of Pixels in Spectrum: 2048
>>>>>Begin Spectral Data<<<<<
223.165	-9.06
223.4	-9.06
223.635	-9.06
223.869	-20.06
224.104	-23.06
224.338	-15.06
224.573	-9.06
224.808	-6.06
225.042	-8.06
225.277	-7.06
225.511	-3.06
225.746	-3.06
225.98	8.94
226.215	3.94
226.449	-2.06
226.683	20.94
226.918	40.94
227.152	30.94
227.387	34.94
227.621	45.94
227.856	39.94
228.09	55.94
228.324	50.94
228.559	52.94
228.793	53.94
229.027	54.94
229.262	72.94
229.496	78.94
229.73	89.94
229.964	75.94
230.199	74.94
230.433	65.94
230.667	64.94
230.901	76.94
231.136	82.94
231.37	78.94
231.604	70.94
231.838	78.94
232.072	69.94
232.306	82.94
232.541	83.94
232.775	69.94
233.009	75.94
233.243	84.94
233.477	85.94
233.711	80.94
233.945	68.94
234.179	63.94
234.413	72.94
234.647	74.94
234.881	88.94
235.115	84.94
235.349	74.94
235.583	74.94
235.817	61.94
236.051	72.94
236.285	69.94
236.519	76.94
236.753	71.94
236.987	73.94
237.221	74.94
237.455	89.94
237.689	86.94
237.922	74.94
238.156	78.94
238.39	79.94
238.624	74.94
238.858	69.94
239.091	59.94
239.325	68.94
239.559	89.94
239.793	64.94
240.027	75.94
240.26	69.94
240.494	70.94
240.728	80.94
240.961	62.94
241.195	76.94
241.429	77.94
241.662	69.94
241.896	73.94
242.13	74.94
242.363	81.94
242.597	67.94
242.83	72.94
243.064	82.94
243.298	70.94
243.531	76.94
243.765	84.94
243.998	76.94
244.232	72.94
244.465	88.94
244.699	63.94
244.932	79.94
245.166	79.94
245.399	71.94
245.633	72.94
245.866	77.94
246.099	77.94
246.333	75.94
246.566	75.94
246.8	67.94
247.033	78.94
247.266	81.94
247.5	88.94
247.733	77.94
247.966	86.94
248.2	74.94
248.433	65.94
248.666	71.94
248.899	85.94
249.133	81.94
249.366	91.94
249.599	92.94
249.832	74.94
250.066	82.94
250.299	81.94
250.532	73.94
250.765	77.94
250.998	88.94
251.231	88.94
251.465	75.94
251.698	85.94
251.931	84.94
252.164	80.94
252.397	72.94
252.63	73.94
252.863	65.94
253.096	77.94
253.329	87.94
253.562	80.94
253.795	82.94
254.028	86.94
254.261	72.94
254.494	87.94
254.727	74.94
254.96	81.94
255.193	91.94
255.426	75.94
255.659	78.94
255.892	91.94
256.124	84.94
256.357	73.94
256.59	70.94
256.823	81.94
257.056	73.94
257.289	68.94
257.521	77.94
257.754	77.94
257.987	73.94
258.22	89.94
258.452	82.94
258.685	76.94
258.918	72.94
259.151	85.94
259.383	82.94
259.616	93.94
259.849	83.94
260.081	74.94
260.314	82.94
260.547	69.94
260.779	87.94
261.012	90.94
261.244	86.94
261.477	85.94
261.71	88.94
261.942	116.94
262.175	97.94
262.407	88.94
262.64	81.94
262.872	72.94
263.105	72.94
263.337	82.94
263.57	89.94
263.802	84.94
264.035	85.94
264.267	59.94
264.499	91.94
264.732	80.94
264.964	82.94
265.197	73.94
265.429	78.94
265.661	72.94
265.894	68.94
266.126	81.94
266.358	91.94
266.591	81.94
266.823	83.94
267.055	73.94
267.287	88.94
267.52	82.94
267.752	84.94
267.984	81.94
268.216	86.94
268.448	77.94
268.681	87.94
268.913	87.94
269.145	81.94
269.377	78.94
269.609	91.94
269.841	77.94
270.073	83.94
270.306	69.94
270.538	85.94
270.77	88.94
271.002	73.94
271.234	83.94
271.466	81.94
271.698	86.94
271.93	84.94
272.162	76.94
272.394	84.94
272.626	90.94
272.858	72.94
273.09	83.94
273.322	82.94
273.553	92.94
273.785	99.94
274.017	91.94
274.249	76.94
274.481	83.94
274.713	82.94
274.945	82.94
275.176	78.94
275.408	82.94
275.64	78.94
275.872	88.94
276.104	78.94
276.335	76.94
276.567	95.94
276.799	94.94
277.031	109.94
277.262	97.94
277.494	85.94
277.726	83.94
277.957	81.94
278.189	87.94
278.421	74.94
278.652	82.94
278.884	87.94
279.115	77.94
279.347	72.94
279.579	97.94
279.81	83.94
280.042	78.94
280.273	93.94
280.505	81.94
280.736	79.94
280.968	92.94
281.199	85.94
281.431	83.94
281.662	83.94
281.894	85.94
282.125	107.94
282.356	114.94
282.588	136.94
282.819	130.94
283.051	86.94
283.282	77.94
283.513	78.94
283.745	88.94
283.976	85.94
284.207	84.94
284.439	94.94
284.67	86.94
284.901	69.94
285.132	87.94
285.364	90.94
285.595	86.94
285.826	88.94
286.057	93.94
286.288	87.94
286.52	94.94
286.751	88.94
286.982	78.94
287.213	83.94
287.444	73.94
287.675	84.94
287.906	88.94
288.138	90.94
288.369	87.94
288.6	92.94
288.831	86.94
289.062	88.94
289.293	87.94
289.524	85.94
289.755	89.94
289.986	81.94
290.217	96.94
290.448	86.94
290.679	82.94
290.91	88.94
291.141	75.94
291.371	77.94
291.602	79.94
291.833	82.94
292.064	78.94
292.295	82.94
292.526	80.94
292.757	84.94
292.987	81.94
293.218	99.94
293.449	98.94
293.68	88.94
293.91	69.94
294.141	92.94
294.372	74.94
294.603	83.94
294.833	97.94
295.064	90.94
295.295	95.94
295.525	91.94
295.756	104.94
295.987	112.94
296.217	126.94
296.448	118.94
296.679	82.94
296.909	83.94
297.14	87.94
297.37	90.94
297.601	87.94
297.831	94.94
298.062	84.94
298.292	82.94
298.523	90.94
298.753	94.94
298.984	88.94
299.214	80.94
299.445	97.94
299.675	93.94
299.905	93.94
300.136	98.94
300.366	93.94
300.597	98.94
300.827	82.94
301.057	99.94
301.288	100.94
301.518	88.94
301.748	77.94
301.979	96.94
302.209	77.94
302.439	87.94
302.669	96.94
302.9	89.94
303.13	105.94
303.36	97.94
303.59	94.94
303.82	96.94
304.051	89.94
304.281	88.94
304.511	90.94
304.741	83.94
304.971	88.94
305.201	97.94
305.431	77.94
305.661	85.94
305.891	104.94
306.121	93.94
306.352	92.94
306.582	104.94
306.812	86.94
307.042	92.94
307.272	102.94
307.502	98.94
307.731	92.94
307.961	88.94
308.191	95.94
308.421	97.94
308.651	103.94
308.881	98.94
309.111	88.94
309.341	101.94
309.571	102.94
309.8	88.94
310.03	104.94
310.26	99.94
310.49	83.94
310.72	100.94
310.949	104.94
311.179	95.94
311.409	90.94
311.639	97.94
311.868	82.94
312.098	80.94
312.328	91.94
312.557	112.94
312.787	105.94
313.017	102.94
313.246	106.94
313.476	91.94
313.706	75.94
313.935	98.94
314.165	101.94
314.394	91.94
314.624	92.94
314.853	100.94
315.083	93.94
315.312	109.94
315.542	87.94
315.771	90.94
316.001	93.94
316.23	99.94
316.46	87.94
316.689	81.94
316.919	86.94
317.148	86.94
317.377	92.94
317.607	81.94
317.836	83.94
318.065	106.94
318.295	99.94
318.524	93.94
318.753	68.94
318.983	79.94
319.212	107.94
319.441	109.94
319.67	101.94
319.9	83.94
320.129	98.94
320.358	93.94
320.587	84.94
320.816	103.94
321.046	97.94
321.275	97.94
321.504	85.94
321.733	92.94
321.962	92.94
322.191	87.94
322.42	104.94
322.649	97.94
322.878	109.94
323.108	108.94
323.337	112.94
323.566	139.94
323.795	160.94
324.024	196.94
324.253	377.94
324.482	841.94
324.71	1759.94
324.939	2360.94
325.168	876.94
325.397	259.94
325.626	140.94
325.855	119.94
326.084	116.94
326.313	129.94
326.542	156.94
326.77	228.94
326.999	461.94
327.228	969.94
327.457	1732.94
327.686	1410.94
327.914	408.94
328.143	211.94
328.372	180.94
328.6	146.94
328.829	130.94
329.058	138.94
329.287	117.94
329.515	101.94
329.744	114.94
329.972	109.94
330.201	144.94
330.43	184.94
330.658	156.94
330.887	147.94
331.115	120.94
331.344	88.94
331.572	99.94
331.801	110.94
332.03	97.94
332.258	93.94
332.486	92.94
332.715	89.94
332.943	94.94
333.172	97.94
333.4	104.94
333.629	128.94
333.857	104.94
334.085	114.94
334.314	145.94
334.542	203.94
334.771	193.94
334.999	111.94
335.227	92.94
335.455	91.94
335.684	86.94
335.912	99.94
336.14	79.94
336.369	93.94
336.597	113.94
336.825	101.94
337.053	90.94
337.281	87.94
337.51	91.94
337.738	105.94
337.966	88.94
338.194	97.94
338.422	101.94
338.65	95.94
338.878	80.94
339.106	90.94
339.334	65.94
339.562	84.94
339.79	92.94
340.018	93.94
340.246	97.94
340.474	100.94
340.702	96.94
340.93	79.94
341.158	81.94
341.386	84.94
341.614	105.94
341.842	82.94
342.07	101.94
342.298	87.94
342.526	100.94
342.754	100.94
342.981	96.94
343.209	85.94
343.437	91.94
343.665	96.94
343.893	99.94
344.12	83.94
344.348	99.94
344.576	91.94
344.804	87.94
345.031	72.94
345.259	93.94
345.487	84.94
345.714	109.94
345.942	95.94
346.17	89.94
346.397	91.94
346.625	80.94
346.853	95.94
347.08	80.94
347.308	93.94
347.535	98.94
347.763	98.94
347.99	96.94
348.218	97.94
348.445	103.94
348.673	93.94
348.9	99.94
349.128	104.94
349.355	97.94
349.583	108.94
349.81	88.94
350.037	88.94
350.265	106.94
350.492	90.94
350.72	95.94
350.947	114.94
351.174	107.94
351.402	111.94
351.629	104.94
351.856	92.94
352.083	99.94
352.311	95.94
352.538	101.94
352.765	109.94
352.992	110.94
353.22	114.94
353.447	99.94
353.674	86.94
353.901	97.94
354.128	93.94
354.355	105.94
354.583	100.94
354.81	82.94
355.037	104.94
355.264	88.94
355.491	83.94
355.718	97.94
355.945	96.94
356.172	105.94
356.399	103.94
356.626	78.94
356.853	82.94
357.08	90.94
357.307	77.94
357.534	94.94
357.761	100.94
357.988	87.94
358.215	103.94
358.441	88.94
358.668	86.94
358.895	72.94
359.122	95.94
359.349	98.94
359.576	98.94
359.802	95.94
360.029	120.94
360.256	117.94
360.483	100.94
360.709	86.94
360.936	84.94
361.163	85.94
361.39	90.94
361.616	92.94
361.843	92.94
362.07	88.94
362.296	91.94
362.523	93.94
362.749	87.94
362.976	91.94
363.203	97.94
363.429	96.94
363.656	95.94
363.882	95.94
364.109	95.94
364.335	98.94
364.562	72.94
364.788	78.94
365.015	92.94
365.241	83.94
365.468	96.94
365.694	109.94
365.92	89.94
366.147	88.94
366.373	78.94
366.599	81.94
366.826	86.94
367.052	78.94
367.278	85.94
367.505	84.94
367.731	89.94
367.957	95.94
368.184	98.94
368.41	99.94
368.636	118.94
368.862	114.94
369.089	92.94
369.315	109.94
369.541	85.94
369.767	91.94
369.993	93.94
370.219	88.94
370.445	88.94
370.672	90.94
370.898	89.94
371.124	98.94
371.35	77.94
371.576	85.94
371.802	87.94
372.028	86.94
372.254	89.94
372.48	92.94
372.706	95.94
372.932	81.94
373.158	78.94
373.384	76.94
373.61	86.94
373.835	94.94
374.061	87.94
374.287	86.94
374.513	89.94
374.739	81.94
374.965	89.94
375.191	91.94
375.416	90.94
375.642	73.94
375.868	87.94
376.094	90.94
376.319	83.94
376.545	88.94
376.771	86.94
376.997	85.94
377.222	73.94
377.448	98.94
377.674	84.94
377.899	79.94
378.125	81.94
378.35	80.94
378.576	97.94
378.802	81.94
379.027	84.94
379.253	85.94
379.478	93.94
379.704	97.94
379.929	109.94
380.155	89.94
380.38	90.94
380.606	83.94
380.831	82.94
381.057	101.94
381.282	91.94
381.507	98.94
381.733	101.94
381.958	91.94
382.184	96.94
382.409	88.94
382.634	101.94
382.86	112.94
383.085	108.94
383.31	100.94
383.535	93.94
383.761	98.94
383.986	73.94
384.211	80.94
384.436	97.94
384.662	90.94
384.887	100.94
385.112	94.94
385.337	107.94
385.562	101.94
385.787	99.94
386.013	93.94
386.238	91.94
386.463	92.94
386.688	123.94
386.913	115.94
387.138	119.94
387.363	107.94
387.588	99.94
387.813	91.94
388.038	108.94
388.263	108.94
388.488	108.94
388.713	93.94
388.938	99.94
389.163	97.94
389.387	90.94
389.612	82.94
389.837	89.94
390.062	92.94
390.287	83.94
390.512	76.94
390.736	78.94
390.961	81.94
391.186	91.94
391.411	84.94
391.636	92.94
391.86	83.94
392.085	86.94
392.31	87.94
392.534	84.94
392.759	93.94
392.984	93.94
393.208	100.94
393.433	90.94
393.658	73.94
393.882	74.94
394.107	87.94
394.331	89.94
394.556	87.94
394.78	90.94
395.005	78.94
395.229	109.94
395.454	81.94
395.678	82.94
395.903	89.94
396.127	112.94
396.352	70.94
396.576	95.94
396.801	85.94
397.025	83.94
397.249	94.94
397.474	86.94
397.698	94.94
397.922	87.94
398.147	84.94
398.371	85.94
398.595	85.94
398.82	79.94
399.044	86.94
399.268	75.94
399.492	92.94
399.717	83.94
399.941	84.94
400.165	86.94
400.389	83.94
400.613	93.94
400.837	95.94
401.062	80.94
401.286	87.94
401.51	92.94
401.734	105.94
401.958	103.94
402.182	127.94
402.406	171.94
402.63	125.94
402.854	86.94
403.078	86.94
403.302	76.94
403.526	91.94
403.75	87.94
403.974	74.94
404.198	88.94
404.422	83.94
404.645	93.94
404.869	89.94
405.093	95.94
405.317	99.94
405.541	108.94
405.765	89.94
405.988	108.94
406.212	167.94
406.436	225.94
406.66	146.94
406.883	96.94
407.107	89.94
407.331	84.94
407.555	105.94
407.778	88.94
408.002	75.94
408.226	77.94
408.449	106.94
408.673	88.94
408.896	100.94
409.12	97.94
409.344	99.94
409.567	97.94
409.791	95.94
410.014	92.94
410.238	85.94
410.461	95.94
410.685	85.94
410.908	88.94
411.132	126.94
411.355	98.94
411.578	90.94
411.802	78.94
412.025	82.94
412.249	90.94
412.472	85.94
412.695	102.94
412.919	67.94
413.142	79.94
413.365	87.94
413.589	76.94
413.812	86.94
414.035	78.94
414.258	77.94
414.482	94.94
414.705	90.94
414.928	91.94
415.151	64.94
415.374	99.94
415.597	83.94
415.821	80.94
416.044	78.94
416.267	80.94
416.49	91.94
416.713	95.94
416.936	83.94
417.159	79.94
417.382	86.94
417.605	81.94
417.828	86.94
418.051	96.94
418.274	92.94
418.497	79.94
418.72	92.94
418.943	77.94
419.166	76.94
419.389	82.94
419.611	94.94
419.834	81.94
420.057	94.94
420.28	91.94
420.503	99.94
420.726	93.94
420.948	93.94
421.171	95.94
421.394	95.94
421.617	91.94
421.839	82.94
422.062	89.94
422.285	86.94
422.507	89.94
422.73	111.94
422.953	102.94
423.175	102.94
423.398	88.94
423.621	93.94
423.843	86.94
424.066	96.94
424.288	89.94
424.511	97.94
424.733	104.94
424.956	114.94
425.178	94.94
425.401	98.94
425.623	102.94
425.846	94.94
426.068	87.94
426.291	83.94
426.513	97.94
426.735	97.94
426.958	96.94
427.18	96.94
427.402	146.94
427.625	169.94
427.847	146.94
428.069	115.94
428.292	80.94
428.514	91.94
428.736	83.94
428.958	86.94
429.181	80.94
429.403	75.94
429.625	92.94
429.847	84.94
430.069	92.94
430.292	102.94
430.514	77.94
430.736	77.94
430.958	93.94
431.18	98.94
431.402	81.94
431.624	79.94
431.846	94.94
432.068	85.94
432.29	85.94
432.512	82.94
432.734	84.94
432.956	100.94
433.178	96.94
433.4	101.94
433.622	86.94
433.844	73.94
434.066	89.94
434.287	102.94
434.509	106.94
434.731	98.94
434.953	78.94
435.175	88.94
435.397	99.94
435.618	92.94
435.84	103.94
436.062	117.94
436.284	117.94
436.505	109.94
436.727	87.94
436.949	87.94
437.17	88.94
437.392	76.94
437.614	96.94
437.835	105.94
438.057	111.94
438.278	108.94
438.5	92.94
438.721	131.94
438.943	101.94
439.165	77.94
439.386	91.94
439.608	91.94
439.829	112.94
440.05	107.94
440.272	140.94
440.493	95.94
440.715	80.94
440.936	81.94
441.158	96.94
441.379	99.94
441.6	79.94
441.822	104.94
442.043	75.94
442.264	107.94
442.486	119.94
442.707	105.94
442.928	101.94
443.149	136.94
443.371	146.94
443.592	113.94
443.813	116.94
444.034	122.94
444.255	91.94
444.476	84.94
444.698	76.94
444.919	84.94
445.14	116.94
445.361	127.94
445.582	109.94
445.803	142.94
446.024	134.94
446.245	144.94
446.466	108.94
446.687	103.94
446.908	85.94
447.129	78.94
447.35	95.94
447.571	94.94
447.792	83.94
448.013	100.94
448.234	102.94
448.455	90.94
448.675	112.94
448.896	129.94
449.117	82.94
449.338	96.94
449.559	116.94
449.779	130.94
450	96.94
450.221	84.94
450.442	87.94
450.662	92.94
450.883	100.94
451.104	104.94
451.324	88.94
451.545	74.94
451.766	84.94
451.986	94.94
452.207	93.94
452.428	83.94
452.648	92.94
452.869	118.94
453.089	122.94
453.31	110.94
453.53	87.94
453.751	93.94
453.971	104.94
454.192	115.94
454.412	100.94
454.633	82.94
454.853	98.94
455.073	83.94
455.294	92.94
455.514	105.94
455.734	96.94
455.955	84.94
456.175	99.94
456.395	89.94
456.616	68.94
456.836	82.94
457.056	93.94
457.276	91.94
457.497	79.94
457.717	83.94
457.937	77.94
458.157	84.94
458.377	89.94
458.598	102.94
458.818	156.94
459.038	160.94
459.258	109.94
459.478	85.94
459.698	88.94
459.918	78.94
460.138	91.94
460.358	92.94
460.578	78.94
460.798	101.94
461.018	100.94
461.238	84.94
461.458	77.94
461.678	81.94
461.898	82.94
462.118	86.94
462.338	79.94
462.558	79.94
462.777	98.94
462.997	86.94
463.217	82.94
463.437	85.94
463.657	86.94
463.876	72.94
464.096	89.94
464.316	99.94
464.536	85.94
464.755	91.94
464.975	117.94
465.195	176.94
465.414	154.94
465.634	105.94
465.854	75.94
466.073	88.94
466.293	96.94
466.512	82.94
466.732	91.94
466.951	100.94
467.171	97.94
467.391	80.94
467.61	113.94
467.829	99.94
468.049	117.94
468.268	106.94
468.488	78.94
468.707	86.94
468.927	82.94
469.146	95.94
469.365	89.94
469.585	89.94
469.804	82.94
470.023	86.94
470.243	95.94
470.462	84.94
470.681	113.94
470.901	80.94
471.12	86.94
471.339	96.94
471.558	93.94
471.777	93.94
471.997	101.94
472.216	150.94
472.435	231.94
472.654	112.94
472.873	78.94
473.092	79.94
473.311	87.94
473.53	82.94
473.749	88.94
473.968	103.94
474.187	115.94
474.406	107.94
474.625	92.94
474.844	80.94
475.063	90.94
475.282	93.94
475.501	102.94
475.72	85.94
475.939	82.94
476.158	76.94
476.377	91.94
476.596	82.94
476.814	86.94
477.033	91.94
477.252	80.94
477.471	72.94
477.69	88.94
477.908	82.94
478.127	75.94
478.346	83.94
478.564	97.94
478.783	82.94
479.002	100.94
479.22	97.94
479.439	101.94
479.658	96.94
479.876	81.94
480.095	90.94
480.313	90.94
480.532	102.94
480.751	100.94
480.969	141.94
481.188	350.94
481.406	245.94
481.624	106.94
481.843	86.94
482.061	90.94
482.28	89.94
482.498	82.94
482.717	89.94
482.935	84.94
483.153	89.94
483.372	100.94
483.59	82.94
483.808	91.94
484.027	93.94
484.245	106.94
484.463	96.94
484.681	91.94
484.9	70.94
485.118	112.94
485.336	112.94
485.554	96.94
485.772	100.94
485.99	109.94
486.209	93.94
486.427	92.94
486.645	112.94
486.863	105.94
487.081	99.94
487.299	108.94
487.517	94.94
487.735	100.94
487.953	96.94
488.171	101.94
488.389	93.94
488.607	92.94
488.825	89.94
489.043	80.94
489.261	84.94
489.479	100.94
489.696	77.94
489.914	99.94
490.132	75.94
490.35	89.94
490.568	86.94
490.786	88.94
491.003	89.94
491.221	88.94
491.439	92.94
491.657	76.94
491.874	98.94
492.092	92.94
492.31	88.94
492.527	92.94
492.745	101.94
492.963	92.94
493.18	87.94
493.398	102.94
493.615	99.94
493.833	99.94
494.05	88.94
494.268	82.94
494.485	97.94
494.703	87.94
494.92	97.94
495.138	99.94
495.355	89.94
495.573	102.94
495.79	84.94
496.008	82.94
496.225	78.94
496.442	81.94
496.66	93.94
496.877	78.94
497.094	81.94
497.312	88.94
497.529	98.94
497.746	88.94
497.963	89.94
498.181	84.94
498.398	76.94
498.615	112.94
498.832	91.94
499.049	83.94
499.267	102.94
499.484	95.94
499.701	81.94
499.918	87.94
500.135	85.94
500.352	84.94
500.569	97.94
500.786	83.94
501.003	92.94
501.22	92.94
501.437	89.94
501.654	81.94
501.871	101.94
502.088	96.94
502.305	93.94
502.522	89.94
502.739	101.94
502.956	92.94
503.172	94.94
503.389	100.94
503.606	95.94
503.823	105.94
504.04	86.94
504.256	80.94
504.473	82.94
504.69	82.94
504.907	71.94
505.123	93.94
505.34	88.94
505.557	70.94
505.773	76.94
505.99	102.94
506.207	99.94
506.423	102.94
506.64	81.94
506.856	89.94
507.073	91.94
507.289	90.94
507.506	105.94
507.722	112.94
507.939	114.94
508.155	96.94
508.372	94.94
508.588	98.94
508.805	97.94
509.021	86.94
509.238	98.94
509.454	93.94
509.67	96.94
509.887	112.94
510.103	138.94
510.319	194.94
510.536	759.94
510.752	2556.94
510.968	749.94
511.184	156.94
511.401	101.94
511.617	100.94
511.833	93.94
512.049	93.94
512.265	75.94
512.481	102.94
512.698	76.94
512.914	85.94
513.13	74.94
513.346	81.94
513.562	92.94
513.778	81.94
513.994	98.94
514.21	100.94
514.426	119.94
514.642	138.94
514.858	125.94
515.074	153.94
515.29	450.94
515.506	1606.94
515.721	598.94
515.937	154.94
516.153	114.94
