Data from Circ_2012_H10_HRD10591_00043.txt Node
Date: Wed Jan 03 10:05:59 EST 2024
User: Yrep
Spectrometer: HR+D1059
Trigger mode: 1
Integration Time (sec): 1.000000E-1
Scans to average: 1
Electric dark correction enabled: true
Nonlinearity correction enabled: false
Boxcar width: 0
XAxis mode: Wavelengths
Number of Pixels in Spectrum: 2048
>>>>>Begin Spectral Data<<<<<
223.165	-24.81
223.4	-24.81
223.635	-24.81
223.869	-37.81
224.104	-9.81
224.338	-10.81
224.573	-3.81
224.808	-5.81
225.042	-9.81
225.277	-7.81
225.511	5.19
225.746	1.19
225.98	-5.81
226.215	14.19
226.449	2.19
226.683	18.19
226.918	37.19
227.152	38.19
227.387	15.19
227.621	22.19
227.856	20.19
228.09	36.19
228.324	41.19
228.559	58.19
228.793	62.19
229.027	54.19
229.262	55.19
229.496	55.19
229.73	95.19
229.964	76.19
230.199	76.19
230.433	70.19
230.667	71.19
230.901	70.19
231.136	68.19
231.37	70.19
231.604	76.19
231.838	86.19
232.072	68.19
232.306	86.19
232.541	80.19
232.775	76.19
233.009	67.19
233.243	71.19
233.477	81.19
233.711	82.19
233.945	75.19
234.179	78.19
234.413	79.19
234.647	87.19
234.881	69.19
235.115	89.19
235.349	71.19
235.583	72.19
235.817	55.19
236.051	71.19
236.285	81.19
236.519	76.19
236.753	75.19
236.987	77.19
237.221	73.19
237.455	87.19
237.689	74.19
237.922	84.19
238.156	73.19
238.39	86.19
238.624	79.19
238.858	79.19
239.091	81.19
239.325	79.19
239.559	71.19
239.793	81.19
240.027	88.19
240.26	79.19
240.494	79.19
240.728	69.19
240.961	55.19
241.195	56.19
241.429	82.19
241.662	69.19
241.896	86.19
242.13	63.19
242.363	71.19
242.597	79.19
242.83	66.19
243.064	76.19
243.298	84.19
243.531	68.19
243.765	61.19
243.998	96.19
244.232	68.19
244.465	86.19
244.699	88.19
244.932	68.19
245.166	76.19
245.399	55.19
245.633	67.19
245.866	78.19
246.099	73.19
246.333	82.19
246.566	71.19
246.8	70.19
247.033	75.19
247.266	80.19
247.5	72.19
247.733	65.19
247.966	56.19
248.2	85.19
248.433	73.19
248.666	86.19
248.899	84.19
249.133	89.19
249.366	88.19
249.599	95.19
249.832	90.19
250.066	75.19
250.299	72.19
250.532	86.19
250.765	76.19
250.998	84.19
251.231	69.19
251.465	78.19
251.698	70.19
251.931	75.19
252.164	78.19
252.397	79.19
252.63	75.19
252.863	64.19
253.096	71.19
253.329	73.19
253.562	85.19
253.795	75.19
254.028	72.19
254.261	84.19
254.494	72.19
254.727	76.19
254.96	73.19
255.193	80.19
255.426	76.19
255.659	79.19
255.892	88.19
256.124	74.19
256.357	73.19
256.59	79.19
256.823	80.19
257.056	65.19
257.289	83.19
257.521	78.19
257.754	76.19
257.987	79.19
258.22	91.19
258.452	57.19
258.685	98.19
258.918	82.19
259.151	72.19
259.383	82.19
259.616	78.19
259.849	63.19
260.081	76.19
260.314	79.19
260.547	76.19
260.779	73.19
261.012	78.19
261.244	92.19
261.477	69.19
261.71	85.19
261.942	120.19
262.175	103.19
262.407	82.19
262.64	89.19
262.872	76.19
263.105	75.19
263.337	87.19
263.57	83.19
263.802	88.19
264.035	82.19
264.267	80.19
264.499	83.19
264.732	81.19
264.964	77.19
265.197	86.19
265.429	78.19
265.661	82.19
265.894	87.19
266.126	92.19
266.358	85.19
266.591	74.19
266.823	73.19
267.055	84.19
267.287	72.19
267.52	81.19
267.752	78.19
267.984	65.19
268.216	89.19
268.448	79.19
268.681	82.19
268.913	103.19
269.145	74.19
269.377	77.19
269.609	84.19
269.841	72.19
270.073	74.19
270.306	89.19
270.538	93.19
270.77	98.19
271.002	83.19
271.234	80.19
271.466	84.19
271.698	68.19
271.93	89.19
272.162	86.19
272.394	81.19
272.626	77.19
272.858	80.19
273.09	76.19
273.322	74.19
273.553	82.19
273.785	72.19
274.017	89.19
274.249	86.19
274.481	81.19
274.713	79.19
274.945	94.19
275.176	90.19
275.408	78.19
275.64	86.19
275.872	76.19
276.104	91.19
276.335	88.19
276.567	86.19
276.799	89.19
277.031	105.19
277.262	87.19
277.494	73.19
277.726	87.19
277.957	73.19
278.189	79.19
278.421	84.19
278.652	66.19
278.884	82.19
279.115	83.19
279.347	75.19
279.579	76.19
279.81	77.19
280.042	97.19
280.273	90.19
280.505	93.19
280.736	74.19
280.968	71.19
281.199	74.19
281.431	73.19
281.662	83.19
281.894	87.19
282.125	83.19
282.356	120.19
282.588	124.19
282.819	110.19
283.051	90.19
283.282	76.19
283.513	95.19
283.745	88.19
283.976	85.19
284.207	97.19
284.439	78.19
284.67	82.19
284.901	81.19
285.132	81.19
285.364	74.19
285.595	84.19
285.826	85.19
286.057	83.19
286.288	90.19
286.52	83.19
286.751	77.19
286.982	81.19
287.213	95.19
287.444	88.19
287.675	100.19
287.906	88.19
288.138	89.19
288.369	86.19
288.6	86.19
288.831	86.19
289.062	89.19
289.293	93.19
289.524	94.19
289.755	103.19
289.986	102.19
290.217	88.19
290.448	91.19
290.679	83.19
290.91	88.19
291.141	70.19
291.371	100.19
291.602	84.19
291.833	87.19
292.064	87.19
292.295	68.19
292.526	88.19
292.757	86.19
292.987	84.19
293.218	89.19
293.449	77.19
293.68	80.19
293.91	80.19
294.141	86.19
294.372	62.19
294.603	83.19
294.833	92.19
295.064	92.19
295.295	88.19
295.525	85.19
295.756	94.19
295.987	114.19
296.217	132.19
296.448	98.19
296.679	84.19
296.909	75.19
297.14	83.19
297.37	82.19
297.601	78.19
297.831	85.19
298.062	88.19
298.292	81.19
298.523	80.19
298.753	98.19
298.984	86.19
299.214	76.19
299.445	79.19
299.675	83.19
299.905	95.19
300.136	88.19
300.366	76.19
300.597	89.19
300.827	73.19
301.057	105.19
301.288	97.19
301.518	81.19
301.748	81.19
301.979	108.19
302.209	89.19
302.439	88.19
302.669	80.19
302.9	97.19
303.13	92.19
303.36	105.19
303.59	100.19
303.82	100.19
304.051	97.19
304.281	79.19
304.511	99.19
304.741	88.19
304.971	63.19
305.201	90.19
305.431	90.19
305.661	85.19
305.891	100.19
306.121	96.19
306.352	87.19
306.582	98.19
306.812	85.19
307.042	84.19
307.272	78.19
307.502	85.19
307.731	85.19
307.961	82.19
308.191	95.19
308.421	89.19
308.651	79.19
308.881	79.19
309.111	92.19
309.341	84.19
309.571	98.19
309.8	68.19
310.03	91.19
310.26	88.19
310.49	82.19
310.72	90.19
310.949	83.19
311.179	106.19
311.409	91.19
311.639	89.19
311.868	94.19
312.098	94.19
312.328	95.19
312.557	83.19
312.787	97.19
313.017	89.19
313.246	95.19
313.476	84.19
313.706	81.19
313.935	98.19
314.165	88.19
314.394	107.19
314.624	88.19
314.853	95.19
315.083	89.19
315.312	90.19
315.542	79.19
315.771	72.19
316.001	89.19
316.23	82.19
316.46	87.19
316.689	103.19
316.919	79.19
317.148	85.19
317.377	83.19
317.607	94.19
317.836	85.19
318.065	76.19
318.295	92.19
318.524	98.19
318.753	81.19
318.983	94.19
319.212	98.19
319.441	82.19
319.67	99.19
319.9	90.19
320.129	89.19
320.358	88.19
320.587	97.19
320.816	104.19
321.046	94.19
321.275	82.19
321.504	84.19
321.733	89.19
321.962	98.19
322.191	95.19
322.42	102.19
322.649	103.19
322.878	107.19
323.108	117.19
323.337	123.19
323.566	115.19
323.795	140.19
324.024	172.19
324.253	370.19
324.482	777.19
324.71	1618.19
324.939	2111.19
325.168	791.19
325.397	235.19
325.626	115.19
325.855	119.19
326.084	133.19
326.313	117.19
326.542	156.19
326.77	213.19
326.999	440.19
327.228	904.19
327.457	1626.19
327.686	1299.19
327.914	352.19
328.143	185.19
328.372	158.19
328.6	140.19
328.829	119.19
329.058	130.19
329.287	110.19
329.515	105.19
329.744	87.19
329.972	107.19
330.201	110.19
330.43	126.19
330.658	110.19
330.887	131.19
331.115	115.19
331.344	88.19
331.572	91.19
331.801	87.19
332.03	87.19
332.258	95.19
332.486	85.19
332.715	84.19
332.943	104.19
333.172	82.19
333.4	84.19
333.629	96.19
333.857	101.19
334.085	117.19
334.314	111.19
334.542	122.19
334.771	115.19
334.999	94.19
335.227	98.19
335.455	89.19
335.684	112.19
335.912	95.19
336.14	104.19
336.369	97.19
336.597	97.19
336.825	83.19
337.053	76.19
337.281	87.19
337.51	82.19
337.738	76.19
337.966	103.19
338.194	91.19
338.422	95.19
338.65	90.19
338.878	72.19
339.106	79.19
339.334	86.19
339.562	89.19
339.79	96.19
340.018	73.19
340.246	85.19
340.474	84.19
340.702	86.19
340.93	101.19
341.158	88.19
341.386	107.19
341.614	94.19
341.842	102.19
342.07	89.19
342.298	86.19
342.526	80.19
342.754	91.19
342.981	86.19
343.209	75.19
343.437	87.19
343.665	91.19
343.893	78.19
344.12	96.19
344.348	73.19
344.576	74.19
344.804	81.19
345.031	78.19
345.259	100.19
345.487	94.19
345.714	86.19
345.942	92.19
346.17	105.19
346.397	93.19
346.625	88.19
346.853	79.19
347.08	85.19
347.308	89.19
347.535	85.19
347.763	88.19
347.99	98.19
348.218	87.19
348.445	90.19
348.673	75.19
348.9	99.19
349.128	90.19
349.355	93.19
349.583	106.19
349.81	93.19
350.037	94.19
350.265	94.19
350.492	80.19
350.72	88.19
350.947	77.19
351.174	95.19
351.402	95.19
351.629	97.19
351.856	103.19
352.083	130.19
352.311	87.19
352.538	104.19
352.765	95.19
352.992	120.19
353.22	101.19
353.447	95.19
353.674	88.19
353.901	104.19
354.128	85.19
354.355	98.19
354.583	102.19
354.81	95.19
355.037	88.19
355.264	82.19
355.491	89.19
355.718	90.19
355.945	89.19
356.172	82.19
356.399	91.19
356.626	86.19
356.853	84.19
357.08	78.19
357.307	87.19
357.534	83.19
357.761	85.19
357.988	83.19
358.215	91.19
358.441	90.19
358.668	99.19
358.895	79.19
359.122	86.19
359.349	70.19
359.576	99.19
359.802	98.19
360.029	101.19
360.256	111.19
360.483	86.19
360.709	79.19
360.936	91.19
361.163	83.19
361.39	103.19
361.616	86.19
361.843	80.19
362.07	94.19
362.296	92.19
362.523	83.19
362.749	82.19
362.976	67.19
363.203	74.19
363.429	86.19
363.656	88.19
363.882	77.19
364.109	87.19
364.335	86.19
364.562	88.19
364.788	88.19
365.015	97.19
365.241	82.19
365.468	99.19
365.694	88.19
365.92	84.19
366.147	78.19
366.373	83.19
366.599	85.19
366.826	64.19
367.052	86.19
367.278	88.19
367.505	79.19
367.731	84.19
367.957	94.19
368.184	93.19
368.41	85.19
368.636	91.19
368.862	119.19
369.089	104.19
369.315	88.19
369.541	91.19
369.767	89.19
369.993	68.19
370.219	101.19
370.445	88.19
370.672	88.19
370.898	101.19
371.124	91.19
371.35	95.19
371.576	101.19
371.802	95.19
372.028	83.19
372.254	62.19
372.48	80.19
372.706	86.19
372.932	81.19
373.158	86.19
373.384	104.19
373.61	83.19
373.835	89.19
374.061	89.19
374.287	82.19
374.513	96.19
374.739	105.19
374.965	90.19
375.191	95.19
375.416	94.19
375.642	67.19
375.868	82.19
376.094	82.19
376.319	82.19
376.545	89.19
376.771	91.19
376.997	74.19
377.222	92.19
377.448	98.19
377.674	87.19
377.899	81.19
378.125	85.19
378.35	89.19
378.576	86.19
378.802	84.19
379.027	87.19
379.253	79.19
379.478	86.19
379.704	94.19
379.929	87.19
380.155	90.19
380.38	95.19
380.606	85.19
380.831	86.19
381.057	91.19
381.282	84.19
381.507	77.19
381.733	90.19
381.958	80.19
382.184	97.19
382.409	87.19
382.634	90.19
382.86	90.19
383.085	106.19
383.31	88.19
383.535	91.19
383.761	99.19
383.986	90.19
384.211	87.19
384.436	81.19
384.662	89.19
384.887	99.19
385.112	108.19
385.337	114.19
385.562	100.19
385.787	98.19
386.013	96.19
386.238	104.19
386.463	102.19
386.688	115.19
386.913	95.19
387.138	102.19
387.363	104.19
387.588	89.19
387.813	91.19
388.038	111.19
388.263	116.19
388.488	100.19
388.713	95.19
388.938	90.19
389.163	87.19
389.387	93.19
389.612	91.19
389.837	68.19
390.062	68.19
390.287	80.19
390.512	74.19
390.736	97.19
390.961	96.19
391.186	82.19
391.411	95.19
391.636	73.19
391.86	77.19
392.085	81.19
392.31	87.19
392.534	86.19
392.759	87.19
392.984	83.19
393.208	70.19
393.433	75.19
393.658	85.19
393.882	97.19
394.107	81.19
394.331	72.19
394.556	72.19
394.78	74.19
395.005	96.19
395.229	84.19
395.454	84.19
395.678	74.19
395.903	76.19
396.127	74.19
396.352	82.19
396.576	86.19
396.801	79.19
397.025	79.19
397.249	87.19
397.474	99.19
397.698	92.19
397.922	73.19
398.147	66.19
398.371	74.19
398.595	82.19
398.82	68.19
399.044	71.19
399.268	70.19
399.492	82.19
399.717	90.19
399.941	82.19
400.165	78.19
400.389	85.19
400.613	86.19
400.837	79.19
401.062	80.19
401.286	60.19
401.51	84.19
401.734	93.19
401.958	84.19
402.182	117.19
402.406	155.19
402.63	113.19
402.854	96.19
403.078	83.19
403.302	82.19
403.526	73.19
403.75	90.19
403.974	82.19
404.198	62.19
404.422	94.19
404.645	84.19
404.869	84.19
405.093	95.19
405.317	94.19
405.541	87.19
405.765	105.19
405.988	117.19
406.212	154.19
406.436	208.19
406.66	147.19
406.883	90.19
407.107	93.19
407.331	88.19
407.555	87.19
407.778	101.19
408.002	95.19
408.226	89.19
408.449	97.19
408.673	78.19
408.896	89.19
409.12	83.19
409.344	98.19
409.567	90.19
409.791	77.19
410.014	93.19
410.238	89.19
410.461	90.19
410.685	96.19
410.908	100.19
411.132	99.19
411.355	86.19
411.578	94.19
411.802	89.19
412.025	88.19
412.249	79.19
412.472	89.19
412.695	100.19
412.919	76.19
413.142	79.19
413.365	81.19
413.589	84.19
413.812	60.19
414.035	87.19
414.258	83.19
414.482	97.19
414.705	82.19
414.928	84.19
415.151	84.19
415.374	108.19
415.597	86.19
415.821	84.19
416.044	90.19
416.267	90.19
416.49	104.19
416.713	80.19
416.936	82.19
417.159	75.19
417.382	80.19
417.605	93.19
417.828	95.19
418.051	89.19
418.274	68.19
418.497	98.19
418.72	83.19
418.943	78.19
419.166	82.19
419.389	73.19
419.611	92.19
419.834	82.19
420.057	80.19
420.28	74.19
420.503	85.19
420.726	82.19
420.948	78.19
421.171	91.19
421.394	102.19
421.617	94.19
421.839	78.19
422.062	95.19
422.285	98.19
422.507	90.19
422.73	114.19
422.953	92.19
423.175	82.19
423.398	82.19
423.621	92.19
423.843	74.19
424.066	76.19
424.288	90.19
424.511	95.19
424.733	84.19
424.956	89.19
425.178	97.19
425.401	83.19
425.623	94.19
425.846	89.19
426.068	81.19
426.291	79.19
426.513	79.19
426.735	85.19
426.958	87.19
427.18	97.19
427.402	135.19
427.625	157.19
427.847	130.19
428.069	91.19
428.292	84.19
428.514	68.19
428.736	74.19
428.958	74.19
429.181	77.19
429.403	81.19
429.625	82.19
429.847	89.19
430.069	81.19
430.292	83.19
430.514	93.19
430.736	84.19
430.958	76.19
431.18	87.19
431.402	82.19
431.624	72.19
431.846	77.19
432.068	78.19
432.29	83.19
432.512	104.19
432.734	87.19
432.956	82.19
433.178	90.19
433.4	73.19
433.622	83.19
433.844	91.19
434.066	91.19
434.287	70.19
434.509	84.19
434.731	87.19
434.953	72.19
435.175	85.19
435.397	91.19
435.618	83.19
435.84	112.19
436.062	126.19
436.284	113.19
436.505	88.19
436.727	95.19
436.949	98.19
437.17	76.19
437.392	87.19
437.614	86.19
437.835	105.19
438.057	113.19
438.278	91.19
438.5	99.19
438.721	98.19
438.943	105.19
439.165	83.19
439.386	79.19
439.608	85.19
439.829	95.19
440.05	101.19
440.272	127.19
440.493	82.19
440.715	76.19
440.936	83.19
441.158	95.19
441.379	72.19
441.6	90.19
441.822	86.19
442.043	86.19
442.264	90.19
442.486	97.19
442.707	90.19
442.928	107.19
443.149	119.19
443.371	133.19
443.592	102.19
443.813	94.19
444.034	98.19
444.255	86.19
444.476	94.19
444.698	82.19
444.919	89.19
445.14	116.19
445.361	104.19
445.582	105.19
445.803	140.19
446.024	113.19
446.245	120.19
446.466	96.19
446.687	90.19
446.908	85.19
447.129	79.19
447.35	84.19
447.571	90.19
447.792	76.19
448.013	95.19
448.234	104.19
448.455	90.19
448.675	98.19
448.896	92.19
449.117	92.19
449.338	106.19
449.559	119.19
449.779	113.19
450	103.19
450.221	82.19
450.442	82.19
450.662	86.19
450.883	97.19
451.104	104.19
451.324	91.19
451.545	97.19
451.766	67.19
451.986	73.19
452.207	84.19
452.428	90.19
452.648	90.19
452.869	113.19
453.089	123.19
453.31	114.19
453.53	86.19
453.751	99.19
453.971	94.19
454.192	111.19
454.412	91.19
454.633	83.19
454.853	83.19
455.073	71.19
455.294	67.19
455.514	87.19
455.734	99.19
455.955	86.19
456.175	89.19
456.395	69.19
456.616	84.19
456.836	87.19
457.056	91.19
457.276	86.19
457.497	84.19
457.717	85.19
457.937	76.19
458.157	91.19
458.377	77.19
458.598	96.19
458.818	119.19
459.038	151.19
459.258	130.19
459.478	89.19
459.698	80.19
459.918	86.19
460.138	94.19
460.358	84.19
460.578	94.19
460.798	82.19
461.018	75.19
461.238	92.19
461.458	74.19
461.678	87.19
461.898	82.19
462.118	74.19
462.338	70.19
462.558	88.19
462.777	84.19
462.997	82.19
463.217	75.19
463.437	94.19
463.657	95.19
463.876	89.19
464.096	76.19
464.316	90.19
464.536	92.19
464.755	81.19
464.975	99.19
465.195	155.19
465.414	153.19
465.634	79.19
465.854	88.19
466.073	86.19
466.293	82.19
466.512	94.19
466.732	94.19
466.951	76.19
467.171	95.19
467.391	88.19
467.61	97.19
467.829	84.19
468.049	85.19
468.268	104.19
468.488	77.19
468.707	84.19
468.927	81.19
469.146	90.19
469.365	78.19
469.585	70.19
469.804	93.19
470.023	102.19
470.243	94.19
470.462	103.19
470.681	109.19
470.901	88.19
471.12	78.19
471.339	82.19
471.558	87.19
471.777	78.19
471.997	87.19
472.216	116.19
472.435	137.19
472.654	95.19
472.873	86.19
473.092	73.19
473.311	75.19
473.53	60.19
473.749	83.19
473.968	86.19
474.187	94.19
474.406	84.19
474.625	77.19
474.844	92.19
475.063	80.19
475.282	89.19
475.501	66.19
475.72	89.19
475.939	64.19
476.158	81.19
476.377	75.19
476.596	70.19
476.814	95.19
477.033	84.19
477.252	92.19
477.471	86.19
477.69	84.19
477.908	84.19
478.127	92.19
478.346	91.19
478.564	90.19
478.783	89.19
479.002	64.19
479.22	91.19
479.439	101.19
479.658	99.19
479.876	95.19
480.095	95.19
480.313	86.19
480.532	100.19
480.751	87.19
480.969	124.19
481.188	196.19
481.406	153.19
481.624	84.19
481.843	90.19
482.061	77.19
482.28	86.19
482.498	75.19
482.717	71.19
482.935	73.19
483.153	81.19
483.372	87.19
483.59	85.19
483.808	84.19
484.027	94.19
484.245	92.19
484.463	89.19
484.681	87.19
484.9	79.19
485.118	81.19
485.336	93.19
485.554	96.19
485.772	90.19
485.99	94.19
486.209	101.19
486.427	88.19
486.645	99.19
486.863	87.19
487.081	107.19
487.299	83.19
487.517	91.19
487.735	83.19
487.953	93.19
488.171	95.19
488.389	82.19
488.607	97.19
488.825	101.19
489.043	84.19
489.261	85.19
489.479	82.19
489.696	83.19
489.914	80.19
490.132	82.19
490.35	73.19
490.568	83.19
490.786	69.19
491.003	64.19
491.221	82.19
491.439	84.19
491.657	76.19
491.874	86.19
492.092	87.19
492.31	77.19
492.527	102.19
492.745	82.19
492.963	92.19
493.18	82.19
493.398	91.19
493.615	78.19
493.833	87.19
494.05	82.19
494.268	72.19
494.485	82.19
494.703	83.19
494.92	84.19
495.138	81.19
495.355	82.19
495.573	90.19
495.79	91.19
496.008	101.19
496.225	79.19
496.442	71.19
496.66	83.19
496.877	98.19
497.094	81.19
497.312	89.19
497.529	91.19
497.746	75.19
497.963	83.19
498.181	86.19
498.398	78.19
498.615	98.19
498.832	91.19
499.049	80.19
499.267	90.19
499.484	87.19
499.701	87.19
499.918	84.19
500.135	87.19
500.352	95.19
500.569	95.19
500.786	88.19
501.003	86.19
501.22	83.19
501.437	87.19
501.654	73.19
501.871	99.19
502.088	98.19
502.305	90.19
502.522	85.19
502.739	101.19
502.956	87.19
503.172	74.19
503.389	89.19
503.606	95.19
503.823	93.19
504.04	83.19
504.256	80.19
504.473	64.19
504.69	81.19
504.907	90.19
505.123	96.19
505.34	78.19
505.557	96.19
505.773	86.19
505.99	85.19
506.207	88.19
506.423	91.19
506.64	91.19
506.856	71.19
507.073	80.19
507.289	68.19
507.506	89.19
507.722	91.19
507.939	107.19
508.155	108.19
508.372	111.19
508.588	101.19
508.805	89.19
509.021	90.19
509.238	87.19
509.454	85.19
509.67	73.19
509.887	103.19
510.103	116.19
510.319	205.19
510.536	714.19
510.752	2358.19
510.968	671.19
511.184	161.19
511.401	119.19
511.617	93.19
511.833	84.19
512.049	86.19
512.265	68.19
512.481	79.19
512.698	67.19
512.914	83.19
513.13	95.19
513.346	88.19
513.562	83.19
513.778	89.19
513.994	98.19
514.21	95.19
514.426	101.19
514.642	129.19
514.858	116.19
515.074	158.19
515.29	426.19
515.506	1378.19
515.721	523.19
515.937	151.19
516.153	96.19
516.369	88.19
516.585	91.19
516.801	106.19
517.016	98.19
517.232	87.19
517.448	93.19
