Data from Circ_2012_H10_HRD10591_00060.txt Node
Date: Wed Jan 03 10:06:02 EST 2024
User: Yrep
Spectrometer: HR+D1059
Trigger mode: 1
Integration Time (sec): 1.000000E-1
Scans to average: 1
Electric dark correction enabled: true
Nonlinearity correction enabled: false
Boxcar width: 0
XAxis mode: Wavelengths
Number of Pixels in Spectrum: 2048
>>>>>Begin Spectral Data<<<<<
223.165	-5.12
223.4	-5.12
223.635	-5.12
223.869	-26.12
224.104	-17.12
224.338	-3.12
224.573	-22.12
224.808	-25.12
225.042	-11.12
225.277	-4.12
225.511	-10.12
225.746	0.88
225.98	9.88
226.215	9.88
226.449	22.88
226.683	25.88
226.918	21.88
227.152	32.88
227.387	28.88
227.621	38.88
227.856	44.88
228.09	40.88
228.324	61.88
228.559	61.88
228.793	58.88
229.027	69.88
229.262	53.88
229.496	74.88
229.73	81.88
229.964	85.88
230.199	65.88
230.433	70.88
230.667	75.88
230.901	77.88
231.136	70.88
231.37	76.88
231.604	68.88
231.838	78.88
232.072	80.88
232.306	69.88
232.541	83.88
232.775	74.88
233.009	78.88
233.243	82.88
233.477	77.88
233.711	89.88
233.945	85.88
234.179	83.88
234.413	92.88
234.647	81.88
234.881	77.88
235.115	68.88
235.349	58.88
235.583	84.88
235.817	80.88
236.051	73.88
236.285	74.88
236.519	75.88
236.753	69.88
236.987	80.88
237.221	75.88
237.455	80.88
237.689	77.88
237.922	90.88
238.156	72.88
238.39	76.88
238.624	65.88
238.858	75.88
239.091	80.88
239.325	67.88
239.559	82.88
239.793	78.88
240.027	83.88
240.26	76.88
240.494	73.88
240.728	85.88
240.961	71.88
241.195	65.88
241.429	72.88
241.662	73.88
241.896	79.88
242.13	64.88
242.363	72.88
242.597	78.88
242.83	77.88
243.064	67.88
243.298	74.88
243.531	65.88
243.765	61.88
243.998	77.88
244.232	72.88
244.465	88.88
244.699	78.88
244.932	76.88
245.166	72.88
245.399	65.88
245.633	78.88
245.866	74.88
246.099	78.88
246.333	64.88
246.566	76.88
246.8	89.88
247.033	79.88
247.266	81.88
247.5	69.88
247.733	77.88
247.966	76.88
248.2	79.88
248.433	80.88
248.666	84.88
248.899	75.88
249.133	77.88
249.366	91.88
249.599	78.88
249.832	81.88
250.066	86.88
250.299	78.88
250.532	103.88
250.765	80.88
250.998	89.88
251.231	81.88
251.465	72.88
251.698	75.88
251.931	77.88
252.164	70.88
252.397	76.88
252.63	80.88
252.863	73.88
253.096	69.88
253.329	66.88
253.562	74.88
253.795	81.88
254.028	80.88
254.261	75.88
254.494	88.88
254.727	87.88
254.96	69.88
255.193	73.88
255.426	66.88
255.659	76.88
255.892	80.88
256.124	79.88
256.357	83.88
256.59	81.88
256.823	68.88
257.056	72.88
257.289	86.88
257.521	73.88
257.754	87.88
257.987	82.88
258.22	101.88
258.452	88.88
258.685	78.88
258.918	82.88
259.151	87.88
259.383	95.88
259.616	89.88
259.849	86.88
260.081	84.88
260.314	79.88
260.547	68.88
260.779	90.88
261.012	72.88
261.244	67.88
261.477	89.88
261.71	103.88
261.942	110.88
262.175	99.88
262.407	90.88
262.64	76.88
262.872	74.88
263.105	77.88
263.337	85.88
263.57	85.88
263.802	101.88
264.035	86.88
264.267	82.88
264.499	83.88
264.732	81.88
264.964	83.88
265.197	77.88
265.429	75.88
265.661	75.88
265.894	76.88
266.126	73.88
266.358	87.88
266.591	75.88
266.823	82.88
267.055	77.88
267.287	91.88
267.52	78.88
267.752	62.88
267.984	71.88
268.216	78.88
268.448	83.88
268.681	64.88
268.913	76.88
269.145	88.88
269.377	88.88
269.609	82.88
269.841	81.88
270.073	91.88
270.306	77.88
270.538	87.88
270.77	86.88
271.002	91.88
271.234	78.88
271.466	65.88
271.698	74.88
271.93	72.88
272.162	82.88
272.394	89.88
272.626	77.88
272.858	84.88
273.09	90.88
273.322	89.88
273.553	77.88
273.785	89.88
274.017	82.88
274.249	75.88
274.481	77.88
274.713	87.88
274.945	77.88
275.176	72.88
275.408	79.88
275.64	73.88
275.872	91.88
276.104	98.88
276.335	67.88
276.567	89.88
276.799	104.88
277.031	109.88
277.262	96.88
277.494	89.88
277.726	81.88
277.957	76.88
278.189	80.88
278.421	91.88
278.652	79.88
278.884	96.88
279.115	88.88
279.347	87.88
279.579	76.88
279.81	95.88
280.042	94.88
280.273	96.88
280.505	94.88
280.736	90.88
280.968	84.88
281.199	84.88
281.431	87.88
281.662	102.88
281.894	82.88
282.125	83.88
282.356	118.88
282.588	131.88
282.819	102.88
283.051	85.88
283.282	71.88
283.513	86.88
283.745	85.88
283.976	83.88
284.207	76.88
284.439	93.88
284.67	79.88
284.901	78.88
285.132	91.88
285.364	89.88
285.595	82.88
285.826	73.88
286.057	95.88
286.288	76.88
286.52	87.88
286.751	72.88
286.982	87.88
287.213	90.88
287.444	82.88
287.675	86.88
287.906	78.88
288.138	94.88
288.369	108.88
288.6	84.88
288.831	83.88
289.062	78.88
289.293	71.88
289.524	76.88
289.755	83.88
289.986	70.88
290.217	85.88
290.448	92.88
290.679	81.88
290.91	89.88
291.141	80.88
291.371	90.88
291.602	100.88
291.833	93.88
292.064	87.88
292.295	81.88
292.526	94.88
292.757	84.88
292.987	102.88
293.218	88.88
293.449	77.88
293.68	100.88
293.91	76.88
294.141	84.88
294.372	104.88
294.603	83.88
294.833	82.88
295.064	85.88
295.295	94.88
295.525	94.88
295.756	92.88
295.987	103.88
296.217	132.88
296.448	121.88
296.679	84.88
296.909	93.88
297.14	88.88
297.37	91.88
297.601	84.88
297.831	74.88
298.062	87.88
298.292	73.88
298.523	90.88
298.753	81.88
298.984	90.88
299.214	90.88
299.445	104.88
299.675	95.88
299.905	99.88
300.136	94.88
300.366	71.88
300.597	102.88
300.827	92.88
301.057	103.88
301.288	90.88
301.518	101.88
301.748	93.88
301.979	95.88
302.209	82.88
302.439	94.88
302.669	83.88
302.9	95.88
303.13	97.88
303.36	78.88
303.59	104.88
303.82	97.88
304.051	92.88
304.281	98.88
304.511	89.88
304.741	82.88
304.971	91.88
305.201	87.88
305.431	82.88
305.661	99.88
305.891	81.88
306.121	92.88
306.352	85.88
306.582	109.88
306.812	99.88
307.042	89.88
307.272	93.88
307.502	103.88
307.731	82.88
307.961	93.88
308.191	87.88
308.421	85.88
308.651	90.88
308.881	82.88
309.111	89.88
309.341	79.88
309.571	110.88
309.8	100.88
310.03	104.88
310.26	95.88
310.49	89.88
310.72	79.88
310.949	86.88
311.179	104.88
311.409	77.88
311.639	97.88
311.868	89.88
312.098	98.88
312.328	102.88
312.557	104.88
312.787	101.88
313.017	105.88
313.246	77.88
313.476	95.88
313.706	96.88
313.935	83.88
314.165	107.88
314.394	89.88
314.624	87.88
314.853	91.88
315.083	90.88
315.312	85.88
315.542	89.88
315.771	82.88
316.001	73.88
316.23	88.88
316.46	89.88
316.689	92.88
316.919	84.88
317.148	88.88
317.377	94.88
317.607	85.88
317.836	83.88
318.065	96.88
318.295	78.88
318.524	89.88
318.753	80.88
318.983	86.88
319.212	93.88
319.441	110.88
319.67	106.88
319.9	93.88
320.129	92.88
320.358	91.88
320.587	91.88
320.816	96.88
321.046	98.88
321.275	102.88
321.504	94.88
321.733	88.88
321.962	107.88
322.191	105.88
322.42	96.88
322.649	97.88
322.878	118.88
323.108	106.88
323.337	103.88
323.566	119.88
323.795	154.88
324.024	191.88
324.253	368.88
324.482	727.88
324.71	1538.88
324.939	2066.88
325.168	776.88
325.397	235.88
325.626	130.88
325.855	132.88
326.084	126.88
326.313	117.88
326.542	126.88
326.77	219.88
326.999	414.88
327.228	870.88
327.457	1607.88
327.686	1288.88
327.914	366.88
328.143	196.88
328.372	164.88
328.6	130.88
328.829	111.88
329.058	131.88
329.287	112.88
329.515	120.88
329.744	117.88
329.972	115.88
330.201	137.88
330.43	157.88
330.658	121.88
330.887	141.88
331.115	102.88
331.344	99.88
331.572	96.88
331.801	98.88
332.03	87.88
332.258	94.88
332.486	89.88
332.715	99.88
332.943	84.88
333.172	84.88
333.4	101.88
333.629	102.88
333.857	114.88
334.085	112.88
334.314	117.88
334.542	163.88
334.771	179.88
334.999	114.88
335.227	97.88
335.455	80.88
335.684	92.88
335.912	102.88
336.14	90.88
336.369	86.88
336.597	113.88
336.825	92.88
337.053	87.88
337.281	85.88
337.51	89.88
337.738	91.88
337.966	82.88
338.194	98.88
338.422	90.88
338.65	92.88
338.878	86.88
339.106	98.88
339.334	85.88
339.562	94.88
339.79	88.88
340.018	94.88
340.246	85.88
340.474	86.88
340.702	93.88
340.93	91.88
341.158	89.88
341.386	100.88
341.614	85.88
341.842	92.88
342.07	80.88
342.298	86.88
342.526	84.88
342.754	82.88
342.981	84.88
343.209	83.88
343.437	87.88
343.665	83.88
343.893	98.88
344.12	90.88
344.348	79.88
344.576	94.88
344.804	100.88
345.031	89.88
345.259	98.88
345.487	91.88
345.714	90.88
345.942	92.88
346.17	84.88
346.397	80.88
346.625	73.88
346.853	91.88
347.08	109.88
347.308	92.88
347.535	91.88
347.763	84.88
347.99	83.88
348.218	103.88
348.445	104.88
348.673	100.88
348.9	87.88
349.128	101.88
349.355	91.88
349.583	90.88
349.81	95.88
350.037	88.88
350.265	78.88
350.492	77.88
350.72	98.88
350.947	104.88
351.174	109.88
351.402	106.88
351.629	91.88
351.856	83.88
352.083	98.88
352.311	100.88
352.538	113.88
352.765	108.88
352.992	99.88
353.22	108.88
353.447	103.88
353.674	94.88
353.901	96.88
354.128	96.88
354.355	92.88
354.583	87.88
354.81	104.88
355.037	110.88
355.264	91.88
355.491	86.88
355.718	96.88
355.945	89.88
356.172	92.88
356.399	101.88
356.626	93.88
356.853	85.88
357.08	101.88
357.307	101.88
357.534	93.88
357.761	92.88
357.988	86.88
358.215	87.88
358.441	92.88
358.668	92.88
358.895	96.88
359.122	80.88
359.349	77.88
359.576	84.88
359.802	91.88
360.029	95.88
360.256	100.88
360.483	91.88
360.709	80.88
360.936	102.88
361.163	107.88
361.39	102.88
361.616	96.88
361.843	95.88
362.07	102.88
362.296	98.88
362.523	85.88
362.749	89.88
362.976	86.88
363.203	86.88
363.429	89.88
363.656	79.88
363.882	83.88
364.109	78.88
364.335	90.88
364.562	84.88
364.788	90.88
365.015	85.88
365.241	106.88
365.468	107.88
365.694	97.88
365.92	93.88
366.147	96.88
366.373	82.88
366.599	74.88
366.826	79.88
367.052	87.88
367.278	85.88
367.505	92.88
367.731	82.88
367.957	79.88
368.184	80.88
368.41	90.88
368.636	108.88
368.862	108.88
369.089	100.88
369.315	85.88
369.541	95.88
369.767	90.88
369.993	87.88
370.219	90.88
370.445	89.88
370.672	91.88
370.898	84.88
371.124	77.88
371.35	77.88
371.576	82.88
371.802	90.88
372.028	101.88
372.254	90.88
372.48	100.88
372.706	90.88
372.932	95.88
373.158	92.88
373.384	92.88
373.61	85.88
373.835	92.88
374.061	70.88
374.287	92.88
374.513	92.88
374.739	92.88
374.965	93.88
375.191	90.88
375.416	92.88
375.642	86.88
375.868	102.88
376.094	87.88
376.319	92.88
376.545	90.88
376.771	84.88
376.997	85.88
377.222	87.88
377.448	84.88
377.674	82.88
377.899	93.88
378.125	89.88
378.35	91.88
378.576	78.88
378.802	80.88
379.027	72.88
379.253	104.88
379.478	77.88
379.704	90.88
379.929	91.88
380.155	86.88
380.38	85.88
380.606	79.88
380.831	96.88
381.057	94.88
381.282	83.88
381.507	86.88
381.733	89.88
381.958	94.88
382.184	78.88
382.409	111.88
382.634	107.88
382.86	105.88
383.085	88.88
383.31	97.88
383.535	85.88
383.761	99.88
383.986	88.88
384.211	77.88
384.436	89.88
384.662	90.88
384.887	104.88
385.112	103.88
385.337	105.88
385.562	93.88
385.787	100.88
386.013	108.88
386.238	106.88
386.463	100.88
386.688	116.88
386.913	99.88
387.138	101.88
387.363	107.88
387.588	107.88
387.813	101.88
388.038	105.88
388.263	107.88
388.488	84.88
388.713	87.88
388.938	89.88
389.163	87.88
389.387	93.88
389.612	102.88
389.837	83.88
390.062	75.88
390.287	94.88
390.512	93.88
390.736	87.88
390.961	96.88
391.186	90.88
391.411	87.88
391.636	84.88
391.86	83.88
392.085	80.88
392.31	89.88
392.534	84.88
392.759	83.88
392.984	106.88
393.208	75.88
393.433	81.88
393.658	78.88
393.882	94.88
394.107	89.88
394.331	75.88
394.556	82.88
394.78	105.88
395.005	78.88
395.229	79.88
395.454	76.88
395.678	88.88
395.903	87.88
396.127	90.88
396.352	100.88
396.576	100.88
396.801	78.88
397.025	89.88
397.249	88.88
397.474	91.88
397.698	79.88
397.922	84.88
398.147	79.88
398.371	90.88
398.595	73.88
398.82	91.88
399.044	82.88
399.268	82.88
399.492	94.88
399.717	87.88
399.941	87.88
400.165	96.88
400.389	94.88
400.613	86.88
400.837	86.88
401.062	84.88
401.286	82.88
401.51	98.88
401.734	83.88
401.958	93.88
402.182	119.88
402.406	139.88
402.63	105.88
402.854	93.88
403.078	88.88
403.302	98.88
403.526	85.88
403.75	80.88
403.974	83.88
404.198	84.88
404.422	90.88
404.645	83.88
404.869	86.88
405.093	90.88
405.317	84.88
405.541	90.88
405.765	91.88
405.988	114.88
406.212	170.88
406.436	201.88
406.66	134.88
406.883	94.88
407.107	90.88
407.331	89.88
407.555	86.88
407.778	96.88
408.002	86.88
408.226	94.88
408.449	90.88
408.673	82.88
408.896	93.88
409.12	91.88
409.344	83.88
409.567	87.88
409.791	100.88
410.014	92.88
410.238	89.88
410.461	90.88
410.685	93.88
410.908	86.88
411.132	93.88
411.355	108.88
411.578	85.88
411.802	84.88
412.025	95.88
412.249	117.88
412.472	90.88
412.695	94.88
412.919	88.88
413.142	107.88
413.365	99.88
413.589	73.88
413.812	87.88
414.035	83.88
414.258	99.88
414.482	100.88
414.705	89.88
414.928	88.88
415.151	81.88
415.374	96.88
415.597	84.88
415.821	99.88
416.044	91.88
416.267	73.88
416.49	96.88
416.713	81.88
416.936	89.88
417.159	89.88
417.382	89.88
417.605	85.88
417.828	72.88
418.051	83.88
418.274	88.88
418.497	87.88
418.72	85.88
418.943	74.88
419.166	80.88
419.389	95.88
419.611	88.88
419.834	97.88
420.057	90.88
420.28	85.88
420.503	93.88
420.726	82.88
420.948	75.88
421.171	90.88
421.394	92.88
421.617	93.88
421.839	80.88
422.062	82.88
422.285	95.88
422.507	99.88
422.73	90.88
422.953	85.88
423.175	86.88
423.398	87.88
423.621	94.88
423.843	91.88
424.066	83.88
424.288	87.88
424.511	83.88
424.733	99.88
424.956	100.88
425.178	97.88
425.401	93.88
425.623	87.88
425.846	82.88
426.068	84.88
426.291	81.88
426.513	106.88
426.735	96.88
426.958	97.88
427.18	82.88
427.402	125.88
427.625	154.88
427.847	135.88
428.069	113.88
428.292	76.88
428.514	84.88
428.736	83.88
428.958	95.88
429.181	73.88
429.403	73.88
429.625	85.88
429.847	86.88
430.069	82.88
430.292	94.88
430.514	74.88
430.736	94.88
430.958	95.88
431.18	93.88
431.402	96.88
431.624	84.88
431.846	77.88
432.068	73.88
432.29	84.88
432.512	87.88
432.734	85.88
432.956	93.88
433.178	93.88
433.4	95.88
433.622	82.88
433.844	84.88
434.066	68.88
434.287	72.88
434.509	87.88
434.731	77.88
434.953	72.88
435.175	84.88
435.397	92.88
435.618	99.88
435.84	107.88
436.062	122.88
436.284	114.88
436.505	97.88
436.727	87.88
436.949	101.88
437.17	84.88
437.392	82.88
437.614	86.88
437.835	104.88
438.057	103.88
438.278	106.88
438.5	97.88
438.721	125.88
438.943	114.88
439.165	92.88
439.386	86.88
439.608	78.88
439.829	98.88
440.05	107.88
440.272	126.88
440.493	96.88
440.715	84.88
440.936	82.88
441.158	80.88
441.379	64.88
441.6	91.88
441.822	84.88
442.043	102.88
442.264	99.88
442.486	97.88
442.707	91.88
442.928	110.88
443.149	128.88
443.371	120.88
443.592	112.88
443.813	100.88
444.034	85.88
444.255	87.88
444.476	99.88
444.698	86.88
444.919	85.88
445.14	121.88
445.361	106.88
445.582	113.88
445.803	130.88
446.024	136.88
446.245	121.88
446.466	111.88
446.687	83.88
446.908	92.88
447.129	91.88
447.35	86.88
447.571	73.88
447.792	74.88
448.013	92.88
448.234	90.88
448.455	105.88
448.675	107.88
448.896	117.88
449.117	99.88
449.338	105.88
449.559	120.88
449.779	123.88
450	91.88
450.221	91.88
450.442	90.88
450.662	100.88
450.883	91.88
451.104	114.88
451.324	88.88
451.545	88.88
451.766	86.88
451.986	89.88
452.207	77.88
452.428	87.88
452.648	93.88
452.869	116.88
453.089	107.88
453.31	114.88
453.53	85.88
453.751	86.88
453.971	100.88
454.192	109.88
454.412	101.88
454.633	99.88
454.853	86.88
455.073	78.88
455.294	84.88
455.514	101.88
455.734	80.88
455.955	103.88
456.175	77.88
456.395	81.88
456.616	76.88
456.836	97.88
457.056	68.88
457.276	78.88
457.497	82.88
457.717	88.88
457.937	94.88
458.157	86.88
458.377	87.88
458.598	97.88
458.818	149.88
459.038	149.88
459.258	107.88
459.478	94.88
459.698	83.88
459.918	82.88
460.138	81.88
460.358	86.88
460.578	81.88
460.798	88.88
461.018	80.88
461.238	85.88
461.458	79.88
461.678	84.88
461.898	93.88
462.118	95.88
462.338	94.88
462.558	83.88
462.777	75.88
462.997	74.88
463.217	91.88
463.437	100.88
463.657	106.88
463.876	76.88
464.096	87.88
464.316	96.88
464.536	104.88
464.755	99.88
464.975	109.88
465.195	157.88
465.414	154.88
465.634	78.88
465.854	79.88
466.073	94.88
466.293	80.88
466.512	78.88
466.732	83.88
466.951	93.88
467.171	95.88
467.391	96.88
467.61	98.88
467.829	94.88
468.049	104.88
468.268	117.88
468.488	98.88
468.707	92.88
468.927	81.88
469.146	69.88
469.365	93.88
469.585	104.88
469.804	106.88
470.023	103.88
470.243	86.88
470.462	80.88
470.681	88.88
470.901	89.88
471.12	77.88
471.339	97.88
471.558	101.88
471.777	102.88
471.997	100.88
472.216	129.88
472.435	210.88
472.654	99.88
472.873	75.88
473.092	86.88
473.311	90.88
473.53	93.88
473.749	70.88
473.968	102.88
474.187	92.88
474.406	87.88
474.625	87.88
474.844	92.88
475.063	77.88
475.282	81.88
475.501	84.88
475.72	81.88
475.939	84.88
476.158	72.88
476.377	77.88
476.596	85.88
476.814	60.88
477.033	86.88
477.252	82.88
477.471	103.88
477.69	84.88
477.908	83.88
478.127	84.88
478.346	74.88
478.564	90.88
478.783	80.88
479.002	93.88
479.22	102.88
479.439	85.88
479.658	100.88
479.876	90.88
480.095	86.88
480.313	90.88
480.532	92.88
480.751	97.88
480.969	121.88
481.188	290.88
481.406	197.88
481.624	112.88
481.843	106.88
482.061	92.88
482.28	84.88
482.498	93.88
482.717	81.88
482.935	72.88
483.153	80.88
483.372	85.88
483.59	95.88
483.808	83.88
484.027	72.88
484.245	84.88
484.463	89.88
484.681	85.88
484.9	97.88
485.118	99.88
485.336	78.88
485.554	89.88
485.772	96.88
485.99	105.88
486.209	112.88
486.427	103.88
486.645	100.88
486.863	117.88
487.081	94.88
487.299	107.88
487.517	103.88
487.735	89.88
487.953	85.88
488.171	108.88
488.389	92.88
488.607	84.88
488.825	81.88
489.043	89.88
489.261	80.88
489.479	82.88
489.696	105.88
489.914	93.88
490.132	72.88
490.35	84.88
490.568	85.88
490.786	88.88
491.003	84.88
491.221	87.88
491.439	66.88
491.657	92.88
491.874	90.88
492.092	85.88
492.31	94.88
492.527	80.88
492.745	79.88
492.963	85.88
493.18	83.88
493.398	87.88
493.615	101.88
493.833	78.88
494.05	90.88
494.268	83.88
494.485	83.88
494.703	67.88
494.92	94.88
495.138	81.88
495.355	84.88
495.573	91.88
495.79	86.88
496.008	91.88
496.225	75.88
496.442	84.88
496.66	99.88
496.877	79.88
497.094	107.88
497.312	91.88
497.529	75.88
497.746	81.88
497.963	90.88
498.181	103.88
498.398	102.88
498.615	80.88
498.832	101.88
499.049	90.88
499.267	82.88
499.484	83.88
499.701	96.88
499.918	83.88
500.135	77.88
500.352	82.88
500.569	77.88
500.786	80.88
501.003	75.88
501.22	84.88
501.437	81.88
501.654	88.88
501.871	103.88
502.088	88.88
502.305	84.88
502.522	83.88
502.739	97.88
502.956	83.88
503.172	89.88
503.389	91.88
503.606	85.88
503.823	106.88
504.04	93.88
504.256	83.88
504.473	99.88
504.69	71.88
504.907	76.88
505.123	87.88
505.34	93.88
505.557	96.88
505.773	77.88
505.99	84.88
506.207	85.88
506.423	85.88
506.64	98.88
506.856	89.88
507.073	86.88
507.289	89.88
507.506	95.88
507.722	97.88
507.939	88.88
508.155	76.88
508.372	105.88
508.588	103.88
508.805	86.88
509.021	87.88
509.238	98.88
509.454	85.88
509.67	98.88
509.887	117.88
510.103	124.88
510.319	205.88
510.536	698.88
510.752	2345.88
510.968	665.88
511.184	155.88
511.401	104.88
511.617	102.88
511.833	91.88
512.049	87.88
512.265	91.88
512.481	91.88
512.698	87.88
512.914	96.88
513.13	73.88
513.346	86.88
513.562	91.88
513.778	96.88
513.994	86.88
514.21	82.88
514.426	112.88
514.642	109.88
514.858	100.88
515.074	144.88
515.29	396.88
515.506	1408.88
515.721	546.88
515.937	134.88
516.153	105.88
516.369	97.88
