Data from Circ_2012_H10_HRD10591_00040.txt Node
Date: Wed Jan 03 10:05:58 EST 2024
User: Yrep
Spectrometer: HR+D1059
Trigger mode: 1
Integration Time (sec): 1.000000E-1
Scans to average: 1
Electric dark correction enabled: true
Nonlinearity correction enabled: false
Boxcar width: 0
XAxis mode: Wavelengths
Number of Pixels in Spectrum: 2048
>>>>>Begin Spectral Data<<<<<
223.165	-0.94
223.4	-0.94
223.635	-0.94
223.869	-25.94
224.104	-14.94
224.338	-9.94
224.573	-14.94
224.808	-11.94
225.042	-5.94
225.277	-1.94
225.511	-8.94
225.746	-2.94
225.98	19.06
226.215	7.06
226.449	21.06
226.683	5.06
226.918	13.06
227.152	33.06
227.387	31.06
227.621	44.06
227.856	54.06
228.09	41.06
228.324	37.06
228.559	57.06
228.793	58.06
229.027	67.06
229.262	57.06
229.496	57.06
229.73	75.06
229.964	75.06
230.199	72.06
230.433	73.06
230.667	71.06
230.901	73.06
231.136	70.06
231.37	69.06
231.604	79.06
231.838	73.06
232.072	76.06
232.306	83.06
232.541	94.06
232.775	80.06
233.009	72.06
233.243	76.06
233.477	69.06
233.711	86.06
233.945	65.06
234.179	70.06
234.413	74.06
234.647	78.06
234.881	80.06
235.115	65.06
235.349	67.06
235.583	85.06
235.817	74.06
236.051	73.06
236.285	79.06
236.519	75.06
236.753	72.06
236.987	83.06
237.221	76.06
237.455	77.06
237.689	77.06
237.922	89.06
238.156	78.06
238.39	75.06
238.624	72.06
238.858	75.06
239.091	66.06
239.325	70.06
239.559	74.06
239.793	74.06
240.027	77.06
240.26	79.06
240.494	72.06
240.728	77.06
240.961	55.06
241.195	81.06
241.429	74.06
241.662	69.06
241.896	77.06
242.13	75.06
242.363	69.06
242.597	79.06
242.83	67.06
243.064	80.06
243.298	87.06
243.531	69.06
243.765	76.06
243.998	77.06
244.232	79.06
244.465	71.06
244.699	92.06
244.932	78.06
245.166	81.06
245.399	58.06
245.633	78.06
245.866	90.06
246.099	90.06
246.333	79.06
246.566	86.06
246.8	75.06
247.033	75.06
247.266	78.06
247.5	79.06
247.733	64.06
247.966	88.06
248.2	82.06
248.433	91.06
248.666	81.06
248.899	84.06
249.133	80.06
249.366	92.06
249.599	80.06
249.832	56.06
250.066	79.06
250.299	78.06
250.532	75.06
250.765	85.06
250.998	88.06
251.231	63.06
251.465	67.06
251.698	88.06
251.931	86.06
252.164	74.06
252.397	76.06
252.63	86.06
252.863	85.06
253.096	71.06
253.329	63.06
253.562	75.06
253.795	68.06
254.028	77.06
254.261	74.06
254.494	86.06
254.727	89.06
254.96	74.06
255.193	76.06
255.426	82.06
255.659	87.06
255.892	84.06
256.124	77.06
256.357	65.06
256.59	81.06
256.823	83.06
257.056	86.06
257.289	90.06
257.521	78.06
257.754	86.06
257.987	87.06
258.22	67.06
258.452	89.06
258.685	83.06
258.918	66.06
259.151	79.06
259.383	64.06
259.616	82.06
259.849	81.06
260.081	84.06
260.314	88.06
260.547	84.06
260.779	86.06
261.012	98.06
261.244	83.06
261.477	77.06
261.71	102.06
261.942	125.06
262.175	97.06
262.407	83.06
262.64	82.06
262.872	89.06
263.105	82.06
263.337	91.06
263.57	77.06
263.802	79.06
264.035	69.06
264.267	89.06
264.499	78.06
264.732	81.06
264.964	82.06
265.197	71.06
265.429	90.06
265.661	89.06
265.894	72.06
266.126	86.06
266.358	71.06
266.591	90.06
266.823	83.06
267.055	71.06
267.287	75.06
267.52	81.06
267.752	82.06
267.984	75.06
268.216	80.06
268.448	92.06
268.681	93.06
268.913	86.06
269.145	89.06
269.377	94.06
269.609	79.06
269.841	86.06
270.073	82.06
270.306	93.06
270.538	88.06
270.77	82.06
271.002	91.06
271.234	90.06
271.466	81.06
271.698	90.06
271.93	79.06
272.162	77.06
272.394	72.06
272.626	74.06
272.858	78.06
273.09	87.06
273.322	91.06
273.553	77.06
273.785	88.06
274.017	85.06
274.249	88.06
274.481	58.06
274.713	90.06
274.945	73.06
275.176	75.06
275.408	85.06
275.64	96.06
275.872	88.06
276.104	88.06
276.335	90.06
276.567	91.06
276.799	95.06
277.031	84.06
277.262	88.06
277.494	78.06
277.726	78.06
277.957	74.06
278.189	96.06
278.421	77.06
278.652	76.06
278.884	76.06
279.115	92.06
279.347	93.06
279.579	73.06
279.81	85.06
280.042	91.06
280.273	81.06
280.505	91.06
280.736	84.06
280.968	86.06
281.199	89.06
281.431	74.06
281.662	102.06
281.894	92.06
282.125	96.06
282.356	104.06
282.588	109.06
282.819	119.06
283.051	86.06
283.282	90.06
283.513	86.06
283.745	79.06
283.976	87.06
284.207	84.06
284.439	99.06
284.67	90.06
284.901	95.06
285.132	87.06
285.364	80.06
285.595	73.06
285.826	71.06
286.057	85.06
286.288	97.06
286.52	81.06
286.751	73.06
286.982	95.06
287.213	78.06
287.444	87.06
287.675	84.06
287.906	91.06
288.138	86.06
288.369	77.06
288.6	83.06
288.831	93.06
289.062	88.06
289.293	81.06
289.524	79.06
289.755	81.06
289.986	82.06
290.217	82.06
290.448	83.06
290.679	78.06
290.91	79.06
291.141	77.06
291.371	78.06
291.602	87.06
291.833	91.06
292.064	88.06
292.295	85.06
292.526	87.06
292.757	94.06
292.987	91.06
293.218	79.06
293.449	79.06
293.68	93.06
293.91	80.06
294.141	87.06
294.372	99.06
294.603	83.06
294.833	86.06
295.064	84.06
295.295	89.06
295.525	97.06
295.756	88.06
295.987	106.06
296.217	134.06
296.448	115.06
296.679	107.06
296.909	83.06
297.14	101.06
297.37	75.06
297.601	89.06
297.831	93.06
298.062	84.06
298.292	91.06
298.523	101.06
298.753	84.06
298.984	114.06
299.214	91.06
299.445	78.06
299.675	90.06
299.905	91.06
300.136	94.06
300.366	85.06
300.597	84.06
300.827	89.06
301.057	102.06
301.288	94.06
301.518	101.06
301.748	88.06
301.979	103.06
302.209	77.06
302.439	85.06
302.669	92.06
302.9	82.06
303.13	100.06
303.36	97.06
303.59	103.06
303.82	103.06
304.051	107.06
304.281	76.06
304.511	83.06
304.741	99.06
304.971	92.06
305.201	85.06
305.431	105.06
305.661	98.06
305.891	86.06
306.121	91.06
306.352	93.06
306.582	90.06
306.812	101.06
307.042	101.06
307.272	94.06
307.502	97.06
307.731	94.06
307.961	100.06
308.191	85.06
308.421	92.06
308.651	98.06
308.881	100.06
309.111	85.06
309.341	98.06
309.571	92.06
309.8	84.06
310.03	93.06
310.26	95.06
310.49	108.06
310.72	97.06
310.949	106.06
311.179	105.06
311.409	78.06
311.639	94.06
311.868	87.06
312.098	95.06
312.328	91.06
312.557	103.06
312.787	100.06
313.017	96.06
313.246	75.06
313.476	85.06
313.706	84.06
313.935	84.06
314.165	94.06
314.394	103.06
314.624	99.06
314.853	104.06
315.083	102.06
315.312	101.06
315.542	77.06
315.771	101.06
316.001	87.06
316.23	88.06
316.46	89.06
316.689	84.06
316.919	70.06
317.148	92.06
317.377	103.06
317.607	95.06
317.836	104.06
318.065	98.06
318.295	92.06
318.524	83.06
318.753	82.06
318.983	99.06
319.212	90.06
319.441	107.06
319.67	111.06
319.9	102.06
320.129	86.06
320.358	82.06
320.587	92.06
320.816	104.06
321.046	98.06
321.275	108.06
321.504	99.06
321.733	108.06
321.962	100.06
322.191	109.06
322.42	92.06
322.649	106.06
322.878	104.06
323.108	123.06
323.337	136.06
323.566	127.06
323.795	149.06
324.024	202.06
324.253	381.06
324.482	827.06
324.71	1615.06
324.939	2123.06
325.168	804.06
325.397	231.06
325.626	139.06
325.855	121.06
326.084	115.06
326.313	130.06
326.542	163.06
326.77	249.06
326.999	446.06
327.228	908.06
327.457	1637.06
327.686	1295.06
327.914	360.06
328.143	190.06
328.372	160.06
328.6	117.06
328.829	104.06
329.058	132.06
329.287	121.06
329.515	110.06
329.744	93.06
329.972	108.06
330.201	107.06
330.43	125.06
330.658	132.06
330.887	133.06
331.115	113.06
331.344	103.06
331.572	103.06
331.801	101.06
332.03	101.06
332.258	89.06
332.486	96.06
332.715	88.06
332.943	88.06
333.172	96.06
333.4	73.06
333.629	99.06
333.857	106.06
334.085	109.06
334.314	116.06
334.542	130.06
334.771	136.06
334.999	95.06
335.227	98.06
335.455	104.06
335.684	94.06
335.912	98.06
336.14	99.06
336.369	104.06
336.597	105.06
336.825	107.06
337.053	104.06
337.281	101.06
337.51	98.06
337.738	90.06
337.966	102.06
338.194	82.06
338.422	104.06
338.65	69.06
338.878	77.06
339.106	88.06
339.334	70.06
339.562	87.06
339.79	88.06
340.018	87.06
340.246	91.06
340.474	92.06
340.702	92.06
340.93	87.06
341.158	91.06
341.386	96.06
341.614	97.06
341.842	87.06
342.07	92.06
342.298	80.06
342.526	79.06
342.754	76.06
342.981	94.06
343.209	88.06
343.437	87.06
343.665	81.06
343.893	104.06
344.12	103.06
344.348	90.06
344.576	96.06
344.804	84.06
345.031	101.06
345.259	93.06
345.487	82.06
345.714	79.06
345.942	99.06
346.17	79.06
346.397	101.06
346.625	98.06
346.853	98.06
347.08	94.06
347.308	102.06
347.535	99.06
347.763	102.06
347.99	101.06
348.218	113.06
348.445	101.06
348.673	93.06
348.9	90.06
349.128	95.06
349.355	97.06
349.583	102.06
349.81	97.06
350.037	88.06
350.265	93.06
350.492	96.06
350.72	84.06
350.947	97.06
351.174	111.06
351.402	107.06
351.629	106.06
351.856	102.06
352.083	99.06
352.311	106.06
352.538	106.06
352.765	98.06
352.992	108.06
353.22	113.06
353.447	115.06
353.674	106.06
353.901	96.06
354.128	98.06
354.355	92.06
354.583	85.06
354.81	82.06
355.037	92.06
355.264	103.06
355.491	78.06
355.718	93.06
355.945	90.06
356.172	86.06
356.399	100.06
356.626	89.06
356.853	93.06
357.08	104.06
357.307	105.06
357.534	93.06
357.761	106.06
357.988	91.06
358.215	86.06
358.441	108.06
358.668	102.06
358.895	98.06
359.122	105.06
359.349	99.06
359.576	88.06
359.802	90.06
360.029	103.06
360.256	94.06
360.483	93.06
360.709	89.06
360.936	95.06
361.163	94.06
361.39	97.06
361.616	78.06
361.843	93.06
362.07	90.06
362.296	93.06
362.523	91.06
362.749	92.06
362.976	94.06
363.203	91.06
363.429	90.06
363.656	80.06
363.882	84.06
364.109	95.06
364.335	88.06
364.562	88.06
364.788	82.06
365.015	85.06
365.241	96.06
365.468	100.06
365.694	95.06
365.92	106.06
366.147	96.06
366.373	92.06
366.599	84.06
366.826	87.06
367.052	99.06
367.278	80.06
367.505	77.06
367.731	93.06
367.957	90.06
368.184	104.06
368.41	102.06
368.636	107.06
368.862	125.06
369.089	110.06
369.315	94.06
369.541	97.06
369.767	88.06
369.993	104.06
370.219	81.06
370.445	92.06
370.672	94.06
370.898	90.06
371.124	97.06
371.35	97.06
371.576	80.06
371.802	92.06
372.028	86.06
372.254	102.06
372.48	87.06
372.706	102.06
372.932	81.06
373.158	86.06
373.384	87.06
373.61	81.06
373.835	94.06
374.061	88.06
374.287	93.06
374.513	85.06
374.739	98.06
374.965	84.06
375.191	91.06
375.416	89.06
375.642	94.06
375.868	87.06
376.094	93.06
376.319	82.06
376.545	92.06
376.771	96.06
376.997	102.06
377.222	94.06
377.448	85.06
377.674	81.06
377.899	97.06
378.125	118.06
378.35	99.06
378.576	110.06
378.802	111.06
379.027	85.06
379.253	85.06
379.478	99.06
379.704	94.06
379.929	101.06
380.155	106.06
380.38	82.06
380.606	102.06
380.831	96.06
381.057	83.06
381.282	97.06
381.507	94.06
381.733	109.06
381.958	102.06
382.184	108.06
382.409	94.06
382.634	105.06
382.86	117.06
383.085	101.06
383.31	105.06
383.535	107.06
383.761	85.06
383.986	106.06
384.211	92.06
384.436	104.06
384.662	100.06
384.887	94.06
385.112	98.06
385.337	101.06
385.562	109.06
385.787	106.06
386.013	106.06
386.238	108.06
386.463	95.06
386.688	93.06
386.913	100.06
387.138	106.06
387.363	90.06
387.588	108.06
387.813	102.06
388.038	121.06
388.263	120.06
388.488	116.06
388.713	91.06
388.938	99.06
389.163	104.06
389.387	100.06
389.612	91.06
389.837	94.06
390.062	101.06
390.287	79.06
390.512	86.06
390.736	77.06
390.961	104.06
391.186	98.06
391.411	101.06
391.636	87.06
391.86	89.06
392.085	83.06
392.31	87.06
392.534	93.06
392.759	99.06
392.984	85.06
393.208	89.06
393.433	94.06
393.658	74.06
393.882	82.06
394.107	86.06
394.331	94.06
394.556	98.06
394.78	99.06
395.005	86.06
395.229	92.06
395.454	84.06
395.678	102.06
395.903	81.06
396.127	88.06
396.352	87.06
396.576	93.06
396.801	77.06
397.025	76.06
397.249	85.06
397.474	89.06
397.698	89.06
397.922	87.06
398.147	92.06
398.371	83.06
398.595	77.06
398.82	81.06
399.044	92.06
399.268	92.06
399.492	90.06
399.717	76.06
399.941	91.06
400.165	78.06
400.389	94.06
400.613	94.06
400.837	83.06
401.062	99.06
401.286	93.06
401.51	94.06
401.734	90.06
401.958	108.06
402.182	131.06
402.406	147.06
402.63	110.06
402.854	99.06
403.078	81.06
403.302	87.06
403.526	91.06
403.75	92.06
403.974	86.06
404.198	79.06
404.422	76.06
404.645	92.06
404.869	92.06
405.093	102.06
405.317	111.06
405.541	96.06
405.765	93.06
405.988	101.06
406.212	158.06
406.436	202.06
406.66	148.06
406.883	90.06
407.107	89.06
407.331	93.06
407.555	94.06
407.778	88.06
408.002	79.06
408.226	90.06
408.449	92.06
408.673	84.06
408.896	92.06
409.12	89.06
409.344	81.06
409.567	104.06
409.791	87.06
410.014	97.06
410.238	86.06
410.461	109.06
410.685	94.06
410.908	86.06
411.132	106.06
411.355	98.06
411.578	91.06
411.802	94.06
412.025	84.06
412.249	90.06
412.472	89.06
412.695	103.06
412.919	77.06
413.142	93.06
413.365	93.06
413.589	112.06
413.812	75.06
414.035	78.06
414.258	91.06
414.482	81.06
414.705	78.06
414.928	96.06
415.151	91.06
415.374	92.06
415.597	83.06
415.821	86.06
416.044	73.06
416.267	88.06
416.49	101.06
416.713	78.06
416.936	85.06
417.159	73.06
417.382	84.06
417.605	85.06
417.828	83.06
418.051	93.06
418.274	84.06
418.497	90.06
418.72	86.06
418.943	86.06
419.166	79.06
419.389	92.06
419.611	75.06
419.834	87.06
420.057	93.06
420.28	87.06
420.503	87.06
420.726	85.06
420.948	87.06
421.171	79.06
421.394	83.06
421.617	90.06
421.839	108.06
422.062	93.06
422.285	92.06
422.507	78.06
422.73	77.06
422.953	102.06
423.175	92.06
423.398	86.06
423.621	87.06
423.843	87.06
424.066	91.06
424.288	97.06
424.511	76.06
424.733	95.06
424.956	105.06
425.178	106.06
425.401	103.06
425.623	102.06
425.846	90.06
426.068	81.06
426.291	74.06
426.513	86.06
426.735	101.06
426.958	94.06
427.18	107.06
427.402	126.06
427.625	169.06
427.847	123.06
428.069	111.06
428.292	91.06
428.514	71.06
428.736	84.06
428.958	95.06
429.181	86.06
429.403	77.06
429.625	85.06
429.847	91.06
430.069	98.06
430.292	102.06
430.514	83.06
430.736	81.06
430.958	92.06
431.18	95.06
431.402	84.06
431.624	84.06
431.846	80.06
432.068	98.06
432.29	104.06
432.512	95.06
432.734	88.06
432.956	87.06
433.178	86.06
433.4	89.06
433.622	89.06
433.844	88.06
434.066	92.06
434.287	84.06
434.509	84.06
434.731	93.06
434.953	100.06
435.175	94.06
435.397	85.06
435.618	103.06
435.84	93.06
436.062	128.06
436.284	109.06
436.505	93.06
436.727	108.06
436.949	95.06
437.17	82.06
437.392	94.06
437.614	88.06
437.835	110.06
438.057	106.06
438.278	110.06
438.5	109.06
438.721	131.06
438.943	111.06
439.165	85.06
439.386	70.06
439.608	76.06
439.829	101.06
440.05	125.06
440.272	145.06
440.493	98.06
440.715	84.06
440.936	92.06
441.158	87.06
441.379	90.06
441.6	96.06
441.822	96.06
442.043	102.06
442.264	92.06
442.486	110.06
442.707	90.06
442.928	97.06
443.149	103.06
443.371	135.06
443.592	108.06
443.813	102.06
444.034	112.06
444.255	89.06
444.476	78.06
444.698	91.06
444.919	96.06
445.14	122.06
445.361	125.06
445.582	111.06
445.803	135.06
446.024	141.06
446.245	115.06
446.466	107.06
446.687	89.06
446.908	91.06
447.129	90.06
447.35	75.06
447.571	83.06
447.792	84.06
448.013	96.06
448.234	96.06
448.455	110.06
448.675	119.06
448.896	106.06
449.117	103.06
449.338	99.06
449.559	137.06
449.779	140.06
450	83.06
450.221	82.06
450.442	95.06
450.662	94.06
450.883	100.06
451.104	108.06
451.324	84.06
451.545	84.06
451.766	93.06
451.986	96.06
452.207	80.06
452.428	87.06
452.648	97.06
452.869	106.06
453.089	110.06
453.31	97.06
453.53	86.06
453.751	99.06
453.971	108.06
454.192	103.06
454.412	96.06
454.633	88.06
454.853	104.06
455.073	97.06
455.294	94.06
455.514	94.06
455.734	91.06
455.955	74.06
456.175	79.06
456.395	94.06
456.616	77.06
456.836	84.06
457.056	82.06
457.276	72.06
457.497	97.06
457.717	97.06
457.937	78.06
458.157	83.06
458.377	88.06
458.598	124.06
458.818	145.06
459.038	137.06
459.258	108.06
459.478	87.06
459.698	100.06
459.918	80.06
460.138	88.06
460.358	85.06
460.578	90.06
460.798	86.06
461.018	98.06
461.238	92.06
461.458	89.06
461.678	86.06
461.898	79.06
462.118	89.06
462.338	79.06
462.558	81.06
462.777	106.06
462.997	90.06
463.217	90.06
463.437	106.06
463.657	97.06
463.876	90.06
464.096	97.06
464.316	102.06
464.536	93.06
464.755	90.06
464.975	107.06
465.195	148.06
465.414	166.06
465.634	109.06
465.854	87.06
466.073	85.06
466.293	89.06
466.512	79.06
466.732	82.06
466.951	88.06
467.171	100.06
467.391	87.06
467.61	94.06
467.829	100.06
468.049	117.06
468.268	102.06
468.488	96.06
468.707	84.06
468.927	90.06
469.146	85.06
469.365	87.06
469.585	90.06
469.804	91.06
470.023	102.06
470.243	95.06
470.462	99.06
470.681	113.06
470.901	100.06
471.12	83.06
471.339	86.06
471.558	89.06
471.777	97.06
471.997	99.06
472.216	115.06
472.435	147.06
472.654	99.06
472.873	83.06
473.092	86.06
473.311	75.06
473.53	87.06
473.749	83.06
473.968	97.06
474.187	90.06
474.406	85.06
474.625	85.06
474.844	83.06
475.063	88.06
475.282	73.06
475.501	89.06
475.72	96.06
475.939	92.06
476.158	77.06
476.377	87.06
476.596	79.06
476.814	84.06
477.033	78.06
477.252	100.06
477.471	85.06
477.69	95.06
477.908	82.06
478.127	88.06
478.346	100.06
478.564	86.06
478.783	86.06
479.002	100.06
479.22	104.06
479.439	96.06
479.658	94.06
479.876	87.06
480.095	90.06
480.313	103.06
480.532	92.06
480.751	101.06
480.969	119.06
481.188	222.06
481.406	184.06
481.624	95.06
481.843	96.06
482.061	89.06
482.28	92.06
482.498	101.06
482.717	87.06
482.935	77.06
483.153	87.06
483.372	91.06
483.59	81.06
483.808	94.06
484.027	85.06
484.245	100.06
484.463	90.06
484.681	103.06
484.9	89.06
485.118	103.06
485.336	88.06
485.554	86.06
485.772	103.06
485.99	91.06
486.209	105.06
486.427	102.06
486.645	112.06
486.863	111.06
487.081	117.06
487.299	80.06
487.517	93.06
487.735	98.06
487.953	94.06
488.171	98.06
488.389	92.06
488.607	97.06
488.825	94.06
489.043	84.06
489.261	84.06
489.479	78.06
489.696	96.06
489.914	87.06
490.132	86.06
490.35	101.06
490.568	91.06
490.786	93.06
491.003	99.06
491.221	93.06
491.439	90.06
491.657	92.06
491.874	103.06
492.092	92.06
492.31	89.06
492.527	79.06
492.745	72.06
492.963	85.06
493.18	104.06
493.398	111.06
493.615	77.06
493.833	78.06
494.05	90.06
494.268	91.06
494.485	99.06
494.703	85.06
494.92	81.06
495.138	84.06
495.355	83.06
495.573	92.06
495.79	95.06
496.008	103.06
496.225	103.06
496.442	98.06
496.66	90.06
496.877	84.06
497.094	95.06
497.312	80.06
497.529	89.06
497.746	91.06
497.963	90.06
498.181	92.06
498.398	78.06
498.615	98.06
498.832	93.06
499.049	95.06
499.267	88.06
499.484	93.06
499.701	87.06
499.918	106.06
500.135	81.06
500.352	96.06
500.569	84.06
500.786	93.06
501.003	93.06
501.22	91.06
501.437	84.06
501.654	74.06
501.871	113.06
502.088	85.06
502.305	97.06
502.522	90.06
502.739	76.06
502.956	89.06
503.172	101.06
503.389	86.06
503.606	97.06
503.823	98.06
504.04	91.06
504.256	81.06
504.473	93.06
504.69	84.06
504.907	84.06
505.123	86.06
505.34	77.06
505.557	98.06
505.773	85.06
505.99	88.06
506.207	100.06
506.423	92.06
506.64	96.06
506.856	80.06
507.073	80.06
507.289	101.06
507.506	92.06
507.722	99.06
507.939	117.06
508.155	87.06
508.372	75.06
508.588	105.06
508.805	107.06
509.021	96.06
509.238	101.06
509.454	91.06
509.67	104.06
509.887	109.06
510.103	142.06
510.319	196.06
510.536	733.06
510.752	2413.06
510.968	714.06
511.184	151.06
511.401	113.06
511.617	104.06
511.833	82.06
512.049	90.06
512.265	92.06
512.481	78.06
512.698	93.06
512.914	97.06
513.13	91.06
513.346	89.06
513.562	93.06
513.778	91.06
513.994	96.06
514.21	112.06
514.426	102.06
514.642	118.06
514.858	137.06
515.074	165.06
515.29	440.06
515.506	1447.06
