Data from Circ_2012_H10_HRD10591_00031.txt Node
Date: Wed Jan 03 10:05:56 EST 2024
User: Yrep
Spectrometer: HR+D1059
Trigger mode: 1
Integration Time (sec): 1.000000E-1
Scans to average: 1
Electric dark correction enabled: true
Nonlinearity correction enabled: false
Boxcar width: 0
XAxis mode: Wavelengths
Number of Pixels in Spectrum: 2048
>>>>>Begin Spectral Data<<<<<
223.165	-20.81
223.4	-20.81
223.635	-20.81
223.869	-8.81
224.104	-13.81
224.338	-16.81
224.573	-25.81
224.808	-10.81
225.042	-16.81
225.277	-8.81
225.511	15.19
225.746	5.19
225.98	21.19
226.215	16.19
226.449	6.19
226.683	20.19
226.918	9.19
227.152	29.19
227.387	45.19
227.621	68.19
227.856	49.19
228.09	43.19
228.324	36.19
228.559	53.19
228.793	59.19
229.027	63.19
229.262	66.19
229.496	72.19
229.73	81.19
229.964	88.19
230.199	77.19
230.433	64.19
230.667	75.19
230.901	65.19
231.136	76.19
231.37	77.19
231.604	74.19
231.838	93.19
232.072	84.19
232.306	88.19
232.541	87.19
232.775	84.19
233.009	94.19
233.243	72.19
233.477	90.19
233.711	83.19
233.945	80.19
234.179	86.19
234.413	84.19
234.647	79.19
234.881	77.19
235.115	82.19
235.349	85.19
235.583	80.19
235.817	85.19
236.051	74.19
236.285	75.19
236.519	91.19
236.753	89.19
236.987	79.19
237.221	83.19
237.455	80.19
237.689	82.19
237.922	86.19
238.156	79.19
238.39	71.19
238.624	76.19
238.858	78.19
239.091	82.19
239.325	87.19
239.559	79.19
239.793	66.19
240.027	80.19
240.26	71.19
240.494	70.19
240.728	81.19
240.961	85.19
241.195	83.19
241.429	94.19
241.662	76.19
241.896	92.19
242.13	85.19
242.363	72.19
242.597	79.19
242.83	80.19
243.064	85.19
243.298	80.19
243.531	94.19
243.765	74.19
243.998	80.19
244.232	74.19
244.465	74.19
244.699	62.19
244.932	91.19
245.166	76.19
245.399	83.19
245.633	80.19
245.866	109.19
246.099	78.19
246.333	71.19
246.566	94.19
246.8	83.19
247.033	80.19
247.266	94.19
247.5	75.19
247.733	76.19
247.966	83.19
248.2	80.19
248.433	76.19
248.666	80.19
248.899	86.19
249.133	85.19
249.366	95.19
249.599	100.19
249.832	87.19
250.066	84.19
250.299	77.19
250.532	87.19
250.765	78.19
250.998	80.19
251.231	92.19
251.465	86.19
251.698	82.19
251.931	71.19
252.164	69.19
252.397	75.19
252.63	77.19
252.863	85.19
253.096	74.19
253.329	84.19
253.562	88.19
253.795	94.19
254.028	83.19
254.261	80.19
254.494	69.19
254.727	88.19
254.96	83.19
255.193	76.19
255.426	74.19
255.659	90.19
255.892	84.19
256.124	69.19
256.357	79.19
256.59	89.19
256.823	75.19
257.056	86.19
257.289	70.19
257.521	92.19
257.754	77.19
257.987	96.19
258.22	91.19
258.452	80.19
258.685	82.19
258.918	74.19
259.151	80.19
259.383	94.19
259.616	75.19
259.849	98.19
260.081	66.19
260.314	69.19
260.547	83.19
260.779	95.19
261.012	83.19
261.244	83.19
261.477	101.19
261.71	87.19
261.942	95.19
262.175	127.19
262.407	88.19
262.64	98.19
262.872	79.19
263.105	88.19
263.337	77.19
263.57	85.19
263.802	93.19
264.035	85.19
264.267	77.19
264.499	80.19
264.732	84.19
264.964	85.19
265.197	79.19
265.429	82.19
265.661	86.19
265.894	77.19
266.126	77.19
266.358	79.19
266.591	95.19
266.823	89.19
267.055	91.19
267.287	77.19
267.52	81.19
267.752	77.19
267.984	64.19
268.216	80.19
268.448	75.19
268.681	75.19
268.913	73.19
269.145	84.19
269.377	76.19
269.609	85.19
269.841	84.19
270.073	87.19
270.306	81.19
270.538	90.19
270.77	72.19
271.002	83.19
271.234	78.19
271.466	88.19
271.698	91.19
271.93	62.19
272.162	77.19
272.394	74.19
272.626	78.19
272.858	93.19
273.09	87.19
273.322	89.19
273.553	88.19
273.785	88.19
274.017	92.19
274.249	78.19
274.481	81.19
274.713	85.19
274.945	79.19
275.176	72.19
275.408	90.19
275.64	84.19
275.872	91.19
276.104	82.19
276.335	87.19
276.567	92.19
276.799	101.19
277.031	97.19
277.262	82.19
277.494	80.19
277.726	77.19
277.957	78.19
278.189	82.19
278.421	87.19
278.652	80.19
278.884	75.19
279.115	90.19
279.347	79.19
279.579	101.19
279.81	84.19
280.042	99.19
280.273	85.19
280.505	86.19
280.736	106.19
280.968	64.19
281.199	91.19
281.431	75.19
281.662	72.19
281.894	71.19
282.125	99.19
282.356	121.19
282.588	146.19
282.819	127.19
283.051	95.19
283.282	72.19
283.513	101.19
283.745	95.19
283.976	86.19
284.207	86.19
284.439	91.19
284.67	76.19
284.901	80.19
285.132	87.19
285.364	85.19
285.595	90.19
285.826	77.19
286.057	77.19
286.288	74.19
286.52	80.19
286.751	81.19
286.982	95.19
287.213	95.19
287.444	89.19
287.675	77.19
287.906	93.19
288.138	83.19
288.369	88.19
288.6	94.19
288.831	92.19
289.062	85.19
289.293	92.19
289.524	93.19
289.755	82.19
289.986	88.19
290.217	84.19
290.448	78.19
290.679	80.19
290.91	72.19
291.141	101.19
291.371	95.19
291.602	109.19
291.833	97.19
292.064	95.19
292.295	91.19
292.526	84.19
292.757	79.19
292.987	85.19
293.218	68.19
293.449	98.19
293.68	89.19
293.91	85.19
294.141	94.19
294.372	102.19
294.603	91.19
294.833	86.19
295.064	94.19
295.295	85.19
295.525	111.19
295.756	109.19
295.987	139.19
296.217	153.19
296.448	132.19
296.679	83.19
296.909	103.19
297.14	92.19
297.37	73.19
297.601	82.19
297.831	83.19
298.062	93.19
298.292	88.19
298.523	93.19
298.753	92.19
298.984	93.19
299.214	97.19
299.445	91.19
299.675	96.19
299.905	120.19
300.136	83.19
300.366	83.19
300.597	73.19
300.827	85.19
301.057	99.19
301.288	96.19
301.518	96.19
301.748	84.19
301.979	112.19
302.209	99.19
302.439	94.19
302.669	100.19
302.9	92.19
303.13	85.19
303.36	83.19
303.59	113.19
303.82	108.19
304.051	97.19
304.281	97.19
304.511	91.19
304.741	91.19
304.971	91.19
305.201	108.19
305.431	92.19
305.661	96.19
305.891	87.19
306.121	83.19
306.352	110.19
306.582	94.19
306.812	107.19
307.042	104.19
307.272	93.19
307.502	98.19
307.731	79.19
307.961	75.19
308.191	94.19
308.421	90.19
308.651	93.19
308.881	79.19
309.111	88.19
309.341	84.19
309.571	104.19
309.8	94.19
310.03	99.19
310.26	106.19
310.49	86.19
310.72	95.19
310.949	110.19
311.179	93.19
311.409	102.19
311.639	85.19
311.868	96.19
312.098	110.19
312.328	106.19
312.557	104.19
312.787	103.19
313.017	98.19
313.246	96.19
313.476	118.19
313.706	95.19
313.935	111.19
314.165	103.19
314.394	96.19
314.624	93.19
314.853	96.19
315.083	94.19
315.312	99.19
315.542	89.19
315.771	98.19
316.001	84.19
316.23	89.19
316.46	84.19
316.689	87.19
316.919	105.19
317.148	95.19
317.377	95.19
317.607	98.19
317.836	86.19
318.065	91.19
318.295	93.19
318.524	86.19
318.753	100.19
318.983	91.19
319.212	116.19
319.441	118.19
319.67	112.19
319.9	93.19
320.129	99.19
320.358	107.19
320.587	100.19
320.816	94.19
321.046	97.19
321.275	90.19
321.504	88.19
321.733	97.19
321.962	96.19
322.191	100.19
322.42	100.19
322.649	111.19
322.878	114.19
323.108	126.19
323.337	128.19
323.566	136.19
323.795	154.19
324.024	213.19
324.253	440.19
324.482	917.19
324.71	1849.19
324.939	2416.19
325.168	852.19
325.397	249.19
325.626	150.19
325.855	138.19
326.084	133.19
326.313	132.19
326.542	163.19
326.77	266.19
326.999	478.19
327.228	1001.19
327.457	1844.19
327.686	1491.19
327.914	395.19
328.143	208.19
328.372	157.19
328.6	125.19
328.829	131.19
329.058	137.19
329.287	145.19
329.515	119.19
329.744	110.19
329.972	93.19
330.201	103.19
330.43	138.19
330.658	137.19
330.887	140.19
331.115	134.19
331.344	95.19
331.572	108.19
331.801	109.19
332.03	104.19
332.258	93.19
332.486	102.19
332.715	104.19
332.943	98.19
333.172	94.19
333.4	101.19
333.629	115.19
333.857	117.19
334.085	130.19
334.314	104.19
334.542	124.19
334.771	127.19
334.999	94.19
335.227	102.19
335.455	85.19
335.684	91.19
335.912	98.19
336.14	104.19
336.369	100.19
336.597	103.19
336.825	101.19
337.053	93.19
337.281	88.19
337.51	94.19
337.738	87.19
337.966	93.19
338.194	90.19
338.422	92.19
338.65	100.19
338.878	95.19
339.106	102.19
339.334	87.19
339.562	79.19
339.79	80.19
340.018	99.19
340.246	91.19
340.474	107.19
340.702	91.19
340.93	98.19
341.158	89.19
341.386	95.19
341.614	99.19
341.842	94.19
342.07	102.19
342.298	98.19
342.526	88.19
342.754	88.19
342.981	87.19
343.209	101.19
343.437	99.19
343.665	79.19
343.893	97.19
344.12	95.19
344.348	96.19
344.576	91.19
344.804	89.19
345.031	102.19
345.259	99.19
345.487	84.19
345.714	101.19
345.942	102.19
346.17	99.19
346.397	86.19
346.625	80.19
346.853	104.19
347.08	98.19
347.308	100.19
347.535	96.19
347.763	104.19
347.99	98.19
348.218	104.19
348.445	110.19
348.673	115.19
348.9	100.19
349.128	96.19
349.355	89.19
349.583	85.19
349.81	91.19
350.037	95.19
350.265	95.19
350.492	94.19
350.72	116.19
350.947	109.19
351.174	101.19
351.402	129.19
351.629	105.19
351.856	101.19
352.083	101.19
352.311	112.19
352.538	101.19
352.765	123.19
352.992	118.19
353.22	99.19
353.447	107.19
353.674	91.19
353.901	94.19
354.128	75.19
354.355	90.19
354.583	88.19
354.81	95.19
355.037	94.19
355.264	95.19
355.491	101.19
355.718	82.19
355.945	82.19
356.172	90.19
356.399	91.19
356.626	84.19
356.853	97.19
357.08	87.19
357.307	100.19
357.534	107.19
357.761	90.19
357.988	85.19
358.215	84.19
358.441	106.19
358.668	86.19
358.895	84.19
359.122	102.19
359.349	85.19
359.576	87.19
359.802	92.19
360.029	104.19
360.256	130.19
360.483	114.19
360.709	95.19
360.936	98.19
361.163	91.19
361.39	81.19
361.616	95.19
361.843	112.19
362.07	103.19
362.296	100.19
362.523	91.19
362.749	99.19
362.976	88.19
363.203	102.19
363.429	73.19
363.656	85.19
363.882	91.19
364.109	86.19
364.335	78.19
364.562	92.19
364.788	85.19
365.015	86.19
365.241	95.19
365.468	110.19
365.694	106.19
365.92	85.19
366.147	88.19
366.373	87.19
366.599	88.19
366.826	84.19
367.052	88.19
367.278	93.19
367.505	85.19
367.731	93.19
367.957	90.19
368.184	100.19
368.41	95.19
368.636	120.19
368.862	120.19
369.089	92.19
369.315	83.19
369.541	87.19
369.767	105.19
369.993	109.19
370.219	86.19
370.445	89.19
370.672	85.19
370.898	85.19
371.124	83.19
371.35	79.19
371.576	77.19
371.802	90.19
372.028	78.19
372.254	103.19
372.48	98.19
372.706	95.19
372.932	80.19
373.158	90.19
373.384	81.19
373.61	84.19
373.835	79.19
374.061	94.19
374.287	96.19
374.513	91.19
374.739	93.19
374.965	92.19
375.191	85.19
375.416	96.19
375.642	89.19
375.868	87.19
376.094	84.19
376.319	97.19
376.545	87.19
376.771	70.19
376.997	84.19
377.222	92.19
377.448	91.19
377.674	88.19
377.899	91.19
378.125	91.19
378.35	88.19
378.576	91.19
378.802	86.19
379.027	96.19
379.253	90.19
379.478	87.19
379.704	94.19
379.929	80.19
380.155	100.19
380.38	97.19
380.606	93.19
380.831	80.19
381.057	93.19
381.282	90.19
381.507	89.19
381.733	127.19
381.958	99.19
382.184	104.19
382.409	102.19
382.634	101.19
382.86	93.19
383.085	113.19
383.31	111.19
383.535	101.19
383.761	95.19
383.986	108.19
384.211	89.19
384.436	86.19
384.662	102.19
384.887	92.19
385.112	110.19
385.337	113.19
385.562	110.19
385.787	112.19
386.013	124.19
386.238	116.19
386.463	94.19
386.688	104.19
386.913	94.19
387.138	110.19
387.363	98.19
387.588	101.19
387.813	125.19
388.038	113.19
388.263	95.19
388.488	93.19
388.713	102.19
388.938	93.19
389.163	106.19
389.387	102.19
389.612	99.19
389.837	93.19
390.062	77.19
390.287	87.19
390.512	93.19
390.736	80.19
390.961	91.19
391.186	96.19
391.411	91.19
391.636	95.19
391.86	90.19
392.085	89.19
392.31	91.19
392.534	82.19
392.759	89.19
392.984	83.19
393.208	91.19
393.433	97.19
393.658	88.19
393.882	83.19
394.107	87.19
394.331	93.19
394.556	95.19
394.78	88.19
395.005	93.19
395.229	77.19
395.454	84.19
395.678	78.19
395.903	107.19
396.127	87.19
396.352	81.19
396.576	77.19
396.801	93.19
397.025	87.19
397.249	73.19
397.474	86.19
397.698	86.19
397.922	80.19
398.147	71.19
398.371	68.19
398.595	83.19
398.82	99.19
399.044	87.19
399.268	85.19
399.492	95.19
399.717	89.19
399.941	84.19
400.165	99.19
400.389	79.19
400.613	81.19
400.837	77.19
401.062	86.19
401.286	81.19
401.51	78.19
401.734	76.19
401.958	99.19
402.182	133.19
402.406	185.19
402.63	135.19
402.854	90.19
403.078	98.19
403.302	84.19
403.526	81.19
403.75	82.19
403.974	94.19
404.198	82.19
404.422	84.19
404.645	98.19
404.869	80.19
405.093	85.19
405.317	102.19
405.541	109.19
405.765	100.19
405.988	128.19
406.212	184.19
406.436	263.19
406.66	150.19
406.883	98.19
407.107	106.19
407.331	100.19
407.555	102.19
407.778	99.19
408.002	100.19
408.226	91.19
408.449	101.19
408.673	104.19
408.896	88.19
409.12	89.19
409.344	90.19
409.567	91.19
409.791	91.19
410.014	82.19
410.238	98.19
410.461	103.19
410.685	94.19
410.908	104.19
411.132	118.19
411.355	100.19
411.578	93.19
411.802	90.19
412.025	87.19
412.249	97.19
412.472	85.19
412.695	75.19
412.919	85.19
413.142	85.19
413.365	90.19
413.589	87.19
413.812	91.19
414.035	90.19
414.258	85.19
414.482	90.19
414.705	86.19
414.928	94.19
415.151	91.19
415.374	90.19
415.597	93.19
415.821	92.19
416.044	92.19
416.267	76.19
416.49	84.19
416.713	76.19
416.936	83.19
417.159	84.19
417.382	95.19
417.605	101.19
417.828	86.19
418.051	83.19
418.274	94.19
418.497	83.19
418.72	87.19
418.943	95.19
419.166	92.19
419.389	99.19
419.611	87.19
419.834	91.19
420.057	88.19
420.28	86.19
420.503	91.19
420.726	98.19
420.948	78.19
421.171	93.19
421.394	89.19
421.617	95.19
421.839	95.19
422.062	87.19
422.285	104.19
422.507	98.19
422.73	105.19
422.953	90.19
423.175	85.19
423.398	86.19
423.621	90.19
423.843	88.19
424.066	88.19
424.288	80.19
424.511	97.19
424.733	91.19
424.956	100.19
425.178	98.19
425.401	107.19
425.623	78.19
425.846	88.19
426.068	89.19
426.291	97.19
426.513	93.19
426.735	88.19
426.958	80.19
427.18	100.19
427.402	123.19
427.625	182.19
427.847	144.19
428.069	111.19
428.292	91.19
428.514	86.19
428.736	86.19
428.958	85.19
429.181	80.19
429.403	95.19
429.625	80.19
429.847	108.19
430.069	98.19
430.292	86.19
430.514	87.19
430.736	86.19
430.958	87.19
431.18	73.19
431.402	86.19
431.624	84.19
431.846	86.19
432.068	94.19
432.29	100.19
432.512	77.19
432.734	78.19
432.956	83.19
433.178	100.19
433.4	114.19
433.622	98.19
433.844	90.19
434.066	85.19
434.287	80.19
434.509	94.19
434.731	80.19
434.953	76.19
435.175	86.19
435.397	97.19
435.618	99.19
435.84	111.19
436.062	113.19
436.284	103.19
436.505	100.19
436.727	109.19
436.949	101.19
437.17	83.19
437.392	86.19
437.614	97.19
437.835	103.19
438.057	96.19
438.278	122.19
438.5	109.19
438.721	116.19
438.943	122.19
439.165	88.19
439.386	94.19
439.608	102.19
439.829	98.19
440.05	136.19
440.272	141.19
440.493	98.19
440.715	88.19
440.936	99.19
441.158	78.19
441.379	90.19
441.6	96.19
441.822	102.19
442.043	86.19
442.264	113.19
442.486	97.19
442.707	91.19
442.928	110.19
443.149	140.19
443.371	138.19
443.592	109.19
443.813	104.19
444.034	102.19
444.255	91.19
444.476	94.19
444.698	89.19
444.919	89.19
445.14	125.19
445.361	134.19
445.582	114.19
445.803	140.19
446.024	145.19
446.245	127.19
446.466	115.19
446.687	88.19
446.908	93.19
447.129	83.19
447.35	90.19
447.571	84.19
447.792	87.19
448.013	91.19
448.234	105.19
448.455	84.19
448.675	117.19
448.896	117.19
449.117	103.19
449.338	97.19
449.559	130.19
449.779	139.19
450	105.19
450.221	76.19
450.442	93.19
450.662	95.19
450.883	94.19
451.104	102.19
451.324	101.19
451.545	86.19
451.766	77.19
451.986	80.19
452.207	79.19
452.428	84.19
452.648	101.19
452.869	105.19
453.089	124.19
453.31	109.19
453.53	94.19
453.751	80.19
453.971	109.19
454.192	114.19
454.412	84.19
454.633	101.19
454.853	88.19
455.073	90.19
455.294	92.19
455.514	93.19
455.734	83.19
455.955	76.19
456.175	102.19
456.395	79.19
456.616	94.19
456.836	84.19
457.056	76.19
457.276	92.19
457.497	82.19
457.717	89.19
457.937	86.19
458.157	82.19
458.377	87.19
458.598	117.19
458.818	166.19
459.038	158.19
459.258	115.19
459.478	95.19
459.698	92.19
459.918	95.19
460.138	92.19
460.358	82.19
460.578	85.19
460.798	90.19
461.018	80.19
461.238	69.19
461.458	92.19
461.678	81.19
461.898	92.19
462.118	91.19
462.338	71.19
462.558	83.19
462.777	89.19
462.997	79.19
463.217	77.19
463.437	81.19
463.657	92.19
463.876	91.19
464.096	102.19
464.316	93.19
464.536	94.19
464.755	93.19
464.975	104.19
465.195	185.19
465.414	178.19
465.634	101.19
465.854	89.19
466.073	94.19
466.293	79.19
466.512	83.19
466.732	74.19
466.951	78.19
467.171	91.19
467.391	93.19
467.61	111.19
467.829	88.19
468.049	107.19
468.268	115.19
468.488	84.19
468.707	95.19
468.927	88.19
469.146	84.19
469.365	84.19
469.585	99.19
469.804	95.19
470.023	87.19
470.243	91.19
470.462	93.19
470.681	101.19
470.901	95.19
471.12	89.19
471.339	79.19
471.558	89.19
471.777	75.19
471.997	89.19
472.216	113.19
472.435	136.19
472.654	85.19
472.873	100.19
473.092	87.19
473.311	76.19
473.53	76.19
473.749	90.19
473.968	101.19
474.187	102.19
474.406	91.19
474.625	101.19
474.844	95.19
475.063	90.19
475.282	86.19
475.501	92.19
475.72	75.19
475.939	74.19
476.158	74.19
476.377	88.19
476.596	85.19
476.814	80.19
477.033	75.19
477.252	80.19
477.471	91.19
477.69	88.19
477.908	83.19
478.127	94.19
478.346	83.19
478.564	94.19
478.783	95.19
479.002	82.19
479.22	101.19
479.439	110.19
479.658	100.19
479.876	85.19
480.095	97.19
480.313	86.19
480.532	107.19
480.751	101.19
480.969	120.19
481.188	180.19
481.406	152.19
481.624	80.19
481.843	80.19
482.061	102.19
482.28	92.19
482.498	88.19
482.717	88.19
482.935	99.19
483.153	90.19
483.372	80.19
483.59	92.19
483.808	79.19
484.027	95.19
484.245	92.19
484.463	85.19
484.681	101.19
484.9	107.19
485.118	97.19
485.336	96.19
485.554	93.19
485.772	92.19
485.99	112.19
486.209	87.19
486.427	120.19
486.645	102.19
486.863	116.19
487.081	95.19
487.299	89.19
487.517	98.19
487.735	102.19
487.953	99.19
488.171	96.19
488.389	99.19
488.607	90.19
488.825	88.19
489.043	86.19
489.261	83.19
489.479	88.19
489.696	100.19
489.914	97.19
490.132	93.19
490.35	98.19
490.568	95.19
490.786	92.19
491.003	94.19
491.221	88.19
491.439	84.19
491.657	103.19
491.874	79.19
492.092	85.19
492.31	88.19
492.527	101.19
492.745	93.19
492.963	90.19
493.18	79.19
493.398	83.19
493.615	92.19
493.833	93.19
494.05	95.19
494.268	101.19
494.485	91.19
494.703	98.19
494.92	93.19
495.138	83.19
495.355	74.19
495.573	79.19
495.79	91.19
496.008	88.19
496.225	79.19
496.442	89.19
496.66	95.19
496.877	105.19
497.094	91.19
497.312	85.19
497.529	90.19
497.746	79.19
497.963	91.19
498.181	90.19
498.398	91.19
498.615	106.19
498.832	99.19
499.049	89.19
499.267	87.19
499.484	94.19
499.701	80.19
499.918	80.19
500.135	80.19
500.352	103.19
500.569	91.19
500.786	71.19
501.003	81.19
501.22	86.19
501.437	90.19
501.654	95.19
501.871	94.19
502.088	99.19
502.305	96.19
502.522	88.19
502.739	74.19
502.956	102.19
503.172	95.19
503.389	101.19
503.606	111.19
503.823	108.19
504.04	91.19
504.256	87.19
504.473	80.19
504.69	92.19
504.907	87.19
505.123	96.19
505.34	99.19
505.557	97.19
505.773	82.19
505.99	87.19
506.207	95.19
506.423	89.19
506.64	82.19
506.856	87.19
507.073	92.19
507.289	86.19
507.506	90.19
507.722	107.19
507.939	98.19
508.155	98.19
508.372	91.19
508.588	100.19
508.805	100.19
509.021	106.19
509.238	81.19
509.454	108.19
509.67	96.19
509.887	116.19
510.103	136.19
510.319	220.19
510.536	838.19
510.752	2843.19
510.968	818.19
511.184	178.19
511.401	99.19
511.617	98.19
511.833	84.19
512.049	90.19
512.265	109.19
512.481	100.19
512.698	93.19
512.914	100.19
513.13	90.19
513.346	94.19
513.562	99.19
513.778	96.19
513.994	104.19
514.21	113.19
514.426	122.19
514.642	139.19
514.858	131.19
515.074	169.19
515.29	504.19
515.506	1797.19
