Data from Circ_2012_H10_HRD10591_00002.txt Node
Date: Wed Jan 03 10:05:50 EST 2024
User: Yrep
Spectrometer: HR+D1059
Trigger mode: 1
Integration Time (sec): 1.000000E-1
Scans to average: 1
Electric dark correction enabled: true
Nonlinearity correction enabled: false
Boxcar width: 0
XAxis mode: Wavelengths
Number of Pixels in Spectrum: 2048
>>>>>Begin Spectral Data<<<<<
223.165	-15.19
223.4	-15.19
223.635	-15.19
223.869	-20.19
224.104	-12.19
224.338	-15.19
224.573	-27.19
224.808	-14.19
225.042	-3.19
225.277	-6.19
225.511	-4.19
225.746	6.81
225.98	15.81
226.215	10.81
226.449	12.81
226.683	15.81
226.918	22.81
227.152	32.81
227.387	40.81
227.621	31.81
227.856	42.81
228.09	53.81
228.324	66.81
228.559	42.81
228.793	53.81
229.027	54.81
229.262	71.81
229.496	86.81
229.73	86.81
229.964	98.81
230.199	68.81
230.433	69.81
230.667	73.81
230.901	68.81
231.136	79.81
231.37	84.81
231.604	75.81
231.838	68.81
232.072	71.81
232.306	87.81
232.541	73.81
232.775	79.81
233.009	73.81
233.243	93.81
233.477	80.81
233.711	78.81
233.945	92.81
234.179	74.81
234.413	75.81
234.647	73.81
234.881	60.81
235.115	72.81
235.349	73.81
235.583	78.81
235.817	76.81
236.051	78.81
236.285	78.81
236.519	74.81
236.753	71.81
236.987	101.81
237.221	80.81
237.455	82.81
237.689	85.81
237.922	69.81
238.156	81.81
238.39	58.81
238.624	72.81
238.858	87.81
239.091	89.81
239.325	63.81
239.559	77.81
239.793	81.81
240.027	69.81
240.26	78.81
240.494	73.81
240.728	65.81
240.961	76.81
241.195	68.81
241.429	84.81
241.662	65.81
241.896	72.81
242.13	66.81
242.363	87.81
242.597	74.81
242.83	75.81
243.064	76.81
243.298	72.81
243.531	70.81
243.765	76.81
243.998	75.81
244.232	79.81
244.465	89.81
244.699	69.81
244.932	80.81
245.166	68.81
245.399	84.81
245.633	69.81
245.866	82.81
246.099	74.81
246.333	81.81
246.566	86.81
246.8	69.81
247.033	70.81
247.266	80.81
247.5	73.81
247.733	83.81
247.966	84.81
248.2	84.81
248.433	83.81
248.666	71.81
248.899	77.81
249.133	83.81
249.366	105.81
249.599	100.81
249.832	74.81
250.066	87.81
250.299	80.81
250.532	78.81
250.765	71.81
250.998	85.81
251.231	77.81
251.465	98.81
251.698	86.81
251.931	85.81
252.164	73.81
252.397	77.81
252.63	86.81
252.863	91.81
253.096	88.81
253.329	80.81
253.562	76.81
253.795	68.81
254.028	65.81
254.261	91.81
254.494	84.81
254.727	75.81
254.96	76.81
255.193	88.81
255.426	86.81
255.659	85.81
255.892	84.81
256.124	73.81
256.357	90.81
256.59	88.81
256.823	70.81
257.056	76.81
257.289	87.81
257.521	82.81
257.754	73.81
257.987	82.81
258.22	76.81
258.452	84.81
258.685	68.81
258.918	83.81
259.151	85.81
259.383	77.81
259.616	83.81
259.849	77.81
260.081	82.81
260.314	85.81
260.547	95.81
260.779	76.81
261.012	76.81
261.244	75.81
261.477	95.81
261.71	94.81
261.942	136.81
262.175	135.81
262.407	83.81
262.64	82.81
262.872	79.81
263.105	89.81
263.337	80.81
263.57	88.81
263.802	76.81
264.035	80.81
264.267	72.81
264.499	79.81
264.732	79.81
264.964	82.81
265.197	86.81
265.429	73.81
265.661	85.81
265.894	86.81
266.126	81.81
266.358	85.81
266.591	82.81
266.823	89.81
267.055	76.81
267.287	78.81
267.52	90.81
267.752	84.81
267.984	83.81
268.216	82.81
268.448	78.81
268.681	83.81
268.913	89.81
269.145	88.81
269.377	96.81
269.609	74.81
269.841	82.81
270.073	102.81
270.306	80.81
270.538	88.81
270.77	91.81
271.002	88.81
271.234	76.81
271.466	87.81
271.698	87.81
271.93	91.81
272.162	94.81
272.394	89.81
272.626	79.81
272.858	79.81
273.09	75.81
273.322	67.81
273.553	81.81
273.785	73.81
274.017	84.81
274.249	97.81
274.481	88.81
274.713	78.81
274.945	78.81
275.176	78.81
275.408	81.81
275.64	78.81
275.872	86.81
276.104	92.81
276.335	91.81
276.567	83.81
276.799	116.81
277.031	98.81
277.262	97.81
277.494	83.81
277.726	93.81
277.957	79.81
278.189	90.81
278.421	81.81
278.652	80.81
278.884	84.81
279.115	77.81
279.347	58.81
279.579	76.81
279.81	91.81
280.042	101.81
280.273	77.81
280.505	87.81
280.736	81.81
280.968	82.81
281.199	77.81
281.431	106.81
281.662	78.81
281.894	96.81
282.125	102.81
282.356	118.81
282.588	143.81
282.819	120.81
283.051	92.81
283.282	86.81
283.513	78.81
283.745	76.81
283.976	90.81
284.207	91.81
284.439	97.81
284.67	86.81
284.901	102.81
285.132	96.81
285.364	88.81
285.595	98.81
285.826	93.81
286.057	77.81
286.288	75.81
286.52	69.81
286.751	76.81
286.982	88.81
287.213	75.81
287.444	92.81
287.675	83.81
287.906	98.81
288.138	86.81
288.369	92.81
288.6	77.81
288.831	84.81
289.062	87.81
289.293	92.81
289.524	85.81
289.755	93.81
289.986	72.81
290.217	81.81
290.448	78.81
290.679	80.81
290.91	82.81
291.141	78.81
291.371	86.81
291.602	83.81
291.833	86.81
292.064	98.81
292.295	75.81
292.526	76.81
292.757	94.81
292.987	70.81
293.218	92.81
293.449	83.81
293.68	84.81
293.91	81.81
294.141	78.81
294.372	93.81
294.603	86.81
294.833	83.81
295.064	86.81
295.295	97.81
295.525	94.81
295.756	108.81
295.987	119.81
296.217	149.81
296.448	143.81
296.679	98.81
296.909	83.81
297.14	87.81
297.37	98.81
297.601	93.81
297.831	86.81
298.062	87.81
298.292	98.81
298.523	96.81
298.753	93.81
298.984	98.81
299.214	97.81
299.445	92.81
299.675	95.81
299.905	105.81
300.136	91.81
300.366	74.81
300.597	91.81
300.827	89.81
301.057	104.81
301.288	91.81
301.518	88.81
301.748	93.81
301.979	91.81
302.209	81.81
302.439	94.81
302.669	85.81
302.9	94.81
303.13	87.81
303.36	90.81
303.59	109.81
303.82	98.81
304.051	104.81
304.281	83.81
304.511	96.81
304.741	81.81
304.971	89.81
305.201	85.81
305.431	97.81
305.661	98.81
305.891	91.81
306.121	103.81
306.352	94.81
306.582	107.81
306.812	81.81
307.042	91.81
307.272	105.81
307.502	97.81
307.731	91.81
307.961	100.81
308.191	92.81
308.421	98.81
308.651	87.81
308.881	94.81
309.111	100.81
309.341	107.81
309.571	102.81
309.8	101.81
310.03	105.81
310.26	101.81
310.49	105.81
310.72	104.81
310.949	99.81
311.179	105.81
311.409	106.81
311.639	104.81
311.868	92.81
312.098	96.81
312.328	99.81
312.557	90.81
312.787	105.81
313.017	110.81
313.246	99.81
313.476	77.81
313.706	82.81
313.935	100.81
314.165	99.81
314.394	103.81
314.624	90.81
314.853	99.81
315.083	93.81
315.312	91.81
315.542	92.81
315.771	92.81
316.001	103.81
316.23	91.81
316.46	83.81
316.689	89.81
316.919	99.81
317.148	98.81
317.377	101.81
317.607	109.81
317.836	88.81
318.065	88.81
318.295	86.81
318.524	103.81
318.753	86.81
318.983	85.81
319.212	119.81
319.441	109.81
319.67	114.81
319.9	89.81
320.129	88.81
320.358	95.81
320.587	91.81
320.816	108.81
321.046	100.81
321.275	102.81
321.504	100.81
321.733	88.81
321.962	88.81
322.191	105.81
322.42	102.81
322.649	99.81
322.878	124.81
323.108	120.81
323.337	133.81
323.566	149.81
323.795	153.81
324.024	236.81
324.253	483.81
324.482	1048.81
324.71	2184.81
324.939	2894.81
325.168	1021.81
325.397	280.81
325.626	160.81
325.855	148.81
326.084	131.81
326.313	153.81
326.542	180.81
326.77	260.81
326.999	545.81
327.228	1190.81
327.457	2115.81
327.686	1686.81
327.914	456.81
328.143	230.81
328.372	174.81
328.6	128.81
328.829	142.81
329.058	146.81
329.287	140.81
329.515	114.81
329.744	119.81
329.972	96.81
330.201	110.81
330.43	109.81
330.658	118.81
330.887	168.81
331.115	145.81
331.344	104.81
331.572	99.81
331.801	112.81
332.03	116.81
332.258	95.81
332.486	88.81
332.715	77.81
332.943	80.81
333.172	92.81
333.4	109.81
333.629	115.81
333.857	106.81
334.085	114.81
334.314	105.81
334.542	109.81
334.771	118.81
334.999	91.81
335.227	98.81
335.455	97.81
335.684	101.81
335.912	91.81
336.14	92.81
336.369	89.81
336.597	104.81
336.825	96.81
337.053	106.81
337.281	82.81
337.51	89.81
337.738	99.81
337.966	100.81
338.194	94.81
338.422	99.81
338.65	103.81
338.878	89.81
339.106	104.81
339.334	90.81
339.562	90.81
339.79	96.81
340.018	87.81
340.246	100.81
340.474	96.81
340.702	90.81
340.93	78.81
341.158	78.81
341.386	95.81
341.614	97.81
341.842	102.81
342.07	108.81
342.298	90.81
342.526	95.81
342.754	84.81
342.981	76.81
343.209	98.81
343.437	95.81
343.665	93.81
343.893	91.81
344.12	91.81
344.348	91.81
344.576	85.81
344.804	91.81
345.031	92.81
345.259	97.81
345.487	89.81
345.714	99.81
345.942	92.81
346.17	94.81
346.397	91.81
346.625	101.81
346.853	87.81
347.08	105.81
347.308	87.81
347.535	98.81
347.763	101.81
347.99	93.81
348.218	109.81
348.445	106.81
348.673	93.81
348.9	93.81
349.128	90.81
349.355	95.81
349.583	83.81
349.81	83.81
350.037	93.81
350.265	105.81
350.492	79.81
350.72	84.81
350.947	101.81
351.174	108.81
351.402	93.81
351.629	124.81
351.856	105.81
352.083	100.81
352.311	125.81
352.538	117.81
352.765	113.81
352.992	117.81
353.22	104.81
353.447	91.81
353.674	95.81
353.901	106.81
354.128	106.81
354.355	100.81
354.583	89.81
354.81	102.81
355.037	90.81
355.264	92.81
355.491	89.81
355.718	93.81
355.945	87.81
356.172	90.81
356.399	73.81
356.626	102.81
356.853	105.81
357.08	95.81
357.307	86.81
357.534	85.81
357.761	85.81
357.988	96.81
358.215	102.81
358.441	95.81
358.668	103.81
358.895	89.81
359.122	77.81
359.349	91.81
359.576	98.81
359.802	105.81
360.029	110.81
360.256	117.81
360.483	103.81
360.709	96.81
360.936	89.81
361.163	95.81
361.39	90.81
361.616	98.81
361.843	96.81
362.07	87.81
362.296	99.81
362.523	72.81
362.749	96.81
362.976	105.81
363.203	97.81
363.429	93.81
363.656	90.81
363.882	88.81
364.109	97.81
364.335	94.81
364.562	98.81
364.788	91.81
365.015	83.81
365.241	92.81
365.468	109.81
365.694	109.81
365.92	93.81
366.147	91.81
366.373	103.81
366.599	102.81
366.826	85.81
367.052	95.81
367.278	90.81
367.505	96.81
367.731	99.81
367.957	83.81
368.184	101.81
368.41	121.81
368.636	128.81
368.862	129.81
369.089	119.81
369.315	99.81
369.541	104.81
369.767	90.81
369.993	83.81
370.219	88.81
370.445	95.81
370.672	99.81
370.898	82.81
371.124	95.81
371.35	95.81
371.576	87.81
371.802	99.81
372.028	102.81
372.254	88.81
372.48	86.81
372.706	86.81
372.932	86.81
373.158	88.81
373.384	95.81
373.61	90.81
373.835	93.81
374.061	80.81
374.287	90.81
374.513	91.81
374.739	89.81
374.965	66.81
375.191	100.81
375.416	86.81
375.642	87.81
375.868	89.81
376.094	105.81
376.319	91.81
376.545	77.81
376.771	88.81
376.997	95.81
377.222	98.81
377.448	68.81
377.674	83.81
377.899	93.81
378.125	76.81
378.35	97.81
378.576	75.81
378.802	102.81
379.027	101.81
379.253	76.81
379.478	96.81
379.704	98.81
379.929	92.81
380.155	97.81
380.38	97.81
380.606	89.81
380.831	87.81
381.057	93.81
381.282	89.81
381.507	89.81
381.733	90.81
381.958	89.81
382.184	95.81
382.409	102.81
382.634	108.81
382.86	108.81
383.085	100.81
383.31	90.81
383.535	93.81
383.761	104.81
383.986	96.81
384.211	102.81
384.436	97.81
384.662	104.81
384.887	102.81
385.112	116.81
385.337	116.81
385.562	100.81
385.787	101.81
386.013	109.81
386.238	115.81
386.463	107.81
386.688	95.81
386.913	101.81
387.138	110.81
387.363	116.81
387.588	100.81
387.813	103.81
388.038	117.81
388.263	110.81
388.488	112.81
388.713	110.81
388.938	93.81
389.163	92.81
389.387	88.81
389.612	92.81
389.837	98.81
390.062	97.81
390.287	96.81
390.512	86.81
390.736	91.81
390.961	98.81
391.186	104.81
391.411	82.81
391.636	90.81
391.86	82.81
392.085	78.81
392.31	69.81
392.534	82.81
392.759	89.81
392.984	88.81
393.208	89.81
393.433	98.81
393.658	104.81
393.882	77.81
394.107	85.81
394.331	72.81
394.556	87.81
394.78	91.81
395.005	98.81
395.229	99.81
395.454	99.81
395.678	92.81
395.903	105.81
396.127	90.81
396.352	75.81
396.576	88.81
396.801	98.81
397.025	86.81
397.249	99.81
397.474	97.81
397.698	95.81
397.922	90.81
398.147	84.81
398.371	86.81
398.595	89.81
398.82	73.81
399.044	76.81
399.268	76.81
399.492	85.81
399.717	80.81
399.941	81.81
400.165	99.81
400.389	97.81
400.613	91.81
400.837	101.81
401.062	95.81
401.286	97.81
401.51	105.81
401.734	91.81
401.958	113.81
402.182	135.81
402.406	185.81
402.63	131.81
402.854	68.81
403.078	75.81
403.302	90.81
403.526	88.81
403.75	75.81
403.974	82.81
404.198	85.81
404.422	91.81
404.645	95.81
404.869	84.81
405.093	92.81
405.317	92.81
405.541	107.81
405.765	125.81
405.988	136.81
406.212	194.81
406.436	267.81
406.66	179.81
406.883	116.81
407.107	107.81
407.331	109.81
407.555	105.81
407.778	105.81
408.002	77.81
408.226	98.81
408.449	99.81
408.673	97.81
408.896	88.81
409.12	97.81
409.344	88.81
409.567	86.81
409.791	78.81
410.014	82.81
410.238	87.81
410.461	105.81
410.685	104.81
410.908	79.81
411.132	108.81
411.355	92.81
411.578	88.81
411.802	87.81
412.025	80.81
412.249	89.81
412.472	95.81
412.695	85.81
412.919	86.81
413.142	85.81
413.365	77.81
413.589	90.81
413.812	91.81
414.035	82.81
414.258	96.81
414.482	76.81
414.705	98.81
414.928	86.81
415.151	83.81
415.374	81.81
415.597	82.81
415.821	93.81
416.044	78.81
416.267	88.81
416.49	89.81
416.713	90.81
416.936	66.81
417.159	88.81
417.382	90.81
417.605	85.81
417.828	84.81
418.051	78.81
418.274	99.81
418.497	86.81
418.72	77.81
418.943	84.81
419.166	80.81
419.389	77.81
419.611	74.81
419.834	87.81
420.057	84.81
420.28	98.81
420.503	87.81
420.726	84.81
420.948	84.81
421.171	84.81
421.394	89.81
421.617	88.81
421.839	97.81
422.062	71.81
422.285	92.81
422.507	103.81
422.73	104.81
422.953	103.81
423.175	92.81
423.398	77.81
423.621	85.81
423.843	87.81
424.066	88.81
424.288	96.81
424.511	83.81
424.733	85.81
424.956	99.81
425.178	96.81
425.401	112.81
425.623	113.81
425.846	91.81
426.068	89.81
426.291	85.81
426.513	83.81
426.735	91.81
426.958	102.81
427.18	97.81
427.402	157.81
427.625	182.81
427.847	150.81
428.069	118.81
428.292	83.81
428.514	83.81
428.736	105.81
428.958	90.81
429.181	82.81
429.403	96.81
429.625	83.81
429.847	96.81
430.069	108.81
430.292	106.81
430.514	92.81
430.736	85.81
430.958	78.81
431.18	88.81
431.402	96.81
431.624	96.81
431.846	83.81
432.068	87.81
432.29	80.81
432.512	90.81
432.734	101.81
432.956	86.81
433.178	92.81
433.4	90.81
433.622	80.81
433.844	102.81
434.066	85.81
434.287	83.81
434.509	85.81
434.731	97.81
434.953	84.81
435.175	92.81
435.397	78.81
435.618	91.81
435.84	98.81
436.062	118.81
436.284	114.81
436.505	104.81
436.727	87.81
436.949	99.81
437.17	93.81
437.392	99.81
437.614	99.81
437.835	112.81
438.057	118.81
438.278	125.81
438.5	98.81
438.721	110.81
438.943	112.81
439.165	90.81
439.386	87.81
439.608	99.81
439.829	112.81
440.05	136.81
440.272	155.81
440.493	91.81
440.715	109.81
440.936	104.81
441.158	91.81
441.379	76.81
441.6	86.81
441.822	84.81
442.043	86.81
442.264	89.81
442.486	89.81
442.707	102.81
442.928	124.81
443.149	146.81
443.371	161.81
443.592	118.81
443.813	118.81
444.034	119.81
444.255	90.81
444.476	88.81
444.698	86.81
444.919	89.81
445.14	116.81
445.361	136.81
445.582	119.81
445.803	153.81
446.024	153.81
446.245	159.81
446.466	122.81
446.687	98.81
446.908	94.81
447.129	81.81
447.35	73.81
447.571	103.81
447.792	90.81
448.013	91.81
448.234	116.81
448.455	102.81
448.675	113.81
448.896	121.81
449.117	114.81
449.338	99.81
449.559	120.81
449.779	128.81
450	97.81
450.221	82.81
450.442	90.81
450.662	95.81
450.883	116.81
451.104	128.81
451.324	110.81
451.545	86.81
451.766	88.81
451.986	81.81
452.207	89.81
452.428	92.81
452.648	107.81
452.869	118.81
453.089	117.81
453.31	124.81
453.53	108.81
453.751	105.81
453.971	108.81
454.192	106.81
454.412	95.81
454.633	89.81
454.853	94.81
455.073	100.81
455.294	108.81
455.514	108.81
455.734	91.81
455.955	66.81
456.175	68.81
456.395	83.81
456.616	84.81
456.836	98.81
457.056	87.81
457.276	81.81
457.497	85.81
457.717	96.81
457.937	83.81
458.157	85.81
458.377	94.81
458.598	112.81
458.818	180.81
459.038	175.81
459.258	122.81
459.478	88.81
459.698	77.81
459.918	84.81
460.138	85.81
460.358	87.81
460.578	101.81
460.798	93.81
461.018	96.81
461.238	83.81
461.458	83.81
461.678	80.81
461.898	83.81
462.118	92.81
462.338	79.81
462.558	76.81
462.777	75.81
462.997	84.81
463.217	97.81
463.437	84.81
463.657	84.81
463.876	96.81
464.096	83.81
464.316	83.81
464.536	93.81
464.755	93.81
464.975	109.81
465.195	203.81
465.414	169.81
465.634	85.81
465.854	87.81
466.073	89.81
466.293	90.81
466.512	95.81
466.732	88.81
466.951	91.81
467.171	105.81
467.391	99.81
467.61	114.81
467.829	104.81
468.049	78.81
468.268	82.81
468.488	72.81
468.707	79.81
468.927	84.81
469.146	74.81
469.365	92.81
469.585	79.81
469.804	91.81
470.023	100.81
470.243	92.81
470.462	96.81
470.681	121.81
470.901	77.81
471.12	94.81
471.339	86.81
471.558	82.81
471.777	90.81
471.997	96.81
472.216	89.81
472.435	97.81
472.654	82.81
472.873	84.81
473.092	85.81
473.311	89.81
473.53	80.81
473.749	86.81
473.968	97.81
474.187	108.81
474.406	99.81
474.625	88.81
474.844	77.81
475.063	84.81
475.282	100.81
475.501	97.81
475.72	98.81
475.939	93.81
476.158	94.81
476.377	88.81
476.596	77.81
476.814	85.81
477.033	102.81
477.252	99.81
477.471	96.81
477.69	82.81
477.908	90.81
478.127	88.81
478.346	68.81
478.564	82.81
478.783	106.81
479.002	98.81
479.22	106.81
479.439	96.81
479.658	85.81
479.876	88.81
480.095	94.81
480.313	82.81
480.532	79.81
480.751	99.81
480.969	87.81
481.188	108.81
481.406	107.81
481.624	94.81
481.843	72.81
482.061	79.81
482.28	97.81
482.498	95.81
482.717	99.81
482.935	86.81
483.153	85.81
483.372	91.81
483.59	84.81
483.808	94.81
484.027	82.81
484.245	95.81
484.463	85.81
484.681	114.81
484.9	84.81
485.118	88.81
485.336	101.81
485.554	102.81
485.772	100.81
485.99	109.81
486.209	100.81
486.427	111.81
486.645	112.81
486.863	133.81
487.081	102.81
487.299	91.81
487.517	100.81
487.735	89.81
487.953	93.81
488.171	101.81
488.389	92.81
488.607	90.81
488.825	91.81
489.043	84.81
489.261	82.81
489.479	92.81
489.696	85.81
489.914	93.81
490.132	88.81
490.35	78.81
490.568	75.81
490.786	86.81
491.003	88.81
491.221	88.81
491.439	81.81
491.657	83.81
491.874	100.81
492.092	101.81
492.31	92.81
492.527	89.81
492.745	83.81
492.963	88.81
493.18	94.81
493.398	84.81
493.615	101.81
493.833	107.81
494.05	114.81
494.268	91.81
494.485	88.81
494.703	85.81
494.92	94.81
495.138	92.81
495.355	87.81
495.573	88.81
495.79	91.81
496.008	93.81
496.225	95.81
496.442	83.81
496.66	99.81
496.877	93.81
497.094	95.81
497.312	85.81
497.529	106.81
497.746	94.81
497.963	87.81
498.181	93.81
498.398	91.81
498.615	94.81
498.832	110.81
499.049	104.81
499.267	90.81
499.484	91.81
499.701	93.81
499.918	82.81
500.135	83.81
500.352	85.81
500.569	82.81
500.786	88.81
501.003	90.81
501.22	88.81
501.437	102.81
501.654	105.81
501.871	106.81
502.088	82.81
502.305	85.81
502.522	92.81
502.739	85.81
502.956	91.81
503.172	90.81
503.389	99.81
503.606	109.81
503.823	108.81
504.04	90.81
504.256	88.81
504.473	91.81
504.69	86.81
504.907	92.81
505.123	96.81
505.34	87.81
505.557	88.81
505.773	74.81
505.99	89.81
506.207	97.81
506.423	86.81
506.64	89.81
506.856	91.81
507.073	86.81
507.289	90.81
507.506	101.81
507.722	129.81
507.939	124.81
508.155	101.81
508.372	89.81
508.588	90.81
508.805	93.81
509.021	93.81
509.238	98.81
509.454	117.81
509.67	100.81
509.887	109.81
510.103	165.81
510.319	247.81
510.536	888.81
510.752	3096.81
510.968	868.81
511.184	184.81
511.401	121.81
511.617	91.81
511.833	97.81
512.049	86.81
512.265	96.81
512.481	93.81
512.698	110.81
512.914	89.81
513.13	89.81
513.346	89.81
513.562	100.81
513.778	96.81
513.994	100.81
514.21	109.81
514.426	133.81
514.642	144.81
514.858	132.81
515.074	193.81
515.29	587.81
