Data from Circ_2012_H10_HRD10591_00067.txt Node
Date: Wed Jan 03 10:06:03 EST 2024
User: Yrep
Spectrometer: HR+D1059
Trigger mode: 1
Integration Time (sec): 1.000000E-1
Scans to average: 1
Electric dark correction enabled: true
Nonlinearity correction enabled: false
Boxcar width: 0
XAxis mode: Wavelengths
Number of Pixels in Spectrum: 2048
>>>>>Begin Spectral Data<<<<<
223.165	-19.31
223.4	-19.31
223.635	-19.31
223.869	-5.31
224.104	-11.31
224.338	-8.31
224.573	-27.31
224.808	-13.31
225.042	-15.31
225.277	-5.31
225.511	1.69
225.746	4.69
225.98	0.69
226.215	5.69
226.449	12.69
226.683	16.69
226.918	36.69
227.152	26.69
227.387	40.69
227.621	32.69
227.856	50.69
228.09	53.69
228.324	42.69
228.559	52.69
228.793	64.69
229.027	59.69
229.262	66.69
229.496	65.69
229.73	86.69
229.964	75.69
230.199	68.69
230.433	71.69
230.667	75.69
230.901	78.69
231.136	73.69
231.37	90.69
231.604	80.69
231.838	82.69
232.072	75.69
232.306	80.69
232.541	74.69
232.775	72.69
233.009	82.69
233.243	78.69
233.477	74.69
233.711	78.69
233.945	80.69
234.179	62.69
234.413	68.69
234.647	71.69
234.881	81.69
235.115	83.69
235.349	78.69
235.583	74.69
235.817	75.69
236.051	78.69
236.285	88.69
236.519	79.69
236.753	88.69
236.987	75.69
237.221	72.69
237.455	79.69
237.689	76.69
237.922	84.69
238.156	77.69
238.39	73.69
238.624	77.69
238.858	83.69
239.091	85.69
239.325	77.69
239.559	86.69
239.793	78.69
240.027	79.69
240.26	77.69
240.494	78.69
240.728	74.69
240.961	70.69
241.195	86.69
241.429	73.69
241.662	75.69
241.896	79.69
242.13	59.69
242.363	86.69
242.597	72.69
242.83	66.69
243.064	72.69
243.298	75.69
243.531	66.69
243.765	73.69
243.998	72.69
244.232	78.69
244.465	71.69
244.699	91.69
244.932	86.69
245.166	76.69
245.399	83.69
245.633	80.69
245.866	72.69
246.099	75.69
246.333	78.69
246.566	79.69
246.8	78.69
247.033	80.69
247.266	88.69
247.5	72.69
247.733	83.69
247.966	77.69
248.2	71.69
248.433	61.69
248.666	78.69
248.899	86.69
249.133	79.69
249.366	94.69
249.599	87.69
249.832	88.69
250.066	68.69
250.299	87.69
250.532	75.69
250.765	82.69
250.998	76.69
251.231	84.69
251.465	74.69
251.698	63.69
251.931	80.69
252.164	69.69
252.397	78.69
252.63	76.69
252.863	57.69
253.096	84.69
253.329	78.69
253.562	73.69
253.795	80.69
254.028	69.69
254.261	72.69
254.494	76.69
254.727	77.69
254.96	70.69
255.193	73.69
255.426	76.69
255.659	89.69
255.892	70.69
256.124	82.69
256.357	73.69
256.59	71.69
256.823	81.69
257.056	81.69
257.289	81.69
257.521	85.69
257.754	77.69
257.987	77.69
258.22	84.69
258.452	80.69
258.685	70.69
258.918	70.69
259.151	85.69
259.383	82.69
259.616	87.69
259.849	88.69
260.081	91.69
260.314	77.69
260.547	79.69
260.779	69.69
261.012	97.69
261.244	76.69
261.477	77.69
261.71	96.69
261.942	106.69
262.175	116.69
262.407	86.69
262.64	92.69
262.872	65.69
263.105	74.69
263.337	82.69
263.57	85.69
263.802	81.69
264.035	64.69
264.267	87.69
264.499	71.69
264.732	84.69
264.964	79.69
265.197	77.69
265.429	75.69
265.661	91.69
265.894	78.69
266.126	95.69
266.358	84.69
266.591	78.69
266.823	92.69
267.055	76.69
267.287	87.69
267.52	79.69
267.752	88.69
267.984	81.69
268.216	84.69
268.448	87.69
268.681	88.69
268.913	79.69
269.145	87.69
269.377	75.69
269.609	81.69
269.841	85.69
270.073	73.69
270.306	74.69
270.538	83.69
270.77	85.69
271.002	88.69
271.234	80.69
271.466	78.69
271.698	101.69
271.93	91.69
272.162	76.69
272.394	79.69
272.626	78.69
272.858	91.69
273.09	84.69
273.322	71.69
273.553	86.69
273.785	87.69
274.017	77.69
274.249	69.69
274.481	72.69
274.713	72.69
274.945	79.69
275.176	79.69
275.408	100.69
275.64	94.69
275.872	82.69
276.104	85.69
276.335	74.69
276.567	79.69
276.799	100.69
277.031	105.69
277.262	80.69
277.494	83.69
277.726	73.69
277.957	84.69
278.189	76.69
278.421	87.69
278.652	78.69
278.884	95.69
279.115	94.69
279.347	84.69
279.579	78.69
279.81	88.69
280.042	78.69
280.273	88.69
280.505	85.69
280.736	82.69
280.968	79.69
281.199	82.69
281.431	84.69
281.662	69.69
281.894	85.69
282.125	87.69
282.356	108.69
282.588	142.69
282.819	109.69
283.051	102.69
283.282	94.69
283.513	81.69
283.745	92.69
283.976	75.69
284.207	88.69
284.439	65.69
284.67	80.69
284.901	96.69
285.132	76.69
285.364	72.69
285.595	78.69
285.826	93.69
286.057	91.69
286.288	75.69
286.52	80.69
286.751	85.69
286.982	82.69
287.213	94.69
287.444	83.69
287.675	90.69
287.906	88.69
288.138	89.69
288.369	90.69
288.6	87.69
288.831	85.69
289.062	84.69
289.293	86.69
289.524	78.69
289.755	85.69
289.986	72.69
290.217	97.69
290.448	73.69
290.679	81.69
290.91	80.69
291.141	81.69
291.371	90.69
291.602	84.69
291.833	77.69
292.064	92.69
292.295	78.69
292.526	76.69
292.757	87.69
292.987	104.69
293.218	87.69
293.449	100.69
293.68	84.69
293.91	78.69
294.141	88.69
294.372	98.69
294.603	88.69
294.833	91.69
295.064	97.69
295.295	95.69
295.525	97.69
295.756	97.69
295.987	119.69
296.217	137.69
296.448	129.69
296.679	84.69
296.909	89.69
297.14	97.69
297.37	96.69
297.601	100.69
297.831	86.69
298.062	98.69
298.292	81.69
298.523	82.69
298.753	85.69
298.984	84.69
299.214	88.69
299.445	82.69
299.675	104.69
299.905	93.69
300.136	104.69
300.366	81.69
300.597	84.69
300.827	90.69
301.057	105.69
301.288	96.69
301.518	98.69
301.748	88.69
301.979	93.69
302.209	90.69
302.439	83.69
302.669	90.69
302.9	82.69
303.13	98.69
303.36	94.69
303.59	113.69
303.82	103.69
304.051	97.69
304.281	87.69
304.511	95.69
304.741	86.69
304.971	89.69
305.201	74.69
305.431	83.69
305.661	76.69
305.891	82.69
306.121	89.69
306.352	94.69
306.582	103.69
306.812	95.69
307.042	92.69
307.272	85.69
307.502	76.69
307.731	92.69
307.961	91.69
308.191	86.69
308.421	79.69
308.651	87.69
308.881	98.69
309.111	111.69
309.341	99.69
309.571	83.69
309.8	88.69
310.03	103.69
310.26	80.69
310.49	81.69
310.72	82.69
310.949	83.69
311.179	93.69
311.409	75.69
311.639	99.69
311.868	83.69
312.098	99.69
312.328	84.69
312.557	98.69
312.787	108.69
313.017	84.69
313.246	105.69
313.476	91.69
313.706	99.69
313.935	65.69
314.165	88.69
314.394	99.69
314.624	96.69
314.853	76.69
315.083	82.69
315.312	75.69
315.542	98.69
315.771	92.69
316.001	90.69
316.23	95.69
316.46	84.69
316.689	84.69
316.919	97.69
317.148	91.69
317.377	99.69
317.607	85.69
317.836	85.69
318.065	85.69
318.295	81.69
318.524	76.69
318.753	99.69
318.983	100.69
319.212	106.69
319.441	111.69
319.67	98.69
319.9	97.69
320.129	89.69
320.358	82.69
320.587	100.69
320.816	98.69
321.046	96.69
321.275	97.69
321.504	84.69
321.733	72.69
321.962	100.69
322.191	88.69
322.42	104.69
322.649	93.69
322.878	117.69
323.108	124.69
323.337	124.69
323.566	123.69
323.795	150.69
324.024	205.69
324.253	379.69
324.482	843.69
324.71	1724.69
324.939	2263.69
325.168	834.69
325.397	235.69
325.626	146.69
325.855	136.69
326.084	108.69
326.313	137.69
326.542	153.69
326.77	226.69
326.999	469.69
327.228	938.69
327.457	1712.69
327.686	1341.69
327.914	368.69
328.143	212.69
328.372	184.69
328.6	142.69
328.829	101.69
329.058	132.69
329.287	117.69
329.515	107.69
329.744	113.69
329.972	109.69
330.201	150.69
330.43	172.69
330.658	154.69
330.887	160.69
331.115	130.69
331.344	94.69
331.572	92.69
331.801	90.69
332.03	112.69
332.258	94.69
332.486	104.69
332.715	90.69
332.943	98.69
333.172	104.69
333.4	90.69
333.629	94.69
333.857	129.69
334.085	110.69
334.314	138.69
334.542	195.69
334.771	174.69
334.999	103.69
335.227	114.69
335.455	98.69
335.684	98.69
335.912	113.69
336.14	92.69
336.369	90.69
336.597	103.69
336.825	103.69
337.053	84.69
337.281	93.69
337.51	102.69
337.738	90.69
337.966	84.69
338.194	84.69
338.422	109.69
338.65	95.69
338.878	97.69
339.106	79.69
339.334	88.69
339.562	90.69
339.79	85.69
340.018	96.69
340.246	83.69
340.474	92.69
340.702	93.69
340.93	93.69
341.158	105.69
341.386	91.69
341.614	99.69
341.842	89.69
342.07	84.69
342.298	88.69
342.526	94.69
342.754	76.69
342.981	98.69
343.209	83.69
343.437	87.69
343.665	83.69
343.893	88.69
344.12	108.69
344.348	93.69
344.576	81.69
344.804	85.69
345.031	97.69
345.259	84.69
345.487	75.69
345.714	103.69
345.942	96.69
346.17	84.69
346.397	101.69
346.625	80.69
346.853	95.69
347.08	88.69
347.308	108.69
347.535	99.69
347.763	112.69
347.99	103.69
348.218	97.69
348.445	102.69
348.673	96.69
348.9	97.69
349.128	90.69
349.355	95.69
349.583	85.69
349.81	99.69
350.037	90.69
350.265	78.69
350.492	82.69
350.72	91.69
350.947	97.69
351.174	103.69
351.402	113.69
351.629	95.69
351.856	86.69
352.083	94.69
352.311	99.69
352.538	110.69
352.765	98.69
352.992	117.69
353.22	106.69
353.447	97.69
353.674	97.69
353.901	96.69
354.128	91.69
354.355	100.69
354.583	99.69
354.81	87.69
355.037	99.69
355.264	94.69
355.491	83.69
355.718	90.69
355.945	93.69
356.172	99.69
356.399	90.69
356.626	96.69
356.853	90.69
357.08	73.69
357.307	92.69
357.534	89.69
357.761	82.69
357.988	100.69
358.215	88.69
358.441	90.69
358.668	93.69
358.895	81.69
359.122	92.69
359.349	90.69
359.576	81.69
359.802	101.69
360.029	129.69
360.256	94.69
360.483	100.69
360.709	88.69
360.936	93.69
361.163	97.69
361.39	84.69
361.616	104.69
361.843	84.69
362.07	101.69
362.296	85.69
362.523	87.69
362.749	96.69
362.976	76.69
363.203	103.69
363.429	78.69
363.656	85.69
363.882	97.69
364.109	96.69
364.335	92.69
364.562	82.69
364.788	86.69
365.015	89.69
365.241	95.69
365.468	93.69
365.694	98.69
365.92	86.69
366.147	100.69
366.373	84.69
366.599	86.69
366.826	95.69
367.052	100.69
367.278	91.69
367.505	75.69
367.731	85.69
367.957	100.69
368.184	99.69
368.41	95.69
368.636	93.69
368.862	109.69
369.089	107.69
369.315	84.69
369.541	94.69
369.767	90.69
369.993	90.69
370.219	92.69
370.445	93.69
370.672	85.69
370.898	86.69
371.124	90.69
371.35	96.69
371.576	85.69
371.802	85.69
372.028	108.69
372.254	91.69
372.48	86.69
372.706	86.69
372.932	68.69
373.158	100.69
373.384	97.69
373.61	98.69
373.835	94.69
374.061	83.69
374.287	77.69
374.513	76.69
374.739	87.69
374.965	80.69
375.191	78.69
375.416	88.69
375.642	98.69
375.868	97.69
376.094	90.69
376.319	76.69
376.545	91.69
376.771	77.69
376.997	95.69
377.222	84.69
377.448	95.69
377.674	81.69
377.899	79.69
378.125	83.69
378.35	78.69
378.576	92.69
378.802	84.69
379.027	92.69
379.253	90.69
379.478	82.69
379.704	89.69
379.929	85.69
380.155	89.69
380.38	70.69
380.606	85.69
380.831	88.69
381.057	81.69
381.282	85.69
381.507	87.69
381.733	102.69
381.958	97.69
382.184	93.69
382.409	99.69
382.634	101.69
382.86	82.69
383.085	98.69
383.31	100.69
383.535	91.69
383.761	101.69
383.986	94.69
384.211	89.69
384.436	86.69
384.662	107.69
384.887	100.69
385.112	112.69
385.337	87.69
385.562	105.69
385.787	103.69
386.013	110.69
386.238	114.69
386.463	105.69
386.688	105.69
386.913	98.69
387.138	88.69
387.363	92.69
387.588	97.69
387.813	90.69
388.038	98.69
388.263	104.69
388.488	93.69
388.713	91.69
388.938	87.69
389.163	100.69
389.387	97.69
389.612	101.69
389.837	93.69
390.062	82.69
390.287	89.69
390.512	95.69
390.736	76.69
390.961	86.69
391.186	85.69
391.411	90.69
391.636	88.69
391.86	84.69
392.085	96.69
392.31	93.69
392.534	82.69
392.759	71.69
392.984	91.69
393.208	86.69
393.433	80.69
393.658	96.69
393.882	86.69
394.107	77.69
394.331	76.69
394.556	81.69
394.78	68.69
395.005	91.69
395.229	97.69
395.454	96.69
395.678	74.69
395.903	82.69
396.127	99.69
396.352	84.69
396.576	89.69
396.801	82.69
397.025	91.69
397.249	88.69
397.474	85.69
397.698	87.69
397.922	80.69
398.147	90.69
398.371	87.69
398.595	73.69
398.82	82.69
399.044	76.69
399.268	85.69
399.492	84.69
399.717	99.69
399.941	88.69
400.165	91.69
400.389	82.69
400.613	90.69
400.837	91.69
401.062	105.69
401.286	85.69
401.51	82.69
401.734	81.69
401.958	86.69
402.182	138.69
402.406	158.69
402.63	110.69
402.854	85.69
403.078	79.69
403.302	80.69
403.526	86.69
403.75	76.69
403.974	78.69
404.198	77.69
404.422	88.69
404.645	72.69
404.869	94.69
405.093	83.69
405.317	96.69
405.541	85.69
405.765	100.69
405.988	125.69
406.212	184.69
406.436	220.69
406.66	154.69
406.883	84.69
407.107	86.69
407.331	87.69
407.555	94.69
407.778	91.69
408.002	90.69
408.226	86.69
408.449	95.69
408.673	77.69
408.896	75.69
409.12	79.69
409.344	80.69
409.567	83.69
409.791	90.69
410.014	85.69
410.238	89.69
410.461	85.69
410.685	79.69
410.908	94.69
411.132	113.69
411.355	109.69
411.578	82.69
411.802	85.69
412.025	93.69
412.249	85.69
412.472	82.69
412.695	98.69
412.919	88.69
413.142	92.69
413.365	98.69
413.589	87.69
413.812	82.69
414.035	93.69
414.258	78.69
414.482	88.69
414.705	96.69
414.928	95.69
415.151	94.69
415.374	101.69
415.597	75.69
415.821	94.69
416.044	92.69
416.267	91.69
416.49	97.69
416.713	89.69
416.936	74.69
417.159	102.69
417.382	82.69
417.605	90.69
417.828	99.69
418.051	102.69
418.274	78.69
418.497	74.69
418.72	88.69
418.943	80.69
419.166	88.69
419.389	84.69
419.611	71.69
419.834	77.69
420.057	90.69
420.28	80.69
420.503	86.69
420.726	76.69
420.948	68.69
421.171	100.69
421.394	81.69
421.617	97.69
421.839	88.69
422.062	97.69
422.285	97.69
422.507	87.69
422.73	103.69
422.953	92.69
423.175	100.69
423.398	85.69
423.621	91.69
423.843	80.69
424.066	81.69
424.288	72.69
424.511	90.69
424.733	87.69
424.956	92.69
425.178	95.69
425.401	93.69
425.623	89.69
425.846	77.69
426.068	98.69
426.291	90.69
426.513	86.69
426.735	81.69
426.958	81.69
427.18	114.69
427.402	132.69
427.625	166.69
427.847	133.69
428.069	113.69
428.292	78.69
428.514	72.69
428.736	98.69
428.958	84.69
429.181	85.69
429.403	87.69
429.625	90.69
429.847	100.69
430.069	102.69
430.292	94.69
430.514	74.69
430.736	77.69
430.958	86.69
431.18	86.69
431.402	92.69
431.624	89.69
431.846	89.69
432.068	75.69
432.29	88.69
432.512	77.69
432.734	95.69
432.956	92.69
433.178	107.69
433.4	103.69
433.622	106.69
433.844	98.69
434.066	103.69
434.287	80.69
434.509	97.69
434.731	96.69
434.953	90.69
435.175	89.69
435.397	79.69
435.618	84.69
435.84	88.69
436.062	112.69
436.284	108.69
436.505	93.69
436.727	101.69
436.949	84.69
437.17	91.69
437.392	90.69
437.614	106.69
437.835	98.69
438.057	126.69
438.278	113.69
438.5	103.69
438.721	113.69
438.943	99.69
439.165	92.69
439.386	81.69
439.608	87.69
439.829	91.69
440.05	105.69
440.272	144.69
440.493	90.69
440.715	91.69
440.936	86.69
441.158	84.69
441.379	91.69
441.6	100.69
441.822	90.69
442.043	72.69
442.264	96.69
442.486	96.69
442.707	86.69
442.928	102.69
443.149	134.69
443.371	122.69
443.592	101.69
443.813	112.69
444.034	101.69
444.255	87.69
444.476	83.69
444.698	86.69
444.919	90.69
445.14	123.69
445.361	112.69
445.582	123.69
445.803	129.69
446.024	133.69
446.245	122.69
446.466	104.69
446.687	97.69
446.908	94.69
447.129	81.69
447.35	82.69
447.571	88.69
447.792	90.69
448.013	91.69
448.234	100.69
448.455	97.69
448.675	113.69
448.896	108.69
449.117	87.69
449.338	99.69
449.559	116.69
449.779	127.69
450	83.69
450.221	96.69
450.442	90.69
450.662	84.69
450.883	96.69
451.104	96.69
451.324	75.69
451.545	82.69
451.766	97.69
451.986	95.69
452.207	86.69
452.428	103.69
452.648	94.69
452.869	105.69
453.089	95.69
453.31	105.69
453.53	108.69
453.751	82.69
453.971	118.69
454.192	107.69
454.412	104.69
454.633	89.69
454.853	74.69
455.073	58.69
455.294	81.69
455.514	85.69
455.734	92.69
455.955	82.69
456.175	73.69
456.395	76.69
456.616	90.69
456.836	84.69
457.056	95.69
457.276	87.69
457.497	72.69
457.717	80.69
457.937	83.69
458.157	99.69
458.377	84.69
458.598	103.69
458.818	146.69
459.038	148.69
459.258	106.69
459.478	93.69
459.698	92.69
459.918	95.69
460.138	95.69
460.358	87.69
460.578	74.69
460.798	75.69
461.018	87.69
461.238	86.69
461.458	88.69
461.678	83.69
461.898	68.69
462.118	78.69
462.338	84.69
462.558	83.69
462.777	81.69
462.997	94.69
463.217	85.69
463.437	93.69
463.657	85.69
463.876	86.69
464.096	90.69
464.316	100.69
464.536	64.69
464.755	91.69
464.975	103.69
465.195	168.69
465.414	165.69
465.634	91.69
465.854	88.69
466.073	74.69
466.293	79.69
466.512	84.69
466.732	91.69
466.951	86.69
467.171	96.69
467.391	91.69
467.61	108.69
467.829	98.69
468.049	123.69
468.268	128.69
468.488	98.69
468.707	83.69
468.927	78.69
469.146	87.69
469.365	84.69
469.585	102.69
469.804	85.69
470.023	96.69
470.243	84.69
470.462	101.69
470.681	124.69
470.901	84.69
471.12	83.69
471.339	97.69
471.558	82.69
471.777	88.69
471.997	94.69
472.216	160.69
472.435	240.69
472.654	121.69
472.873	93.69
473.092	86.69
473.311	81.69
473.53	88.69
473.749	84.69
473.968	83.69
474.187	104.69
474.406	91.69
474.625	94.69
474.844	87.69
475.063	88.69
475.282	75.69
475.501	79.69
475.72	93.69
475.939	86.69
476.158	105.69
476.377	97.69
476.596	88.69
476.814	102.69
477.033	102.69
477.252	81.69
477.471	88.69
477.69	86.69
477.908	88.69
478.127	99.69
478.346	89.69
478.564	82.69
478.783	114.69
479.002	90.69
479.22	103.69
479.439	90.69
479.658	93.69
479.876	94.69
480.095	86.69
480.313	92.69
480.532	90.69
480.751	95.69
480.969	162.69
481.188	375.69
481.406	246.69
481.624	99.69
481.843	97.69
482.061	77.69
482.28	77.69
482.498	89.69
482.717	96.69
482.935	81.69
483.153	86.69
483.372	72.69
483.59	92.69
483.808	82.69
484.027	91.69
484.245	81.69
484.463	87.69
484.681	82.69
484.9	87.69
485.118	93.69
485.336	97.69
485.554	75.69
485.772	91.69
485.99	90.69
486.209	109.69
486.427	99.69
486.645	93.69
486.863	106.69
487.081	94.69
487.299	91.69
487.517	88.69
487.735	87.69
487.953	89.69
488.171	92.69
488.389	97.69
488.607	91.69
488.825	84.69
489.043	87.69
489.261	74.69
489.479	92.69
489.696	83.69
489.914	96.69
490.132	86.69
490.35	97.69
490.568	75.69
490.786	77.69
491.003	85.69
491.221	90.69
491.439	81.69
491.657	81.69
491.874	78.69
492.092	90.69
492.31	83.69
492.527	92.69
492.745	81.69
492.963	86.69
493.18	91.69
493.398	77.69
493.615	84.69
493.833	84.69
494.05	95.69
494.268	80.69
494.485	86.69
494.703	88.69
494.92	77.69
495.138	77.69
495.355	82.69
495.573	80.69
495.79	82.69
496.008	76.69
496.225	87.69
496.442	78.69
496.66	98.69
496.877	92.69
497.094	94.69
497.312	85.69
497.529	68.69
497.746	84.69
497.963	88.69
498.181	95.69
498.398	86.69
498.615	107.69
498.832	103.69
499.049	88.69
499.267	93.69
499.484	88.69
499.701	85.69
499.918	79.69
500.135	91.69
500.352	86.69
500.569	99.69
500.786	85.69
501.003	78.69
501.22	96.69
501.437	109.69
501.654	82.69
501.871	96.69
502.088	90.69
502.305	99.69
502.522	79.69
502.739	76.69
502.956	84.69
503.172	91.69
503.389	76.69
503.606	110.69
503.823	82.69
504.04	91.69
504.256	102.69
504.473	87.69
504.69	72.69
504.907	94.69
505.123	87.69
505.34	90.69
505.557	74.69
505.773	89.69
505.99	97.69
506.207	95.69
506.423	74.69
506.64	90.69
506.856	94.69
507.073	96.69
507.289	86.69
507.506	77.69
507.722	111.69
507.939	108.69
508.155	90.69
508.372	87.69
508.588	111.69
508.805	96.69
509.021	82.69
509.238	98.69
509.454	89.69
509.67	99.69
509.887	116.69
510.103	138.69
510.319	216.69
510.536	843.69
510.752	2794.69
510.968	776.69
511.184	165.69
511.401	99.69
511.617	93.69
511.833	97.69
512.049	103.69
512.265	94.69
512.481	94.69
512.698	90.69
512.914	79.69
513.13	93.69
513.346	95.69
513.562	104.69
513.778	106.69
513.994	105.69
514.21	99.69
514.426	127.69
514.642	128.69
514.858	131.69
515.074	178.69
515.29	480.69
515.506	1630.69
515.721	600.69
515.937	165.69
516.153	111.69
516.369	101.69
516.585	88.69
