Data from Circ_2012_H10_HRD10591_00022.txt Node
Date: Wed Jan 03 10:05:54 EST 2024
User: Yrep
Spectrometer: HR+D1059
Trigger mode: 1
Integration Time (sec): 1.000000E-1
Scans to average: 1
Electric dark correction enabled: true
Nonlinearity correction enabled: false
Boxcar width: 0
XAxis mode: Wavelengths
Number of Pixels in Spectrum: 2048
>>>>>Begin Spectral Data<<<<<
223.165	-16.81
223.4	-16.81
223.635	-16.81
223.869	-15.81
224.104	-27.81
224.338	-8.81
224.573	-9.81
224.808	-20.81
225.042	-10.81
225.277	-9.81
225.511	-6.81
225.746	3.19
225.98	16.19
226.215	13.19
226.449	26.19
226.683	21.19
226.918	22.19
227.152	25.19
227.387	26.19
227.621	39.19
227.856	57.19
228.09	34.19
228.324	47.19
228.559	45.19
228.793	66.19
229.027	63.19
229.262	55.19
229.496	79.19
229.73	86.19
229.964	88.19
230.199	67.19
230.433	74.19
230.667	79.19
230.901	88.19
231.136	80.19
231.37	91.19
231.604	73.19
231.838	69.19
232.072	86.19
232.306	80.19
232.541	72.19
232.775	83.19
233.009	78.19
233.243	75.19
233.477	79.19
233.711	75.19
233.945	79.19
234.179	74.19
234.413	78.19
234.647	86.19
234.881	75.19
235.115	83.19
235.349	88.19
235.583	78.19
235.817	78.19
236.051	72.19
236.285	71.19
236.519	79.19
236.753	91.19
236.987	86.19
237.221	96.19
237.455	65.19
237.689	81.19
237.922	83.19
238.156	87.19
238.39	77.19
238.624	70.19
238.858	91.19
239.091	68.19
239.325	93.19
239.559	81.19
239.793	81.19
240.027	77.19
240.26	80.19
240.494	63.19
240.728	83.19
240.961	82.19
241.195	73.19
241.429	87.19
241.662	74.19
241.896	70.19
242.13	82.19
242.363	71.19
242.597	68.19
242.83	77.19
243.064	79.19
243.298	69.19
243.531	81.19
243.765	91.19
243.998	90.19
244.232	84.19
244.465	89.19
244.699	78.19
244.932	76.19
245.166	84.19
245.399	79.19
245.633	91.19
245.866	87.19
246.099	86.19
246.333	83.19
246.566	88.19
246.8	76.19
247.033	86.19
247.266	82.19
247.5	79.19
247.733	75.19
247.966	84.19
248.2	66.19
248.433	92.19
248.666	80.19
248.899	80.19
249.133	98.19
249.366	92.19
249.599	108.19
249.832	98.19
250.066	72.19
250.299	79.19
250.532	78.19
250.765	63.19
250.998	86.19
251.231	82.19
251.465	83.19
251.698	77.19
251.931	69.19
252.164	87.19
252.397	92.19
252.63	83.19
252.863	77.19
253.096	82.19
253.329	82.19
253.562	75.19
253.795	93.19
254.028	77.19
254.261	78.19
254.494	81.19
254.727	78.19
254.96	84.19
255.193	89.19
255.426	83.19
255.659	76.19
255.892	86.19
256.124	74.19
256.357	81.19
256.59	76.19
256.823	74.19
257.056	98.19
257.289	85.19
257.521	80.19
257.754	80.19
257.987	79.19
258.22	83.19
258.452	78.19
258.685	89.19
258.918	75.19
259.151	86.19
259.383	75.19
259.616	81.19
259.849	90.19
260.081	69.19
260.314	86.19
260.547	84.19
260.779	83.19
261.012	93.19
261.244	83.19
261.477	91.19
261.71	92.19
261.942	120.19
262.175	114.19
262.407	91.19
262.64	81.19
262.872	91.19
263.105	96.19
263.337	99.19
263.57	78.19
263.802	80.19
264.035	71.19
264.267	98.19
264.499	88.19
264.732	92.19
264.964	92.19
265.197	81.19
265.429	94.19
265.661	83.19
265.894	88.19
266.126	84.19
266.358	87.19
266.591	93.19
266.823	86.19
267.055	75.19
267.287	78.19
267.52	76.19
267.752	86.19
267.984	88.19
268.216	80.19
268.448	84.19
268.681	93.19
268.913	72.19
269.145	82.19
269.377	83.19
269.609	89.19
269.841	90.19
270.073	80.19
270.306	82.19
270.538	83.19
270.77	87.19
271.002	73.19
271.234	78.19
271.466	87.19
271.698	83.19
271.93	76.19
272.162	80.19
272.394	73.19
272.626	83.19
272.858	87.19
273.09	76.19
273.322	77.19
273.553	74.19
273.785	84.19
274.017	81.19
274.249	84.19
274.481	94.19
274.713	87.19
274.945	84.19
275.176	95.19
275.408	84.19
275.64	79.19
275.872	89.19
276.104	82.19
276.335	79.19
276.567	83.19
276.799	99.19
277.031	94.19
277.262	93.19
277.494	75.19
277.726	78.19
277.957	90.19
278.189	73.19
278.421	93.19
278.652	98.19
278.884	87.19
279.115	91.19
279.347	86.19
279.579	80.19
279.81	88.19
280.042	100.19
280.273	90.19
280.505	62.19
280.736	82.19
280.968	88.19
281.199	83.19
281.431	96.19
281.662	98.19
281.894	97.19
282.125	92.19
282.356	132.19
282.588	132.19
282.819	119.19
283.051	85.19
283.282	87.19
283.513	80.19
283.745	98.19
283.976	88.19
284.207	96.19
284.439	92.19
284.67	99.19
284.901	98.19
285.132	84.19
285.364	92.19
285.595	99.19
285.826	91.19
286.057	96.19
286.288	83.19
286.52	77.19
286.751	77.19
286.982	93.19
287.213	88.19
287.444	77.19
287.675	87.19
287.906	74.19
288.138	92.19
288.369	90.19
288.6	93.19
288.831	82.19
289.062	85.19
289.293	80.19
289.524	84.19
289.755	87.19
289.986	89.19
290.217	104.19
290.448	82.19
290.679	76.19
290.91	87.19
291.141	72.19
291.371	83.19
291.602	90.19
291.833	84.19
292.064	90.19
292.295	91.19
292.526	87.19
292.757	103.19
292.987	100.19
293.218	85.19
293.449	95.19
293.68	89.19
293.91	88.19
294.141	90.19
294.372	92.19
294.603	87.19
294.833	90.19
295.064	85.19
295.295	98.19
295.525	100.19
295.756	104.19
295.987	114.19
296.217	150.19
296.448	145.19
296.679	99.19
296.909	99.19
297.14	73.19
297.37	83.19
297.601	89.19
297.831	82.19
298.062	90.19
298.292	94.19
298.523	92.19
298.753	103.19
298.984	86.19
299.214	91.19
299.445	90.19
299.675	99.19
299.905	107.19
300.136	99.19
300.366	95.19
300.597	88.19
300.827	95.19
301.057	94.19
301.288	103.19
301.518	107.19
301.748	99.19
301.979	101.19
302.209	94.19
302.439	90.19
302.669	78.19
302.9	88.19
303.13	87.19
303.36	98.19
303.59	106.19
303.82	105.19
304.051	81.19
304.281	92.19
304.511	82.19
304.741	76.19
304.971	84.19
305.201	86.19
305.431	90.19
305.661	97.19
305.891	92.19
306.121	102.19
306.352	95.19
306.582	107.19
306.812	101.19
307.042	95.19
307.272	88.19
307.502	86.19
307.731	100.19
307.961	79.19
308.191	70.19
308.421	92.19
308.651	92.19
308.881	87.19
309.111	86.19
309.341	89.19
309.571	100.19
309.8	92.19
310.03	100.19
310.26	100.19
310.49	94.19
310.72	107.19
310.949	111.19
311.179	100.19
311.409	90.19
311.639	101.19
311.868	101.19
312.098	107.19
312.328	95.19
312.557	102.19
312.787	90.19
313.017	91.19
313.246	91.19
313.476	94.19
313.706	99.19
313.935	89.19
314.165	100.19
314.394	111.19
314.624	108.19
314.853	94.19
315.083	97.19
315.312	92.19
315.542	83.19
315.771	95.19
316.001	95.19
316.23	98.19
316.46	104.19
316.689	89.19
316.919	91.19
317.148	102.19
317.377	109.19
317.607	91.19
317.836	94.19
318.065	82.19
318.295	101.19
318.524	107.19
318.753	103.19
318.983	100.19
319.212	108.19
319.441	104.19
319.67	109.19
319.9	98.19
320.129	95.19
320.358	103.19
320.587	94.19
320.816	90.19
321.046	117.19
321.275	95.19
321.504	102.19
321.733	109.19
321.962	99.19
322.191	111.19
322.42	116.19
322.649	108.19
322.878	111.19
323.108	107.19
323.337	137.19
323.566	135.19
323.795	160.19
324.024	219.19
324.253	460.19
324.482	966.19
324.71	1963.19
324.939	2519.19
325.168	936.19
325.397	277.19
325.626	161.19
325.855	134.19
326.084	127.19
326.313	142.19
326.542	152.19
326.77	248.19
326.999	516.19
327.228	1042.19
327.457	1961.19
327.686	1519.19
327.914	400.19
328.143	209.19
328.372	154.19
328.6	133.19
328.829	119.19
329.058	133.19
329.287	141.19
329.515	111.19
329.744	109.19
329.972	101.19
330.201	117.19
330.43	115.19
330.658	130.19
330.887	141.19
331.115	136.19
331.344	101.19
331.572	95.19
331.801	100.19
332.03	103.19
332.258	92.19
332.486	100.19
332.715	93.19
332.943	108.19
333.172	118.19
333.4	97.19
333.629	108.19
333.857	118.19
334.085	126.19
334.314	99.19
334.542	132.19
334.771	117.19
334.999	100.19
335.227	91.19
335.455	114.19
335.684	88.19
335.912	85.19
336.14	82.19
336.369	101.19
336.597	99.19
336.825	102.19
337.053	92.19
337.281	99.19
337.51	77.19
337.738	87.19
337.966	97.19
338.194	112.19
338.422	117.19
338.65	98.19
338.878	104.19
339.106	89.19
339.334	103.19
339.562	96.19
339.79	90.19
340.018	91.19
340.246	94.19
340.474	101.19
340.702	89.19
340.93	85.19
341.158	94.19
341.386	91.19
341.614	99.19
341.842	90.19
342.07	101.19
342.298	100.19
342.526	95.19
342.754	86.19
342.981	86.19
343.209	85.19
343.437	98.19
343.665	95.19
343.893	91.19
344.12	86.19
344.348	77.19
344.576	105.19
344.804	98.19
345.031	98.19
345.259	104.19
345.487	85.19
345.714	100.19
345.942	86.19
346.17	85.19
346.397	95.19
346.625	106.19
346.853	93.19
347.08	94.19
347.308	101.19
347.535	104.19
347.763	111.19
347.99	91.19
348.218	86.19
348.445	97.19
348.673	116.19
348.9	94.19
349.128	92.19
349.355	91.19
349.583	102.19
349.81	94.19
350.037	104.19
350.265	103.19
350.492	110.19
350.72	101.19
350.947	93.19
351.174	104.19
351.402	104.19
351.629	109.19
351.856	103.19
352.083	97.19
352.311	117.19
352.538	108.19
352.765	121.19
352.992	106.19
353.22	98.19
353.447	116.19
353.674	106.19
353.901	80.19
354.128	107.19
354.355	97.19
354.583	102.19
354.81	88.19
355.037	99.19
355.264	87.19
355.491	100.19
355.718	102.19
355.945	80.19
356.172	91.19
356.399	96.19
356.626	103.19
356.853	98.19
357.08	95.19
357.307	88.19
357.534	98.19
357.761	91.19
357.988	96.19
358.215	87.19
358.441	103.19
358.668	88.19
358.895	94.19
359.122	98.19
359.349	86.19
359.576	102.19
359.802	91.19
360.029	95.19
360.256	120.19
360.483	101.19
360.709	97.19
360.936	76.19
361.163	107.19
361.39	92.19
361.616	91.19
361.843	86.19
362.07	94.19
362.296	85.19
362.523	96.19
362.749	85.19
362.976	97.19
363.203	85.19
363.429	97.19
363.656	92.19
363.882	85.19
364.109	93.19
364.335	91.19
364.562	92.19
364.788	79.19
365.015	83.19
365.241	107.19
365.468	112.19
365.694	104.19
365.92	104.19
366.147	99.19
366.373	83.19
366.599	89.19
366.826	100.19
367.052	85.19
367.278	89.19
367.505	87.19
367.731	88.19
367.957	86.19
368.184	94.19
368.41	94.19
368.636	117.19
368.862	114.19
369.089	107.19
369.315	94.19
369.541	102.19
369.767	90.19
369.993	78.19
370.219	98.19
370.445	88.19
370.672	72.19
370.898	81.19
371.124	93.19
371.35	89.19
371.576	94.19
371.802	106.19
372.028	106.19
372.254	83.19
372.48	79.19
372.706	80.19
372.932	82.19
373.158	94.19
373.384	80.19
373.61	83.19
373.835	88.19
374.061	96.19
374.287	78.19
374.513	96.19
374.739	85.19
374.965	97.19
375.191	81.19
375.416	86.19
375.642	91.19
375.868	110.19
376.094	102.19
376.319	90.19
376.545	81.19
376.771	85.19
376.997	91.19
377.222	86.19
377.448	93.19
377.674	93.19
377.899	92.19
378.125	93.19
378.35	84.19
378.576	89.19
378.802	86.19
379.027	89.19
379.253	105.19
379.478	92.19
379.704	88.19
379.929	104.19
380.155	103.19
380.38	78.19
380.606	95.19
380.831	91.19
381.057	92.19
381.282	102.19
381.507	94.19
381.733	72.19
381.958	94.19
382.184	100.19
382.409	101.19
382.634	108.19
382.86	101.19
383.085	98.19
383.31	95.19
383.535	106.19
383.761	104.19
383.986	74.19
384.211	99.19
384.436	87.19
384.662	93.19
384.887	100.19
385.112	100.19
385.337	95.19
385.562	107.19
385.787	115.19
386.013	91.19
386.238	104.19
386.463	108.19
386.688	106.19
386.913	87.19
387.138	107.19
387.363	99.19
387.588	103.19
387.813	102.19
388.038	98.19
388.263	99.19
388.488	101.19
388.713	99.19
388.938	95.19
389.163	93.19
389.387	102.19
389.612	91.19
389.837	96.19
390.062	80.19
390.287	86.19
390.512	97.19
390.736	93.19
390.961	95.19
391.186	100.19
391.411	89.19
391.636	96.19
391.86	90.19
392.085	86.19
392.31	80.19
392.534	91.19
392.759	81.19
392.984	86.19
393.208	88.19
393.433	91.19
393.658	90.19
393.882	72.19
394.107	91.19
394.331	88.19
394.556	80.19
394.78	93.19
395.005	84.19
395.229	90.19
395.454	87.19
395.678	104.19
395.903	86.19
396.127	105.19
396.352	82.19
396.576	74.19
396.801	86.19
397.025	95.19
397.249	85.19
397.474	92.19
397.698	92.19
397.922	93.19
398.147	102.19
398.371	84.19
398.595	76.19
398.82	93.19
399.044	95.19
399.268	87.19
399.492	85.19
399.717	84.19
399.941	86.19
400.165	76.19
400.389	103.19
400.613	86.19
400.837	84.19
401.062	88.19
401.286	89.19
401.51	71.19
401.734	90.19
401.958	99.19
402.182	134.19
402.406	167.19
402.63	120.19
402.854	99.19
403.078	104.19
403.302	83.19
403.526	81.19
403.75	99.19
403.974	91.19
404.198	88.19
404.422	93.19
404.645	83.19
404.869	87.19
405.093	93.19
405.317	109.19
405.541	94.19
405.765	92.19
405.988	105.19
406.212	183.19
406.436	233.19
406.66	157.19
406.883	107.19
407.107	102.19
407.331	91.19
407.555	106.19
407.778	98.19
408.002	85.19
408.226	102.19
408.449	92.19
408.673	94.19
408.896	102.19
409.12	111.19
409.344	89.19
409.567	95.19
409.791	92.19
410.014	100.19
410.238	102.19
410.461	84.19
410.685	91.19
410.908	98.19
411.132	106.19
411.355	93.19
411.578	101.19
411.802	101.19
412.025	83.19
412.249	96.19
412.472	99.19
412.695	89.19
412.919	80.19
413.142	95.19
413.365	91.19
413.589	85.19
413.812	94.19
414.035	85.19
414.258	92.19
414.482	80.19
414.705	87.19
414.928	91.19
415.151	87.19
415.374	92.19
415.597	95.19
415.821	87.19
416.044	100.19
416.267	88.19
416.49	82.19
416.713	87.19
416.936	73.19
417.159	86.19
417.382	86.19
417.605	84.19
417.828	90.19
418.051	79.19
418.274	77.19
418.497	90.19
418.72	77.19
418.943	81.19
419.166	83.19
419.389	82.19
419.611	84.19
419.834	95.19
420.057	84.19
420.28	78.19
420.503	92.19
420.726	91.19
420.948	77.19
421.171	92.19
421.394	98.19
421.617	92.19
421.839	104.19
422.062	92.19
422.285	96.19
422.507	95.19
422.73	95.19
422.953	88.19
423.175	77.19
423.398	93.19
423.621	100.19
423.843	78.19
424.066	78.19
424.288	98.19
424.511	80.19
424.733	105.19
424.956	109.19
425.178	108.19
425.401	105.19
425.623	87.19
425.846	82.19
426.068	90.19
426.291	86.19
426.513	101.19
426.735	90.19
426.958	87.19
427.18	100.19
427.402	139.19
427.625	181.19
427.847	137.19
428.069	121.19
428.292	92.19
428.514	79.19
428.736	87.19
428.958	86.19
429.181	98.19
429.403	101.19
429.625	97.19
429.847	91.19
430.069	93.19
430.292	99.19
430.514	70.19
430.736	95.19
430.958	85.19
431.18	90.19
431.402	93.19
431.624	86.19
431.846	62.19
432.068	86.19
432.29	106.19
432.512	90.19
432.734	90.19
432.956	84.19
433.178	111.19
433.4	95.19
433.622	105.19
433.844	65.19
434.066	83.19
434.287	99.19
434.509	85.19
434.731	84.19
434.953	93.19
435.175	99.19
435.397	90.19
435.618	91.19
435.84	104.19
436.062	120.19
436.284	130.19
436.505	120.19
436.727	95.19
436.949	91.19
437.17	85.19
437.392	94.19
437.614	87.19
437.835	93.19
438.057	123.19
438.278	110.19
438.5	116.19
438.721	117.19
438.943	102.19
439.165	79.19
439.386	92.19
439.608	91.19
439.829	115.19
440.05	126.19
440.272	148.19
440.493	109.19
440.715	87.19
440.936	83.19
441.158	95.19
441.379	87.19
441.6	81.19
441.822	100.19
442.043	95.19
442.264	102.19
442.486	100.19
442.707	95.19
442.928	100.19
443.149	132.19
443.371	141.19
443.592	123.19
443.813	120.19
444.034	104.19
444.255	94.19
444.476	98.19
444.698	87.19
444.919	77.19
445.14	118.19
445.361	125.19
445.582	115.19
445.803	144.19
446.024	147.19
446.245	123.19
446.466	106.19
446.687	88.19
446.908	88.19
447.129	85.19
447.35	83.19
447.571	69.19
447.792	99.19
448.013	109.19
448.234	95.19
448.455	116.19
448.675	110.19
448.896	106.19
449.117	107.19
449.338	107.19
449.559	107.19
449.779	126.19
450	79.19
450.221	96.19
450.442	84.19
450.662	104.19
450.883	105.19
451.104	106.19
451.324	84.19
451.545	93.19
451.766	84.19
451.986	89.19
452.207	92.19
452.428	102.19
452.648	88.19
452.869	101.19
453.089	119.19
453.31	119.19
453.53	87.19
453.751	85.19
453.971	106.19
454.192	124.19
454.412	94.19
454.633	96.19
454.853	95.19
455.073	84.19
455.294	94.19
455.514	95.19
455.734	93.19
455.955	73.19
456.175	85.19
456.395	79.19
456.616	87.19
456.836	76.19
457.056	90.19
457.276	89.19
457.497	88.19
457.717	80.19
457.937	80.19
458.157	86.19
458.377	86.19
458.598	115.19
458.818	144.19
459.038	166.19
459.258	138.19
459.478	83.19
459.698	101.19
459.918	88.19
460.138	96.19
460.358	88.19
460.578	89.19
460.798	84.19
461.018	87.19
461.238	92.19
461.458	79.19
461.678	89.19
461.898	89.19
462.118	87.19
462.338	80.19
462.558	87.19
462.777	98.19
462.997	70.19
463.217	89.19
463.437	78.19
463.657	88.19
463.876	97.19
464.096	93.19
464.316	100.19
464.536	87.19
464.755	96.19
464.975	110.19
465.195	188.19
465.414	182.19
465.634	102.19
465.854	95.19
466.073	92.19
466.293	82.19
466.512	79.19
466.732	75.19
466.951	84.19
467.171	90.19
467.391	109.19
467.61	117.19
467.829	100.19
468.049	99.19
468.268	95.19
468.488	96.19
468.707	86.19
468.927	92.19
469.146	78.19
469.365	75.19
469.585	78.19
469.804	107.19
470.023	103.19
470.243	86.19
470.462	103.19
470.681	117.19
470.901	98.19
471.12	91.19
471.339	97.19
471.558	88.19
471.777	80.19
471.997	79.19
472.216	99.19
472.435	121.19
472.654	86.19
472.873	80.19
473.092	93.19
473.311	88.19
473.53	82.19
473.749	77.19
473.968	97.19
474.187	107.19
474.406	96.19
474.625	97.19
474.844	79.19
475.063	87.19
475.282	91.19
475.501	92.19
475.72	97.19
475.939	77.19
476.158	80.19
476.377	86.19
476.596	90.19
476.814	99.19
477.033	103.19
477.252	92.19
477.471	79.19
477.69	86.19
477.908	92.19
478.127	94.19
478.346	98.19
478.564	84.19
478.783	88.19
479.002	101.19
479.22	78.19
479.439	103.19
479.658	97.19
479.876	93.19
480.095	96.19
480.313	105.19
480.532	80.19
480.751	89.19
480.969	115.19
481.188	152.19
481.406	115.19
481.624	83.19
481.843	96.19
482.061	97.19
482.28	86.19
482.498	99.19
482.717	85.19
482.935	100.19
483.153	88.19
483.372	103.19
483.59	96.19
483.808	88.19
484.027	97.19
484.245	81.19
484.463	96.19
484.681	85.19
484.9	81.19
485.118	108.19
485.336	101.19
485.554	89.19
485.772	127.19
485.99	107.19
486.209	95.19
486.427	91.19
486.645	109.19
486.863	109.19
487.081	117.19
487.299	96.19
487.517	96.19
487.735	88.19
487.953	90.19
488.171	85.19
488.389	111.19
488.607	104.19
488.825	92.19
489.043	95.19
489.261	96.19
489.479	92.19
489.696	98.19
489.914	93.19
490.132	77.19
490.35	99.19
490.568	88.19
490.786	92.19
491.003	87.19
491.221	87.19
491.439	89.19
491.657	86.19
491.874	90.19
492.092	68.19
492.31	92.19
492.527	91.19
492.745	95.19
492.963	93.19
493.18	86.19
493.398	72.19
493.615	93.19
493.833	91.19
494.05	90.19
494.268	83.19
494.485	86.19
494.703	82.19
494.92	87.19
495.138	88.19
495.355	84.19
495.573	89.19
495.79	89.19
496.008	78.19
496.225	85.19
496.442	98.19
496.66	92.19
496.877	84.19
497.094	109.19
497.312	87.19
497.529	80.19
497.746	92.19
497.963	87.19
498.181	80.19
498.398	93.19
498.615	107.19
498.832	94.19
499.049	95.19
499.267	91.19
499.484	84.19
499.701	92.19
499.918	88.19
500.135	83.19
500.352	85.19
500.569	83.19
500.786	94.19
501.003	95.19
501.22	79.19
501.437	93.19
501.654	94.19
501.871	120.19
502.088	96.19
502.305	86.19
502.522	80.19
502.739	86.19
502.956	82.19
503.172	92.19
503.389	95.19
503.606	104.19
503.823	105.19
504.04	79.19
504.256	86.19
504.473	86.19
504.69	103.19
504.907	98.19
505.123	106.19
505.34	87.19
505.557	96.19
505.773	93.19
505.99	89.19
506.207	77.19
506.423	93.19
506.64	83.19
506.856	85.19
507.073	82.19
507.289	106.19
507.506	103.19
507.722	117.19
507.939	111.19
508.155	89.19
508.372	114.19
508.588	109.19
508.805	101.19
509.021	88.19
509.238	87.19
509.454	102.19
509.67	92.19
509.887	111.19
510.103	123.19
510.319	225.19
510.536	886.19
510.752	2880.19
510.968	820.19
511.184	174.19
511.401	112.19
511.617	91.19
511.833	94.19
512.049	99.19
512.265	87.19
512.481	100.19
512.698	101.19
512.914	99.19
513.13	86.19
513.346	80.19
513.562	93.19
513.778	90.19
513.994	80.19
514.21	97.19
514.426	120.19
514.642	150.19
514.858	136.19
515.074	180.19
515.29	535.19
