Data from Circ_2012_H10_HRD10591_00092.txt Node
Date: Wed Jan 03 10:06:08 EST 2024
User: Yrep
Spectrometer: HR+D1059
Trigger mode: 1
Integration Time (sec): 1.000000E-1
Scans to average: 1
Electric dark correction enabled: true
Nonlinearity correction enabled: false
Boxcar width: 0
XAxis mode: Wavelengths
Number of Pixels in Spectrum: 2048
>>>>>Begin Spectral Data<<<<<
223.165	-12
223.4	-12
223.635	-12
223.869	-27
224.104	-13
224.338	-20
224.573	-22
224.808	-11
225.042	-7
225.277	-2
225.511	-2
225.746	-5
225.98	-4
226.215	16
226.449	17
226.683	12
226.918	42
227.152	38
227.387	39
227.621	32
227.856	51
228.09	53
228.324	55
228.559	55
228.793	57
229.027	44
229.262	64
229.496	53
229.73	68
229.964	74
230.199	81
230.433	60
230.667	68
230.901	72
231.136	81
231.37	77
231.604	86
231.838	93
232.072	82
232.306	84
232.541	84
232.775	74
233.009	80
233.243	74
233.477	77
233.711	82
233.945	78
234.179	70
234.413	63
234.647	70
234.881	80
235.115	78
235.349	78
235.583	82
235.817	83
236.051	75
236.285	73
236.519	68
236.753	70
236.987	66
237.221	86
237.455	83
237.689	70
237.922	78
238.156	83
238.39	76
238.624	97
238.858	75
239.091	74
239.325	72
239.559	79
239.793	61
240.027	77
240.26	81
240.494	82
240.728	76
240.961	75
241.195	80
241.429	86
241.662	78
241.896	68
242.13	74
242.363	70
242.597	75
242.83	65
243.064	76
243.298	62
243.531	69
243.765	67
243.998	73
244.232	72
244.465	83
244.699	83
244.932	85
245.166	75
245.399	65
245.633	87
245.866	80
246.099	73
246.333	78
246.566	67
246.8	81
247.033	68
247.266	78
247.5	95
247.733	72
247.966	87
248.2	91
248.433	75
248.666	84
248.899	76
249.133	75
249.366	90
249.599	100
249.832	64
250.066	76
250.299	87
250.532	82
250.765	75
250.998	83
251.231	76
251.465	73
251.698	78
251.931	80
252.164	92
252.397	75
252.63	56
252.863	67
253.096	80
253.329	89
253.562	89
253.795	74
254.028	99
254.261	77
254.494	84
254.727	83
254.96	68
255.193	77
255.426	62
255.659	74
255.892	80
256.124	81
256.357	75
256.59	78
256.823	66
257.056	81
257.289	75
257.521	78
257.754	74
257.987	81
258.22	77
258.452	80
258.685	78
258.918	88
259.151	81
259.383	90
259.616	83
259.849	65
260.081	86
260.314	82
260.547	78
260.779	90
261.012	75
261.244	84
261.477	92
261.71	91
261.942	97
262.175	98
262.407	94
262.64	78
262.872	79
263.105	82
263.337	77
263.57	75
263.802	80
264.035	75
264.267	83
264.499	66
264.732	90
264.964	92
265.197	83
265.429	65
265.661	90
265.894	73
266.126	89
266.358	89
266.591	66
266.823	80
267.055	92
267.287	79
267.52	82
267.752	69
267.984	90
268.216	77
268.448	92
268.681	83
268.913	74
269.145	89
269.377	86
269.609	74
269.841	80
270.073	84
270.306	81
270.538	75
270.77	89
271.002	87
271.234	78
271.466	78
271.698	88
271.93	81
272.162	81
272.394	80
272.626	82
272.858	88
273.09	86
273.322	81
273.553	88
273.785	68
274.017	66
274.249	84
274.481	76
274.713	90
274.945	98
275.176	83
275.408	79
275.64	79
275.872	81
276.104	68
276.335	90
276.567	88
276.799	101
277.031	86
277.262	98
277.494	75
277.726	67
277.957	76
278.189	85
278.421	78
278.652	89
278.884	83
279.115	89
279.347	87
279.579	86
279.81	89
280.042	99
280.273	96
280.505	97
280.736	90
280.968	80
281.199	83
281.431	84
281.662	83
281.894	97
282.125	104
282.356	112
282.588	131
282.819	97
283.051	97
283.282	88
283.513	79
283.745	83
283.976	70
284.207	82
284.439	77
284.67	82
284.901	96
285.132	89
285.364	86
285.595	90
285.826	93
286.057	93
286.288	99
286.52	84
286.751	85
286.982	90
287.213	85
287.444	103
287.675	88
287.906	80
288.138	78
288.369	83
288.6	82
288.831	91
289.062	79
289.293	88
289.524	89
289.755	88
289.986	92
290.217	80
290.448	93
290.679	71
290.91	89
291.141	91
291.371	83
291.602	90
291.833	92
292.064	87
292.295	86
292.526	90
292.757	87
292.987	89
293.218	89
293.449	98
293.68	87
293.91	78
294.141	89
294.372	74
294.603	82
294.833	90
295.064	81
295.295	85
295.525	106
295.756	108
295.987	104
296.217	133
296.448	133
296.679	93
296.909	83
297.14	90
297.37	81
297.601	83
297.831	86
298.062	80
298.292	89
298.523	96
298.753	81
298.984	80
299.214	82
299.445	94
299.675	88
299.905	94
300.136	72
300.366	93
300.597	82
300.827	85
301.057	82
301.288	105
301.518	101
301.748	74
301.979	92
302.209	90
302.439	59
302.669	86
302.9	89
303.13	92
303.36	99
303.59	106
303.82	100
304.051	93
304.281	90
304.511	86
304.741	90
304.971	67
305.201	80
305.431	76
305.661	81
305.891	75
306.121	81
306.352	89
306.582	105
306.812	91
307.042	90
307.272	97
307.502	94
307.731	97
307.961	92
308.191	86
308.421	78
308.651	79
308.881	87
309.111	94
309.341	90
309.571	95
309.8	82
310.03	97
310.26	109
310.49	105
310.72	89
310.949	91
311.179	78
311.409	93
311.639	97
311.868	87
312.098	82
312.328	93
312.557	97
312.787	107
313.017	97
313.246	88
313.476	97
313.706	91
313.935	100
314.165	87
314.394	84
314.624	107
314.853	104
315.083	94
315.312	70
315.542	87
315.771	101
316.001	77
316.23	103
316.46	96
316.689	70
316.919	88
317.148	86
317.377	102
317.607	101
317.836	98
318.065	85
318.295	87
318.524	76
318.753	84
318.983	102
319.212	89
319.441	99
319.67	92
319.9	84
320.129	85
320.358	92
320.587	97
320.816	91
321.046	85
321.275	88
321.504	81
321.733	92
321.962	78
322.191	104
322.42	96
322.649	104
322.878	107
323.108	97
323.337	107
323.566	132
323.795	137
324.024	216
324.253	340
324.482	732
324.71	1515
324.939	1973
325.168	708
325.397	227
325.626	138
325.855	120
326.084	109
326.313	112
326.542	152
326.77	234
326.999	414
327.228	881
327.457	1556
327.686	1242
327.914	344
328.143	181
328.372	164
328.6	115
328.829	119
329.058	103
329.287	108
329.515	105
329.744	110
329.972	109
330.201	144
330.43	161
330.658	136
330.887	131
331.115	100
331.344	94
331.572	91
331.801	82
332.03	91
332.258	92
332.486	110
332.715	85
332.943	91
333.172	92
333.4	104
333.629	101
333.857	116
334.085	105
334.314	143
334.542	189
334.771	169
334.999	102
335.227	103
335.455	87
335.684	103
335.912	94
336.14	92
336.369	90
336.597	106
336.825	88
337.053	80
337.281	86
337.51	106
337.738	88
337.966	94
338.194	95
338.422	90
338.65	92
338.878	96
339.106	75
339.334	89
339.562	89
339.79	83
340.018	104
340.246	91
340.474	88
340.702	87
340.93	94
341.158	99
341.386	88
341.614	91
341.842	91
342.07	88
342.298	92
342.526	97
342.754	73
342.981	87
343.209	92
343.437	98
343.665	100
343.893	83
344.12	93
344.348	92
344.576	99
344.804	66
345.031	74
345.259	90
345.487	97
345.714	78
345.942	92
346.17	87
346.397	91
346.625	101
346.853	94
347.08	102
347.308	82
347.535	99
347.763	95
347.99	102
348.218	93
348.445	92
348.673	96
348.9	85
349.128	103
349.355	88
349.583	97
349.81	81
350.037	81
350.265	87
350.492	92
350.72	88
350.947	97
351.174	94
351.402	101
351.629	90
351.856	93
352.083	92
352.311	107
352.538	112
352.765	109
352.992	99
353.22	118
353.447	105
353.674	89
353.901	84
354.128	106
354.355	92
354.583	101
354.81	83
355.037	90
355.264	84
355.491	91
355.718	77
355.945	76
356.172	97
356.399	114
356.626	94
356.853	87
357.08	91
357.307	88
357.534	85
357.761	90
357.988	99
358.215	109
358.441	96
358.668	72
358.895	88
359.122	97
359.349	99
359.576	90
359.802	102
360.029	100
360.256	105
360.483	89
360.709	93
360.936	86
361.163	97
361.39	101
361.616	94
361.843	85
362.07	97
362.296	86
362.523	85
362.749	91
362.976	93
363.203	89
363.429	90
363.656	96
363.882	86
364.109	79
364.335	74
364.562	91
364.788	79
365.015	100
365.241	109
365.468	105
365.694	94
365.92	107
366.147	94
366.373	87
366.599	81
366.826	103
367.052	86
367.278	92
367.505	85
367.731	98
367.957	85
368.184	85
368.41	97
368.636	107
368.862	112
369.089	97
369.315	91
369.541	93
369.767	76
369.993	96
370.219	96
370.445	76
370.672	82
370.898	83
371.124	88
371.35	95
371.576	85
371.802	86
372.028	75
372.254	85
372.48	89
372.706	87
372.932	89
373.158	88
373.384	84
373.61	100
373.835	85
374.061	74
374.287	92
374.513	96
374.739	80
374.965	81
375.191	86
375.416	70
375.642	86
375.868	95
376.094	82
376.319	76
376.545	81
376.771	75
376.997	75
377.222	90
377.448	95
377.674	78
377.899	94
378.125	88
378.35	92
378.576	88
378.802	98
379.027	84
379.253	97
379.478	92
379.704	82
379.929	88
380.155	98
380.38	89
380.606	95
380.831	91
381.057	97
381.282	98
381.507	96
381.733	97
381.958	94
382.184	93
382.409	101
382.634	92
382.86	96
383.085	96
383.31	94
383.535	101
383.761	86
383.986	104
384.211	96
384.436	95
384.662	104
384.887	91
385.112	99
385.337	96
385.562	106
385.787	94
386.013	91
386.238	106
386.463	82
386.688	113
386.913	100
387.138	108
387.363	87
387.588	102
387.813	104
388.038	103
388.263	104
388.488	101
388.713	93
388.938	88
389.163	88
389.387	79
389.612	90
389.837	83
390.062	97
390.287	93
390.512	88
390.736	65
390.961	98
391.186	93
391.411	102
391.636	91
391.86	73
392.085	77
392.31	73
392.534	85
392.759	88
392.984	82
393.208	70
393.433	76
393.658	74
393.882	63
394.107	88
394.331	90
394.556	91
394.78	69
395.005	94
395.229	66
395.454	85
395.678	82
395.903	79
396.127	78
396.352	78
396.576	99
396.801	84
397.025	82
397.249	77
397.474	89
397.698	86
397.922	97
398.147	83
398.371	91
398.595	94
398.82	77
399.044	80
399.268	91
399.492	90
399.717	78
399.941	84
400.165	92
400.389	73
400.613	87
400.837	88
401.062	70
401.286	80
401.51	90
401.734	87
401.958	94
402.182	119
402.406	148
402.63	106
402.854	81
403.078	82
403.302	89
403.526	83
403.75	80
403.974	77
404.198	89
404.422	82
404.645	82
404.869	88
405.093	100
405.317	89
405.541	85
405.765	109
405.988	105
406.212	164
406.436	194
406.66	126
406.883	112
407.107	97
407.331	101
407.555	109
407.778	89
408.002	101
408.226	99
408.449	77
408.673	73
408.896	101
409.12	93
409.344	69
409.567	85
409.791	93
410.014	93
410.238	109
410.461	89
410.685	82
410.908	77
411.132	90
411.355	77
411.578	88
411.802	75
412.025	88
412.249	91
412.472	88
412.695	105
412.919	76
413.142	85
413.365	83
413.589	81
413.812	89
414.035	80
414.258	77
414.482	99
414.705	82
414.928	84
415.151	93
415.374	85
415.597	88
415.821	88
416.044	107
416.267	88
416.49	96
416.713	89
416.936	107
417.159	101
417.382	70
417.605	74
417.828	88
418.051	95
418.274	90
418.497	78
418.72	83
418.943	77
419.166	89
419.389	95
419.611	98
419.834	99
420.057	91
420.28	80
420.503	74
420.726	86
420.948	77
421.171	89
421.394	102
421.617	84
421.839	84
422.062	84
422.285	74
422.507	90
422.73	104
422.953	83
423.175	90
423.398	96
423.621	86
423.843	68
424.066	86
424.288	92
424.511	93
424.733	92
424.956	111
425.178	96
425.401	95
425.623	99
425.846	93
426.068	68
426.291	89
426.513	85
426.735	93
426.958	94
427.18	103
427.402	126
427.625	140
427.847	121
428.069	114
428.292	96
428.514	84
428.736	82
428.958	76
429.181	77
429.403	90
429.625	88
429.847	88
430.069	88
430.292	82
430.514	75
430.736	81
430.958	86
431.18	81
431.402	77
431.624	84
431.846	77
432.068	90
432.29	84
432.512	81
432.734	84
432.956	84
433.178	95
433.4	94
433.622	91
433.844	90
434.066	78
434.287	95
434.509	74
434.731	72
434.953	87
435.175	91
435.397	84
435.618	89
435.84	103
436.062	114
436.284	108
436.505	89
436.727	100
436.949	105
437.17	83
437.392	70
437.614	84
437.835	92
438.057	120
438.278	112
438.5	100
438.721	110
438.943	89
439.165	83
439.386	76
439.608	85
439.829	88
440.05	128
440.272	109
440.493	83
440.715	81
440.936	90
441.158	81
441.379	85
441.6	101
441.822	81
442.043	86
442.264	106
442.486	101
442.707	86
442.928	81
443.149	91
443.371	104
443.592	98
443.813	90
444.034	105
444.255	86
444.476	92
444.698	82
444.919	88
445.14	116
445.361	105
445.582	98
445.803	122
446.024	136
446.245	122
446.466	100
446.687	95
446.908	73
447.129	78
447.35	99
447.571	84
447.792	93
448.013	106
448.234	100
448.455	104
448.675	108
448.896	105
449.117	102
449.338	85
449.559	124
449.779	124
450	92
450.221	83
450.442	78
450.662	91
450.883	77
451.104	103
451.324	85
451.545	85
451.766	85
451.986	80
452.207	85
452.428	75
452.648	96
452.869	103
453.089	89
453.31	112
453.53	93
453.751	78
453.971	113
454.192	88
454.412	76
454.633	75
454.853	81
455.073	84
455.294	86
455.514	97
455.734	86
455.955	76
456.175	87
456.395	69
456.616	78
456.836	85
457.056	77
457.276	77
457.497	78
457.717	64
457.937	92
458.157	80
458.377	91
458.598	85
458.818	113
459.038	136
459.258	106
459.478	92
459.698	82
459.918	66
460.138	86
460.358	91
460.578	71
460.798	85
461.018	79
461.238	90
461.458	82
461.678	74
461.898	92
462.118	89
462.338	90
462.558	81
462.777	77
462.997	80
463.217	86
463.437	80
463.657	81
463.876	79
464.096	87
464.316	76
464.536	86
464.755	84
464.975	100
465.195	138
465.414	150
465.634	98
465.854	72
466.073	77
466.293	89
466.512	88
466.732	80
466.951	87
467.171	94
467.391	98
467.61	123
467.829	77
468.049	108
468.268	134
468.488	97
468.707	82
468.927	80
469.146	70
469.365	96
469.585	90
469.804	89
470.023	97
470.243	92
470.462	91
470.681	89
470.901	98
471.12	82
471.339	88
471.558	76
471.777	89
471.997	99
472.216	158
472.435	216
472.654	111
472.873	86
473.092	94
473.311	93
473.53	95
473.749	80
473.968	92
474.187	98
474.406	97
474.625	78
474.844	73
475.063	93
475.282	72
475.501	82
475.72	83
475.939	82
476.158	74
476.377	79
476.596	93
476.814	76
477.033	84
477.252	76
477.471	87
477.69	79
477.908	88
478.127	92
478.346	77
478.564	89
478.783	95
479.002	85
479.22	91
479.439	93
479.658	96
479.876	103
480.095	93
480.313	90
480.532	105
480.751	103
480.969	145
481.188	346
481.406	225
481.624	92
481.843	98
482.061	83
482.28	87
482.498	92
482.717	102
482.935	79
483.153	84
483.372	82
483.59	76
483.808	75
484.027	83
484.245	94
484.463	79
484.681	81
484.9	82
485.118	97
485.336	86
485.554	92
485.772	97
485.99	92
486.209	100
486.427	103
486.645	107
486.863	87
487.081	84
487.299	68
487.517	107
487.735	95
487.953	81
488.171	89
488.389	100
488.607	87
488.825	92
489.043	83
489.261	81
489.479	78
489.696	85
489.914	75
490.132	88
490.35	87
490.568	82
490.786	77
491.003	93
491.221	82
491.439	78
491.657	100
491.874	90
492.092	81
492.31	80
492.527	94
492.745	83
492.963	85
493.18	91
493.398	90
493.615	84
493.833	96
494.05	92
494.268	82
494.485	92
494.703	91
494.92	92
495.138	80
495.355	93
495.573	83
495.79	94
496.008	87
496.225	84
496.442	99
496.66	81
496.877	76
497.094	84
497.312	89
497.529	83
497.746	89
497.963	77
498.181	96
498.398	99
498.615	102
498.832	86
499.049	90
499.267	103
499.484	82
499.701	98
499.918	86
500.135	80
500.352	89
500.569	80
500.786	87
501.003	91
501.22	85
501.437	89
501.654	89
501.871	96
502.088	102
502.305	84
502.522	86
502.739	84
502.956	89
503.172	85
503.389	93
503.606	97
503.823	99
504.04	99
504.256	92
504.473	90
504.69	106
504.907	91
505.123	83
505.34	86
505.557	103
505.773	90
505.99	82
506.207	85
506.423	85
506.64	84
506.856	85
507.073	75
507.289	94
507.506	106
507.722	110
507.939	101
508.155	81
508.372	97
508.588	87
508.805	87
509.021	91
509.238	101
509.454	99
509.67	89
509.887	99
510.103	128
510.319	186
510.536	645
510.752	2148
510.968	628
511.184	158
511.401	108
511.617	90
511.833	87
512.049	88
512.265	93
512.481	97
512.698	89
512.914	89
513.13	102
513.346	92
513.562	89
513.778	104
513.994	98
514.21	79
514.426	110
514.642	125
514.858	138
515.074	150
515.29	393
515.506	1229
515.721	475
515.937	142
516.153	100
516.369	95
516.585	91
516.801	97
517.016	96
517.232	95
517.448	90
517.664	93
517.879	89
518.095	96
518.311	81
518.527	96
518.742	84
518.958	92
519.173	86
519.389	89
519.605	88
519.82	95
520.036	99
520.251	97
520.467	100
520.682	92
520.898	100
521.113	108
521.329	125
521.544	182
521.76	440
521.975	2017
522.19	1260
522.406	277
522.621	124
522.836	92
523.052	108
523.267	83
523.482	87
523.698	90
523.913	99
524.128	95
524.343	93
524.559	97
524.774	85
524.989	98
525.204	100
525.419	78
525.634	92
525.849	97
526.064	88
526.28	81
526.495	93
526.71	85
526.925	88
527.14	79
527.355	79
527.57	78
527.785	86
527.999	89
528.214	93
528.429	98
528.644	98
528.859	91
529.074	80
529.289	114
529.503	157
529.718	83
529.933	93
530.148	75
530.363	81
530.577	100
530.792	84
531.007	92
531.221	83
531.436	84
531.651	75
531.865	79
532.08	100
532.295	92
532.509	79
532.724	92
532.938	96
533.153	94
533.367	89
533.582	94
533.796	90
534.011	87
534.225	100
534.44	92
534.654	94
534.868	86
535.083	99
535.297	99
535.511	112
535.726	93
535.94	94
536.154	100
536.369	88
536.583	92
536.797	78
537.011	87
537.225	90
537.44	87
537.654	90
537.868	90
538.082	103
538.296	93
538.51	88
538.724	87
538.938	93
539.153	84
539.367	104
539.581	100
539.795	88
540.009	86
540.222	91
540.436	87
540.65	80
540.864	83
541.078	104
541.292	84
541.506	73
541.72	108
541.934	69
542.147	93
542.361	93
542.575	81
542.789	94
543.002	84
543.216	83
543.43	88
543.644	91
543.857	96
544.071	86
544.285	94
544.498	88
544.712	98
544.925	81
545.139	80
545.352	83
545.566	81
545.779	73
545.993	68
546.206	87
546.42	98
546.633	95
546.847	97
547.06	83
547.274	86
547.487	78
547.7	82
547.914	89
548.127	95
548.34	87
548.554	84
548.767	90
548.98	88
549.193	86
549.407	77
549.62	81
549.833	83
550.046	80
550.259	98
550.473	84
550.686	90
550.899	86
551.112	97
551.325	85
551.538	86
551.751	79
551.964	89
552.177	99
552.39	93
552.603	86
552.816	82
553.029	86
553.242	89
553.455	100
553.667	82
553.88	88
554.093	91
554.306	90
554.519	98
554.732	98
554.944	83
555.157	76
555.37	84
555.583	88
555.795	96
556.008	93
556.221	88
556.433	101
556.646	79
556.859	86
557.071	83
557.284	86
557.496	85
557.709	81
557.921	76
558.134	85
558.346	91
558.559	90
558.771	103
558.984	106
559.196	91
559.409	107
559.621	93
559.833	83
560.046	77
560.258	89
560.47	88
560.683	81
560.895	79
561.107	89
561.32	74
561.532	79
561.744	93
561.956	93
562.168	88
562.381	86
562.593	92
562.805	92
563.017	84
563.229	91
563.441	85
563.653	73
563.865	85
564.077	77
564.289	89
564.501	95
564.713	86
564.925	78
565.137	101
565.349	90
565.561	88
565.773	87
565.985	82
566.197	80
566.408	78
566.62	89
566.832	84
567.044	91
567.255	90
567.467	76
567.679	88
567.891	91
568.102	94
568.314	85
568.526	86
568.737	94
568.949	99
569.161	82
569.372	91
569.584	96
569.795	107
570.007	113
570.218	217
570.43	126
570.641	90
570.853	85
571.064	85
571.276	98
571.487	84
571.698	81
571.91	71
572.121	82
572.333	89
572.544	101
572.755	85
572.966	75
573.178	91
573.389	79
573.6	83
573.811	86
574.023	87
574.234	88
574.445	85
574.656	99
574.867	96
575.078	88
575.289	65
575.501	86
575.712	82
575.923	71
576.134	89
576.345	83
576.556	64
576.767	100
576.978	90
577.188	91
577.399	86
577.61	79
577.821	104
578.032	113
578.243	225
578.454	668
578.665	207
578.875	97
579.086	94
579.297	94
579.508	89
579.718	86
579.929	77
580.14	77
580.35	74
580.561	88
580.772	72
580.982	75
581.193	86
581.403	77
581.614	94
581.825	94
582.035	85
582.246	75
582.456	81
582.667	97
582.877	96
583.087	85
583.298	83
583.508	81
583.719	100
583.929	72
584.139	91
584.35	84
584.56	92
584.77	78
584.981	76
585.191	91
585.401	86
585.611	82
585.821	87
586.032	89
