Data from Circ_2012_H10_HRD10591_00047.txt Node
Date: Wed Jan 03 10:05:59 EST 2024
User: Yrep
Spectrometer: HR+D1059
Trigger mode: 1
Integration Time (sec): 1.000000E-1
Scans to average: 1
Electric dark correction enabled: true
Nonlinearity correction enabled: false
Boxcar width: 0
XAxis mode: Wavelengths
Number of Pixels in Spectrum: 2048
>>>>>Begin Spectral Data<<<<<
223.165	-10.25
223.4	-10.25
223.635	-10.25
223.869	-24.25
224.104	-9.25
224.338	-37.25
224.573	-19.25
224.808	-17.25
225.042	1.75
225.277	-4.25
225.511	-10.25
225.746	5.75
225.98	17.75
226.215	22.75
226.449	9.75
226.683	22.75
226.918	23.75
227.152	27.75
227.387	47.75
227.621	29.75
227.856	58.75
228.09	46.75
228.324	39.75
228.559	57.75
228.793	74.75
229.027	61.75
229.262	75.75
229.496	87.75
229.73	102.75
229.964	100.75
230.199	74.75
230.433	73.75
230.667	81.75
230.901	84.75
231.136	79.75
231.37	81.75
231.604	93.75
231.838	92.75
232.072	93.75
232.306	79.75
232.541	82.75
232.775	96.75
233.009	87.75
233.243	83.75
233.477	82.75
233.711	75.75
233.945	69.75
234.179	87.75
234.413	84.75
234.647	77.75
234.881	82.75
235.115	83.75
235.349	80.75
235.583	88.75
235.817	83.75
236.051	90.75
236.285	85.75
236.519	73.75
236.753	86.75
236.987	76.75
237.221	88.75
237.455	93.75
237.689	93.75
237.922	77.75
238.156	79.75
238.39	62.75
238.624	74.75
238.858	89.75
239.091	83.75
239.325	86.75
239.559	92.75
239.793	97.75
240.027	84.75
240.26	90.75
240.494	92.75
240.728	90.75
240.961	85.75
241.195	85.75
241.429	82.75
241.662	79.75
241.896	61.75
242.13	81.75
242.363	81.75
242.597	72.75
242.83	85.75
243.064	65.75
243.298	83.75
243.531	85.75
243.765	86.75
243.998	75.75
244.232	89.75
244.465	108.75
244.699	90.75
244.932	88.75
245.166	74.75
245.399	83.75
245.633	75.75
245.866	73.75
246.099	89.75
246.333	69.75
246.566	85.75
246.8	94.75
247.033	85.75
247.266	77.75
247.5	87.75
247.733	85.75
247.966	70.75
248.2	75.75
248.433	73.75
248.666	87.75
248.899	83.75
249.133	93.75
249.366	114.75
249.599	97.75
249.832	89.75
250.066	85.75
250.299	86.75
250.532	81.75
250.765	80.75
250.998	82.75
251.231	83.75
251.465	88.75
251.698	91.75
251.931	77.75
252.164	89.75
252.397	78.75
252.63	82.75
252.863	78.75
253.096	90.75
253.329	93.75
253.562	90.75
253.795	76.75
254.028	78.75
254.261	77.75
254.494	80.75
254.727	85.75
254.96	89.75
255.193	92.75
255.426	89.75
255.659	83.75
255.892	85.75
256.124	74.75
256.357	85.75
256.59	88.75
256.823	87.75
257.056	96.75
257.289	87.75
257.521	73.75
257.754	79.75
257.987	92.75
258.22	98.75
258.452	97.75
258.685	78.75
258.918	80.75
259.151	78.75
259.383	91.75
259.616	92.75
259.849	96.75
260.081	91.75
260.314	80.75
260.547	100.75
260.779	83.75
261.012	81.75
261.244	97.75
261.477	102.75
261.71	109.75
261.942	147.75
262.175	156.75
262.407	113.75
262.64	106.75
262.872	89.75
263.105	79.75
263.337	94.75
263.57	90.75
263.802	86.75
264.035	97.75
264.267	91.75
264.499	78.75
264.732	85.75
264.964	82.75
265.197	73.75
265.429	87.75
265.661	80.75
265.894	84.75
266.126	80.75
266.358	89.75
266.591	80.75
266.823	81.75
267.055	89.75
267.287	76.75
267.52	82.75
267.752	87.75
267.984	72.75
268.216	81.75
268.448	88.75
268.681	85.75
268.913	84.75
269.145	95.75
269.377	80.75
269.609	92.75
269.841	90.75
270.073	97.75
270.306	89.75
270.538	95.75
270.77	90.75
271.002	94.75
271.234	89.75
271.466	79.75
271.698	90.75
271.93	86.75
272.162	87.75
272.394	80.75
272.626	101.75
272.858	89.75
273.09	76.75
273.322	100.75
273.553	94.75
273.785	108.75
274.017	90.75
274.249	93.75
274.481	93.75
274.713	93.75
274.945	86.75
275.176	94.75
275.408	89.75
275.64	95.75
275.872	91.75
276.104	98.75
276.335	97.75
276.567	108.75
276.799	144.75
277.031	119.75
277.262	94.75
277.494	81.75
277.726	83.75
277.957	76.75
278.189	80.75
278.421	91.75
278.652	79.75
278.884	82.75
279.115	87.75
279.347	83.75
279.579	97.75
279.81	97.75
280.042	87.75
280.273	98.75
280.505	101.75
280.736	93.75
280.968	86.75
281.199	83.75
281.431	91.75
281.662	104.75
281.894	105.75
282.125	115.75
282.356	150.75
282.588	178.75
282.819	146.75
283.051	94.75
283.282	90.75
283.513	79.75
283.745	87.75
283.976	98.75
284.207	96.75
284.439	83.75
284.67	93.75
284.901	86.75
285.132	95.75
285.364	94.75
285.595	102.75
285.826	91.75
286.057	97.75
286.288	97.75
286.52	87.75
286.751	81.75
286.982	78.75
287.213	81.75
287.444	81.75
287.675	94.75
287.906	85.75
288.138	103.75
288.369	103.75
288.6	97.75
288.831	83.75
289.062	97.75
289.293	88.75
289.524	94.75
289.755	90.75
289.986	91.75
290.217	95.75
290.448	102.75
290.679	89.75
290.91	93.75
291.141	97.75
291.371	88.75
291.602	78.75
291.833	95.75
292.064	77.75
292.295	86.75
292.526	98.75
292.757	104.75
292.987	97.75
293.218	84.75
293.449	86.75
293.68	79.75
293.91	89.75
294.141	98.75
294.372	94.75
294.603	92.75
294.833	94.75
295.064	96.75
295.295	109.75
295.525	98.75
295.756	100.75
295.987	141.75
296.217	199.75
296.448	153.75
296.679	97.75
296.909	106.75
297.14	96.75
297.37	77.75
297.601	87.75
297.831	90.75
298.062	102.75
298.292	94.75
298.523	102.75
298.753	93.75
298.984	86.75
299.214	84.75
299.445	100.75
299.675	96.75
299.905	92.75
300.136	105.75
300.366	91.75
300.597	93.75
300.827	101.75
301.057	110.75
301.288	128.75
301.518	104.75
301.748	111.75
301.979	102.75
302.209	97.75
302.439	106.75
302.669	91.75
302.9	96.75
303.13	97.75
303.36	102.75
303.59	104.75
303.82	120.75
304.051	96.75
304.281	90.75
304.511	99.75
304.741	87.75
304.971	91.75
305.201	95.75
305.431	74.75
305.661	82.75
305.891	88.75
306.121	108.75
306.352	133.75
306.582	129.75
306.812	108.75
307.042	101.75
307.272	113.75
307.502	105.75
307.731	104.75
307.961	89.75
308.191	89.75
308.421	108.75
308.651	92.75
308.881	99.75
309.111	102.75
309.341	105.75
309.571	114.75
309.8	91.75
310.03	95.75
310.26	91.75
310.49	110.75
310.72	118.75
310.949	122.75
311.179	107.75
311.409	121.75
311.639	105.75
311.868	107.75
312.098	105.75
312.328	99.75
312.557	114.75
312.787	128.75
313.017	128.75
313.246	106.75
313.476	91.75
313.706	95.75
313.935	104.75
314.165	120.75
314.394	121.75
314.624	106.75
314.853	116.75
315.083	111.75
315.312	91.75
315.542	94.75
315.771	83.75
316.001	110.75
316.23	95.75
316.46	93.75
316.689	96.75
316.919	84.75
317.148	104.75
317.377	113.75
317.607	104.75
317.836	105.75
318.065	91.75
318.295	93.75
318.524	87.75
318.753	94.75
318.983	109.75
319.212	117.75
319.441	129.75
319.67	138.75
319.9	102.75
320.129	107.75
320.358	104.75
320.587	106.75
320.816	124.75
321.046	130.75
321.275	110.75
321.504	96.75
321.733	105.75
321.962	103.75
322.191	127.75
322.42	125.75
322.649	137.75
322.878	145.75
323.108	146.75
323.337	135.75
323.566	167.75
323.795	225.75
324.024	294.75
324.253	607.75
324.482	1349.75
324.71	2779.75
324.939	3654.75
325.168	1309.75
325.397	362.75
325.626	191.75
325.855	146.75
326.084	166.75
326.313	174.75
326.542	201.75
326.77	329.75
326.999	722.75
327.228	1416.75
327.457	2665.75
327.686	2092.75
327.914	570.75
328.143	289.75
328.372	234.75
328.6	173.75
328.829	152.75
329.058	183.75
329.287	169.75
329.515	134.75
329.744	110.75
329.972	135.75
330.201	174.75
330.43	219.75
330.658	200.75
330.887	221.75
331.115	164.75
331.344	121.75
331.572	122.75
331.801	139.75
332.03	131.75
332.258	114.75
332.486	94.75
332.715	104.75
332.943	112.75
333.172	112.75
333.4	120.75
333.629	135.75
333.857	137.75
334.085	152.75
334.314	175.75
334.542	241.75
334.771	220.75
334.999	137.75
335.227	110.75
335.455	107.75
335.684	105.75
335.912	109.75
336.14	102.75
336.369	98.75
336.597	106.75
336.825	104.75
337.053	95.75
337.281	89.75
337.51	101.75
337.738	100.75
337.966	108.75
338.194	112.75
338.422	99.75
338.65	91.75
338.878	97.75
339.106	97.75
339.334	101.75
339.562	94.75
339.79	96.75
340.018	98.75
340.246	95.75
340.474	99.75
340.702	101.75
340.93	86.75
341.158	102.75
341.386	101.75
341.614	109.75
341.842	98.75
342.07	99.75
342.298	102.75
342.526	89.75
342.754	75.75
342.981	96.75
343.209	91.75
343.437	93.75
343.665	87.75
343.893	89.75
344.12	101.75
344.348	97.75
344.576	95.75
344.804	98.75
345.031	85.75
345.259	113.75
345.487	105.75
345.714	98.75
345.942	104.75
346.17	90.75
346.397	82.75
346.625	103.75
346.853	88.75
347.08	97.75
347.308	118.75
347.535	117.75
347.763	103.75
347.99	113.75
348.218	118.75
348.445	114.75
348.673	103.75
348.9	103.75
349.128	98.75
349.355	96.75
349.583	106.75
349.81	119.75
350.037	104.75
350.265	115.75
350.492	123.75
350.72	91.75
350.947	104.75
351.174	112.75
351.402	138.75
351.629	120.75
351.856	122.75
352.083	138.75
352.311	131.75
352.538	149.75
352.765	145.75
352.992	128.75
353.22	127.75
353.447	109.75
353.674	115.75
353.901	109.75
354.128	103.75
354.355	83.75
354.583	110.75
354.81	81.75
355.037	93.75
355.264	84.75
355.491	101.75
355.718	78.75
355.945	88.75
356.172	87.75
356.399	89.75
356.626	99.75
356.853	93.75
357.08	91.75
357.307	91.75
357.534	103.75
357.761	77.75
357.988	113.75
358.215	97.75
358.441	89.75
358.668	91.75
358.895	85.75
359.122	89.75
359.349	104.75
359.576	90.75
359.802	115.75
360.029	145.75
360.256	129.75
360.483	117.75
360.709	105.75
360.936	113.75
361.163	108.75
361.39	104.75
361.616	102.75
361.843	103.75
362.07	100.75
362.296	105.75
362.523	99.75
362.749	105.75
362.976	93.75
363.203	99.75
363.429	118.75
363.656	101.75
363.882	90.75
364.109	104.75
364.335	79.75
364.562	86.75
364.788	91.75
365.015	99.75
365.241	100.75
365.468	138.75
365.694	139.75
365.92	117.75
366.147	105.75
366.373	101.75
366.599	110.75
366.826	98.75
367.052	88.75
367.278	89.75
367.505	109.75
367.731	104.75
367.957	112.75
368.184	109.75
368.41	117.75
368.636	126.75
368.862	141.75
369.089	133.75
369.315	110.75
369.541	95.75
369.767	90.75
369.993	98.75
370.219	83.75
370.445	89.75
370.672	73.75
370.898	81.75
371.124	94.75
371.35	90.75
371.576	95.75
371.802	90.75
372.028	89.75
372.254	89.75
372.48	98.75
372.706	73.75
372.932	87.75
373.158	94.75
373.384	91.75
373.61	101.75
373.835	96.75
374.061	91.75
374.287	110.75
374.513	95.75
374.739	90.75
374.965	94.75
375.191	90.75
375.416	106.75
375.642	101.75
375.868	100.75
376.094	92.75
376.319	83.75
376.545	82.75
376.771	100.75
376.997	96.75
377.222	89.75
377.448	97.75
377.674	92.75
377.899	90.75
378.125	98.75
378.35	71.75
378.576	96.75
378.802	91.75
379.027	89.75
379.253	86.75
379.478	102.75
379.704	89.75
379.929	88.75
380.155	104.75
380.38	97.75
380.606	99.75
380.831	101.75
381.057	99.75
381.282	85.75
381.507	106.75
381.733	102.75
381.958	108.75
382.184	89.75
382.409	101.75
382.634	110.75
382.86	109.75
383.085	108.75
383.31	113.75
383.535	102.75
383.761	104.75
383.986	90.75
384.211	89.75
384.436	97.75
384.662	99.75
384.887	97.75
385.112	117.75
385.337	79.75
385.562	102.75
385.787	102.75
386.013	97.75
386.238	136.75
386.463	111.75
386.688	111.75
386.913	106.75
387.138	96.75
387.363	101.75
387.588	108.75
387.813	111.75
388.038	105.75
388.263	99.75
388.488	114.75
388.713	95.75
388.938	96.75
389.163	97.75
389.387	97.75
389.612	98.75
389.837	68.75
390.062	100.75
390.287	100.75
390.512	82.75
390.736	64.75
390.961	87.75
391.186	111.75
391.411	108.75
391.636	98.75
391.86	82.75
392.085	91.75
392.31	98.75
392.534	91.75
392.759	95.75
392.984	94.75
393.208	100.75
393.433	91.75
393.658	87.75
393.882	77.75
394.107	85.75
394.331	79.75
394.556	81.75
394.78	93.75
395.005	104.75
395.229	98.75
395.454	93.75
395.678	94.75
395.903	96.75
396.127	100.75
396.352	92.75
396.576	89.75
396.801	103.75
397.025	93.75
397.249	111.75
397.474	97.75
397.698	90.75
397.922	90.75
398.147	96.75
398.371	85.75
398.595	94.75
398.82	89.75
399.044	91.75
399.268	87.75
399.492	85.75
399.717	82.75
399.941	94.75
400.165	83.75
400.389	85.75
400.613	91.75
400.837	86.75
401.062	94.75
401.286	90.75
401.51	100.75
401.734	105.75
401.958	121.75
402.182	182.75
402.406	246.75
402.63	157.75
402.854	106.75
403.078	99.75
403.302	85.75
403.526	99.75
403.75	88.75
403.974	87.75
404.198	95.75
404.422	97.75
404.645	96.75
404.869	91.75
405.093	99.75
405.317	118.75
405.541	125.75
405.765	117.75
405.988	144.75
406.212	250.75
406.436	357.75
406.66	225.75
406.883	142.75
407.107	123.75
407.331	93.75
407.555	126.75
407.778	98.75
408.002	90.75
408.226	111.75
408.449	104.75
408.673	104.75
408.896	104.75
409.12	98.75
409.344	91.75
409.567	99.75
409.791	92.75
410.014	102.75
410.238	83.75
410.461	76.75
410.685	101.75
410.908	107.75
411.132	114.75
411.355	104.75
411.578	92.75
411.802	83.75
412.025	94.75
412.249	94.75
412.472	107.75
412.695	107.75
412.919	91.75
413.142	92.75
413.365	95.75
413.589	94.75
413.812	94.75
414.035	87.75
414.258	67.75
414.482	100.75
414.705	100.75
414.928	92.75
415.151	99.75
415.374	103.75
415.597	98.75
415.821	105.75
416.044	97.75
416.267	86.75
416.49	94.75
416.713	95.75
416.936	90.75
417.159	90.75
417.382	89.75
417.605	101.75
417.828	104.75
418.051	95.75
418.274	90.75
418.497	89.75
418.72	102.75
418.943	96.75
419.166	91.75
419.389	79.75
419.611	92.75
419.834	97.75
420.057	98.75
420.28	91.75
420.503	86.75
420.726	92.75
420.948	80.75
421.171	98.75
421.394	94.75
421.617	101.75
421.839	87.75
422.062	100.75
422.285	90.75
422.507	106.75
422.73	117.75
422.953	101.75
423.175	95.75
423.398	79.75
423.621	87.75
423.843	75.75
424.066	88.75
424.288	92.75
424.511	99.75
424.733	105.75
424.956	124.75
425.178	108.75
425.401	92.75
425.623	121.75
425.846	105.75
426.068	107.75
426.291	94.75
426.513	92.75
426.735	94.75
426.958	104.75
427.18	131.75
427.402	178.75
427.625	234.75
427.847	191.75
428.069	138.75
428.292	102.75
428.514	111.75
428.736	89.75
428.958	94.75
429.181	82.75
429.403	80.75
429.625	103.75
429.847	98.75
430.069	111.75
430.292	110.75
430.514	96.75
430.736	96.75
430.958	95.75
431.18	82.75
431.402	92.75
431.624	95.75
431.846	93.75
432.068	93.75
432.29	90.75
432.512	98.75
432.734	83.75
432.956	103.75
433.178	110.75
433.4	103.75
433.622	97.75
433.844	91.75
434.066	94.75
434.287	90.75
434.509	99.75
434.731	98.75
434.953	96.75
435.175	102.75
435.397	100.75
435.618	96.75
435.84	104.75
436.062	150.75
436.284	140.75
436.505	108.75
436.727	116.75
436.949	103.75
437.17	119.75
437.392	92.75
437.614	112.75
437.835	142.75
438.057	139.75
438.278	126.75
438.5	120.75
438.721	144.75
438.943	109.75
439.165	101.75
439.386	89.75
439.608	112.75
439.829	110.75
440.05	165.75
440.272	198.75
440.493	120.75
440.715	91.75
440.936	94.75
441.158	112.75
441.379	105.75
441.6	117.75
441.822	118.75
442.043	107.75
442.264	126.75
442.486	128.75
442.707	101.75
442.928	126.75
443.149	179.75
443.371	182.75
443.592	126.75
443.813	139.75
444.034	120.75
444.255	96.75
444.476	102.75
444.698	115.75
444.919	99.75
445.14	143.75
445.361	133.75
445.582	142.75
445.803	174.75
446.024	187.75
446.245	181.75
446.466	124.75
446.687	103.75
446.908	95.75
447.129	99.75
447.35	90.75
447.571	92.75
447.792	106.75
448.013	127.75
448.234	133.75
448.455	114.75
448.675	133.75
448.896	147.75
449.117	123.75
449.338	123.75
449.559	164.75
449.779	165.75
450	112.75
450.221	90.75
450.442	105.75
450.662	105.75
450.883	138.75
451.104	155.75
451.324	113.75
451.545	103.75
451.766	87.75
451.986	97.75
452.207	94.75
452.428	109.75
452.648	119.75
452.869	137.75
453.089	143.75
453.31	166.75
453.53	123.75
453.751	109.75
453.971	119.75
454.192	140.75
454.412	95.75
454.633	99.75
454.853	97.75
455.073	87.75
455.294	102.75
455.514	108.75
455.734	95.75
455.955	95.75
456.175	90.75
456.395	101.75
456.616	87.75
456.836	78.75
457.056	93.75
457.276	92.75
457.497	99.75
457.717	103.75
457.937	95.75
458.157	106.75
458.377	110.75
458.598	144.75
458.818	222.75
459.038	230.75
459.258	156.75
459.478	89.75
459.698	93.75
459.918	107.75
460.138	85.75
460.358	83.75
460.578	85.75
460.798	101.75
461.018	99.75
461.238	86.75
461.458	107.75
461.678	95.75
461.898	93.75
462.118	73.75
462.338	89.75
462.558	80.75
462.777	90.75
462.997	89.75
463.217	93.75
463.437	68.75
463.657	105.75
463.876	93.75
464.096	87.75
464.316	101.75
464.536	109.75
464.755	108.75
464.975	148.75
465.195	280.75
465.414	247.75
465.634	130.75
465.854	92.75
466.073	69.75
466.293	86.75
466.512	103.75
466.732	98.75
466.951	105.75
467.171	113.75
467.391	102.75
467.61	132.75
467.829	125.75
468.049	131.75
468.268	146.75
468.488	94.75
468.707	87.75
468.927	80.75
469.146	87.75
469.365	92.75
469.585	108.75
469.804	101.75
470.023	125.75
470.243	112.75
470.462	113.75
470.681	135.75
470.901	109.75
471.12	106.75
471.339	80.75
471.558	110.75
471.777	89.75
471.997	112.75
472.216	175.75
472.435	278.75
472.654	133.75
472.873	99.75
473.092	89.75
473.311	90.75
473.53	100.75
473.749	85.75
473.968	88.75
474.187	128.75
474.406	111.75
474.625	101.75
474.844	87.75
475.063	98.75
475.282	93.75
475.501	88.75
475.72	92.75
475.939	91.75
476.158	102.75
476.377	77.75
476.596	102.75
476.814	100.75
477.033	108.75
477.252	95.75
477.471	97.75
477.69	101.75
477.908	99.75
478.127	98.75
478.346	96.75
478.564	91.75
478.783	117.75
479.002	117.75
479.22	115.75
479.439	121.75
479.658	121.75
479.876	110.75
480.095	102.75
480.313	104.75
480.532	102.75
480.751	97.75
480.969	166.75
481.188	436.75
481.406	290.75
481.624	118.75
481.843	95.75
482.061	110.75
482.28	102.75
482.498	94.75
482.717	75.75
482.935	96.75
483.153	103.75
483.372	98.75
483.59	89.75
483.808	91.75
484.027	97.75
484.245	104.75
484.463	107.75
484.681	101.75
484.9	92.75
485.118	94.75
485.336	99.75
485.554	111.75
485.772	121.75
485.99	117.75
486.209	118.75
486.427	109.75
486.645	134.75
486.863	138.75
487.081	129.75
487.299	114.75
487.517	104.75
487.735	84.75
487.953	95.75
488.171	94.75
488.389	106.75
488.607	121.75
488.825	100.75
489.043	96.75
489.261	115.75
489.479	109.75
489.696	92.75
489.914	103.75
490.132	88.75
490.35	90.75
490.568	99.75
490.786	87.75
491.003	92.75
491.221	90.75
491.439	94.75
491.657	89.75
491.874	89.75
492.092	100.75
492.31	94.75
492.527	90.75
492.745	90.75
492.963	102.75
493.18	96.75
493.398	98.75
493.615	98.75
493.833	93.75
494.05	93.75
494.268	82.75
494.485	105.75
494.703	92.75
494.92	95.75
495.138	99.75
495.355	85.75
495.573	95.75
495.79	99.75
496.008	113.75
496.225	99.75
496.442	101.75
496.66	100.75
496.877	98.75
497.094	100.75
497.312	83.75
497.529	106.75
497.746	96.75
497.963	96.75
498.181	99.75
498.398	106.75
498.615	114.75
498.832	111.75
499.049	102.75
499.267	90.75
499.484	95.75
499.701	95.75
499.918	98.75
500.135	90.75
500.352	93.75
500.569	87.75
500.786	99.75
501.003	90.75
501.22	98.75
501.437	99.75
501.654	114.75
501.871	139.75
502.088	106.75
502.305	87.75
502.522	95.75
502.739	107.75
502.956	96.75
503.172	99.75
503.389	97.75
503.606	121.75
503.823	114.75
504.04	96.75
504.256	85.75
504.473	93.75
504.69	117.75
504.907	104.75
505.123	93.75
505.34	101.75
505.557	106.75
505.773	94.75
505.99	78.75
506.207	104.75
506.423	91.75
506.64	103.75
506.856	105.75
507.073	89.75
507.289	103.75
507.506	102.75
507.722	143.75
507.939	136.75
508.155	113.75
508.372	107.75
508.588	108.75
508.805	88.75
509.021	103.75
509.238	118.75
509.454	124.75
509.67	109.75
509.887	143.75
510.103	164.75
510.319	289.75
510.536	1224.75
510.752	4456.75
510.968	1159.75
511.184	224.75
511.401	147.75
511.617	108.75
511.833	94.75
512.049	99.75
512.265	91.75
