Data from Circ_2012_H10_HRD10591_00049.txt Node
Date: Wed Jan 03 10:06:00 EST 2024
User: Yrep
Spectrometer: HR+D1059
Trigger mode: 1
Integration Time (sec): 1.000000E-1
Scans to average: 1
Electric dark correction enabled: true
Nonlinearity correction enabled: false
Boxcar width: 0
XAxis mode: Wavelengths
Number of Pixels in Spectrum: 2048
>>>>>Begin Spectral Data<<<<<
223.165	-20.62
223.4	-20.62
223.635	-20.62
223.869	-20.62
224.104	-10.62
224.338	-12.62
224.573	-17.62
224.808	-4.62
225.042	5.38
225.277	-6.62
225.511	-4.62
225.746	-4.62
225.98	4.38
226.215	7.38
226.449	17.38
226.683	9.38
226.918	25.38
227.152	33.38
227.387	51.38
227.621	48.38
227.856	61.38
228.09	43.38
228.324	34.38
228.559	66.38
228.793	62.38
229.027	56.38
229.262	61.38
229.496	80.38
229.73	103.38
229.964	87.38
230.199	76.38
230.433	68.38
230.667	81.38
230.901	71.38
231.136	65.38
231.37	81.38
231.604	78.38
231.838	75.38
232.072	56.38
232.306	69.38
232.541	81.38
232.775	67.38
233.009	93.38
233.243	91.38
233.477	86.38
233.711	88.38
233.945	73.38
234.179	75.38
234.413	96.38
234.647	75.38
234.881	76.38
235.115	82.38
235.349	84.38
235.583	80.38
235.817	87.38
236.051	88.38
236.285	87.38
236.519	70.38
236.753	77.38
236.987	72.38
237.221	87.38
237.455	90.38
237.689	71.38
237.922	87.38
238.156	83.38
238.39	60.38
238.624	81.38
238.858	72.38
239.091	85.38
239.325	84.38
239.559	68.38
239.793	92.38
240.027	88.38
240.26	87.38
240.494	88.38
240.728	88.38
240.961	67.38
241.195	71.38
241.429	72.38
241.662	82.38
241.896	69.38
242.13	82.38
242.363	78.38
242.597	78.38
242.83	76.38
243.064	78.38
243.298	80.38
243.531	61.38
243.765	72.38
243.998	72.38
244.232	86.38
244.465	74.38
244.699	84.38
244.932	80.38
245.166	70.38
245.399	80.38
245.633	77.38
245.866	79.38
246.099	84.38
246.333	78.38
246.566	66.38
246.8	80.38
247.033	86.38
247.266	83.38
247.5	69.38
247.733	67.38
247.966	75.38
248.2	82.38
248.433	72.38
248.666	75.38
248.899	81.38
249.133	76.38
249.366	96.38
249.599	95.38
249.832	66.38
250.066	75.38
250.299	81.38
250.532	80.38
250.765	82.38
250.998	84.38
251.231	80.38
251.465	90.38
251.698	77.38
251.931	90.38
252.164	79.38
252.397	80.38
252.63	80.38
252.863	91.38
253.096	71.38
253.329	90.38
253.562	91.38
253.795	78.38
254.028	96.38
254.261	85.38
254.494	94.38
254.727	88.38
254.96	67.38
255.193	76.38
255.426	79.38
255.659	87.38
255.892	74.38
256.124	80.38
256.357	84.38
256.59	77.38
256.823	94.38
257.056	76.38
257.289	87.38
257.521	76.38
257.754	87.38
257.987	85.38
258.22	90.38
258.452	70.38
258.685	74.38
258.918	84.38
259.151	95.38
259.383	89.38
259.616	85.38
259.849	84.38
260.081	92.38
260.314	76.38
260.547	71.38
260.779	90.38
261.012	82.38
261.244	85.38
261.477	87.38
261.71	99.38
261.942	104.38
262.175	103.38
262.407	90.38
262.64	80.38
262.872	78.38
263.105	91.38
263.337	81.38
263.57	83.38
263.802	89.38
264.035	73.38
264.267	78.38
264.499	80.38
264.732	94.38
264.964	79.38
265.197	80.38
265.429	87.38
265.661	80.38
265.894	84.38
266.126	78.38
266.358	96.38
266.591	83.38
266.823	89.38
267.055	83.38
267.287	82.38
267.52	69.38
267.752	86.38
267.984	85.38
268.216	73.38
268.448	80.38
268.681	67.38
268.913	80.38
269.145	87.38
269.377	85.38
269.609	81.38
269.841	80.38
270.073	77.38
270.306	80.38
270.538	94.38
270.77	82.38
271.002	75.38
271.234	70.38
271.466	87.38
271.698	86.38
271.93	79.38
272.162	88.38
272.394	87.38
272.626	86.38
272.858	74.38
273.09	77.38
273.322	76.38
273.553	82.38
273.785	97.38
274.017	96.38
274.249	71.38
274.481	79.38
274.713	85.38
274.945	93.38
275.176	74.38
275.408	83.38
275.64	90.38
275.872	78.38
276.104	80.38
276.335	91.38
276.567	112.38
276.799	91.38
277.031	93.38
277.262	98.38
277.494	69.38
277.726	94.38
277.957	94.38
278.189	101.38
278.421	74.38
278.652	83.38
278.884	84.38
279.115	89.38
279.347	101.38
279.579	91.38
279.81	79.38
280.042	81.38
280.273	91.38
280.505	92.38
280.736	93.38
280.968	89.38
281.199	86.38
281.431	84.38
281.662	100.38
281.894	87.38
282.125	93.38
282.356	104.38
282.588	127.38
282.819	112.38
283.051	93.38
283.282	85.38
283.513	87.38
283.745	78.38
283.976	85.38
284.207	87.38
284.439	88.38
284.67	88.38
284.901	75.38
285.132	78.38
285.364	74.38
285.595	75.38
285.826	91.38
286.057	95.38
286.288	90.38
286.52	94.38
286.751	92.38
286.982	77.38
287.213	84.38
287.444	91.38
287.675	100.38
287.906	87.38
288.138	93.38
288.369	76.38
288.6	88.38
288.831	99.38
289.062	87.38
289.293	93.38
289.524	89.38
289.755	93.38
289.986	100.38
290.217	82.38
290.448	91.38
290.679	89.38
290.91	84.38
291.141	102.38
291.371	97.38
291.602	95.38
291.833	72.38
292.064	77.38
292.295	98.38
292.526	78.38
292.757	67.38
292.987	84.38
293.218	83.38
293.449	93.38
293.68	82.38
293.91	78.38
294.141	91.38
294.372	81.38
294.603	84.38
294.833	99.38
295.064	82.38
295.295	97.38
295.525	92.38
295.756	103.38
295.987	101.38
296.217	137.38
296.448	115.38
296.679	91.38
296.909	100.38
297.14	102.38
297.37	94.38
297.601	93.38
297.831	81.38
298.062	87.38
298.292	84.38
298.523	82.38
298.753	86.38
298.984	91.38
299.214	87.38
299.445	85.38
299.675	93.38
299.905	104.38
300.136	101.38
300.366	81.38
300.597	85.38
300.827	91.38
301.057	96.38
301.288	94.38
301.518	86.38
301.748	86.38
301.979	104.38
302.209	107.38
302.439	89.38
302.669	85.38
302.9	92.38
303.13	95.38
303.36	99.38
303.59	103.38
303.82	109.38
304.051	81.38
304.281	94.38
304.511	96.38
304.741	97.38
304.971	78.38
305.201	111.38
305.431	86.38
305.661	87.38
305.891	92.38
306.121	88.38
306.352	105.38
306.582	93.38
306.812	91.38
307.042	105.38
307.272	107.38
307.502	100.38
307.731	105.38
307.961	92.38
308.191	86.38
308.421	86.38
308.651	97.38
308.881	86.38
309.111	95.38
309.341	96.38
309.571	100.38
309.8	80.38
310.03	85.38
310.26	92.38
310.49	99.38
310.72	92.38
310.949	97.38
311.179	84.38
311.409	106.38
311.639	106.38
311.868	89.38
312.098	88.38
312.328	104.38
312.557	78.38
312.787	108.38
313.017	108.38
313.246	94.38
313.476	88.38
313.706	87.38
313.935	92.38
314.165	87.38
314.394	97.38
314.624	95.38
314.853	81.38
315.083	95.38
315.312	86.38
315.542	104.38
315.771	94.38
316.001	85.38
316.23	86.38
316.46	91.38
316.689	88.38
316.919	89.38
317.148	90.38
317.377	73.38
317.607	86.38
317.836	87.38
318.065	103.38
318.295	96.38
318.524	92.38
318.753	91.38
318.983	87.38
319.212	99.38
319.441	99.38
319.67	105.38
319.9	105.38
320.129	96.38
320.358	98.38
320.587	110.38
320.816	96.38
321.046	96.38
321.275	103.38
321.504	99.38
321.733	101.38
321.962	99.38
322.191	100.38
322.42	109.38
322.649	98.38
322.878	116.38
323.108	132.38
323.337	113.38
323.566	131.38
323.795	136.38
324.024	203.38
324.253	363.38
324.482	744.38
324.71	1551.38
324.939	2038.38
325.168	779.38
325.397	231.38
325.626	148.38
325.855	127.38
326.084	119.38
326.313	111.38
326.542	152.38
326.77	201.38
326.999	403.38
327.228	866.38
327.457	1565.38
327.686	1251.38
327.914	366.38
328.143	188.38
328.372	150.38
328.6	127.38
328.829	133.38
329.058	127.38
329.287	135.38
329.515	104.38
329.744	99.38
329.972	115.38
330.201	117.38
330.43	135.38
330.658	128.38
330.887	139.38
331.115	118.38
331.344	96.38
331.572	102.38
331.801	97.38
332.03	99.38
332.258	92.38
332.486	89.38
332.715	106.38
332.943	93.38
333.172	98.38
333.4	97.38
333.629	106.38
333.857	117.38
334.085	123.38
334.314	124.38
334.542	147.38
334.771	141.38
334.999	105.38
335.227	101.38
335.455	98.38
335.684	105.38
335.912	106.38
336.14	97.38
336.369	96.38
336.597	113.38
336.825	95.38
337.053	96.38
337.281	79.38
337.51	91.38
337.738	84.38
337.966	94.38
338.194	94.38
338.422	91.38
338.65	92.38
338.878	82.38
339.106	81.38
339.334	102.38
339.562	100.38
339.79	93.38
340.018	100.38
340.246	89.38
340.474	86.38
340.702	88.38
340.93	94.38
341.158	93.38
341.386	94.38
341.614	108.38
341.842	101.38
342.07	95.38
342.298	99.38
342.526	90.38
342.754	81.38
342.981	93.38
343.209	91.38
343.437	95.38
343.665	86.38
343.893	85.38
344.12	90.38
344.348	85.38
344.576	99.38
344.804	86.38
345.031	88.38
345.259	91.38
345.487	88.38
345.714	91.38
345.942	104.38
346.17	80.38
346.397	87.38
346.625	91.38
346.853	86.38
347.08	86.38
347.308	107.38
347.535	94.38
347.763	98.38
347.99	107.38
348.218	93.38
348.445	113.38
348.673	97.38
348.9	96.38
349.128	93.38
349.355	91.38
349.583	88.38
349.81	100.38
350.037	103.38
350.265	109.38
350.492	99.38
350.72	92.38
350.947	97.38
351.174	107.38
351.402	110.38
351.629	113.38
351.856	107.38
352.083	94.38
352.311	115.38
352.538	94.38
352.765	105.38
352.992	104.38
353.22	114.38
353.447	101.38
353.674	96.38
353.901	113.38
354.128	117.38
354.355	85.38
354.583	88.38
354.81	110.38
355.037	85.38
355.264	96.38
355.491	94.38
355.718	72.38
355.945	89.38
356.172	95.38
356.399	97.38
356.626	88.38
356.853	88.38
357.08	107.38
357.307	81.38
357.534	92.38
357.761	97.38
357.988	95.38
358.215	97.38
358.441	89.38
358.668	91.38
358.895	87.38
359.122	90.38
359.349	81.38
359.576	86.38
359.802	88.38
360.029	116.38
360.256	100.38
360.483	88.38
360.709	81.38
360.936	91.38
361.163	96.38
361.39	99.38
361.616	86.38
361.843	92.38
362.07	87.38
362.296	95.38
362.523	81.38
362.749	96.38
362.976	80.38
363.203	79.38
363.429	85.38
363.656	87.38
363.882	90.38
364.109	81.38
364.335	84.38
364.562	81.38
364.788	78.38
365.015	86.38
365.241	100.38
365.468	105.38
365.694	91.38
365.92	102.38
366.147	84.38
366.373	81.38
366.599	94.38
366.826	93.38
367.052	77.38
367.278	93.38
367.505	77.38
367.731	89.38
367.957	80.38
368.184	108.38
368.41	97.38
368.636	112.38
368.862	105.38
369.089	115.38
369.315	100.38
369.541	96.38
369.767	85.38
369.993	92.38
370.219	91.38
370.445	89.38
370.672	82.38
370.898	95.38
371.124	96.38
371.35	80.38
371.576	83.38
371.802	95.38
372.028	79.38
372.254	88.38
372.48	88.38
372.706	78.38
372.932	85.38
373.158	92.38
373.384	83.38
373.61	94.38
373.835	78.38
374.061	93.38
374.287	102.38
374.513	83.38
374.739	87.38
374.965	76.38
375.191	85.38
375.416	94.38
375.642	91.38
375.868	91.38
376.094	94.38
376.319	88.38
376.545	71.38
376.771	92.38
376.997	87.38
377.222	87.38
377.448	89.38
377.674	105.38
377.899	88.38
378.125	87.38
378.35	93.38
378.576	95.38
378.802	83.38
379.027	94.38
379.253	98.38
379.478	90.38
379.704	89.38
379.929	91.38
380.155	106.38
380.38	97.38
380.606	90.38
380.831	77.38
381.057	104.38
381.282	90.38
381.507	90.38
381.733	94.38
381.958	92.38
382.184	93.38
382.409	88.38
382.634	101.38
382.86	103.38
383.085	87.38
383.31	102.38
383.535	102.38
383.761	93.38
383.986	97.38
384.211	99.38
384.436	91.38
384.662	87.38
384.887	91.38
385.112	98.38
385.337	108.38
385.562	98.38
385.787	91.38
386.013	112.38
386.238	116.38
386.463	113.38
386.688	104.38
386.913	94.38
387.138	102.38
387.363	94.38
387.588	99.38
387.813	95.38
388.038	111.38
388.263	121.38
388.488	89.38
388.713	90.38
388.938	97.38
389.163	101.38
389.387	100.38
389.612	99.38
389.837	99.38
390.062	90.38
390.287	95.38
390.512	93.38
390.736	93.38
390.961	104.38
391.186	91.38
391.411	88.38
391.636	84.38
391.86	86.38
392.085	76.38
392.31	80.38
392.534	96.38
392.759	75.38
392.984	89.38
393.208	85.38
393.433	79.38
393.658	86.38
393.882	75.38
394.107	86.38
394.331	83.38
394.556	90.38
394.78	81.38
395.005	81.38
395.229	92.38
395.454	89.38
395.678	96.38
395.903	98.38
396.127	81.38
396.352	83.38
396.576	99.38
396.801	93.38
397.025	88.38
397.249	87.38
397.474	89.38
397.698	77.38
397.922	92.38
398.147	91.38
398.371	95.38
398.595	81.38
398.82	93.38
399.044	82.38
399.268	86.38
399.492	95.38
399.717	91.38
399.941	74.38
400.165	95.38
400.389	94.38
400.613	94.38
400.837	88.38
401.062	82.38
401.286	83.38
401.51	85.38
401.734	84.38
401.958	99.38
402.182	118.38
402.406	155.38
402.63	131.38
402.854	103.38
403.078	103.38
403.302	77.38
403.526	96.38
403.75	100.38
403.974	93.38
404.198	90.38
404.422	83.38
404.645	85.38
404.869	86.38
405.093	112.38
405.317	115.38
405.541	110.38
405.765	89.38
405.988	124.38
406.212	176.38
406.436	209.38
406.66	142.38
406.883	101.38
407.107	85.38
407.331	80.38
407.555	99.38
407.778	105.38
408.002	98.38
408.226	105.38
408.449	100.38
408.673	95.38
408.896	83.38
409.12	80.38
409.344	84.38
409.567	101.38
409.791	100.38
410.014	90.38
410.238	83.38
410.461	87.38
410.685	96.38
410.908	99.38
411.132	95.38
411.355	98.38
411.578	92.38
411.802	92.38
412.025	85.38
412.249	90.38
412.472	96.38
412.695	85.38
412.919	95.38
413.142	93.38
413.365	79.38
413.589	77.38
413.812	96.38
414.035	88.38
414.258	101.38
414.482	95.38
414.705	93.38
414.928	80.38
415.151	79.38
415.374	81.38
415.597	89.38
415.821	98.38
416.044	82.38
416.267	89.38
416.49	76.38
416.713	95.38
416.936	96.38
417.159	83.38
417.382	93.38
417.605	83.38
417.828	100.38
418.051	81.38
418.274	92.38
418.497	80.38
418.72	95.38
418.943	96.38
419.166	91.38
419.389	78.38
419.611	89.38
419.834	92.38
420.057	93.38
420.28	93.38
420.503	101.38
420.726	88.38
420.948	82.38
421.171	76.38
421.394	103.38
421.617	101.38
421.839	79.38
422.062	97.38
422.285	105.38
422.507	87.38
422.73	97.38
422.953	100.38
423.175	86.38
423.398	88.38
423.621	90.38
423.843	73.38
424.066	84.38
424.288	79.38
424.511	71.38
424.733	93.38
424.956	103.38
425.178	108.38
425.401	105.38
425.623	107.38
425.846	77.38
426.068	92.38
426.291	77.38
426.513	87.38
426.735	99.38
426.958	101.38
427.18	102.38
427.402	132.38
427.625	162.38
427.847	122.38
428.069	116.38
428.292	100.38
428.514	89.38
428.736	85.38
428.958	94.38
429.181	100.38
429.403	80.38
429.625	85.38
429.847	87.38
430.069	96.38
430.292	95.38
430.514	83.38
430.736	78.38
430.958	84.38
431.18	81.38
431.402	101.38
431.624	88.38
431.846	92.38
432.068	88.38
432.29	76.38
432.512	78.38
432.734	83.38
432.956	91.38
433.178	89.38
433.4	107.38
433.622	86.38
433.844	89.38
434.066	86.38
434.287	93.38
434.509	85.38
434.731	99.38
434.953	101.38
435.175	95.38
435.397	84.38
435.618	82.38
435.84	107.38
436.062	139.38
436.284	121.38
436.505	92.38
436.727	101.38
436.949	81.38
437.17	101.38
437.392	91.38
437.614	93.38
437.835	111.38
438.057	117.38
438.278	111.38
438.5	104.38
438.721	117.38
438.943	104.38
439.165	92.38
439.386	101.38
439.608	99.38
439.829	96.38
440.05	109.38
440.272	126.38
440.493	101.38
440.715	81.38
440.936	87.38
441.158	88.38
441.379	93.38
441.6	80.38
441.822	86.38
442.043	89.38
442.264	99.38
442.486	104.38
442.707	93.38
442.928	95.38
443.149	131.38
443.371	123.38
443.592	105.38
443.813	117.38
444.034	94.38
444.255	94.38
444.476	100.38
444.698	90.38
444.919	73.38
445.14	120.38
445.361	110.38
445.582	123.38
445.803	126.38
446.024	117.38
446.245	119.38
446.466	118.38
446.687	82.38
446.908	72.38
447.129	76.38
447.35	85.38
447.571	91.38
447.792	90.38
448.013	104.38
448.234	100.38
448.455	94.38
448.675	110.38
448.896	105.38
449.117	108.38
449.338	97.38
449.559	111.38
449.779	115.38
450	92.38
450.221	85.38
450.442	80.38
450.662	105.38
450.883	99.38
451.104	110.38
451.324	102.38
451.545	94.38
451.766	85.38
451.986	92.38
452.207	99.38
452.428	90.38
452.648	101.38
452.869	116.38
453.089	101.38
453.31	119.38
453.53	89.38
453.751	93.38
453.971	105.38
454.192	89.38
454.412	87.38
454.633	78.38
454.853	90.38
455.073	72.38
455.294	86.38
455.514	92.38
455.734	100.38
455.955	71.38
456.175	79.38
456.395	93.38
456.616	90.38
456.836	84.38
457.056	70.38
457.276	90.38
457.497	84.38
457.717	90.38
457.937	78.38
458.157	84.38
458.377	79.38
458.598	90.38
458.818	123.38
459.038	154.38
459.258	118.38
459.478	91.38
459.698	97.38
459.918	84.38
460.138	92.38
460.358	79.38
460.578	86.38
460.798	99.38
461.018	95.38
461.238	85.38
461.458	79.38
461.678	102.38
461.898	84.38
462.118	82.38
462.338	77.38
462.558	79.38
462.777	98.38
462.997	85.38
463.217	81.38
463.437	83.38
463.657	84.38
463.876	97.38
464.096	101.38
464.316	103.38
464.536	85.38
464.755	103.38
464.975	96.38
465.195	147.38
465.414	150.38
465.634	95.38
465.854	77.38
466.073	84.38
466.293	89.38
466.512	82.38
466.732	85.38
466.951	96.38
467.171	85.38
467.391	100.38
467.61	105.38
467.829	95.38
468.049	120.38
468.268	99.38
468.488	94.38
468.707	82.38
468.927	89.38
469.146	97.38
469.365	82.38
469.585	98.38
469.804	94.38
470.023	112.38
470.243	92.38
470.462	100.38
470.681	105.38
470.901	96.38
471.12	87.38
471.339	104.38
471.558	92.38
471.777	81.38
471.997	91.38
472.216	121.38
472.435	160.38
472.654	95.38
472.873	94.38
473.092	87.38
473.311	85.38
473.53	86.38
473.749	78.38
473.968	87.38
474.187	102.38
474.406	98.38
474.625	94.38
474.844	87.38
475.063	76.38
475.282	100.38
475.501	88.38
475.72	94.38
475.939	86.38
476.158	68.38
476.377	86.38
476.596	97.38
476.814	84.38
477.033	86.38
477.252	85.38
477.471	81.38
477.69	97.38
477.908	82.38
478.127	98.38
478.346	91.38
478.564	96.38
478.783	105.38
479.002	115.38
479.22	103.38
479.439	103.38
479.658	100.38
479.876	93.38
480.095	98.38
480.313	90.38
480.532	95.38
480.751	89.38
480.969	122.38
481.188	234.38
481.406	179.38
481.624	111.38
481.843	84.38
482.061	72.38
482.28	97.38
482.498	97.38
482.717	101.38
482.935	89.38
483.153	88.38
483.372	84.38
483.59	81.38
483.808	79.38
484.027	79.38
484.245	91.38
484.463	92.38
484.681	98.38
484.9	94.38
485.118	92.38
485.336	95.38
485.554	99.38
485.772	106.38
485.99	94.38
486.209	106.38
486.427	123.38
486.645	116.38
486.863	111.38
487.081	98.38
487.299	101.38
487.517	103.38
487.735	89.38
487.953	86.38
488.171	102.38
488.389	106.38
488.607	89.38
488.825	93.38
489.043	91.38
489.261	95.38
489.479	86.38
489.696	92.38
489.914	83.38
490.132	94.38
490.35	85.38
490.568	99.38
490.786	94.38
491.003	88.38
491.221	93.38
491.439	99.38
491.657	109.38
491.874	87.38
492.092	77.38
492.31	85.38
492.527	96.38
492.745	94.38
492.963	95.38
493.18	92.38
493.398	78.38
493.615	89.38
493.833	98.38
494.05	84.38
494.268	82.38
494.485	85.38
494.703	91.38
494.92	91.38
495.138	76.38
495.355	81.38
495.573	97.38
495.79	90.38
496.008	82.38
496.225	83.38
496.442	90.38
496.66	108.38
496.877	93.38
497.094	102.38
497.312	94.38
497.529	101.38
497.746	95.38
497.963	88.38
498.181	101.38
498.398	95.38
498.615	107.38
498.832	97.38
499.049	87.38
499.267	114.38
499.484	85.38
499.701	80.38
499.918	88.38
500.135	90.38
500.352	89.38
500.569	85.38
500.786	97.38
501.003	92.38
501.22	90.38
501.437	104.38
501.654	91.38
501.871	108.38
502.088	110.38
502.305	91.38
502.522	94.38
502.739	94.38
502.956	87.38
503.172	100.38
503.389	97.38
503.606	101.38
503.823	87.38
504.04	98.38
504.256	80.38
504.473	84.38
504.69	96.38
504.907	94.38
505.123	80.38
505.34	87.38
505.557	89.38
505.773	74.38
505.99	89.38
506.207	92.38
506.423	92.38
506.64	80.38
506.856	91.38
507.073	94.38
507.289	93.38
507.506	96.38
507.722	108.38
507.939	111.38
508.155	104.38
508.372	99.38
508.588	91.38
508.805	91.38
509.021	94.38
509.238	105.38
509.454	100.38
509.67	116.38
509.887	119.38
510.103	136.38
510.319	203.38
510.536	771.38
510.752	2466.38
510.968	709.38
511.184	149.38
511.401	107.38
511.617	98.38
511.833	94.38
512.049	102.38
512.265	101.38
512.481	100.38
512.698	89.38
512.914	82.38
513.13	94.38
513.346	82.38
513.562	101.38
513.778	114.38
513.994	103.38
514.21	98.38
514.426	109.38
514.642	116.38
514.858	128.38
515.074	171.38
515.29	426.38
515.506	1411.38
515.721	545.38
