Data from Circ_2012_H10_HRD10591_00027.txt Node
Date: Wed Jan 03 10:05:55 EST 2024
User: Yrep
Spectrometer: HR+D1059
Trigger mode: 1
Integration Time (sec): 1.000000E-1
Scans to average: 1
Electric dark correction enabled: true
Nonlinearity correction enabled: false
Boxcar width: 0
XAxis mode: Wavelengths
Number of Pixels in Spectrum: 2048
>>>>>Begin Spectral Data<<<<<
223.165	-22.81
223.4	-22.81
223.635	-22.81
223.869	-21.81
224.104	-14.81
224.338	-4.81
224.573	-1.81
224.808	-11.81
225.042	-12.81
225.277	-9.81
225.511	-4.81
225.746	5.19
225.98	0.19
226.215	14.19
226.449	5.19
226.683	19.19
226.918	19.19
227.152	42.19
227.387	42.19
227.621	51.19
227.856	54.19
228.09	43.19
228.324	50.19
228.559	55.19
228.793	47.19
229.027	54.19
229.262	70.19
229.496	77.19
229.73	80.19
229.964	89.19
230.199	83.19
230.433	78.19
230.667	83.19
230.901	74.19
231.136	73.19
231.37	69.19
231.604	89.19
231.838	72.19
232.072	80.19
232.306	93.19
232.541	80.19
232.775	87.19
233.009	80.19
233.243	90.19
233.477	81.19
233.711	77.19
233.945	87.19
234.179	83.19
234.413	79.19
234.647	75.19
234.881	83.19
235.115	80.19
235.349	79.19
235.583	92.19
235.817	69.19
236.051	87.19
236.285	86.19
236.519	69.19
236.753	70.19
236.987	92.19
237.221	83.19
237.455	91.19
237.689	88.19
237.922	88.19
238.156	77.19
238.39	90.19
238.624	75.19
238.858	72.19
239.091	83.19
239.325	75.19
239.559	88.19
239.793	74.19
240.027	84.19
240.26	65.19
240.494	80.19
240.728	78.19
240.961	84.19
241.195	86.19
241.429	88.19
241.662	64.19
241.896	65.19
242.13	78.19
242.363	63.19
242.597	71.19
242.83	75.19
243.064	67.19
243.298	68.19
243.531	82.19
243.765	75.19
243.998	79.19
244.232	79.19
244.465	91.19
244.699	98.19
244.932	97.19
245.166	74.19
245.399	79.19
245.633	88.19
245.866	78.19
246.099	73.19
246.333	75.19
246.566	78.19
246.8	63.19
247.033	82.19
247.266	80.19
247.5	73.19
247.733	100.19
247.966	80.19
248.2	68.19
248.433	85.19
248.666	102.19
248.899	76.19
249.133	88.19
249.366	87.19
249.599	89.19
249.832	88.19
250.066	75.19
250.299	80.19
250.532	91.19
250.765	79.19
250.998	79.19
251.231	76.19
251.465	80.19
251.698	86.19
251.931	86.19
252.164	84.19
252.397	88.19
252.63	72.19
252.863	84.19
253.096	83.19
253.329	77.19
253.562	83.19
253.795	78.19
254.028	74.19
254.261	99.19
254.494	85.19
254.727	84.19
254.96	90.19
255.193	63.19
255.426	86.19
255.659	70.19
255.892	82.19
256.124	95.19
256.357	88.19
256.59	85.19
256.823	66.19
257.056	88.19
257.289	90.19
257.521	81.19
257.754	83.19
257.987	83.19
258.22	78.19
258.452	76.19
258.685	86.19
258.918	70.19
259.151	91.19
259.383	82.19
259.616	78.19
259.849	88.19
260.081	91.19
260.314	93.19
260.547	87.19
260.779	94.19
261.012	79.19
261.244	91.19
261.477	83.19
261.71	87.19
261.942	125.19
262.175	121.19
262.407	88.19
262.64	86.19
262.872	71.19
263.105	73.19
263.337	74.19
263.57	89.19
263.802	72.19
264.035	86.19
264.267	88.19
264.499	88.19
264.732	84.19
264.964	83.19
265.197	83.19
265.429	91.19
265.661	88.19
265.894	74.19
266.126	92.19
266.358	81.19
266.591	74.19
266.823	91.19
267.055	94.19
267.287	86.19
267.52	96.19
267.752	79.19
267.984	86.19
268.216	75.19
268.448	78.19
268.681	87.19
268.913	99.19
269.145	87.19
269.377	73.19
269.609	87.19
269.841	86.19
270.073	86.19
270.306	76.19
270.538	71.19
270.77	79.19
271.002	87.19
271.234	82.19
271.466	88.19
271.698	104.19
271.93	74.19
272.162	92.19
272.394	88.19
272.626	74.19
272.858	85.19
273.09	87.19
273.322	83.19
273.553	77.19
273.785	73.19
274.017	71.19
274.249	94.19
274.481	77.19
274.713	79.19
274.945	89.19
275.176	87.19
275.408	85.19
275.64	99.19
275.872	85.19
276.104	101.19
276.335	96.19
276.567	102.19
276.799	116.19
277.031	102.19
277.262	84.19
277.494	85.19
277.726	85.19
277.957	80.19
278.189	78.19
278.421	82.19
278.652	69.19
278.884	91.19
279.115	78.19
279.347	67.19
279.579	78.19
279.81	79.19
280.042	90.19
280.273	79.19
280.505	86.19
280.736	96.19
280.968	81.19
281.199	83.19
281.431	85.19
281.662	76.19
281.894	87.19
282.125	91.19
282.356	124.19
282.588	139.19
282.819	126.19
283.051	79.19
283.282	95.19
283.513	95.19
283.745	92.19
283.976	86.19
284.207	86.19
284.439	86.19
284.67	83.19
284.901	96.19
285.132	89.19
285.364	75.19
285.595	72.19
285.826	86.19
286.057	93.19
286.288	85.19
286.52	87.19
286.751	88.19
286.982	78.19
287.213	95.19
287.444	92.19
287.675	90.19
287.906	96.19
288.138	94.19
288.369	99.19
288.6	88.19
288.831	86.19
289.062	81.19
289.293	88.19
289.524	87.19
289.755	77.19
289.986	76.19
290.217	91.19
290.448	82.19
290.679	82.19
290.91	87.19
291.141	78.19
291.371	80.19
291.602	87.19
291.833	86.19
292.064	81.19
292.295	81.19
292.526	83.19
292.757	92.19
292.987	92.19
293.218	80.19
293.449	74.19
293.68	93.19
293.91	81.19
294.141	91.19
294.372	103.19
294.603	109.19
294.833	80.19
295.064	76.19
295.295	89.19
295.525	91.19
295.756	105.19
295.987	117.19
296.217	149.19
296.448	123.19
296.679	95.19
296.909	91.19
297.14	99.19
297.37	83.19
297.601	76.19
297.831	89.19
298.062	86.19
298.292	82.19
298.523	88.19
298.753	86.19
298.984	84.19
299.214	97.19
299.445	88.19
299.675	89.19
299.905	79.19
300.136	90.19
300.366	101.19
300.597	88.19
300.827	102.19
301.057	110.19
301.288	87.19
301.518	101.19
301.748	76.19
301.979	107.19
302.209	77.19
302.439	84.19
302.669	77.19
302.9	82.19
303.13	76.19
303.36	87.19
303.59	93.19
303.82	105.19
304.051	85.19
304.281	81.19
304.511	84.19
304.741	94.19
304.971	83.19
305.201	59.19
305.431	86.19
305.661	106.19
305.891	86.19
306.121	93.19
306.352	91.19
306.582	106.19
306.812	101.19
307.042	93.19
307.272	90.19
307.502	95.19
307.731	91.19
307.961	93.19
308.191	96.19
308.421	97.19
308.651	98.19
308.881	90.19
309.111	99.19
309.341	97.19
309.571	99.19
309.8	86.19
310.03	93.19
310.26	92.19
310.49	92.19
310.72	94.19
310.949	119.19
311.179	97.19
311.409	90.19
311.639	95.19
311.868	91.19
312.098	99.19
312.328	84.19
312.557	88.19
312.787	111.19
313.017	109.19
313.246	89.19
313.476	90.19
313.706	95.19
313.935	89.19
314.165	92.19
314.394	118.19
314.624	102.19
314.853	99.19
315.083	77.19
315.312	92.19
315.542	87.19
315.771	94.19
316.001	96.19
316.23	85.19
316.46	91.19
316.689	93.19
316.919	95.19
317.148	97.19
317.377	113.19
317.607	86.19
317.836	104.19
318.065	78.19
318.295	86.19
318.524	95.19
318.753	87.19
318.983	94.19
319.212	105.19
319.441	106.19
319.67	114.19
319.9	101.19
320.129	95.19
320.358	98.19
320.587	97.19
320.816	96.19
321.046	94.19
321.275	99.19
321.504	87.19
321.733	95.19
321.962	87.19
322.191	121.19
322.42	118.19
322.649	108.19
322.878	98.19
323.108	115.19
323.337	140.19
323.566	134.19
323.795	172.19
324.024	218.19
324.253	419.19
324.482	916.19
324.71	1860.19
324.939	2482.19
325.168	888.19
325.397	254.19
325.626	160.19
325.855	126.19
326.084	135.19
326.313	152.19
326.542	173.19
326.77	238.19
326.999	508.19
327.228	1012.19
327.457	1900.19
327.686	1499.19
327.914	408.19
328.143	215.19
328.372	166.19
328.6	119.19
328.829	120.19
329.058	125.19
329.287	114.19
329.515	125.19
329.744	118.19
329.972	106.19
330.201	134.19
330.43	117.19
330.658	143.19
330.887	146.19
331.115	125.19
331.344	102.19
331.572	120.19
331.801	101.19
332.03	121.19
332.258	96.19
332.486	103.19
332.715	93.19
332.943	91.19
333.172	94.19
333.4	92.19
333.629	114.19
333.857	118.19
334.085	100.19
334.314	129.19
334.542	119.19
334.771	112.19
334.999	101.19
335.227	103.19
335.455	96.19
335.684	99.19
335.912	77.19
336.14	107.19
336.369	98.19
336.597	96.19
336.825	86.19
337.053	85.19
337.281	99.19
337.51	83.19
337.738	101.19
337.966	95.19
338.194	103.19
338.422	100.19
338.65	102.19
338.878	88.19
339.106	92.19
339.334	101.19
339.562	88.19
339.79	96.19
340.018	84.19
340.246	94.19
340.474	88.19
340.702	90.19
340.93	78.19
341.158	94.19
341.386	102.19
341.614	95.19
341.842	92.19
342.07	91.19
342.298	96.19
342.526	88.19
342.754	94.19
342.981	86.19
343.209	78.19
343.437	89.19
343.665	97.19
343.893	89.19
344.12	95.19
344.348	90.19
344.576	80.19
344.804	101.19
345.031	96.19
345.259	95.19
345.487	96.19
345.714	111.19
345.942	99.19
346.17	80.19
346.397	77.19
346.625	89.19
346.853	84.19
347.08	83.19
347.308	100.19
347.535	94.19
347.763	99.19
347.99	108.19
348.218	102.19
348.445	105.19
348.673	111.19
348.9	104.19
349.128	94.19
349.355	106.19
349.583	83.19
349.81	96.19
350.037	99.19
350.265	85.19
350.492	96.19
350.72	99.19
350.947	105.19
351.174	107.19
351.402	101.19
351.629	78.19
351.856	97.19
352.083	104.19
352.311	103.19
352.538	106.19
352.765	122.19
352.992	109.19
353.22	115.19
353.447	108.19
353.674	107.19
353.901	99.19
354.128	87.19
354.355	95.19
354.583	95.19
354.81	100.19
355.037	107.19
355.264	93.19
355.491	97.19
355.718	78.19
355.945	83.19
356.172	101.19
356.399	100.19
356.626	91.19
356.853	102.19
357.08	89.19
357.307	97.19
357.534	104.19
357.761	97.19
357.988	91.19
358.215	93.19
358.441	83.19
358.668	96.19
358.895	96.19
359.122	93.19
359.349	76.19
359.576	95.19
359.802	105.19
360.029	133.19
360.256	97.19
360.483	95.19
360.709	100.19
360.936	94.19
361.163	101.19
361.39	104.19
361.616	102.19
361.843	92.19
362.07	84.19
362.296	104.19
362.523	94.19
362.749	83.19
362.976	94.19
363.203	107.19
363.429	76.19
363.656	84.19
363.882	85.19
364.109	91.19
364.335	92.19
364.562	95.19
364.788	95.19
365.015	98.19
365.241	101.19
365.468	103.19
365.694	95.19
365.92	98.19
366.147	88.19
366.373	84.19
366.599	90.19
366.826	96.19
367.052	79.19
367.278	92.19
367.505	108.19
367.731	96.19
367.957	104.19
368.184	88.19
368.41	104.19
368.636	105.19
368.862	115.19
369.089	104.19
369.315	89.19
369.541	90.19
369.767	88.19
369.993	88.19
370.219	85.19
370.445	84.19
370.672	78.19
370.898	81.19
371.124	81.19
371.35	93.19
371.576	97.19
371.802	82.19
372.028	94.19
372.254	87.19
372.48	80.19
372.706	98.19
372.932	83.19
373.158	91.19
373.384	87.19
373.61	99.19
373.835	75.19
374.061	90.19
374.287	95.19
374.513	98.19
374.739	89.19
374.965	85.19
375.191	93.19
375.416	92.19
375.642	84.19
375.868	94.19
376.094	100.19
376.319	86.19
376.545	83.19
376.771	92.19
376.997	93.19
377.222	94.19
377.448	87.19
377.674	91.19
377.899	91.19
378.125	82.19
378.35	99.19
378.576	110.19
378.802	93.19
379.027	102.19
379.253	88.19
379.478	90.19
379.704	83.19
379.929	92.19
380.155	98.19
380.38	87.19
380.606	84.19
380.831	104.19
381.057	97.19
381.282	92.19
381.507	82.19
381.733	101.19
381.958	96.19
382.184	90.19
382.409	108.19
382.634	112.19
382.86	98.19
383.085	101.19
383.31	99.19
383.535	94.19
383.761	95.19
383.986	102.19
384.211	98.19
384.436	89.19
384.662	112.19
384.887	87.19
385.112	94.19
385.337	108.19
385.562	101.19
385.787	90.19
386.013	110.19
386.238	117.19
386.463	103.19
386.688	101.19
386.913	102.19
387.138	120.19
387.363	101.19
387.588	95.19
387.813	100.19
388.038	103.19
388.263	127.19
388.488	119.19
388.713	97.19
388.938	83.19
389.163	91.19
389.387	91.19
389.612	82.19
389.837	86.19
390.062	94.19
390.287	95.19
390.512	91.19
390.736	91.19
390.961	92.19
391.186	90.19
391.411	103.19
391.636	100.19
391.86	78.19
392.085	87.19
392.31	94.19
392.534	90.19
392.759	74.19
392.984	93.19
393.208	79.19
393.433	90.19
393.658	98.19
393.882	84.19
394.107	84.19
394.331	78.19
394.556	89.19
394.78	78.19
395.005	84.19
395.229	96.19
395.454	77.19
395.678	80.19
395.903	90.19
396.127	89.19
396.352	100.19
396.576	97.19
396.801	86.19
397.025	91.19
397.249	88.19
397.474	88.19
397.698	91.19
397.922	102.19
398.147	74.19
398.371	80.19
398.595	96.19
398.82	79.19
399.044	90.19
399.268	90.19
399.492	96.19
399.717	92.19
399.941	87.19
400.165	98.19
400.389	90.19
400.613	79.19
400.837	88.19
401.062	91.19
401.286	92.19
401.51	88.19
401.734	85.19
401.958	102.19
402.182	134.19
402.406	172.19
402.63	135.19
402.854	90.19
403.078	93.19
403.302	84.19
403.526	92.19
403.75	85.19
403.974	90.19
404.198	75.19
404.422	91.19
404.645	91.19
404.869	88.19
405.093	94.19
405.317	94.19
405.541	102.19
405.765	107.19
405.988	124.19
406.212	178.19
406.436	258.19
406.66	157.19
406.883	105.19
407.107	101.19
407.331	112.19
407.555	109.19
407.778	91.19
408.002	94.19
408.226	83.19
408.449	89.19
408.673	100.19
408.896	111.19
409.12	94.19
409.344	95.19
409.567	95.19
409.791	105.19
410.014	106.19
410.238	87.19
410.461	89.19
410.685	98.19
410.908	91.19
411.132	98.19
411.355	99.19
411.578	86.19
411.802	86.19
412.025	89.19
412.249	91.19
412.472	102.19
412.695	102.19
412.919	85.19
413.142	83.19
413.365	87.19
413.589	86.19
413.812	88.19
414.035	86.19
414.258	106.19
414.482	98.19
414.705	101.19
414.928	108.19
415.151	85.19
415.374	90.19
415.597	92.19
415.821	84.19
416.044	92.19
416.267	87.19
416.49	98.19
416.713	88.19
416.936	97.19
417.159	89.19
417.382	97.19
417.605	101.19
417.828	95.19
418.051	90.19
418.274	89.19
418.497	95.19
418.72	93.19
418.943	94.19
419.166	100.19
419.389	89.19
419.611	86.19
419.834	90.19
420.057	96.19
420.28	87.19
420.503	85.19
420.726	94.19
420.948	91.19
421.171	95.19
421.394	85.19
421.617	84.19
421.839	94.19
422.062	91.19
422.285	87.19
422.507	97.19
422.73	98.19
422.953	111.19
423.175	94.19
423.398	88.19
423.621	76.19
423.843	90.19
424.066	85.19
424.288	84.19
424.511	99.19
424.733	102.19
424.956	97.19
425.178	100.19
425.401	90.19
425.623	98.19
425.846	98.19
426.068	87.19
426.291	93.19
426.513	90.19
426.735	95.19
426.958	93.19
427.18	103.19
427.402	144.19
427.625	156.19
427.847	127.19
428.069	114.19
428.292	86.19
428.514	95.19
428.736	79.19
428.958	91.19
429.181	86.19
429.403	88.19
429.625	77.19
429.847	96.19
430.069	99.19
430.292	98.19
430.514	89.19
430.736	96.19
430.958	88.19
431.18	84.19
431.402	82.19
431.624	80.19
431.846	90.19
432.068	84.19
432.29	80.19
432.512	72.19
432.734	96.19
432.956	93.19
433.178	109.19
433.4	87.19
433.622	98.19
433.844	99.19
434.066	89.19
434.287	105.19
434.509	99.19
434.731	82.19
434.953	87.19
435.175	101.19
435.397	91.19
435.618	105.19
435.84	100.19
436.062	140.19
436.284	132.19
436.505	112.19
436.727	108.19
436.949	95.19
437.17	80.19
437.392	94.19
437.614	96.19
437.835	97.19
438.057	117.19
438.278	99.19
438.5	111.19
438.721	136.19
438.943	96.19
439.165	83.19
439.386	84.19
439.608	86.19
439.829	115.19
440.05	117.19
440.272	153.19
440.493	101.19
440.715	87.19
440.936	79.19
441.158	94.19
441.379	87.19
441.6	87.19
441.822	104.19
442.043	93.19
442.264	101.19
442.486	103.19
442.707	87.19
442.928	102.19
443.149	132.19
443.371	140.19
443.592	119.19
443.813	110.19
444.034	110.19
444.255	98.19
444.476	90.19
444.698	91.19
444.919	97.19
445.14	136.19
445.361	129.19
445.582	115.19
445.803	126.19
446.024	143.19
446.245	141.19
446.466	121.19
446.687	99.19
446.908	98.19
447.129	96.19
447.35	84.19
447.571	86.19
447.792	85.19
448.013	104.19
448.234	106.19
448.455	100.19
448.675	107.19
448.896	138.19
449.117	99.19
449.338	92.19
449.559	124.19
449.779	134.19
450	101.19
450.221	80.19
450.442	88.19
450.662	96.19
450.883	106.19
451.104	109.19
451.324	98.19
451.545	90.19
451.766	94.19
451.986	78.19
452.207	87.19
452.428	89.19
452.648	91.19
452.869	123.19
453.089	130.19
453.31	121.19
453.53	105.19
453.751	93.19
453.971	103.19
454.192	101.19
454.412	92.19
454.633	72.19
454.853	96.19
455.073	99.19
455.294	90.19
455.514	104.19
455.734	94.19
455.955	86.19
456.175	93.19
456.395	90.19
456.616	92.19
456.836	79.19
457.056	85.19
457.276	90.19
457.497	96.19
457.717	95.19
457.937	90.19
458.157	72.19
458.377	105.19
458.598	110.19
458.818	141.19
459.038	180.19
459.258	126.19
459.478	94.19
459.698	88.19
459.918	88.19
460.138	82.19
460.358	75.19
460.578	89.19
460.798	80.19
461.018	94.19
461.238	84.19
461.458	84.19
461.678	88.19
461.898	91.19
462.118	88.19
462.338	83.19
462.558	87.19
462.777	94.19
462.997	87.19
463.217	83.19
463.437	76.19
463.657	72.19
463.876	96.19
464.096	101.19
464.316	90.19
464.536	92.19
464.755	86.19
464.975	110.19
465.195	167.19
465.414	164.19
465.634	77.19
465.854	87.19
466.073	80.19
466.293	92.19
466.512	93.19
466.732	90.19
466.951	85.19
467.171	93.19
467.391	89.19
467.61	103.19
467.829	92.19
468.049	93.19
468.268	94.19
468.488	85.19
468.707	83.19
468.927	75.19
469.146	82.19
469.365	86.19
469.585	85.19
469.804	91.19
470.023	90.19
470.243	100.19
470.462	117.19
470.681	99.19
470.901	89.19
471.12	89.19
471.339	96.19
471.558	86.19
471.777	84.19
471.997	85.19
472.216	99.19
472.435	126.19
472.654	104.19
472.873	87.19
473.092	97.19
473.311	92.19
473.53	82.19
473.749	83.19
473.968	94.19
474.187	116.19
474.406	100.19
474.625	96.19
474.844	88.19
475.063	90.19
475.282	86.19
475.501	86.19
475.72	106.19
475.939	94.19
476.158	91.19
476.377	85.19
476.596	77.19
476.814	91.19
477.033	106.19
477.252	104.19
477.471	83.19
477.69	95.19
477.908	93.19
478.127	79.19
478.346	96.19
478.564	90.19
478.783	107.19
479.002	98.19
479.22	90.19
479.439	112.19
479.658	105.19
479.876	95.19
480.095	100.19
480.313	99.19
480.532	91.19
480.751	92.19
480.969	124.19
481.188	188.19
481.406	148.19
481.624	95.19
481.843	103.19
482.061	94.19
482.28	85.19
482.498	77.19
482.717	96.19
482.935	80.19
483.153	107.19
483.372	99.19
483.59	93.19
483.808	96.19
484.027	105.19
484.245	86.19
484.463	89.19
484.681	111.19
484.9	88.19
485.118	93.19
485.336	84.19
485.554	100.19
485.772	92.19
485.99	111.19
486.209	104.19
486.427	108.19
486.645	101.19
486.863	114.19
487.081	101.19
487.299	102.19
487.517	100.19
487.735	99.19
487.953	92.19
488.171	89.19
488.389	92.19
488.607	107.19
488.825	86.19
489.043	89.19
489.261	93.19
489.479	87.19
489.696	89.19
489.914	88.19
490.132	81.19
490.35	97.19
490.568	79.19
490.786	99.19
491.003	102.19
491.221	82.19
491.439	71.19
491.657	81.19
491.874	87.19
492.092	94.19
492.31	91.19
492.527	90.19
492.745	76.19
492.963	96.19
493.18	93.19
493.398	89.19
493.615	100.19
493.833	95.19
494.05	80.19
494.268	95.19
494.485	96.19
494.703	86.19
494.92	105.19
495.138	95.19
495.355	78.19
495.573	71.19
495.79	88.19
496.008	91.19
496.225	98.19
496.442	95.19
496.66	92.19
496.877	88.19
497.094	96.19
497.312	88.19
497.529	90.19
497.746	77.19
497.963	97.19
498.181	91.19
498.398	99.19
498.615	117.19
498.832	91.19
499.049	84.19
499.267	88.19
499.484	69.19
499.701	80.19
499.918	85.19
500.135	83.19
500.352	101.19
500.569	94.19
500.786	91.19
501.003	83.19
501.22	89.19
501.437	87.19
501.654	92.19
501.871	106.19
502.088	87.19
502.305	92.19
502.522	96.19
502.739	91.19
502.956	80.19
503.172	84.19
503.389	103.19
503.606	84.19
503.823	96.19
504.04	93.19
504.256	100.19
504.473	75.19
504.69	83.19
504.907	99.19
505.123	76.19
505.34	86.19
505.557	110.19
505.773	86.19
505.99	97.19
506.207	88.19
506.423	86.19
506.64	84.19
506.856	103.19
507.073	95.19
507.289	83.19
507.506	100.19
507.722	118.19
507.939	125.19
508.155	99.19
508.372	108.19
508.588	93.19
508.805	93.19
509.021	103.19
509.238	104.19
509.454	111.19
509.67	92.19
509.887	116.19
510.103	134.19
510.319	222.19
510.536	844.19
510.752	2842.19
510.968	785.19
511.184	193.19
511.401	105.19
511.617	100.19
511.833	107.19
512.049	96.19
512.265	96.19
512.481	85.19
512.698	103.19
512.914	104.19
513.13	92.19
513.346	86.19
513.562	91.19
513.778	98.19
513.994	84.19
514.21	99.19
514.426	125.19
514.642	149.19
514.858	138.19
515.074	185.19
515.29	515.19
515.506	1763.19
