Data from Circ_2012_H10_HRD10591_00024.txt Node
Date: Wed Jan 03 10:05:55 EST 2024
User: Yrep
Spectrometer: HR+D1059
Trigger mode: 1
Integration Time (sec): 1.000000E-1
Scans to average: 1
Electric dark correction enabled: true
Nonlinearity correction enabled: false
Boxcar width: 0
XAxis mode: Wavelengths
Number of Pixels in Spectrum: 2048
>>>>>Begin Spectral Data<<<<<
223.165	-4
223.4	-4
223.635	-4
223.869	-22
224.104	-24
224.338	-19
224.573	-12
224.808	-7
225.042	-2
225.277	-8
225.511	-6
225.746	-3
225.98	6
226.215	15
226.449	7
226.683	24
226.918	26
227.152	29
227.387	30
227.621	41
227.856	41
228.09	55
228.324	37
228.559	47
228.793	61
229.027	65
229.262	68
229.496	73
229.73	71
229.964	76
230.199	78
230.433	79
230.667	79
230.901	74
231.136	81
231.37	71
231.604	82
231.838	82
232.072	81
232.306	88
232.541	73
232.775	73
233.009	68
233.243	71
233.477	81
233.711	80
233.945	83
234.179	78
234.413	83
234.647	59
234.881	77
235.115	84
235.349	70
235.583	76
235.817	84
236.051	75
236.285	73
236.519	60
236.753	66
236.987	77
237.221	83
237.455	94
237.689	86
237.922	74
238.156	70
238.39	62
238.624	75
238.858	64
239.091	68
239.325	85
239.559	77
239.793	78
240.027	77
240.26	66
240.494	71
240.728	63
240.961	86
241.195	82
241.429	80
241.662	70
241.896	83
242.13	71
242.363	94
242.597	86
242.83	69
243.064	88
243.298	82
243.531	68
243.765	70
243.998	89
244.232	59
244.465	102
244.699	71
244.932	81
245.166	87
245.399	76
245.633	81
245.866	76
246.099	83
246.333	62
246.566	76
246.8	70
247.033	73
247.266	83
247.5	89
247.733	83
247.966	93
248.2	86
248.433	71
248.666	81
248.899	85
249.133	77
249.366	88
249.599	97
249.832	92
250.066	88
250.299	89
250.532	80
250.765	82
250.998	84
251.231	79
251.465	78
251.698	71
251.931	75
252.164	73
252.397	76
252.63	74
252.863	76
253.096	79
253.329	75
253.562	95
253.795	91
254.028	78
254.261	76
254.494	79
254.727	88
254.96	67
255.193	79
255.426	78
255.659	91
255.892	67
256.124	86
256.357	75
256.59	75
256.823	79
257.056	81
257.289	92
257.521	91
257.754	90
257.987	79
258.22	87
258.452	65
258.685	92
258.918	73
259.151	73
259.383	78
259.616	88
259.849	73
260.081	73
260.314	82
260.547	74
260.779	79
261.012	71
261.244	90
261.477	90
261.71	89
261.942	137
262.175	118
262.407	89
262.64	84
262.872	76
263.105	89
263.337	86
263.57	89
263.802	85
264.035	81
264.267	75
264.499	75
264.732	79
264.964	78
265.197	84
265.429	71
265.661	81
265.894	81
266.126	82
266.358	81
266.591	82
266.823	93
267.055	89
267.287	85
267.52	93
267.752	72
267.984	91
268.216	83
268.448	79
268.681	88
268.913	81
269.145	75
269.377	82
269.609	93
269.841	90
270.073	87
270.306	90
270.538	72
270.77	70
271.002	72
271.234	84
271.466	71
271.698	82
271.93	77
272.162	75
272.394	87
272.626	78
272.858	81
273.09	76
273.322	89
273.553	83
273.785	92
274.017	76
274.249	76
274.481	82
274.713	84
274.945	75
275.176	95
275.408	83
275.64	84
275.872	85
276.104	87
276.335	86
276.567	106
276.799	107
277.031	95
277.262	91
277.494	82
277.726	87
277.957	92
278.189	87
278.421	87
278.652	98
278.884	89
279.115	85
279.347	87
279.579	76
279.81	91
280.042	83
280.273	92
280.505	77
280.736	86
280.968	84
281.199	92
281.431	102
281.662	90
281.894	102
282.125	99
282.356	117
282.588	147
282.819	106
283.051	94
283.282	88
283.513	72
283.745	85
283.976	68
284.207	75
284.439	94
284.67	77
284.901	94
285.132	79
285.364	88
285.595	74
285.826	94
286.057	86
286.288	91
286.52	97
286.751	75
286.982	99
287.213	94
287.444	66
287.675	85
287.906	85
288.138	87
288.369	78
288.6	99
288.831	81
289.062	77
289.293	85
289.524	95
289.755	96
289.986	76
290.217	90
290.448	89
290.679	70
290.91	75
291.141	81
291.371	81
291.602	77
291.833	94
292.064	83
292.295	76
292.526	83
292.757	77
292.987	94
293.218	85
293.449	93
293.68	103
293.91	82
294.141	94
294.372	84
294.603	82
294.833	85
295.064	81
295.295	98
295.525	118
295.756	107
295.987	113
296.217	147
296.448	133
296.679	101
296.909	101
297.14	92
297.37	85
297.601	82
297.831	90
298.062	93
298.292	82
298.523	82
298.753	94
298.984	83
299.214	84
299.445	77
299.675	80
299.905	98
300.136	86
300.366	75
300.597	85
300.827	90
301.057	104
301.288	87
301.518	98
301.748	92
301.979	98
302.209	93
302.439	86
302.669	82
302.9	90
303.13	88
303.36	106
303.59	98
303.82	115
304.051	85
304.281	89
304.511	79
304.741	83
304.971	97
305.201	86
305.431	86
305.661	84
305.891	93
306.121	79
306.352	92
306.582	101
306.812	100
307.042	96
307.272	101
307.502	99
307.731	100
307.961	90
308.191	95
308.421	96
308.651	89
308.881	95
309.111	88
309.341	90
309.571	96
309.8	95
310.03	86
310.26	103
310.49	97
310.72	101
310.949	109
311.179	109
311.409	84
311.639	95
311.868	87
312.098	102
312.328	84
312.557	106
312.787	101
313.017	94
313.246	98
313.476	91
313.706	92
313.935	89
314.165	99
314.394	103
314.624	93
314.853	88
315.083	97
315.312	85
315.542	89
315.771	90
316.001	79
316.23	85
316.46	98
316.689	99
316.919	93
317.148	98
317.377	85
317.607	103
317.836	84
318.065	77
318.295	74
318.524	90
318.753	97
318.983	89
319.212	103
319.441	90
319.67	111
319.9	97
320.129	91
320.358	91
320.587	74
320.816	81
321.046	93
321.275	99
321.504	95
321.733	92
321.962	103
322.191	116
322.42	104
322.649	121
322.878	137
323.108	121
323.337	121
323.566	144
323.795	153
324.024	195
324.253	386
324.482	818
324.71	1680
324.939	2267
325.168	846
325.397	271
325.626	137
325.855	113
326.084	119
326.313	129
326.542	149
326.77	230
326.999	463
327.228	938
327.457	1684
327.686	1347
327.914	350
328.143	189
328.372	155
328.6	133
328.829	121
329.058	131
329.287	126
329.515	91
329.744	96
329.972	94
330.201	119
330.43	131
330.658	114
330.887	150
331.115	114
331.344	83
331.572	91
331.801	98
332.03	116
332.258	95
332.486	73
332.715	100
332.943	93
333.172	101
333.4	101
333.629	108
333.857	115
334.085	115
334.314	110
334.542	109
334.771	129
334.999	92
335.227	98
335.455	90
335.684	99
335.912	99
336.14	104
336.369	102
336.597	95
336.825	93
337.053	91
337.281	102
337.51	90
337.738	87
337.966	79
338.194	101
338.422	107
338.65	89
338.878	101
339.106	70
339.334	77
339.562	98
339.79	105
340.018	91
340.246	87
340.474	85
340.702	100
340.93	90
341.158	88
341.386	89
341.614	101
341.842	83
342.07	83
342.298	91
342.526	92
342.754	92
342.981	92
343.209	98
343.437	86
343.665	96
343.893	91
344.12	87
344.348	91
344.576	100
344.804	102
345.031	93
345.259	101
345.487	83
345.714	92
345.942	83
346.17	84
346.397	85
346.625	98
346.853	102
347.08	90
347.308	95
347.535	89
347.763	95
347.99	95
348.218	109
348.445	104
348.673	96
348.9	92
349.128	103
349.355	91
349.583	88
349.81	95
350.037	84
350.265	92
350.492	69
350.72	112
350.947	98
351.174	114
351.402	114
351.629	90
351.856	109
352.083	104
352.311	101
352.538	106
352.765	103
352.992	104
353.22	90
353.447	109
353.674	102
353.901	91
354.128	90
354.355	102
354.583	106
354.81	94
355.037	102
355.264	89
355.491	87
355.718	87
355.945	86
356.172	86
356.399	82
356.626	84
356.853	91
357.08	89
357.307	80
357.534	88
357.761	90
357.988	89
358.215	99
358.441	99
358.668	94
358.895	92
359.122	93
359.349	98
359.576	97
359.802	92
360.029	105
360.256	99
360.483	110
360.709	88
360.936	95
361.163	90
361.39	109
361.616	83
361.843	103
362.07	98
362.296	95
362.523	82
362.749	86
362.976	84
363.203	89
363.429	65
363.656	89
363.882	106
364.109	86
364.335	91
364.562	86
364.788	80
365.015	101
365.241	92
365.468	107
365.694	101
365.92	87
366.147	89
366.373	92
366.599	98
366.826	103
367.052	87
367.278	85
367.505	91
367.731	109
367.957	85
368.184	93
368.41	104
368.636	100
368.862	132
369.089	114
369.315	95
369.541	93
369.767	91
369.993	87
370.219	89
370.445	93
370.672	89
370.898	87
371.124	89
371.35	99
371.576	99
371.802	98
372.028	83
372.254	89
372.48	91
372.706	72
372.932	75
373.158	94
373.384	91
373.61	86
373.835	74
374.061	73
374.287	89
374.513	89
374.739	98
374.965	100
375.191	73
375.416	85
375.642	86
375.868	89
376.094	81
376.319	85
376.545	77
376.771	96
376.997	87
377.222	96
377.448	94
377.674	77
377.899	102
378.125	89
378.35	94
378.576	84
378.802	80
379.027	89
379.253	91
379.478	83
379.704	80
379.929	84
380.155	108
380.38	94
380.606	88
380.831	90
381.057	103
381.282	104
381.507	84
381.733	94
381.958	93
382.184	90
382.409	83
382.634	96
382.86	106
383.085	111
383.31	95
383.535	96
383.761	88
383.986	98
384.211	91
384.436	95
384.662	103
384.887	113
385.112	98
385.337	108
385.562	106
385.787	114
386.013	112
386.238	116
386.463	98
386.688	115
386.913	88
387.138	116
387.363	88
387.588	103
387.813	104
388.038	100
388.263	111
388.488	105
388.713	96
388.938	95
389.163	99
389.387	98
389.612	85
389.837	92
390.062	81
390.287	90
390.512	77
390.736	90
390.961	97
391.186	99
391.411	100
391.636	86
391.86	102
392.085	84
392.31	89
392.534	85
392.759	82
392.984	82
393.208	98
393.433	93
393.658	105
393.882	93
394.107	90
394.331	82
394.556	91
394.78	89
395.005	84
395.229	89
395.454	89
395.678	91
395.903	87
396.127	92
396.352	85
396.576	75
396.801	83
397.025	84
397.249	94
397.474	92
397.698	95
397.922	89
398.147	80
398.371	80
398.595	87
398.82	74
399.044	88
399.268	86
399.492	88
399.717	85
399.941	82
400.165	83
400.389	82
400.613	91
400.837	95
401.062	97
401.286	94
401.51	92
401.734	83
401.958	100
402.182	134
402.406	161
402.63	115
402.854	97
403.078	102
403.302	79
403.526	102
403.75	88
403.974	97
404.198	84
404.422	77
404.645	77
404.869	98
405.093	104
405.317	90
405.541	99
405.765	92
405.988	116
406.212	175
406.436	241
406.66	147
406.883	113
407.107	102
407.331	90
407.555	98
407.778	85
408.002	92
408.226	92
408.449	92
408.673	92
408.896	111
409.12	105
409.344	113
409.567	84
409.791	101
410.014	86
410.238	94
410.461	99
410.685	96
410.908	102
411.132	100
411.355	90
411.578	106
411.802	100
412.025	84
412.249	89
412.472	102
412.695	81
412.919	96
413.142	77
413.365	88
413.589	95
413.812	76
414.035	92
414.258	86
414.482	92
414.705	102
414.928	79
415.151	78
415.374	107
415.597	95
415.821	95
416.044	84
416.267	92
416.49	82
416.713	85
416.936	75
417.159	71
417.382	81
417.605	88
417.828	99
418.051	84
418.274	93
418.497	85
418.72	72
418.943	86
419.166	79
419.389	79
419.611	83
419.834	81
420.057	84
420.28	92
420.503	86
420.726	78
420.948	81
421.171	94
421.394	101
421.617	92
421.839	75
422.062	102
422.285	93
422.507	85
422.73	107
422.953	91
423.175	74
423.398	71
423.621	97
423.843	79
424.066	81
424.288	93
424.511	96
424.733	104
424.956	92
425.178	102
425.401	106
425.623	97
425.846	96
426.068	79
426.291	85
426.513	89
426.735	92
426.958	89
427.18	103
427.402	124
427.625	169
427.847	109
428.069	99
428.292	87
428.514	83
428.736	89
428.958	85
429.181	72
429.403	87
429.625	90
429.847	85
430.069	109
430.292	101
430.514	87
430.736	74
430.958	76
431.18	87
431.402	99
431.624	70
431.846	85
432.068	74
432.29	91
432.512	79
432.734	78
432.956	83
433.178	81
433.4	102
433.622	95
433.844	92
434.066	93
434.287	86
434.509	97
434.731	77
434.953	95
435.175	94
435.397	102
435.618	96
435.84	100
436.062	104
436.284	111
436.505	94
436.727	101
436.949	90
437.17	95
437.392	81
437.614	101
437.835	96
438.057	108
438.278	108
438.5	100
438.721	108
438.943	90
439.165	98
439.386	90
439.608	87
439.829	102
440.05	121
440.272	145
440.493	101
440.715	103
440.936	79
441.158	84
441.379	84
441.6	99
441.822	94
442.043	84
442.264	99
442.486	89
442.707	85
442.928	111
443.149	132
443.371	131
443.592	101
443.813	113
444.034	109
444.255	105
444.476	89
444.698	86
444.919	84
445.14	104
445.361	121
445.582	99
445.803	119
446.024	128
446.245	133
446.466	107
446.687	95
446.908	86
447.129	98
447.35	83
447.571	101
447.792	86
448.013	88
448.234	89
448.455	111
448.675	122
448.896	109
449.117	94
449.338	92
449.559	117
449.779	117
450	91
450.221	87
450.442	96
450.662	94
450.883	115
451.104	108
451.324	99
451.545	94
451.766	98
451.986	82
452.207	70
452.428	84
452.648	91
452.869	107
453.089	117
453.31	131
453.53	97
453.751	87
453.971	100
454.192	112
454.412	105
454.633	81
454.853	84
455.073	75
455.294	90
455.514	96
455.734	92
455.955	87
456.175	81
456.395	78
456.616	87
456.836	74
457.056	82
457.276	74
457.497	84
457.717	81
457.937	89
458.157	76
458.377	100
458.598	118
458.818	150
459.038	161
459.258	112
459.478	77
459.698	72
459.918	91
460.138	89
460.358	68
460.578	79
460.798	86
461.018	85
461.238	82
461.458	80
461.678	77
461.898	78
462.118	97
462.338	81
462.558	65
462.777	93
462.997	97
463.217	72
463.437	83
463.657	83
463.876	83
464.096	76
464.316	86
464.536	90
464.755	114
464.975	120
465.195	162
465.414	169
465.634	90
465.854	84
466.073	82
466.293	83
466.512	89
466.732	95
466.951	84
467.171	77
467.391	79
467.61	106
467.829	78
468.049	92
468.268	97
468.488	79
468.707	86
468.927	72
469.146	96
469.365	98
469.585	87
469.804	103
470.023	92
470.243	82
470.462	102
470.681	100
470.901	76
471.12	90
471.339	82
471.558	85
471.777	89
471.997	93
472.216	102
472.435	132
472.654	92
472.873	83
473.092	94
473.311	80
473.53	78
473.749	80
473.968	89
474.187	110
474.406	81
474.625	86
474.844	75
475.063	74
475.282	83
475.501	100
475.72	86
475.939	85
476.158	74
476.377	81
476.596	87
476.814	86
477.033	99
477.252	95
477.471	76
477.69	87
477.908	81
478.127	100
478.346	82
478.564	87
478.783	94
479.002	98
479.22	96
479.439	91
479.658	87
479.876	85
480.095	84
480.313	110
480.532	95
480.751	93
480.969	114
481.188	167
481.406	133
481.624	88
481.843	79
482.061	75
482.28	85
482.498	74
482.717	80
482.935	82
483.153	84
483.372	90
483.59	79
483.808	84
484.027	100
484.245	105
484.463	86
484.681	83
484.9	79
485.118	100
485.336	95
485.554	90
485.772	103
485.99	103
486.209	96
486.427	104
486.645	118
486.863	119
487.081	100
487.299	83
487.517	105
487.735	94
487.953	82
488.171	83
488.389	95
488.607	98
488.825	71
489.043	76
489.261	79
489.479	90
489.696	78
489.914	89
490.132	90
490.35	96
490.568	75
490.786	96
491.003	91
491.221	87
491.439	92
491.657	97
491.874	88
492.092	85
492.31	87
492.527	89
492.745	85
492.963	93
493.18	100
493.398	79
493.615	101
493.833	91
494.05	86
494.268	92
494.485	90
494.703	79
494.92	94
495.138	69
495.355	75
495.573	93
495.79	91
496.008	94
496.225	109
496.442	95
496.66	88
496.877	74
497.094	95
497.312	95
497.529	88
497.746	88
497.963	95
498.181	85
498.398	85
498.615	120
498.832	114
499.049	79
499.267	91
499.484	82
499.701	88
499.918	89
500.135	73
500.352	101
500.569	84
500.786	82
501.003	71
501.22	80
501.437	73
501.654	78
501.871	108
502.088	100
502.305	75
502.522	79
502.739	91
502.956	97
503.172	97
503.389	96
503.606	103
503.823	97
504.04	92
504.256	97
504.473	87
504.69	83
504.907	92
505.123	80
505.34	98
505.557	83
505.773	82
505.99	93
506.207	81
506.423	84
506.64	86
506.856	90
507.073	103
507.289	92
507.506	86
507.722	101
507.939	107
508.155	103
508.372	84
508.588	90
508.805	96
509.021	96
509.238	98
509.454	118
509.67	104
509.887	95
510.103	118
510.319	207
510.536	799
510.752	2648
510.968	755
511.184	161
511.401	109
511.617	97
511.833	94
512.049	93
512.265	84
512.481	97
512.698	94
512.914	91
513.13	92
513.346	97
513.562	94
513.778	99
513.994	80
514.21	113
514.426	134
514.642	143
514.858	121
515.074	163
515.29	460
515.506	1612
515.721	617
515.937	163
516.153	118
516.369	94
516.585	88
516.801	93
517.016	84
517.232	87
517.448	85
517.664	91
517.879	103
518.095	86
518.311	78
518.527	75
518.742	84
518.958	96
519.173	105
519.389	97
519.605	84
519.82	97
520.036	98
520.251	119
520.467	106
520.682	97
520.898	98
521.113	115
521.329	138
521.544	217
521.76	568
521.975	2591
522.19	1614
522.406	344
522.621	121
522.836	117
523.052	108
523.267	92
523.482	87
523.698	101
523.913	122
524.128	105
524.343	81
524.559	81
524.774	86
524.989	99
525.204	102
525.419	101
525.634	94
525.849	91
526.064	89
526.28	91
526.495	92
526.71	91
526.925	79
527.14	86
527.355	88
527.57	79
527.785	82
527.999	88
528.214	88
528.429	84
528.644	92
528.859	94
529.074	107
529.289	115
529.503	189
529.718	97
529.933	98
530.148	90
530.363	78
530.577	94
530.792	110
531.007	105
531.221	84
531.436	90
531.651	89
531.865	84
532.08	90
532.295	78
532.509	81
532.724	79
532.938	99
533.153	85
533.367	100
533.582	98
533.796	96
534.011	89
534.225	84
534.44	95
534.654	97
534.868	88
535.083	103
535.297	75
535.511	91
535.726	109
535.94	90
536.154	98
536.369	90
536.583	102
536.797	110
537.011	77
537.225	85
537.44	85
537.654	89
537.868	87
538.082	88
538.296	94
538.51	97
538.724	93
538.938	96
539.153	101
539.367	89
539.581	91
539.795	81
540.009	83
540.222	79
540.436	85
540.65	97
540.864	77
541.078	105
541.292	100
541.506	79
541.72	86
541.934	95
542.147	99
542.361	87
542.575	87
542.789	92
543.002	95
543.216	81
543.43	96
543.644	93
543.857	92
544.071	97
544.285	90
544.498	88
544.712	85
544.925	92
545.139	95
545.352	93
545.566	79
545.779	81
545.993	88
546.206	78
546.42	88
546.633	92
546.847	102
547.06	79
547.274	101
547.487	104
547.7	87
547.914	87
548.127	97
548.34	97
548.554	101
548.767	95
548.98	96
549.193	83
549.407	97
549.62	84
549.833	72
550.046	93
550.259	95
550.473	88
550.686	97
550.899	94
551.112	93
551.325	83
551.538	91
551.751	79
551.964	74
552.177	90
552.39	79
552.603	91
552.816	96
553.029	71
553.242	79
553.455	89
553.667	95
553.88	98
554.093	87
554.306	94
554.519	97
554.732	102
554.944	86
555.157	72
555.37	98
555.583	90
555.795	93
556.008	89
556.221	88
556.433	90
556.646	82
556.859	90
557.071	87
557.284	92
557.496	94
557.709	85
557.921	89
558.134	97
558.346	100
558.559	91
558.771	74
558.984	82
559.196	75
559.409	89
559.621	88
559.833	83
560.046	89
560.258	89
560.47	90
560.683	86
560.895	85
561.107	74
561.32	93
561.532	85
561.744	97
561.956	88
562.168	94
562.381	78
562.593	73
562.805	75
563.017	101
563.229	93
563.441	98
563.653	84
563.865	87
564.077	79
564.289	104
564.501	93
564.713	100
564.925	87
565.137	105
565.349	102
565.561	83
565.773	78
565.985	77
566.197	84
566.408	88
566.62	93
566.832	89
567.044	86
567.255	84
567.467	71
567.679	100
567.891	76
568.102	85
568.314	93
568.526	73
568.737	89
568.949	93
569.161	78
569.372	81
569.584	98
569.795	94
570.007	118
570.218	266
570.43	129
570.641	79
570.853	99
571.064	86
571.276	87
571.487	91
571.698	74
571.91	89
572.121	63
572.333	100
572.544	86
572.755	106
572.966	87
573.178	75
573.389	86
573.6	84
573.811	83
574.023	81
574.234	98
574.445	98
574.656	77
574.867	97
575.078	77
575.289	89
575.501	86
575.712	88
575.923	87
576.134	89
576.345	88
576.556	101
576.767	106
576.978	107
577.188	81
577.399	98
577.61	87
577.821	91
578.032	120
578.243	273
578.454	805
578.665	222
578.875	102
579.086	83
579.297	82
579.508	90
579.718	78
579.929	88
580.14	89
580.35	87
580.561	79
580.772	81
580.982	73
581.193	89
581.403	92
581.614	95
581.825	85
582.035	88
582.246	87
582.456	81
582.667	89
582.877	85
583.087	90
583.298	83
583.508	98
583.719	94
583.929	89
584.139	97
584.35	90
584.56	85
584.77	92
