Data from Circ_2012_H10_HRD10591_00039.txt Node
Date: Wed Jan 03 10:05:58 EST 2024
User: Yrep
Spectrometer: HR+D1059
Trigger mode: 1
Integration Time (sec): 1.000000E-1
Scans to average: 1
Electric dark correction enabled: true
Nonlinearity correction enabled: false
Boxcar width: 0
XAxis mode: Wavelengths
Number of Pixels in Spectrum: 2048
>>>>>Begin Spectral Data<<<<<
223.165	-23.88
223.4	-23.88
223.635	-23.88
223.869	-21.88
224.104	-24.88
224.338	-13.88
224.573	-11.88
224.808	-20.88
225.042	-1.88
225.277	-6.88
225.511	2.12
225.746	6.12
225.98	15.12
226.215	17.12
226.449	30.12
226.683	22.12
226.918	14.12
227.152	19.12
227.387	24.12
227.621	44.12
227.856	61.12
228.09	53.12
228.324	64.12
228.559	55.12
228.793	53.12
229.027	52.12
229.262	60.12
229.496	72.12
229.73	85.12
229.964	90.12
230.199	87.12
230.433	77.12
230.667	73.12
230.901	70.12
231.136	82.12
231.37	84.12
231.604	80.12
231.838	75.12
232.072	89.12
232.306	98.12
232.541	85.12
232.775	94.12
233.009	64.12
233.243	83.12
233.477	74.12
233.711	76.12
233.945	84.12
234.179	78.12
234.413	79.12
234.647	70.12
234.881	87.12
235.115	77.12
235.349	83.12
235.583	85.12
235.817	80.12
236.051	76.12
236.285	70.12
236.519	73.12
236.753	88.12
236.987	88.12
237.221	95.12
237.455	85.12
237.689	64.12
237.922	78.12
238.156	66.12
238.39	80.12
238.624	70.12
238.858	86.12
239.091	83.12
239.325	71.12
239.559	79.12
239.793	84.12
240.027	74.12
240.26	74.12
240.494	85.12
240.728	77.12
240.961	60.12
241.195	72.12
241.429	90.12
241.662	81.12
241.896	78.12
242.13	85.12
242.363	68.12
242.597	77.12
242.83	78.12
243.064	69.12
243.298	80.12
243.531	75.12
243.765	72.12
243.998	76.12
244.232	95.12
244.465	80.12
244.699	75.12
244.932	82.12
245.166	84.12
245.399	84.12
245.633	62.12
245.866	65.12
246.099	76.12
246.333	90.12
246.566	77.12
246.8	76.12
247.033	83.12
247.266	82.12
247.5	88.12
247.733	87.12
247.966	89.12
248.2	72.12
248.433	86.12
248.666	86.12
248.899	90.12
249.133	80.12
249.366	96.12
249.599	95.12
249.832	75.12
250.066	87.12
250.299	89.12
250.532	87.12
250.765	78.12
250.998	68.12
251.231	92.12
251.465	83.12
251.698	90.12
251.931	71.12
252.164	99.12
252.397	79.12
252.63	74.12
252.863	78.12
253.096	76.12
253.329	77.12
253.562	82.12
253.795	84.12
254.028	95.12
254.261	83.12
254.494	77.12
254.727	83.12
254.96	78.12
255.193	85.12
255.426	75.12
255.659	74.12
255.892	86.12
256.124	88.12
256.357	89.12
256.59	91.12
256.823	86.12
257.056	79.12
257.289	86.12
257.521	75.12
257.754	77.12
257.987	90.12
258.22	94.12
258.452	95.12
258.685	99.12
258.918	71.12
259.151	68.12
259.383	78.12
259.616	68.12
259.849	84.12
260.081	77.12
260.314	81.12
260.547	87.12
260.779	90.12
261.012	86.12
261.244	87.12
261.477	98.12
261.71	88.12
261.942	107.12
262.175	117.12
262.407	89.12
262.64	95.12
262.872	89.12
263.105	85.12
263.337	76.12
263.57	87.12
263.802	86.12
264.035	79.12
264.267	87.12
264.499	80.12
264.732	90.12
264.964	78.12
265.197	81.12
265.429	79.12
265.661	91.12
265.894	79.12
266.126	79.12
266.358	99.12
266.591	85.12
266.823	81.12
267.055	72.12
267.287	79.12
267.52	83.12
267.752	81.12
267.984	77.12
268.216	86.12
268.448	79.12
268.681	81.12
268.913	89.12
269.145	88.12
269.377	68.12
269.609	94.12
269.841	75.12
270.073	78.12
270.306	90.12
270.538	85.12
270.77	84.12
271.002	83.12
271.234	79.12
271.466	80.12
271.698	94.12
271.93	84.12
272.162	93.12
272.394	95.12
272.626	88.12
272.858	84.12
273.09	79.12
273.322	90.12
273.553	86.12
273.785	85.12
274.017	98.12
274.249	83.12
274.481	89.12
274.713	87.12
274.945	95.12
275.176	87.12
275.408	79.12
275.64	94.12
275.872	83.12
276.104	95.12
276.335	92.12
276.567	95.12
276.799	125.12
277.031	102.12
277.262	88.12
277.494	96.12
277.726	94.12
277.957	85.12
278.189	75.12
278.421	89.12
278.652	78.12
278.884	86.12
279.115	87.12
279.347	91.12
279.579	91.12
279.81	69.12
280.042	84.12
280.273	80.12
280.505	71.12
280.736	86.12
280.968	84.12
281.199	98.12
281.431	100.12
281.662	86.12
281.894	87.12
282.125	118.12
282.356	130.12
282.588	152.12
282.819	113.12
283.051	81.12
283.282	87.12
283.513	87.12
283.745	80.12
283.976	85.12
284.207	101.12
284.439	75.12
284.67	78.12
284.901	77.12
285.132	92.12
285.364	92.12
285.595	94.12
285.826	77.12
286.057	89.12
286.288	87.12
286.52	91.12
286.751	97.12
286.982	93.12
287.213	94.12
287.444	77.12
287.675	88.12
287.906	89.12
288.138	97.12
288.369	74.12
288.6	102.12
288.831	98.12
289.062	93.12
289.293	102.12
289.524	95.12
289.755	102.12
289.986	93.12
290.217	78.12
290.448	83.12
290.679	83.12
290.91	90.12
291.141	76.12
291.371	79.12
291.602	92.12
291.833	89.12
292.064	106.12
292.295	97.12
292.526	86.12
292.757	77.12
292.987	100.12
293.218	83.12
293.449	85.12
293.68	90.12
293.91	81.12
294.141	86.12
294.372	94.12
294.603	80.12
294.833	87.12
295.064	95.12
295.295	96.12
295.525	93.12
295.756	95.12
295.987	124.12
296.217	144.12
296.448	133.12
296.679	110.12
296.909	99.12
297.14	84.12
297.37	80.12
297.601	94.12
297.831	102.12
298.062	100.12
298.292	93.12
298.523	109.12
298.753	93.12
298.984	87.12
299.214	92.12
299.445	88.12
299.675	84.12
299.905	100.12
300.136	102.12
300.366	93.12
300.597	93.12
300.827	87.12
301.057	111.12
301.288	100.12
301.518	103.12
301.748	98.12
301.979	101.12
302.209	98.12
302.439	97.12
302.669	92.12
302.9	82.12
303.13	86.12
303.36	78.12
303.59	107.12
303.82	114.12
304.051	92.12
304.281	98.12
304.511	86.12
304.741	88.12
304.971	87.12
305.201	93.12
305.431	90.12
305.661	82.12
305.891	90.12
306.121	97.12
306.352	102.12
306.582	111.12
306.812	105.12
307.042	88.12
307.272	92.12
307.502	100.12
307.731	87.12
307.961	96.12
308.191	91.12
308.421	94.12
308.651	72.12
308.881	98.12
309.111	100.12
309.341	116.12
309.571	99.12
309.8	86.12
310.03	111.12
310.26	92.12
310.49	84.12
310.72	99.12
310.949	110.12
311.179	98.12
311.409	86.12
311.639	101.12
311.868	84.12
312.098	104.12
312.328	84.12
312.557	100.12
312.787	112.12
313.017	110.12
313.246	92.12
313.476	97.12
313.706	102.12
313.935	94.12
314.165	88.12
314.394	99.12
314.624	107.12
314.853	92.12
315.083	96.12
315.312	96.12
315.542	79.12
315.771	87.12
316.001	89.12
316.23	96.12
316.46	98.12
316.689	102.12
316.919	103.12
317.148	100.12
317.377	116.12
317.607	98.12
317.836	106.12
318.065	87.12
318.295	90.12
318.524	96.12
318.753	96.12
318.983	87.12
319.212	95.12
319.441	110.12
319.67	118.12
319.9	94.12
320.129	99.12
320.358	99.12
320.587	105.12
320.816	106.12
321.046	106.12
321.275	93.12
321.504	93.12
321.733	102.12
321.962	92.12
322.191	107.12
322.42	103.12
322.649	110.12
322.878	130.12
323.108	117.12
323.337	127.12
323.566	126.12
323.795	159.12
324.024	218.12
324.253	445.12
324.482	910.12
324.71	1893.12
324.939	2464.12
325.168	902.12
325.397	266.12
325.626	153.12
325.855	134.12
326.084	127.12
326.313	138.12
326.542	158.12
326.77	258.12
326.999	501.12
327.228	1038.12
327.457	1891.12
327.686	1478.12
327.914	386.12
328.143	203.12
328.372	171.12
328.6	134.12
328.829	127.12
329.058	131.12
329.287	123.12
329.515	108.12
329.744	114.12
329.972	107.12
330.201	119.12
330.43	124.12
330.658	147.12
330.887	150.12
331.115	118.12
331.344	86.12
331.572	87.12
331.801	113.12
332.03	105.12
332.258	100.12
332.486	98.12
332.715	92.12
332.943	96.12
333.172	100.12
333.4	105.12
333.629	120.12
333.857	134.12
334.085	118.12
334.314	107.12
334.542	137.12
334.771	144.12
334.999	101.12
335.227	90.12
335.455	104.12
335.684	92.12
335.912	104.12
336.14	91.12
336.369	94.12
336.597	90.12
336.825	100.12
337.053	104.12
337.281	92.12
337.51	103.12
337.738	92.12
337.966	87.12
338.194	86.12
338.422	94.12
338.65	96.12
338.878	87.12
339.106	92.12
339.334	98.12
339.562	80.12
339.79	90.12
340.018	103.12
340.246	103.12
340.474	103.12
340.702	84.12
340.93	103.12
341.158	101.12
341.386	107.12
341.614	106.12
341.842	94.12
342.07	98.12
342.298	99.12
342.526	98.12
342.754	86.12
342.981	102.12
343.209	92.12
343.437	96.12
343.665	89.12
343.893	99.12
344.12	89.12
344.348	78.12
344.576	92.12
344.804	87.12
345.031	103.12
345.259	105.12
345.487	102.12
345.714	100.12
345.942	98.12
346.17	91.12
346.397	80.12
346.625	96.12
346.853	93.12
347.08	95.12
347.308	103.12
347.535	91.12
347.763	78.12
347.99	87.12
348.218	106.12
348.445	100.12
348.673	88.12
348.9	99.12
349.128	111.12
349.355	96.12
349.583	94.12
349.81	101.12
350.037	92.12
350.265	99.12
350.492	92.12
350.72	108.12
350.947	99.12
351.174	99.12
351.402	131.12
351.629	102.12
351.856	107.12
352.083	112.12
352.311	107.12
352.538	117.12
352.765	111.12
352.992	110.12
353.22	110.12
353.447	104.12
353.674	110.12
353.901	74.12
354.128	99.12
354.355	119.12
354.583	97.12
354.81	101.12
355.037	91.12
355.264	100.12
355.491	95.12
355.718	82.12
355.945	99.12
356.172	97.12
356.399	99.12
356.626	80.12
356.853	94.12
357.08	98.12
357.307	88.12
357.534	95.12
357.761	88.12
357.988	89.12
358.215	96.12
358.441	93.12
358.668	107.12
358.895	89.12
359.122	85.12
359.349	75.12
359.576	107.12
359.802	104.12
360.029	102.12
360.256	127.12
360.483	110.12
360.709	97.12
360.936	85.12
361.163	107.12
361.39	93.12
361.616	94.12
361.843	93.12
362.07	83.12
362.296	94.12
362.523	91.12
362.749	97.12
362.976	114.12
363.203	81.12
363.429	78.12
363.656	87.12
363.882	82.12
364.109	89.12
364.335	94.12
364.562	97.12
364.788	85.12
365.015	107.12
365.241	96.12
365.468	123.12
365.694	109.12
365.92	98.12
366.147	86.12
366.373	95.12
366.599	79.12
366.826	82.12
367.052	96.12
367.278	87.12
367.505	103.12
367.731	89.12
367.957	70.12
368.184	84.12
368.41	107.12
368.636	107.12
368.862	118.12
369.089	105.12
369.315	95.12
369.541	89.12
369.767	105.12
369.993	93.12
370.219	99.12
370.445	96.12
370.672	99.12
370.898	79.12
371.124	95.12
371.35	100.12
371.576	94.12
371.802	86.12
372.028	90.12
372.254	86.12
372.48	90.12
372.706	97.12
372.932	92.12
373.158	98.12
373.384	95.12
373.61	90.12
373.835	99.12
374.061	90.12
374.287	93.12
374.513	81.12
374.739	86.12
374.965	85.12
375.191	77.12
375.416	91.12
375.642	86.12
375.868	88.12
376.094	99.12
376.319	86.12
376.545	84.12
376.771	90.12
376.997	94.12
377.222	97.12
377.448	91.12
377.674	87.12
377.899	78.12
378.125	88.12
378.35	83.12
378.576	103.12
378.802	93.12
379.027	97.12
379.253	85.12
379.478	75.12
379.704	100.12
379.929	91.12
380.155	94.12
380.38	95.12
380.606	101.12
380.831	94.12
381.057	113.12
381.282	98.12
381.507	98.12
381.733	80.12
381.958	96.12
382.184	95.12
382.409	98.12
382.634	106.12
382.86	118.12
383.085	101.12
383.31	105.12
383.535	102.12
383.761	103.12
383.986	91.12
384.211	88.12
384.436	91.12
384.662	101.12
384.887	87.12
385.112	91.12
385.337	95.12
385.562	90.12
385.787	98.12
386.013	124.12
386.238	121.12
386.463	107.12
386.688	105.12
386.913	96.12
387.138	87.12
387.363	98.12
387.588	105.12
387.813	107.12
388.038	117.12
388.263	92.12
388.488	107.12
388.713	91.12
388.938	108.12
389.163	100.12
389.387	96.12
389.612	93.12
389.837	89.12
390.062	109.12
390.287	88.12
390.512	99.12
390.736	95.12
390.961	91.12
391.186	80.12
391.411	99.12
391.636	102.12
391.86	100.12
392.085	85.12
392.31	77.12
392.534	79.12
392.759	86.12
392.984	76.12
393.208	88.12
393.433	102.12
393.658	92.12
393.882	80.12
394.107	85.12
394.331	81.12
394.556	100.12
394.78	101.12
395.005	93.12
395.229	93.12
395.454	89.12
395.678	84.12
395.903	96.12
396.127	83.12
396.352	90.12
396.576	82.12
396.801	102.12
397.025	92.12
397.249	88.12
397.474	94.12
397.698	96.12
397.922	84.12
398.147	87.12
398.371	86.12
398.595	86.12
398.82	86.12
399.044	87.12
399.268	84.12
399.492	81.12
399.717	82.12
399.941	87.12
400.165	93.12
400.389	96.12
400.613	94.12
400.837	92.12
401.062	88.12
401.286	105.12
401.51	91.12
401.734	89.12
401.958	85.12
402.182	124.12
402.406	167.12
402.63	132.12
402.854	101.12
403.078	109.12
403.302	99.12
403.526	92.12
403.75	83.12
403.974	91.12
404.198	82.12
404.422	92.12
404.645	86.12
404.869	87.12
405.093	77.12
405.317	101.12
405.541	120.12
405.765	104.12
405.988	116.12
406.212	187.12
406.436	259.12
406.66	146.12
406.883	104.12
407.107	103.12
407.331	110.12
407.555	114.12
407.778	87.12
408.002	89.12
408.226	93.12
408.449	103.12
408.673	92.12
408.896	86.12
409.12	100.12
409.344	110.12
409.567	89.12
409.791	96.12
410.014	109.12
410.238	111.12
410.461	94.12
410.685	110.12
410.908	114.12
411.132	92.12
411.355	118.12
411.578	101.12
411.802	86.12
412.025	114.12
412.249	94.12
412.472	92.12
412.695	82.12
412.919	89.12
413.142	73.12
413.365	87.12
413.589	99.12
413.812	93.12
414.035	86.12
414.258	93.12
414.482	87.12
414.705	86.12
414.928	95.12
415.151	84.12
415.374	105.12
415.597	102.12
415.821	89.12
416.044	105.12
416.267	87.12
416.49	103.12
416.713	88.12
416.936	82.12
417.159	92.12
417.382	80.12
417.605	71.12
417.828	91.12
418.051	92.12
418.274	98.12
418.497	94.12
418.72	83.12
418.943	89.12
419.166	93.12
419.389	88.12
419.611	98.12
419.834	83.12
420.057	93.12
420.28	99.12
420.503	100.12
420.726	74.12
420.948	89.12
421.171	114.12
421.394	86.12
421.617	87.12
421.839	97.12
422.062	80.12
422.285	104.12
422.507	105.12
422.73	106.12
422.953	88.12
423.175	92.12
423.398	74.12
423.621	85.12
423.843	86.12
424.066	80.12
424.288	75.12
424.511	95.12
424.733	99.12
424.956	110.12
425.178	93.12
425.401	99.12
425.623	93.12
425.846	89.12
426.068	102.12
426.291	99.12
426.513	97.12
426.735	75.12
426.958	78.12
427.18	102.12
427.402	137.12
427.625	185.12
427.847	140.12
428.069	109.12
428.292	90.12
428.514	90.12
428.736	81.12
428.958	99.12
429.181	76.12
429.403	86.12
429.625	89.12
429.847	87.12
430.069	91.12
430.292	99.12
430.514	83.12
430.736	84.12
430.958	83.12
431.18	93.12
431.402	101.12
431.624	71.12
431.846	92.12
432.068	87.12
432.29	95.12
432.512	100.12
432.734	88.12
432.956	93.12
433.178	87.12
433.4	87.12
433.622	91.12
433.844	94.12
434.066	90.12
434.287	98.12
434.509	84.12
434.731	92.12
434.953	76.12
435.175	78.12
435.397	100.12
435.618	91.12
435.84	104.12
436.062	118.12
436.284	115.12
436.505	93.12
436.727	104.12
436.949	100.12
437.17	83.12
437.392	71.12
437.614	93.12
437.835	115.12
438.057	130.12
438.278	106.12
438.5	114.12
438.721	105.12
438.943	106.12
439.165	85.12
439.386	104.12
439.608	82.12
439.829	121.12
440.05	117.12
440.272	155.12
440.493	113.12
440.715	87.12
440.936	87.12
441.158	85.12
441.379	102.12
441.6	101.12
441.822	98.12
442.043	89.12
442.264	98.12
442.486	86.12
442.707	102.12
442.928	109.12
443.149	142.12
443.371	135.12
443.592	118.12
443.813	112.12
444.034	124.12
444.255	82.12
444.476	84.12
444.698	79.12
444.919	81.12
445.14	121.12
445.361	130.12
445.582	116.12
445.803	161.12
446.024	133.12
446.245	136.12
446.466	111.12
446.687	81.12
446.908	105.12
447.129	87.12
447.35	92.12
447.571	101.12
447.792	102.12
448.013	93.12
448.234	106.12
448.455	100.12
448.675	106.12
448.896	119.12
449.117	92.12
449.338	90.12
449.559	133.12
449.779	148.12
450	73.12
450.221	84.12
450.442	92.12
450.662	95.12
450.883	104.12
451.104	122.12
451.324	98.12
451.545	86.12
451.766	99.12
451.986	91.12
452.207	97.12
452.428	95.12
452.648	88.12
452.869	118.12
453.089	118.12
453.31	132.12
453.53	102.12
453.751	105.12
453.971	105.12
454.192	119.12
454.412	89.12
454.633	88.12
454.853	82.12
455.073	94.12
455.294	84.12
455.514	101.12
455.734	84.12
455.955	90.12
456.175	89.12
456.395	86.12
456.616	86.12
456.836	72.12
457.056	78.12
457.276	77.12
457.497	69.12
457.717	94.12
457.937	87.12
458.157	80.12
458.377	106.12
458.598	124.12
458.818	170.12
459.038	176.12
459.258	128.12
459.478	80.12
459.698	85.12
459.918	76.12
460.138	96.12
460.358	86.12
460.578	91.12
460.798	82.12
461.018	88.12
461.238	84.12
461.458	90.12
461.678	94.12
461.898	88.12
462.118	78.12
462.338	64.12
462.558	98.12
462.777	88.12
462.997	83.12
463.217	86.12
463.437	75.12
463.657	82.12
463.876	76.12
464.096	86.12
464.316	88.12
464.536	95.12
464.755	107.12
464.975	111.12
465.195	181.12
465.414	165.12
465.634	105.12
465.854	99.12
466.073	75.12
466.293	80.12
466.512	80.12
466.732	94.12
466.951	91.12
467.171	91.12
467.391	97.12
467.61	106.12
467.829	89.12
468.049	109.12
468.268	111.12
468.488	85.12
468.707	82.12
468.927	77.12
469.146	79.12
469.365	89.12
469.585	84.12
469.804	99.12
470.023	111.12
470.243	85.12
470.462	107.12
470.681	112.12
470.901	101.12
471.12	86.12
471.339	80.12
471.558	79.12
471.777	90.12
471.997	99.12
472.216	110.12
472.435	135.12
472.654	100.12
472.873	83.12
473.092	91.12
473.311	95.12
473.53	86.12
473.749	84.12
473.968	108.12
474.187	105.12
474.406	102.12
474.625	68.12
474.844	80.12
475.063	89.12
475.282	101.12
475.501	87.12
475.72	83.12
475.939	81.12
476.158	92.12
476.377	87.12
476.596	86.12
476.814	103.12
477.033	88.12
477.252	79.12
477.471	88.12
477.69	94.12
477.908	83.12
478.127	99.12
478.346	77.12
478.564	89.12
478.783	99.12
479.002	96.12
479.22	94.12
479.439	119.12
479.658	109.12
479.876	84.12
480.095	94.12
480.313	94.12
480.532	82.12
480.751	105.12
480.969	111.12
481.188	204.12
481.406	150.12
481.624	103.12
481.843	76.12
482.061	98.12
482.28	82.12
482.498	85.12
482.717	101.12
482.935	85.12
483.153	79.12
483.372	100.12
483.59	86.12
483.808	83.12
484.027	85.12
484.245	101.12
484.463	95.12
484.681	87.12
484.9	92.12
485.118	88.12
485.336	84.12
485.554	98.12
485.772	94.12
485.99	98.12
486.209	94.12
486.427	109.12
486.645	107.12
486.863	117.12
487.081	104.12
487.299	80.12
487.517	90.12
487.735	84.12
487.953	83.12
488.171	98.12
488.389	92.12
488.607	109.12
488.825	92.12
489.043	98.12
489.261	95.12
489.479	98.12
489.696	81.12
489.914	90.12
490.132	85.12
490.35	69.12
490.568	78.12
490.786	106.12
491.003	104.12
491.221	99.12
491.439	85.12
491.657	89.12
491.874	94.12
492.092	106.12
492.31	97.12
492.527	92.12
492.745	85.12
492.963	98.12
493.18	88.12
493.398	96.12
493.615	100.12
493.833	86.12
494.05	80.12
494.268	94.12
494.485	91.12
494.703	92.12
494.92	85.12
495.138	93.12
495.355	90.12
495.573	101.12
495.79	87.12
496.008	80.12
496.225	90.12
496.442	91.12
496.66	90.12
496.877	90.12
497.094	106.12
497.312	90.12
497.529	98.12
497.746	88.12
497.963	100.12
498.181	91.12
498.398	87.12
498.615	102.12
498.832	114.12
499.049	87.12
499.267	92.12
499.484	98.12
499.701	99.12
499.918	88.12
500.135	89.12
500.352	99.12
500.569	97.12
500.786	91.12
501.003	91.12
501.22	86.12
501.437	93.12
501.654	97.12
501.871	90.12
502.088	114.12
502.305	93.12
502.522	76.12
502.739	91.12
502.956	90.12
503.172	85.12
503.389	96.12
503.606	99.12
503.823	107.12
504.04	93.12
504.256	104.12
504.473	98.12
504.69	87.12
504.907	100.12
505.123	88.12
505.34	92.12
505.557	95.12
505.773	100.12
505.99	110.12
506.207	83.12
506.423	85.12
506.64	92.12
506.856	91.12
507.073	85.12
507.289	92.12
507.506	95.12
507.722	100.12
507.939	110.12
508.155	93.12
508.372	87.12
508.588	94.12
508.805	112.12
509.021	95.12
509.238	95.12
509.454	112.12
509.67	105.12
509.887	108.12
510.103	134.12
510.319	220.12
510.536	886.12
510.752	2866.12
510.968	808.12
511.184	160.12
511.401	122.12
511.617	108.12
511.833	91.12
512.049	100.12
512.265	106.12
512.481	104.12
512.698	95.12
512.914	88.12
513.13	95.12
513.346	94.12
513.562	93.12
513.778	101.12
513.994	99.12
514.21	115.12
514.426	133.12
514.642	154.12
514.858	135.12
