Data from Circ_2012_H10_HRD10591_00023.txt Node
Date: Wed Jan 03 10:05:55 EST 2024
User: Yrep
Spectrometer: HR+D1059
Trigger mode: 1
Integration Time (sec): 1.000000E-1
Scans to average: 1
Electric dark correction enabled: true
Nonlinearity correction enabled: false
Boxcar width: 0
XAxis mode: Wavelengths
Number of Pixels in Spectrum: 2048
>>>>>Begin Spectral Data<<<<<
223.165	-17.12
223.4	-17.12
223.635	-17.12
223.869	-16.12
224.104	-24.12
224.338	-24.12
224.573	-21.12
224.808	-16.12
225.042	5.88
225.277	-6.12
225.511	15.88
225.746	6.88
225.98	-11.12
226.215	17.88
226.449	0.88
226.683	31.88
226.918	30.88
227.152	25.88
227.387	27.88
227.621	48.88
227.856	39.88
228.09	40.88
228.324	66.88
228.559	47.88
228.793	50.88
229.027	57.88
229.262	66.88
229.496	77.88
229.73	91.88
229.964	87.88
230.199	87.88
230.433	84.88
230.667	67.88
230.901	63.88
231.136	76.88
231.37	78.88
231.604	79.88
231.838	80.88
232.072	81.88
232.306	82.88
232.541	77.88
232.775	82.88
233.009	78.88
233.243	77.88
233.477	78.88
233.711	85.88
233.945	86.88
234.179	73.88
234.413	84.88
234.647	84.88
234.881	70.88
235.115	66.88
235.349	76.88
235.583	73.88
235.817	71.88
236.051	78.88
236.285	84.88
236.519	83.88
236.753	77.88
236.987	77.88
237.221	89.88
237.455	99.88
237.689	78.88
237.922	81.88
238.156	70.88
238.39	70.88
238.624	88.88
238.858	72.88
239.091	71.88
239.325	83.88
239.559	80.88
239.793	84.88
240.027	74.88
240.26	70.88
240.494	79.88
240.728	76.88
240.961	80.88
241.195	97.88
241.429	65.88
241.662	70.88
241.896	74.88
242.13	77.88
242.363	77.88
242.597	88.88
242.83	75.88
243.064	75.88
243.298	73.88
243.531	85.88
243.765	68.88
243.998	67.88
244.232	82.88
244.465	82.88
244.699	84.88
244.932	83.88
245.166	92.88
245.399	79.88
245.633	82.88
245.866	68.88
246.099	79.88
246.333	62.88
246.566	82.88
246.8	76.88
247.033	82.88
247.266	67.88
247.5	76.88
247.733	86.88
247.966	76.88
248.2	76.88
248.433	75.88
248.666	75.88
248.899	78.88
249.133	84.88
249.366	96.88
249.599	106.88
249.832	85.88
250.066	84.88
250.299	75.88
250.532	71.88
250.765	80.88
250.998	79.88
251.231	74.88
251.465	83.88
251.698	79.88
251.931	80.88
252.164	80.88
252.397	75.88
252.63	79.88
252.863	87.88
253.096	86.88
253.329	75.88
253.562	88.88
253.795	94.88
254.028	74.88
254.261	98.88
254.494	77.88
254.727	84.88
254.96	67.88
255.193	71.88
255.426	71.88
255.659	70.88
255.892	75.88
256.124	84.88
256.357	91.88
256.59	67.88
256.823	74.88
257.056	83.88
257.289	75.88
257.521	88.88
257.754	78.88
257.987	85.88
258.22	80.88
258.452	85.88
258.685	97.88
258.918	94.88
259.151	88.88
259.383	81.88
259.616	83.88
259.849	74.88
260.081	82.88
260.314	68.88
260.547	84.88
260.779	71.88
261.012	82.88
261.244	78.88
261.477	95.88
261.71	99.88
261.942	101.88
262.175	126.88
262.407	84.88
262.64	92.88
262.872	83.88
263.105	84.88
263.337	88.88
263.57	78.88
263.802	98.88
264.035	97.88
264.267	71.88
264.499	84.88
264.732	89.88
264.964	82.88
265.197	73.88
265.429	84.88
265.661	90.88
265.894	83.88
266.126	88.88
266.358	98.88
266.591	74.88
266.823	83.88
267.055	97.88
267.287	86.88
267.52	71.88
267.752	77.88
267.984	82.88
268.216	78.88
268.448	100.88
268.681	93.88
268.913	91.88
269.145	85.88
269.377	86.88
269.609	84.88
269.841	84.88
270.073	76.88
270.306	88.88
270.538	89.88
270.77	79.88
271.002	85.88
271.234	91.88
271.466	94.88
271.698	84.88
271.93	84.88
272.162	93.88
272.394	81.88
272.626	79.88
272.858	89.88
273.09	90.88
273.322	87.88
273.553	71.88
273.785	92.88
274.017	88.88
274.249	73.88
274.481	87.88
274.713	75.88
274.945	89.88
275.176	87.88
275.408	85.88
275.64	75.88
275.872	82.88
276.104	105.88
276.335	87.88
276.567	90.88
276.799	105.88
277.031	92.88
277.262	105.88
277.494	82.88
277.726	95.88
277.957	107.88
278.189	81.88
278.421	76.88
278.652	82.88
278.884	76.88
279.115	86.88
279.347	78.88
279.579	89.88
279.81	75.88
280.042	87.88
280.273	77.88
280.505	73.88
280.736	90.88
280.968	93.88
281.199	75.88
281.431	70.88
281.662	90.88
281.894	88.88
282.125	110.88
282.356	118.88
282.588	147.88
282.819	116.88
283.051	92.88
283.282	87.88
283.513	81.88
283.745	85.88
283.976	76.88
284.207	90.88
284.439	85.88
284.67	85.88
284.901	77.88
285.132	86.88
285.364	74.88
285.595	96.88
285.826	90.88
286.057	90.88
286.288	90.88
286.52	80.88
286.751	82.88
286.982	94.88
287.213	81.88
287.444	82.88
287.675	87.88
287.906	78.88
288.138	93.88
288.369	86.88
288.6	105.88
288.831	82.88
289.062	87.88
289.293	79.88
289.524	79.88
289.755	73.88
289.986	87.88
290.217	85.88
290.448	79.88
290.679	97.88
290.91	93.88
291.141	82.88
291.371	89.88
291.602	84.88
291.833	75.88
292.064	86.88
292.295	100.88
292.526	78.88
292.757	84.88
292.987	83.88
293.218	88.88
293.449	83.88
293.68	88.88
293.91	75.88
294.141	87.88
294.372	81.88
294.603	103.88
294.833	109.88
295.064	94.88
295.295	77.88
295.525	91.88
295.756	105.88
295.987	124.88
296.217	131.88
296.448	130.88
296.679	93.88
296.909	95.88
297.14	74.88
297.37	77.88
297.601	86.88
297.831	81.88
298.062	82.88
298.292	78.88
298.523	94.88
298.753	83.88
298.984	100.88
299.214	106.88
299.445	81.88
299.675	77.88
299.905	89.88
300.136	82.88
300.366	83.88
300.597	84.88
300.827	93.88
301.057	105.88
301.288	107.88
301.518	98.88
301.748	95.88
301.979	96.88
302.209	86.88
302.439	72.88
302.669	83.88
302.9	91.88
303.13	84.88
303.36	103.88
303.59	113.88
303.82	103.88
304.051	89.88
304.281	83.88
304.511	96.88
304.741	106.88
304.971	87.88
305.201	88.88
305.431	92.88
305.661	88.88
305.891	82.88
306.121	109.88
306.352	108.88
306.582	99.88
306.812	105.88
307.042	88.88
307.272	102.88
307.502	88.88
307.731	89.88
307.961	88.88
308.191	103.88
308.421	88.88
308.651	99.88
308.881	85.88
309.111	97.88
309.341	83.88
309.571	74.88
309.8	94.88
310.03	98.88
310.26	94.88
310.49	100.88
310.72	101.88
310.949	93.88
311.179	111.88
311.409	80.88
311.639	91.88
311.868	89.88
312.098	92.88
312.328	91.88
312.557	112.88
312.787	114.88
313.017	101.88
313.246	113.88
313.476	93.88
313.706	80.88
313.935	91.88
314.165	92.88
314.394	95.88
314.624	106.88
314.853	117.88
315.083	96.88
315.312	98.88
315.542	93.88
315.771	80.88
316.001	82.88
316.23	95.88
316.46	100.88
316.689	92.88
316.919	92.88
317.148	95.88
317.377	76.88
317.607	97.88
317.836	91.88
318.065	85.88
318.295	95.88
318.524	89.88
318.753	92.88
318.983	89.88
319.212	98.88
319.441	113.88
319.67	95.88
319.9	90.88
320.129	85.88
320.358	94.88
320.587	96.88
320.816	105.88
321.046	105.88
321.275	95.88
321.504	92.88
321.733	88.88
321.962	99.88
322.191	101.88
322.42	96.88
322.649	109.88
322.878	98.88
323.108	105.88
323.337	117.88
323.566	140.88
323.795	163.88
324.024	221.88
324.253	410.88
324.482	870.88
324.71	1755.88
324.939	2265.88
325.168	845.88
325.397	262.88
325.626	139.88
325.855	125.88
326.084	134.88
326.313	137.88
326.542	147.88
326.77	235.88
326.999	479.88
327.228	964.88
327.457	1782.88
327.686	1418.88
327.914	398.88
328.143	182.88
328.372	149.88
328.6	115.88
328.829	114.88
329.058	144.88
329.287	125.88
329.515	102.88
329.744	102.88
329.972	100.88
330.201	115.88
330.43	124.88
330.658	133.88
330.887	138.88
331.115	118.88
331.344	94.88
331.572	90.88
331.801	92.88
332.03	109.88
332.258	99.88
332.486	100.88
332.715	80.88
332.943	95.88
333.172	96.88
333.4	107.88
333.629	119.88
333.857	117.88
334.085	111.88
334.314	109.88
334.542	108.88
334.771	131.88
334.999	102.88
335.227	96.88
335.455	79.88
335.684	91.88
335.912	97.88
336.14	83.88
336.369	80.88
336.597	104.88
336.825	94.88
337.053	91.88
337.281	95.88
337.51	72.88
337.738	93.88
337.966	95.88
338.194	88.88
338.422	97.88
338.65	87.88
338.878	95.88
339.106	86.88
339.334	81.88
339.562	77.88
339.79	98.88
340.018	85.88
340.246	98.88
340.474	86.88
340.702	109.88
340.93	87.88
341.158	98.88
341.386	86.88
341.614	100.88
341.842	90.88
342.07	84.88
342.298	87.88
342.526	87.88
342.754	99.88
342.981	91.88
343.209	77.88
343.437	105.88
343.665	104.88
343.893	89.88
344.12	99.88
344.348	86.88
344.576	87.88
344.804	99.88
345.031	94.88
345.259	100.88
345.487	105.88
345.714	84.88
345.942	83.88
346.17	102.88
346.397	107.88
346.625	88.88
346.853	102.88
347.08	103.88
347.308	97.88
347.535	98.88
347.763	95.88
347.99	90.88
348.218	100.88
348.445	109.88
348.673	105.88
348.9	103.88
349.128	82.88
349.355	100.88
349.583	95.88
349.81	96.88
350.037	99.88
350.265	93.88
350.492	98.88
350.72	95.88
350.947	109.88
351.174	100.88
351.402	114.88
351.629	103.88
351.856	112.88
352.083	88.88
352.311	110.88
352.538	111.88
352.765	115.88
352.992	113.88
353.22	116.88
353.447	103.88
353.674	108.88
353.901	96.88
354.128	87.88
354.355	85.88
354.583	82.88
354.81	93.88
355.037	111.88
355.264	92.88
355.491	97.88
355.718	91.88
355.945	114.88
356.172	90.88
356.399	95.88
356.626	91.88
356.853	91.88
357.08	87.88
357.307	74.88
357.534	91.88
357.761	86.88
357.988	91.88
358.215	95.88
358.441	101.88
358.668	101.88
358.895	105.88
359.122	92.88
359.349	78.88
359.576	98.88
359.802	124.88
360.029	117.88
360.256	121.88
360.483	110.88
360.709	90.88
360.936	83.88
361.163	78.88
361.39	95.88
361.616	109.88
361.843	91.88
362.07	91.88
362.296	104.88
362.523	94.88
362.749	87.88
362.976	87.88
363.203	90.88
363.429	88.88
363.656	86.88
363.882	98.88
364.109	86.88
364.335	83.88
364.562	95.88
364.788	86.88
365.015	111.88
365.241	103.88
365.468	115.88
365.694	98.88
365.92	85.88
366.147	102.88
366.373	82.88
366.599	99.88
366.826	74.88
367.052	96.88
367.278	90.88
367.505	87.88
367.731	93.88
367.957	113.88
368.184	91.88
368.41	109.88
368.636	114.88
368.862	130.88
369.089	104.88
369.315	95.88
369.541	103.88
369.767	90.88
369.993	94.88
370.219	90.88
370.445	99.88
370.672	80.88
370.898	93.88
371.124	79.88
371.35	92.88
371.576	86.88
371.802	84.88
372.028	104.88
372.254	97.88
372.48	99.88
372.706	86.88
372.932	80.88
373.158	92.88
373.384	92.88
373.61	93.88
373.835	78.88
374.061	83.88
374.287	94.88
374.513	93.88
374.739	98.88
374.965	96.88
375.191	115.88
375.416	85.88
375.642	82.88
375.868	92.88
376.094	89.88
376.319	90.88
376.545	98.88
376.771	99.88
376.997	92.88
377.222	95.88
377.448	98.88
377.674	84.88
377.899	96.88
378.125	99.88
378.35	101.88
378.576	87.88
378.802	86.88
379.027	100.88
379.253	91.88
379.478	88.88
379.704	93.88
379.929	98.88
380.155	94.88
380.38	95.88
380.606	82.88
380.831	97.88
381.057	96.88
381.282	93.88
381.507	98.88
381.733	120.88
381.958	98.88
382.184	99.88
382.409	114.88
382.634	93.88
382.86	107.88
383.085	96.88
383.31	103.88
383.535	107.88
383.761	104.88
383.986	110.88
384.211	110.88
384.436	98.88
384.662	103.88
384.887	99.88
385.112	119.88
385.337	107.88
385.562	103.88
385.787	101.88
386.013	109.88
386.238	108.88
386.463	111.88
386.688	119.88
386.913	119.88
387.138	104.88
387.363	104.88
387.588	90.88
387.813	108.88
388.038	109.88
388.263	116.88
388.488	107.88
388.713	97.88
388.938	97.88
389.163	83.88
389.387	99.88
389.612	88.88
389.837	88.88
390.062	87.88
390.287	106.88
390.512	93.88
390.736	95.88
390.961	97.88
391.186	95.88
391.411	106.88
391.636	88.88
391.86	87.88
392.085	95.88
392.31	91.88
392.534	94.88
392.759	66.88
392.984	95.88
393.208	80.88
393.433	105.88
393.658	102.88
393.882	84.88
394.107	75.88
394.331	82.88
394.556	87.88
394.78	87.88
395.005	95.88
395.229	89.88
395.454	89.88
395.678	89.88
395.903	80.88
396.127	94.88
396.352	96.88
396.576	82.88
396.801	91.88
397.025	93.88
397.249	81.88
397.474	85.88
397.698	90.88
397.922	94.88
398.147	95.88
398.371	103.88
398.595	86.88
398.82	92.88
399.044	88.88
399.268	84.88
399.492	84.88
399.717	97.88
399.941	86.88
400.165	97.88
400.389	103.88
400.613	94.88
400.837	86.88
401.062	87.88
401.286	93.88
401.51	92.88
401.734	93.88
401.958	110.88
402.182	134.88
402.406	144.88
402.63	119.88
402.854	91.88
403.078	86.88
403.302	84.88
403.526	93.88
403.75	102.88
403.974	92.88
404.198	106.88
404.422	99.88
404.645	90.88
404.869	86.88
405.093	99.88
405.317	100.88
405.541	91.88
405.765	95.88
405.988	133.88
406.212	180.88
406.436	230.88
406.66	150.88
406.883	96.88
407.107	73.88
407.331	105.88
407.555	105.88
407.778	99.88
408.002	94.88
408.226	84.88
408.449	86.88
408.673	107.88
408.896	93.88
409.12	91.88
409.344	89.88
409.567	75.88
409.791	84.88
410.014	91.88
410.238	82.88
410.461	95.88
410.685	100.88
410.908	94.88
411.132	103.88
411.355	102.88
411.578	94.88
411.802	80.88
412.025	98.88
412.249	97.88
412.472	86.88
412.695	87.88
412.919	88.88
413.142	90.88
413.365	88.88
413.589	83.88
413.812	87.88
414.035	102.88
414.258	86.88
414.482	87.88
414.705	91.88
414.928	100.88
415.151	98.88
415.374	92.88
415.597	85.88
415.821	69.88
416.044	92.88
416.267	96.88
416.49	84.88
416.713	84.88
416.936	92.88
417.159	96.88
417.382	82.88
417.605	88.88
417.828	110.88
418.051	89.88
418.274	87.88
418.497	83.88
418.72	68.88
418.943	93.88
419.166	86.88
419.389	95.88
419.611	87.88
419.834	82.88
420.057	82.88
420.28	102.88
420.503	90.88
420.726	79.88
420.948	96.88
421.171	86.88
421.394	98.88
421.617	89.88
421.839	93.88
422.062	96.88
422.285	86.88
422.507	90.88
422.73	107.88
422.953	104.88
423.175	102.88
423.398	84.88
423.621	99.88
423.843	90.88
424.066	83.88
424.288	85.88
424.511	92.88
424.733	102.88
424.956	112.88
425.178	93.88
425.401	109.88
425.623	108.88
425.846	101.88
426.068	98.88
426.291	87.88
426.513	98.88
426.735	80.88
426.958	82.88
427.18	109.88
427.402	136.88
427.625	167.88
427.847	142.88
428.069	115.88
428.292	90.88
428.514	103.88
428.736	94.88
428.958	89.88
429.181	79.88
429.403	80.88
429.625	79.88
429.847	106.88
430.069	92.88
430.292	103.88
430.514	74.88
430.736	94.88
430.958	80.88
431.18	79.88
431.402	71.88
431.624	79.88
431.846	86.88
432.068	68.88
432.29	87.88
432.512	81.88
432.734	101.88
432.956	98.88
433.178	109.88
433.4	100.88
433.622	104.88
433.844	95.88
434.066	78.88
434.287	90.88
434.509	103.88
434.731	91.88
434.953	83.88
435.175	86.88
435.397	78.88
435.618	96.88
435.84	106.88
436.062	121.88
436.284	118.88
436.505	95.88
436.727	104.88
436.949	95.88
437.17	104.88
437.392	86.88
437.614	84.88
437.835	88.88
438.057	97.88
438.278	130.88
438.5	110.88
438.721	130.88
438.943	118.88
439.165	84.88
439.386	78.88
439.608	97.88
439.829	96.88
440.05	126.88
440.272	134.88
440.493	93.88
440.715	87.88
440.936	97.88
441.158	96.88
441.379	87.88
441.6	104.88
441.822	108.88
442.043	94.88
442.264	110.88
442.486	102.88
442.707	100.88
442.928	102.88
443.149	124.88
443.371	140.88
443.592	118.88
443.813	101.88
444.034	103.88
444.255	95.88
444.476	84.88
444.698	84.88
444.919	88.88
445.14	132.88
445.361	116.88
445.582	107.88
445.803	150.88
446.024	132.88
446.245	141.88
446.466	113.88
446.687	95.88
446.908	83.88
447.129	84.88
447.35	84.88
447.571	90.88
447.792	88.88
448.013	101.88
448.234	105.88
448.455	108.88
448.675	116.88
448.896	108.88
449.117	93.88
449.338	106.88
449.559	122.88
449.779	138.88
450	100.88
450.221	88.88
450.442	92.88
450.662	94.88
450.883	115.88
451.104	107.88
451.324	91.88
451.545	84.88
451.766	93.88
451.986	101.88
452.207	92.88
452.428	83.88
452.648	99.88
452.869	114.88
453.089	119.88
453.31	127.88
453.53	94.88
453.751	108.88
453.971	96.88
454.192	109.88
454.412	101.88
454.633	86.88
454.853	88.88
455.073	79.88
455.294	91.88
455.514	94.88
455.734	78.88
455.955	90.88
456.175	70.88
456.395	72.88
456.616	90.88
456.836	94.88
457.056	89.88
457.276	82.88
457.497	88.88
457.717	83.88
457.937	78.88
458.157	89.88
458.377	99.88
458.598	98.88
458.818	150.88
459.038	171.88
459.258	117.88
459.478	96.88
459.698	84.88
459.918	89.88
460.138	84.88
460.358	88.88
460.578	80.88
460.798	102.88
461.018	94.88
461.238	83.88
461.458	92.88
461.678	87.88
461.898	93.88
462.118	90.88
462.338	73.88
462.558	85.88
462.777	91.88
462.997	80.88
463.217	82.88
463.437	99.88
463.657	84.88
463.876	90.88
464.096	85.88
464.316	98.88
464.536	82.88
464.755	86.88
464.975	92.88
465.195	167.88
465.414	173.88
465.634	99.88
465.854	85.88
466.073	93.88
466.293	91.88
466.512	92.88
466.732	83.88
466.951	87.88
467.171	79.88
467.391	82.88
467.61	82.88
467.829	99.88
468.049	84.88
468.268	109.88
468.488	81.88
468.707	92.88
468.927	77.88
469.146	82.88
469.365	89.88
469.585	89.88
469.804	91.88
470.023	90.88
470.243	98.88
470.462	101.88
470.681	112.88
470.901	92.88
471.12	101.88
471.339	94.88
471.558	86.88
471.777	77.88
471.997	89.88
472.216	107.88
472.435	126.88
472.654	85.88
472.873	78.88
473.092	93.88
473.311	84.88
473.53	86.88
473.749	91.88
473.968	102.88
474.187	99.88
474.406	98.88
474.625	100.88
474.844	87.88
475.063	100.88
475.282	88.88
475.501	92.88
475.72	77.88
475.939	93.88
476.158	87.88
476.377	76.88
476.596	80.88
476.814	107.88
477.033	92.88
477.252	81.88
477.471	77.88
477.69	87.88
477.908	101.88
478.127	101.88
478.346	100.88
478.564	83.88
478.783	79.88
479.002	101.88
479.22	98.88
479.439	110.88
479.658	108.88
479.876	94.88
480.095	101.88
480.313	101.88
480.532	91.88
480.751	89.88
480.969	105.88
481.188	156.88
481.406	125.88
481.624	103.88
481.843	94.88
482.061	93.88
482.28	100.88
482.498	90.88
482.717	87.88
482.935	76.88
483.153	88.88
483.372	84.88
483.59	83.88
483.808	66.88
484.027	87.88
484.245	85.88
484.463	107.88
484.681	86.88
484.9	91.88
485.118	93.88
485.336	100.88
485.554	94.88
485.772	92.88
485.99	106.88
486.209	105.88
486.427	99.88
486.645	111.88
486.863	105.88
487.081	85.88
487.299	101.88
487.517	93.88
487.735	90.88
487.953	92.88
488.171	98.88
488.389	95.88
488.607	114.88
488.825	91.88
489.043	78.88
489.261	93.88
489.479	80.88
489.696	87.88
489.914	82.88
490.132	83.88
490.35	87.88
490.568	92.88
490.786	98.88
491.003	83.88
491.221	86.88
491.439	92.88
491.657	98.88
491.874	103.88
492.092	86.88
492.31	78.88
492.527	84.88
492.745	82.88
492.963	89.88
493.18	81.88
493.398	95.88
493.615	99.88
493.833	92.88
494.05	75.88
494.268	92.88
494.485	98.88
494.703	80.88
494.92	89.88
495.138	88.88
495.355	69.88
495.573	90.88
495.79	93.88
496.008	89.88
496.225	99.88
496.442	95.88
496.66	97.88
496.877	90.88
497.094	107.88
497.312	106.88
497.529	91.88
497.746	93.88
497.963	88.88
498.181	99.88
498.398	87.88
498.615	112.88
498.832	106.88
499.049	93.88
499.267	79.88
499.484	84.88
499.701	93.88
499.918	82.88
500.135	81.88
500.352	95.88
500.569	91.88
500.786	93.88
501.003	101.88
501.22	91.88
501.437	94.88
501.654	80.88
501.871	102.88
502.088	92.88
502.305	90.88
502.522	88.88
502.739	99.88
502.956	78.88
503.172	91.88
503.389	88.88
503.606	92.88
503.823	103.88
504.04	99.88
504.256	100.88
504.473	92.88
504.69	90.88
504.907	91.88
505.123	79.88
505.34	94.88
505.557	72.88
505.773	87.88
505.99	91.88
506.207	101.88
506.423	77.88
506.64	86.88
506.856	101.88
507.073	85.88
507.289	88.88
507.506	98.88
507.722	129.88
507.939	108.88
508.155	100.88
508.372	90.88
508.588	93.88
508.805	97.88
509.021	105.88
509.238	95.88
509.454	99.88
509.67	108.88
509.887	102.88
510.103	121.88
510.319	221.88
510.536	798.88
510.752	2633.88
510.968	737.88
511.184	186.88
511.401	121.88
511.617	97.88
511.833	104.88
512.049	95.88
512.265	87.88
512.481	86.88
512.698	85.88
512.914	96.88
513.13	88.88
513.346	99.88
513.562	101.88
513.778	107.88
513.994	95.88
514.21	114.88
514.426	107.88
514.642	133.88
514.858	135.88
515.074	158.88
515.29	490.88
