Data from Circ_2012_H10_HRD10591_00012.txt Node
Date: Wed Jan 03 10:05:52 EST 2024
User: Yrep
Spectrometer: HR+D1059
Trigger mode: 1
Integration Time (sec): 1.000000E-1
Scans to average: 1
Electric dark correction enabled: true
Nonlinearity correction enabled: false
Boxcar width: 0
XAxis mode: Wavelengths
Number of Pixels in Spectrum: 2048
>>>>>Begin Spectral Data<<<<<
223.165	-19.88
223.4	-19.88
223.635	-19.88
223.869	-25.88
224.104	-21.88
224.338	-0.88
224.573	-0.88
224.808	-12.88
225.042	-5.88
225.277	-15.88
225.511	1.12
225.746	6.12
225.98	13.12
226.215	15.12
226.449	11.12
226.683	20.12
226.918	15.12
227.152	22.12
227.387	44.12
227.621	43.12
227.856	58.12
228.09	55.12
228.324	51.12
228.559	66.12
228.793	166.12
229.027	447.12
229.262	506.12
229.496	602.12
229.73	814.12
229.964	794.12
230.199	546.12
230.433	485.12
230.667	479.12
230.901	477.12
231.136	450.12
231.37	454.12
231.604	447.12
231.838	436.12
232.072	442.12
232.306	461.12
232.541	470.12
232.775	478.12
233.009	479.12
233.243	467.12
233.477	499.12
233.711	487.12
233.945	503.12
234.179	514.12
234.413	510.12
234.647	513.12
234.881	504.12
235.115	544.12
235.349	532.12
235.583	558.12
235.817	577.12
236.051	609.12
236.285	626.12
236.519	606.12
236.753	698.12
236.987	892.12
237.221	1336.12
237.455	1458.12
237.689	878.12
237.922	748.12
238.156	699.12
238.39	678.12
238.624	644.12
238.858	633.12
239.091	643.12
239.325	667.12
239.559	679.12
239.793	709.12
240.027	770.12
240.26	878.12
240.494	939.12
240.728	919.12
240.961	868.12
241.195	790.12
241.429	766.12
241.662	755.12
241.896	749.12
242.13	774.12
242.363	768.12
242.597	798.12
242.83	814.12
243.064	823.12
243.298	828.12
243.531	832.12
243.765	818.12
243.998	837.12
244.232	830.12
244.465	856.12
244.699	931.12
244.932	883.12
245.166	862.12
245.399	910.12
245.633	897.12
245.866	914.12
246.099	924.12
246.333	928.12
246.566	974.12
246.8	951.12
247.033	999.12
247.266	1041.12
247.5	1052.12
247.733	1137.12
247.966	1142.12
248.2	1101.12
248.433	1125.12
248.666	1178.12
248.899	1306.12
249.133	1395.12
249.366	1368.12
249.599	1274.12
249.832	1181.12
250.066	1196.12
250.299	1257.12
250.532	1344.12
250.765	1488.12
250.998	1669.12
251.231	1605.12
251.465	1439.12
251.698	1382.12
251.931	1371.12
252.164	1367.12
252.397	1387.12
252.63	1403.12
252.863	1534.12
253.096	1603.12
253.329	1676.12
253.562	1573.12
253.795	1518.12
254.028	1522.12
254.261	1607.12
254.494	1757.12
254.727	2102.12
254.96	2169.12
255.193	1887.12
255.426	1727.12
255.659	1648.12
255.892	1632.12
256.124	1628.12
256.357	1603.12
256.59	1520.12
256.823	1490.12
257.056	1514.12
257.289	1498.12
257.521	1509.12
257.754	1524.12
257.987	1503.12
258.22	1487.12
258.452	1490.12
258.685	1511.12
258.918	1527.12
259.151	1622.12
259.383	1632.12
259.616	1675.12
259.849	1765.12
260.081	1900.12
260.314	2052.12
260.547	1949.12
260.779	1820.12
261.012	1760.12
261.244	1696.12
261.477	1655.12
261.71	1691.12
261.942	1802.12
262.175	1815.12
262.407	1660.12
262.64	1648.12
262.872	1626.12
263.105	1636.12
263.337	1646.12
263.57	1660.12
263.802	1643.12
264.035	1610.12
264.267	1660.12
264.499	1631.12
264.732	1633.12
264.964	1656.12
265.197	1670.12
265.429	1673.12
265.661	1700.12
265.894	1705.12
266.126	1705.12
266.358	1704.12
266.591	1767.12
266.823	1853.12
267.055	1873.12
267.287	1848.12
267.52	1842.12
267.752	1806.12
267.984	1848.12
268.216	1878.12
268.448	1901.12
268.681	1982.12
268.913	2114.12
269.145	2325.12
269.377	2327.12
269.609	2239.12
269.841	2255.12
270.073	2338.12
270.306	2584.12
270.538	2706.12
270.77	2645.12
271.002	2435.12
271.234	2450.12
271.466	2569.12
271.698	2674.12
271.93	2656.12
272.162	2642.12
272.394	2650.12
272.626	2477.12
272.858	2355.12
273.09	2273.12
273.322	2234.12
273.553	2198.12
273.785	2250.12
274.017	2189.12
274.249	2224.12
274.481	2198.12
274.713	2227.12
274.945	2236.12
275.176	2243.12
275.408	2230.12
275.64	2216.12
275.872	2209.12
276.104	2292.12
276.335	2290.12
276.567	2377.12
276.799	2543.12
277.031	2768.12
277.262	2840.12
277.494	2694.12
277.726	2558.12
277.957	2464.12
278.189	2401.12
278.421	2345.12
278.652	2391.12
278.884	2353.12
279.115	2315.12
279.347	2336.12
279.579	2346.12
279.81	2311.12
280.042	2334.12
280.273	2374.12
280.505	2423.12
280.736	2353.12
280.968	2390.12
281.199	2344.12
281.431	2441.12
281.662	2426.12
281.894	2480.12
282.125	2510.12
282.356	2647.12
282.588	2849.12
282.819	2664.12
283.051	2554.12
283.282	2494.12
283.513	2548.12
283.745	2630.12
283.976	2559.12
284.207	2588.12
284.439	2563.12
284.67	2594.12
284.901	2567.12
285.132	2576.12
285.364	2637.12
285.595	2598.12
285.826	2625.12
286.057	2631.12
286.288	2643.12
286.52	2636.12
286.751	2618.12
286.982	2692.12
287.213	2714.12
287.444	2720.12
287.675	2774.12
287.906	2845.12
288.138	2928.12
288.369	2892.12
288.6	2864.12
288.831	2831.12
289.062	2785.12
289.293	2774.12
289.524	2775.12
289.755	2775.12
289.986	2750.12
290.217	2764.12
290.448	2754.12
290.679	2765.12
290.91	2783.12
291.141	2793.12
291.371	2756.12
291.602	2790.12
291.833	2787.12
292.064	2802.12
292.295	2785.12
292.526	2825.12
292.757	2759.12
292.987	2819.12
293.218	2786.12
293.449	2825.12
293.68	2824.12
293.91	2789.12
294.141	2823.12
294.372	2782.12
294.603	2814.12
294.833	2824.12
295.064	2869.12
295.295	2885.12
295.525	2918.12
295.756	2940.12
295.987	2982.12
296.217	3209.12
296.448	3112.12
296.679	2977.12
296.909	2946.12
297.14	2922.12
297.37	2954.12
297.601	3009.12
297.831	3030.12
298.062	3018.12
298.292	3030.12
298.523	3098.12
298.753	3083.12
298.984	3097.12
299.214	3078.12
299.445	3053.12
299.675	3070.12
299.905	3128.12
300.136	3067.12
300.366	3067.12
300.597	3162.12
300.827	3215.12
301.057	3384.12
301.288	3379.12
301.518	3305.12
301.748	3301.12
301.979	3380.12
302.209	3348.12
302.439	3345.12
302.669	3270.12
302.9	3268.12
303.13	3274.12
303.36	3337.12
303.59	3308.12
303.82	3401.12
304.051	3318.12
304.281	3309.12
304.511	3238.12
304.741	3299.12
304.971	3264.12
305.201	3282.12
305.431	3204.12
305.661	3294.12
305.891	3264.12
306.121	3264.12
306.352	3320.12
306.582	3294.12
306.812	3231.12
307.042	3216.12
307.272	3263.12
307.502	3248.12
307.731	3322.12
307.961	3212.12
308.191	3218.12
308.421	3277.12
308.651	3260.12
308.881	3334.12
309.111	3338.12
309.341	3330.12
309.571	3423.12
309.8	3453.12
310.03	3572.12
310.26	3592.12
310.49	3576.12
310.72	3654.12
310.949	3786.12
311.179	3697.12
311.409	3613.12
311.639	3649.12
311.868	3659.12
312.098	3649.12
312.328	3779.12
312.557	3906.12
312.787	3978.12
313.017	3905.12
313.246	3746.12
313.476	3680.12
313.706	3726.12
313.935	3839.12
314.165	3924.12
314.394	3952.12
314.624	3886.12
314.853	3803.12
315.083	3722.12
315.312	3722.12
315.542	3736.12
315.771	3661.12
316.001	3688.12
316.23	3609.12
316.46	3662.12
316.689	3724.12
316.919	3725.12
317.148	3839.12
317.377	3814.12
317.607	3719.12
317.836	3689.12
318.065	3640.12
318.295	3660.12
318.524	3673.12
318.753	3619.12
318.983	3627.12
319.212	3665.12
319.441	3739.12
319.67	3806.12
319.9	3690.12
320.129	3728.12
320.358	3699.12
320.587	3720.12
320.816	3781.12
321.046	3866.12
321.275	3814.12
321.504	3853.12
321.733	3911.12
321.962	3952.12
322.191	4021.12
322.42	4126.12
322.649	4199.12
322.878	4227.12
323.108	4362.12
323.337	4546.12
323.566	4738.12
323.795	5103.12
324.024	5709.12
324.253	7722.12
324.482	11795.12
324.71	15604.12
324.939	15604.12
325.168	13486.12
325.397	6745.12
325.626	5391.12
325.855	4887.12
326.084	4858.12
326.313	4806.12
326.542	4962.12
326.77	5756.12
326.999	7450.12
327.228	10998.12
327.457	14872.12
327.686	14047.12
327.914	7538.12
328.143	5976.12
328.372	5482.12
328.6	5324.12
328.829	5208.12
329.058	5386.12
329.287	5354.12
329.515	5017.12
329.744	4775.12
329.972	4874.12
330.201	4966.12
330.43	5226.12
330.658	5522.12
330.887	5864.12
331.115	5392.12
331.344	4947.12
331.572	4912.12
331.801	5009.12
332.03	5060.12
332.258	4872.12
332.486	4928.12
332.715	4998.12
332.943	5215.12
333.172	5275.12
333.4	5427.12
333.629	5594.12
333.857	5654.12
334.085	5630.12
334.314	5638.12
334.542	5629.12
334.771	5599.12
334.999	5314.12
335.227	5266.12
335.455	5148.12
335.684	5033.12
335.912	4986.12
336.14	4977.12
336.369	4884.12
336.597	4908.12
336.825	4882.12
337.053	4823.12
337.281	4707.12
337.51	4695.12
337.738	4741.12
337.966	4628.12
338.194	4687.12
338.422	4656.12
338.65	4518.12
338.878	4553.12
339.106	4490.12
339.334	4507.12
339.562	4449.12
339.79	4356.12
340.018	4386.12
340.246	4345.12
340.474	4394.12
340.702	4432.12
340.93	4392.12
341.158	4450.12
341.386	4345.12
341.614	4346.12
341.842	4306.12
342.07	4325.12
342.298	4262.12
342.526	4237.12
342.754	4278.12
342.981	4315.12
343.209	4434.12
343.437	4678.12
343.665	4890.12
343.893	5073.12
344.12	5113.12
344.348	4951.12
344.576	4775.12
344.804	4713.12
345.031	4648.12
345.259	4627.12
345.487	4518.12
345.714	4348.12
345.942	4238.12
346.17	4172.12
346.397	4170.12
346.625	4171.12
346.853	4156.12
347.08	4103.12
347.308	4249.12
347.535	4254.12
347.763	4336.12
347.99	4268.12
348.218	4268.12
348.445	4334.12
348.673	4258.12
348.9	4141.12
349.128	4119.12
349.355	4047.12
349.583	4068.12
349.81	4036.12
350.037	4021.12
350.265	4059.12
350.492	4041.12
350.72	4062.12
350.947	4165.12
351.174	4159.12
351.402	4205.12
351.629	4211.12
351.856	4188.12
352.083	4237.12
352.311	4226.12
352.538	4276.12
352.765	4166.12
352.992	4125.12
353.22	4103.12
353.447	4130.12
353.674	3970.12
353.901	4016.12
354.128	4009.12
354.355	3927.12
354.583	3968.12
354.81	3928.12
355.037	3958.12
355.264	3935.12
355.491	3950.12
355.718	3914.12
355.945	3922.12
356.172	3925.12
356.399	3930.12
356.626	3887.12
356.853	3921.12
357.08	3849.12
357.307	3964.12
357.534	3890.12
357.761	3940.12
357.988	3915.12
358.215	3966.12
358.441	3979.12
358.668	3953.12
358.895	3981.12
359.122	4041.12
359.349	4124.12
359.576	4323.12
359.802	4489.12
360.029	4639.12
360.256	4634.12
360.483	4390.12
360.709	4177.12
360.936	4203.12
361.163	4203.12
361.39	4191.12
361.616	4217.12
361.843	4105.12
362.07	4215.12
362.296	4175.12
362.523	4229.12
362.749	4185.12
362.976	4155.12
363.203	4059.12
363.429	4030.12
363.656	4035.12
363.882	3990.12
364.109	3966.12
364.335	3986.12
364.562	4014.12
364.788	4001.12
365.015	4017.12
365.241	4057.12
365.468	4055.12
365.694	4129.12
365.92	4146.12
366.147	4029.12
366.373	3935.12
366.599	4017.12
366.826	4034.12
367.052	4044.12
367.278	4072.12
367.505	4070.12
367.731	4063.12
367.957	4074.12
368.184	4103.12
368.41	4151.12
368.636	4238.12
368.862	4266.12
369.089	4237.12
369.315	4135.12
369.541	4114.12
369.767	4184.12
369.993	4119.12
370.219	4219.12
370.445	4148.12
370.672	4204.12
370.898	4169.12
371.124	4271.12
371.35	4322.12
371.576	4308.12
371.802	4248.12
372.028	4243.12
372.254	4284.12
372.48	4316.12
372.706	4439.12
372.932	4395.12
373.158	4401.12
373.384	4382.12
373.61	4251.12
373.835	4355.12
374.061	4250.12
374.287	4378.12
374.513	4512.12
374.739	4626.12
374.965	4715.12
375.191	4714.12
375.416	4640.12
375.642	4471.12
375.868	4478.12
376.094	4376.12
376.319	4431.12
376.545	4328.12
376.771	4338.12
376.997	4340.12
377.222	4325.12
377.448	4280.12
377.674	4291.12
377.899	4261.12
378.125	4222.12
378.35	4236.12
378.576	4205.12
378.802	4137.12
379.027	4185.12
379.253	4255.12
379.478	4236.12
379.704	4252.12
379.929	4368.12
380.155	4297.12
380.38	4331.12
380.606	4335.12
380.831	4243.12
381.057	4345.12
381.282	4303.12
381.507	4339.12
381.733	4407.12
381.958	4448.12
382.184	4410.12
382.409	4499.12
382.634	4550.12
382.86	4503.12
383.085	4607.12
383.31	4669.12
383.535	4706.12
383.761	4764.12
383.986	4904.12
384.211	4940.12
384.436	4971.12
384.662	5059.12
384.887	5169.12
385.112	5105.12
385.337	5176.12
385.562	5146.12
385.787	5144.12
386.013	5232.12
386.238	5298.12
386.463	5214.12
386.688	5258.12
386.913	5101.12
387.138	5180.12
387.363	5122.12
387.588	5056.12
387.813	5126.12
388.038	5078.12
388.263	5118.12
388.488	5155.12
388.713	5133.12
388.938	5162.12
389.163	5115.12
389.387	5040.12
389.612	5033.12
389.837	5084.12
390.062	5038.12
390.287	5075.12
390.512	5037.12
390.736	5145.12
390.961	5208.12
391.186	5282.12
391.411	5410.12
391.636	5580.12
391.86	5737.12
392.085	5743.12
392.31	5710.12
392.534	5531.12
392.759	5406.12
392.984	5303.12
393.208	5326.12
393.433	5378.12
393.658	5267.12
393.882	5299.12
394.107	5344.12
394.331	5342.12
394.556	5381.12
394.78	5478.12
395.005	5512.12
395.229	5430.12
395.454	5646.12
395.678	5759.12
395.903	5766.12
396.127	5816.12
396.352	5606.12
396.576	5462.12
396.801	5420.12
397.025	5568.12
397.249	5559.12
397.474	5701.12
397.698	5736.12
397.922	5866.12
398.147	5976.12
398.371	6111.12
398.595	6291.12
398.82	6493.12
399.044	7089.12
399.268	7801.12
399.492	9018.12
399.717	9494.12
399.941	9230.12
400.165	8619.12
400.389	7950.12
400.613	7217.12
400.837	6772.12
401.062	6590.12
401.286	6496.12
401.51	6482.12
401.734	6442.12
401.958	6638.12
402.182	6732.12
402.406	6870.12
402.63	6897.12
402.854	6949.12
403.078	7000.12
403.302	7204.12
403.526	7301.12
403.75	7278.12
403.974	7326.12
404.198	7311.12
404.422	7468.12
404.645	7387.12
404.869	7345.12
405.093	7537.12
405.317	7698.12
405.541	7693.12
405.765	7281.12
405.988	7206.12
406.212	7464.12
406.436	7660.12
406.66	7742.12
406.883	7737.12
407.107	8315.12
407.331	8806.12
407.555	9294.12
407.778	8972.12
408.002	8179.12
408.226	7866.12
408.449	7673.12
408.673	7630.12
408.896	7821.12
409.12	7903.12
409.344	7412.12
409.567	7135.12
409.791	7060.12
410.014	6958.12
410.238	6890.12
410.461	6930.12
410.685	6936.12
410.908	7070.12
411.132	7373.12
411.355	7374.12
411.578	6908.12
411.802	6642.12
412.025	6833.12
412.249	6856.12
412.472	6963.12
412.695	6955.12
412.919	6638.12
413.142	6457.12
413.365	6462.12
413.589	6425.12
413.812	6276.12
414.035	6241.12
414.258	6232.12
414.482	6310.12
414.705	6327.12
414.928	6314.12
415.151	6353.12
415.374	6403.12
415.597	6199.12
415.821	6225.12
416.044	6238.12
416.267	6198.12
416.49	6150.12
416.713	6137.12
416.936	6203.12
417.159	6167.12
417.382	6323.12
417.605	6331.12
417.828	6568.12
418.051	6630.12
418.274	6448.12
418.497	6379.12
418.72	6477.12
418.943	6445.12
419.166	6920.12
419.389	7204.12
419.611	7068.12
419.834	6871.12
420.057	6811.12
420.28	6587.12
420.503	6435.12
420.726	6403.12
420.948	6565.12
421.171	6998.12
421.394	7006.12
421.617	6485.12
421.839	6510.12
422.062	6606.12
422.285	6727.12
422.507	7384.12
422.73	7920.12
422.953	7272.12
423.175	6904.12
423.398	6985.12
423.621	6957.12
423.843	7301.12
424.066	7170.12
424.288	7130.12
424.511	7200.12
424.733	7746.12
424.956	8211.12
425.178	7750.12
425.401	7817.12
425.623	7684.12
425.846	6796.12
426.068	6574.12
426.291	6578.12
426.513	6521.12
426.735	6591.12
426.958	7056.12
427.18	7795.12
427.402	8991.12
427.625	9187.12
427.847	7685.12
428.069	6890.12
428.292	6337.12
428.514	5970.12
428.736	5948.12
428.958	6007.12
429.181	5817.12
429.403	5758.12
429.625	6021.12
429.847	6227.12
430.069	6793.12
430.292	6379.12
430.514	5799.12
430.736	5777.12
430.958	5669.12
431.18	5652.12
431.402	5668.12
431.624	5650.12
431.846	5697.12
432.068	5735.12
432.29	5712.12
432.512	5624.12
432.734	5791.12
432.956	5726.12
433.178	5871.12
433.4	5802.12
433.622	5681.12
433.844	5753.12
434.066	5770.12
434.287	5849.12
434.509	6068.12
434.731	6290.12
434.953	6418.12
435.175	6567.12
435.397	6603.12
435.618	6590.12
435.84	6966.12
436.062	7778.12
436.284	7736.12
436.505	6507.12
436.727	6211.12
436.949	6039.12
437.17	5824.12
437.392	5794.12
437.614	5950.12
437.835	6419.12
438.057	7249.12
438.278	7992.12
438.5	7890.12
438.721	8704.12
438.943	7545.12
439.165	6409.12
439.386	6172.12
439.608	6247.12
439.829	6389.12
440.05	6687.12
440.272	7103.12
440.493	6472.12
440.715	6146.12
440.936	6097.12
441.158	6109.12
441.379	6209.12
441.6	6616.12
441.822	6791.12
442.043	7214.12
442.264	7950.12
442.486	7826.12
442.707	6865.12
442.928	6662.12
443.149	6913.12
443.371	7186.12
443.592	7672.12
443.813	8652.12
444.034	8614.12
444.255	7492.12
444.476	7406.12
444.698	7516.12
444.919	7578.12
445.14	7416.12
445.361	7280.12
445.582	7344.12
445.803	7939.12
446.024	8594.12
446.245	8124.12
446.466	7406.12
446.687	6610.12
446.908	6143.12
447.129	5799.12
447.35	5728.12
447.571	5689.12
447.792	5608.12
448.013	5664.12
448.234	5938.12
448.455	6594.12
448.675	7670.12
448.896	8158.12
449.117	6790.12
449.338	7067.12
449.559	8224.12
449.779	8321.12
450	6509.12
450.221	5808.12
450.442	5578.12
450.662	5484.12
450.883	5618.12
451.104	5693.12
451.324	5458.12
451.545	5272.12
451.766	5211.12
451.986	5052.12
452.207	5093.12
452.428	4976.12
452.648	5096.12
452.869	5137.12
453.089	5211.12
453.31	5235.12
453.53	5079.12
453.751	5007.12
453.971	5076.12
454.192	5208.12
454.412	5003.12
454.633	4987.12
454.853	4919.12
455.073	4949.12
455.294	5336.12
455.514	5856.12
455.734	5307.12
455.955	4794.12
456.175	4745.12
456.395	4719.12
456.616	4623.12
456.836	4601.12
457.056	4726.12
457.276	4512.12
457.497	4681.12
457.717	4726.12
457.937	4779.12
458.157	4919.12
458.377	4945.12
458.598	5330.12
458.818	6051.12
459.038	6846.12
459.258	6639.12
459.478	5944.12
459.698	5822.12
459.918	5901.12
460.138	6033.12
460.358	6268.12
460.578	6334.12
460.798	6287.12
461.018	6364.12
461.238	6163.12
461.458	6211.12
461.678	6208.12
461.898	6286.12
462.118	6233.12
462.338	6639.12
462.558	6806.12
462.777	7140.12
462.997	7727.12
463.217	8082.12
463.437	7903.12
463.657	7234.12
463.876	7111.12
464.096	7204.12
464.316	7163.12
464.536	7170.12
464.755	6928.12
464.975	6872.12
465.195	7192.12
465.414	7172.12
465.634	6215.12
465.854	5916.12
466.073	5657.12
466.293	5510.12
466.512	5217.12
466.732	5225.12
466.951	5229.12
467.171	5153.12
467.391	5289.12
467.61	5380.12
467.829	5259.12
468.049	5187.12
468.268	5055.12
468.488	4965.12
468.707	4955.12
468.927	4961.12
469.146	4952.12
469.365	5013.12
469.585	5036.12
469.804	5286.12
470.023	5400.12
470.243	5431.12
470.462	5446.12
470.681	5611.12
470.901	5482.12
471.12	5359.12
471.339	5235.12
471.558	5242.12
471.777	5174.12
471.997	5052.12
472.216	5084.12
472.435	5149.12
472.654	5020.12
472.873	4940.12
473.092	4954.12
473.311	4955.12
473.53	5006.12
473.749	5148.12
473.968	5681.12
474.187	6662.12
474.406	6226.12
474.625	5297.12
474.844	5044.12
475.063	4971.12
475.282	5001.12
475.501	5060.12
475.72	5046.12
475.939	5113.12
476.158	5127.12
476.377	5233.12
476.596	5185.12
476.814	5308.12
477.033	5388.12
477.252	5408.12
477.471	5550.12
477.69	5674.12
477.908	5695.12
478.127	5873.12
478.346	5898.12
478.564	6063.12
478.783	6108.12
479.002	6271.12
479.22	6290.12
479.439	6426.12
479.658	6408.12
479.876	6516.12
480.095	6748.12
480.313	7125.12
480.532	7043.12
480.751	6847.12
480.969	6758.12
481.188	6826.12
481.406	6767.12
481.624	6311.12
481.843	6112.12
482.061	6054.12
482.28	5907.12
482.498	5877.12
482.717	5793.12
482.935	5867.12
483.153	5826.12
483.372	5782.12
483.59	5747.12
483.808	5811.12
484.027	5914.12
484.245	5898.12
484.463	5903.12
484.681	5936.12
484.9	6027.12
485.118	6071.12
485.336	6103.12
485.554	6265.12
485.772	6223.12
485.99	6202.12
486.209	6327.12
486.427	6323.12
486.645	6284.12
486.863	6453.12
487.081	6425.12
487.299	6302.12
487.517	6220.12
487.735	6245.12
487.953	6215.12
