Data from Circ_2012_H10_HRD10591_00014.txt Node
Date: Wed Jan 03 10:05:53 EST 2024
User: Yrep
Spectrometer: HR+D1059
Trigger mode: 1
Integration Time (sec): 1.000000E-1
Scans to average: 1
Electric dark correction enabled: true
Nonlinearity correction enabled: false
Boxcar width: 0
XAxis mode: Wavelengths
Number of Pixels in Spectrum: 2048
>>>>>Begin Spectral Data<<<<<
223.165	-21.69
223.4	-21.69
223.635	-21.69
223.869	-25.69
224.104	-11.69
224.338	-12.69
224.573	-5.69
224.808	-3.69
225.042	-10.69
225.277	1.31
225.511	-9.69
225.746	3.31
225.98	9.31
226.215	4.31
226.449	7.31
226.683	21.31
226.918	30.31
227.152	24.31
227.387	27.31
227.621	33.31
227.856	30.31
228.09	39.31
228.324	51.31
228.559	63.31
228.793	55.31
229.027	72.31
229.262	62.31
229.496	58.31
229.73	87.31
229.964	80.31
230.199	80.31
230.433	59.31
230.667	79.31
230.901	72.31
231.136	97.31
231.37	81.31
231.604	68.31
231.838	82.31
232.072	73.31
232.306	81.31
232.541	77.31
232.775	86.31
233.009	78.31
233.243	80.31
233.477	85.31
233.711	63.31
233.945	74.31
234.179	79.31
234.413	78.31
234.647	86.31
234.881	79.31
235.115	75.31
235.349	86.31
235.583	78.31
235.817	76.31
236.051	85.31
236.285	89.31
236.519	69.31
236.753	76.31
236.987	80.31
237.221	84.31
237.455	86.31
237.689	83.31
237.922	72.31
238.156	73.31
238.39	83.31
238.624	74.31
238.858	64.31
239.091	74.31
239.325	67.31
239.559	89.31
239.793	92.31
240.027	74.31
240.26	71.31
240.494	75.31
240.728	78.31
240.961	82.31
241.195	73.31
241.429	73.31
241.662	73.31
241.896	85.31
242.13	76.31
242.363	86.31
242.597	71.31
242.83	78.31
243.064	98.31
243.298	79.31
243.531	72.31
243.765	89.31
243.998	84.31
244.232	73.31
244.465	79.31
244.699	73.31
244.932	79.31
245.166	77.31
245.399	60.31
245.633	67.31
245.866	73.31
246.099	83.31
246.333	82.31
246.566	82.31
246.8	81.31
247.033	72.31
247.266	86.31
247.5	62.31
247.733	59.31
247.966	68.31
248.2	74.31
248.433	73.31
248.666	83.31
248.899	86.31
249.133	83.31
249.366	99.31
249.599	110.31
249.832	74.31
250.066	76.31
250.299	75.31
250.532	81.31
250.765	72.31
250.998	84.31
251.231	87.31
251.465	75.31
251.698	78.31
251.931	76.31
252.164	77.31
252.397	74.31
252.63	83.31
252.863	73.31
253.096	82.31
253.329	78.31
253.562	95.31
253.795	83.31
254.028	83.31
254.261	86.31
254.494	81.31
254.727	74.31
254.96	84.31
255.193	65.31
255.426	83.31
255.659	82.31
255.892	79.31
256.124	73.31
256.357	73.31
256.59	90.31
256.823	83.31
257.056	90.31
257.289	97.31
257.521	81.31
257.754	77.31
257.987	69.31
258.22	82.31
258.452	94.31
258.685	73.31
258.918	68.31
259.151	80.31
259.383	98.31
259.616	86.31
259.849	82.31
260.081	74.31
260.314	77.31
260.547	82.31
260.779	78.31
261.012	84.31
261.244	76.31
261.477	96.31
261.71	94.31
261.942	124.31
262.175	141.31
262.407	86.31
262.64	87.31
262.872	75.31
263.105	81.31
263.337	82.31
263.57	85.31
263.802	59.31
264.035	80.31
264.267	76.31
264.499	84.31
264.732	79.31
264.964	85.31
265.197	86.31
265.429	102.31
265.661	85.31
265.894	85.31
266.126	98.31
266.358	83.31
266.591	72.31
266.823	76.31
267.055	89.31
267.287	76.31
267.52	82.31
267.752	86.31
267.984	89.31
268.216	82.31
268.448	88.31
268.681	85.31
268.913	83.31
269.145	84.31
269.377	70.31
269.609	87.31
269.841	75.31
270.073	94.31
270.306	82.31
270.538	83.31
270.77	69.31
271.002	78.31
271.234	92.31
271.466	78.31
271.698	77.31
271.93	82.31
272.162	86.31
272.394	76.31
272.626	80.31
272.858	85.31
273.09	72.31
273.322	76.31
273.553	77.31
273.785	71.31
274.017	112.31
274.249	84.31
274.481	86.31
274.713	74.31
274.945	88.31
275.176	85.31
275.408	81.31
275.64	87.31
275.872	80.31
276.104	97.31
276.335	99.31
276.567	120.31
276.799	115.31
277.031	104.31
277.262	98.31
277.494	101.31
277.726	95.31
277.957	90.31
278.189	87.31
278.421	88.31
278.652	80.31
278.884	93.31
279.115	88.31
279.347	97.31
279.579	85.31
279.81	92.31
280.042	84.31
280.273	88.31
280.505	79.31
280.736	69.31
280.968	87.31
281.199	90.31
281.431	85.31
281.662	83.31
281.894	89.31
282.125	100.31
282.356	122.31
282.588	148.31
282.819	102.31
283.051	82.31
283.282	86.31
283.513	86.31
283.745	79.31
283.976	78.31
284.207	82.31
284.439	89.31
284.67	94.31
284.901	81.31
285.132	73.31
285.364	82.31
285.595	91.31
285.826	83.31
286.057	100.31
286.288	87.31
286.52	100.31
286.751	101.31
286.982	91.31
287.213	92.31
287.444	92.31
287.675	89.31
287.906	83.31
288.138	85.31
288.369	102.31
288.6	89.31
288.831	93.31
289.062	86.31
289.293	92.31
289.524	78.31
289.755	97.31
289.986	89.31
290.217	84.31
290.448	95.31
290.679	85.31
290.91	86.31
291.141	92.31
291.371	87.31
291.602	87.31
291.833	93.31
292.064	91.31
292.295	90.31
292.526	97.31
292.757	93.31
292.987	85.31
293.218	96.31
293.449	74.31
293.68	85.31
293.91	87.31
294.141	91.31
294.372	78.31
294.603	85.31
294.833	88.31
295.064	72.31
295.295	93.31
295.525	82.31
295.756	103.31
295.987	125.31
296.217	159.31
296.448	138.31
296.679	93.31
296.909	87.31
297.14	102.31
297.37	85.31
297.601	74.31
297.831	88.31
298.062	96.31
298.292	78.31
298.523	89.31
298.753	90.31
298.984	74.31
299.214	93.31
299.445	95.31
299.675	96.31
299.905	102.31
300.136	100.31
300.366	90.31
300.597	84.31
300.827	110.31
301.057	110.31
301.288	109.31
301.518	86.31
301.748	102.31
301.979	84.31
302.209	94.31
302.439	97.31
302.669	95.31
302.9	89.31
303.13	78.31
303.36	94.31
303.59	105.31
303.82	100.31
304.051	88.31
304.281	85.31
304.511	90.31
304.741	88.31
304.971	95.31
305.201	77.31
305.431	91.31
305.661	97.31
305.891	82.31
306.121	96.31
306.352	105.31
306.582	104.31
306.812	94.31
307.042	104.31
307.272	96.31
307.502	91.31
307.731	97.31
307.961	103.31
308.191	79.31
308.421	86.31
308.651	102.31
308.881	82.31
309.111	97.31
309.341	85.31
309.571	104.31
309.8	88.31
310.03	110.31
310.26	92.31
310.49	100.31
310.72	101.31
310.949	115.31
311.179	118.31
311.409	96.31
311.639	100.31
311.868	104.31
312.098	101.31
312.328	97.31
312.557	111.31
312.787	112.31
313.017	103.31
313.246	91.31
313.476	88.31
313.706	104.31
313.935	89.31
314.165	103.31
314.394	97.31
314.624	103.31
314.853	101.31
315.083	105.31
315.312	88.31
315.542	102.31
315.771	82.31
316.001	89.31
316.23	91.31
316.46	98.31
316.689	83.31
316.919	99.31
317.148	89.31
317.377	103.31
317.607	105.31
317.836	104.31
318.065	105.31
318.295	87.31
318.524	87.31
318.753	90.31
318.983	99.31
319.212	117.31
319.441	110.31
319.67	91.31
319.9	93.31
320.129	99.31
320.358	85.31
320.587	87.31
320.816	110.31
321.046	108.31
321.275	96.31
321.504	105.31
321.733	104.31
321.962	99.31
322.191	113.31
322.42	108.31
322.649	110.31
322.878	108.31
323.108	120.31
323.337	122.31
323.566	143.31
323.795	166.31
324.024	248.31
324.253	500.31
324.482	1054.31
324.71	2139.31
324.939	2867.31
325.168	1040.31
325.397	291.31
325.626	174.31
325.855	151.31
326.084	133.31
326.313	142.31
326.542	154.31
326.77	259.31
326.999	551.31
327.228	1173.31
327.457	2137.31
327.686	1657.31
327.914	439.31
328.143	220.31
328.372	189.31
328.6	150.31
328.829	127.31
329.058	129.31
329.287	147.31
329.515	111.31
329.744	103.31
329.972	94.31
330.201	105.31
330.43	121.31
330.658	132.31
330.887	173.31
331.115	140.31
331.344	101.31
331.572	109.31
331.801	124.31
332.03	90.31
332.258	99.31
332.486	95.31
332.715	96.31
332.943	87.31
333.172	93.31
333.4	109.31
333.629	108.31
333.857	126.31
334.085	98.31
334.314	114.31
334.542	118.31
334.771	119.31
334.999	93.31
335.227	103.31
335.455	99.31
335.684	91.31
335.912	99.31
336.14	93.31
336.369	105.31
336.597	110.31
336.825	95.31
337.053	83.31
337.281	89.31
337.51	90.31
337.738	90.31
337.966	94.31
338.194	100.31
338.422	97.31
338.65	103.31
338.878	91.31
339.106	92.31
339.334	85.31
339.562	83.31
339.79	97.31
340.018	90.31
340.246	96.31
340.474	102.31
340.702	98.31
340.93	99.31
341.158	90.31
341.386	107.31
341.614	101.31
341.842	102.31
342.07	103.31
342.298	93.31
342.526	75.31
342.754	89.31
342.981	75.31
343.209	95.31
343.437	109.31
343.665	99.31
343.893	90.31
344.12	89.31
344.348	88.31
344.576	97.31
344.804	92.31
345.031	98.31
345.259	98.31
345.487	88.31
345.714	91.31
345.942	103.31
346.17	91.31
346.397	93.31
346.625	102.31
346.853	96.31
347.08	90.31
347.308	106.31
347.535	115.31
347.763	97.31
347.99	111.31
348.218	115.31
348.445	121.31
348.673	103.31
348.9	108.31
349.128	101.31
349.355	89.31
349.583	98.31
349.81	97.31
350.037	97.31
350.265	84.31
350.492	108.31
350.72	97.31
350.947	83.31
351.174	107.31
351.402	130.31
351.629	103.31
351.856	100.31
352.083	93.31
352.311	118.31
352.538	102.31
352.765	107.31
352.992	113.31
353.22	118.31
353.447	110.31
353.674	98.31
353.901	99.31
354.128	100.31
354.355	94.31
354.583	94.31
354.81	95.31
355.037	104.31
355.264	110.31
355.491	95.31
355.718	86.31
355.945	90.31
356.172	87.31
356.399	95.31
356.626	88.31
356.853	97.31
357.08	94.31
357.307	82.31
357.534	93.31
357.761	95.31
357.988	96.31
358.215	95.31
358.441	107.31
358.668	104.31
358.895	94.31
359.122	103.31
359.349	89.31
359.576	102.31
359.802	125.31
360.029	143.31
360.256	107.31
360.483	96.31
360.709	93.31
360.936	111.31
361.163	89.31
361.39	108.31
361.616	86.31
361.843	90.31
362.07	100.31
362.296	102.31
362.523	98.31
362.749	97.31
362.976	94.31
363.203	108.31
363.429	80.31
363.656	105.31
363.882	100.31
364.109	83.31
364.335	97.31
364.562	88.31
364.788	92.31
365.015	90.31
365.241	100.31
365.468	108.31
365.694	124.31
365.92	88.31
366.147	89.31
366.373	90.31
366.599	95.31
366.826	89.31
367.052	85.31
367.278	89.31
367.505	94.31
367.731	100.31
367.957	90.31
368.184	100.31
368.41	114.31
368.636	129.31
368.862	126.31
369.089	116.31
369.315	92.31
369.541	92.31
369.767	88.31
369.993	90.31
370.219	95.31
370.445	97.31
370.672	86.31
370.898	87.31
371.124	101.31
371.35	102.31
371.576	98.31
371.802	88.31
372.028	89.31
372.254	97.31
372.48	75.31
372.706	79.31
372.932	74.31
373.158	96.31
373.384	89.31
373.61	90.31
373.835	97.31
374.061	87.31
374.287	86.31
374.513	114.31
374.739	83.31
374.965	87.31
375.191	89.31
375.416	96.31
375.642	93.31
375.868	93.31
376.094	92.31
376.319	79.31
376.545	95.31
376.771	106.31
376.997	108.31
377.222	105.31
377.448	87.31
377.674	95.31
377.899	101.31
378.125	82.31
378.35	87.31
378.576	79.31
378.802	102.31
379.027	94.31
379.253	96.31
379.478	84.31
379.704	92.31
379.929	90.31
380.155	99.31
380.38	98.31
380.606	95.31
380.831	100.31
381.057	102.31
381.282	111.31
381.507	82.31
381.733	92.31
381.958	104.31
382.184	101.31
382.409	99.31
382.634	95.31
382.86	97.31
383.085	103.31
383.31	100.31
383.535	100.31
383.761	95.31
383.986	83.31
384.211	100.31
384.436	105.31
384.662	99.31
384.887	98.31
385.112	104.31
385.337	105.31
385.562	94.31
385.787	107.31
386.013	114.31
386.238	117.31
386.463	129.31
386.688	111.31
386.913	109.31
387.138	110.31
387.363	91.31
387.588	94.31
387.813	98.31
388.038	102.31
388.263	105.31
388.488	100.31
388.713	96.31
388.938	90.31
389.163	97.31
389.387	106.31
389.612	106.31
389.837	106.31
390.062	86.31
390.287	89.31
390.512	91.31
390.736	90.31
390.961	101.31
391.186	97.31
391.411	95.31
391.636	82.31
391.86	82.31
392.085	86.31
392.31	87.31
392.534	99.31
392.759	98.31
392.984	85.31
393.208	84.31
393.433	97.31
393.658	105.31
393.882	85.31
394.107	76.31
394.331	83.31
394.556	86.31
394.78	91.31
395.005	96.31
395.229	89.31
395.454	98.31
395.678	94.31
395.903	79.31
396.127	93.31
396.352	88.31
396.576	93.31
396.801	102.31
397.025	101.31
397.249	85.31
397.474	79.31
397.698	88.31
397.922	89.31
398.147	100.31
398.371	87.31
398.595	93.31
398.82	98.31
399.044	93.31
399.268	77.31
399.492	92.31
399.717	80.31
399.941	76.31
400.165	99.31
400.389	93.31
400.613	82.31
400.837	94.31
401.062	88.31
401.286	90.31
401.51	81.31
401.734	103.31
401.958	95.31
402.182	152.31
402.406	191.31
402.63	148.31
402.854	101.31
403.078	90.31
403.302	87.31
403.526	78.31
403.75	76.31
403.974	104.31
404.198	104.31
404.422	94.31
404.645	94.31
404.869	91.31
405.093	102.31
405.317	96.31
405.541	99.31
405.765	113.31
405.988	128.31
406.212	207.31
406.436	298.31
406.66	179.31
406.883	94.31
407.107	97.31
407.331	85.31
407.555	109.31
407.778	98.31
408.002	101.31
408.226	100.31
408.449	84.31
408.673	88.31
408.896	79.31
409.12	113.31
409.344	90.31
409.567	91.31
409.791	95.31
410.014	91.31
410.238	90.31
410.461	98.31
410.685	94.31
410.908	93.31
411.132	116.31
411.355	102.31
411.578	90.31
411.802	87.31
412.025	93.31
412.249	86.31
412.472	88.31
412.695	83.31
412.919	70.31
413.142	88.31
413.365	89.31
413.589	77.31
413.812	91.31
414.035	84.31
414.258	82.31
414.482	98.31
414.705	72.31
414.928	91.31
415.151	74.31
415.374	89.31
415.597	72.31
415.821	83.31
416.044	90.31
416.267	84.31
416.49	84.31
416.713	86.31
416.936	92.31
417.159	92.31
417.382	83.31
417.605	77.31
417.828	107.31
418.051	80.31
418.274	88.31
418.497	88.31
418.72	88.31
418.943	76.31
419.166	84.31
419.389	76.31
419.611	85.31
419.834	85.31
420.057	96.31
420.28	85.31
420.503	78.31
420.726	85.31
420.948	84.31
421.171	94.31
421.394	76.31
421.617	89.31
421.839	95.31
422.062	93.31
422.285	106.31
422.507	89.31
422.73	95.31
422.953	84.31
423.175	95.31
423.398	95.31
423.621	87.31
423.843	87.31
424.066	73.31
424.288	91.31
424.511	100.31
424.733	98.31
424.956	116.31
425.178	98.31
425.401	107.31
425.623	108.31
425.846	90.31
426.068	103.31
426.291	100.31
426.513	90.31
426.735	95.31
426.958	95.31
427.18	117.31
427.402	146.31
427.625	185.31
427.847	164.31
428.069	110.31
428.292	86.31
428.514	90.31
428.736	79.31
428.958	74.31
429.181	85.31
429.403	89.31
429.625	95.31
429.847	85.31
430.069	96.31
430.292	95.31
430.514	95.31
430.736	83.31
430.958	84.31
431.18	84.31
431.402	76.31
431.624	93.31
431.846	88.31
432.068	84.31
432.29	85.31
432.512	78.31
432.734	80.31
432.956	79.31
433.178	94.31
433.4	101.31
433.622	95.31
433.844	95.31
434.066	89.31
434.287	76.31
434.509	88.31
434.731	95.31
434.953	97.31
435.175	77.31
435.397	89.31
435.618	82.31
435.84	110.31
436.062	131.31
436.284	125.31
436.505	102.31
436.727	112.31
436.949	109.31
437.17	85.31
437.392	84.31
437.614	102.31
437.835	106.31
438.057	115.31
438.278	113.31
438.5	105.31
438.721	115.31
438.943	118.31
439.165	99.31
439.386	90.31
439.608	90.31
439.829	94.31
440.05	130.31
440.272	149.31
440.493	99.31
440.715	87.31
440.936	87.31
441.158	89.31
441.379	93.31
441.6	98.31
441.822	110.31
442.043	104.31
442.264	93.31
442.486	97.31
442.707	108.31
442.928	115.31
443.149	160.31
443.371	150.31
443.592	120.31
443.813	129.31
444.034	93.31
444.255	93.31
444.476	89.31
444.698	72.31
444.919	83.31
445.14	124.31
445.361	120.31
445.582	104.31
445.803	154.31
446.024	142.31
446.245	144.31
446.466	115.31
446.687	89.31
446.908	92.31
447.129	67.31
447.35	79.31
447.571	108.31
447.792	94.31
448.013	98.31
448.234	113.31
448.455	93.31
448.675	123.31
448.896	108.31
449.117	97.31
449.338	102.31
449.559	136.31
449.779	151.31
450	91.31
450.221	88.31
450.442	93.31
450.662	93.31
450.883	116.31
451.104	124.31
451.324	108.31
451.545	100.31
451.766	91.31
451.986	84.31
452.207	82.31
452.428	100.31
452.648	101.31
452.869	115.31
453.089	134.31
453.31	137.31
453.53	83.31
453.751	95.31
453.971	108.31
454.192	118.31
454.412	85.31
454.633	86.31
454.853	83.31
455.073	79.31
455.294	83.31
455.514	105.31
455.734	92.31
455.955	84.31
456.175	90.31
456.395	71.31
456.616	94.31
456.836	74.31
457.056	89.31
457.276	84.31
457.497	81.31
457.717	86.31
457.937	97.31
458.157	79.31
458.377	87.31
458.598	121.31
458.818	190.31
459.038	195.31
459.258	136.31
459.478	95.31
459.698	96.31
459.918	85.31
460.138	89.31
460.358	98.31
460.578	106.31
460.798	98.31
461.018	81.31
461.238	79.31
461.458	79.31
461.678	91.31
461.898	94.31
462.118	85.31
462.338	95.31
462.558	89.31
462.777	83.31
462.997	74.31
463.217	94.31
463.437	89.31
463.657	78.31
463.876	83.31
464.096	86.31
464.316	90.31
464.536	104.31
464.755	101.31
464.975	133.31
465.195	206.31
465.414	200.31
465.634	109.31
465.854	80.31
466.073	89.31
466.293	82.31
466.512	78.31
466.732	90.31
466.951	88.31
467.171	90.31
467.391	76.31
467.61	125.31
467.829	93.31
468.049	86.31
468.268	78.31
468.488	84.31
468.707	88.31
468.927	72.31
469.146	75.31
469.365	72.31
469.585	91.31
469.804	92.31
470.023	99.31
470.243	90.31
470.462	108.31
470.681	123.31
470.901	89.31
471.12	105.31
471.339	94.31
471.558	87.31
471.777	94.31
471.997	83.31
472.216	110.31
472.435	102.31
472.654	96.31
472.873	92.31
473.092	90.31
473.311	84.31
473.53	91.31
473.749	91.31
473.968	101.31
474.187	110.31
474.406	98.31
474.625	83.31
474.844	85.31
475.063	54.31
475.282	86.31
475.501	90.31
475.72	91.31
475.939	83.31
476.158	93.31
476.377	91.31
476.596	96.31
476.814	101.31
477.033	78.31
477.252	83.31
477.471	78.31
477.69	90.31
477.908	89.31
478.127	95.31
478.346	76.31
478.564	101.31
478.783	92.31
479.002	110.31
479.22	100.31
479.439	120.31
479.658	110.31
479.876	108.31
480.095	78.31
480.313	91.31
480.532	90.31
480.751	83.31
480.969	108.31
481.188	142.31
481.406	116.31
481.624	91.31
481.843	94.31
482.061	66.31
482.28	98.31
482.498	80.31
482.717	86.31
482.935	83.31
483.153	97.31
483.372	89.31
483.59	99.31
483.808	93.31
484.027	101.31
484.245	90.31
484.463	99.31
484.681	102.31
484.9	82.31
485.118	93.31
485.336	93.31
485.554	86.31
485.772	86.31
485.99	107.31
486.209	86.31
486.427	100.31
486.645	114.31
486.863	123.31
487.081	101.31
487.299	90.31
487.517	81.31
487.735	98.31
487.953	108.31
488.171	87.31
488.389	98.31
488.607	102.31
488.825	91.31
489.043	89.31
489.261	82.31
489.479	98.31
489.696	84.31
489.914	65.31
490.132	102.31
490.35	93.31
490.568	94.31
490.786	92.31
491.003	86.31
491.221	96.31
491.439	102.31
491.657	97.31
491.874	92.31
492.092	96.31
492.31	91.31
492.527	89.31
492.745	98.31
492.963	95.31
493.18	99.31
493.398	99.31
493.615	102.31
493.833	86.31
494.05	78.31
494.268	100.31
494.485	93.31
494.703	107.31
494.92	83.31
495.138	84.31
495.355	94.31
495.573	91.31
495.79	89.31
496.008	98.31
496.225	105.31
496.442	98.31
496.66	86.31
496.877	90.31
497.094	99.31
497.312	85.31
497.529	85.31
497.746	91.31
497.963	91.31
498.181	73.31
498.398	86.31
498.615	118.31
498.832	99.31
499.049	98.31
499.267	74.31
499.484	84.31
499.701	75.31
499.918	77.31
500.135	73.31
500.352	90.31
500.569	91.31
500.786	90.31
501.003	81.31
501.22	97.31
501.437	91.31
501.654	89.31
501.871	123.31
502.088	92.31
502.305	107.31
502.522	89.31
502.739	90.31
502.956	92.31
503.172	77.31
503.389	109.31
503.606	100.31
503.823	103.31
504.04	87.31
504.256	90.31
504.473	83.31
504.69	91.31
504.907	77.31
505.123	77.31
505.34	113.31
505.557	93.31
505.773	89.31
505.99	83.31
506.207	95.31
506.423	92.31
506.64	99.31
506.856	98.31
507.073	92.31
507.289	89.31
507.506	91.31
507.722	127.31
507.939	131.31
508.155	103.31
508.372	91.31
508.588	93.31
508.805	76.31
509.021	98.31
509.238	103.31
509.454	107.31
509.67	113.31
509.887	109.31
510.103	139.31
510.319	234.31
510.536	967.31
510.752	3370.31
510.968	929.31
511.184	185.31
511.401	139.31
511.617	97.31
511.833	94.31
512.049	83.31
512.265	105.31
512.481	79.31
512.698	94.31
512.914	90.31
513.13	106.31
513.346	88.31
513.562	93.31
513.778	99.31
513.994	99.31
514.21	102.31
514.426	137.31
514.642	151.31
514.858	136.31
