Data from Circ_2012_H10_HRD10591_00087.txt Node
Date: Wed Jan 03 10:06:07 EST 2024
User: Yrep
Spectrometer: HR+D1059
Trigger mode: 1
Integration Time (sec): 1.000000E-1
Scans to average: 1
Electric dark correction enabled: true
Nonlinearity correction enabled: false
Boxcar width: 0
XAxis mode: Wavelengths
Number of Pixels in Spectrum: 2048
>>>>>Begin Spectral Data<<<<<
223.165	-20.62
223.4	-20.62
223.635	-20.62
223.869	-13.62
224.104	-10.62
224.338	-3.62
224.573	-13.62
224.808	-6.62
225.042	-6.62
225.277	-10.62
225.511	-5.62
225.746	5.38
225.98	0.38
226.215	7.38
226.449	15.38
226.683	14.38
226.918	26.38
227.152	22.38
227.387	32.38
227.621	33.38
227.856	41.38
228.09	61.38
228.324	52.38
228.559	52.38
228.793	61.38
229.027	43.38
229.262	63.38
229.496	75.38
229.73	70.38
229.964	65.38
230.199	52.38
230.433	69.38
230.667	75.38
230.901	81.38
231.136	80.38
231.37	78.38
231.604	80.38
231.838	72.38
232.072	84.38
232.306	73.38
232.541	76.38
232.775	81.38
233.009	71.38
233.243	76.38
233.477	74.38
233.711	80.38
233.945	72.38
234.179	86.38
234.413	86.38
234.647	80.38
234.881	78.38
235.115	64.38
235.349	81.38
235.583	92.38
235.817	84.38
236.051	69.38
236.285	81.38
236.519	77.38
236.753	73.38
236.987	85.38
237.221	82.38
237.455	83.38
237.689	66.38
237.922	74.38
238.156	66.38
238.39	69.38
238.624	70.38
238.858	78.38
239.091	80.38
239.325	75.38
239.559	73.38
239.793	60.38
240.027	62.38
240.26	80.38
240.494	74.38
240.728	74.38
240.961	85.38
241.195	80.38
241.429	82.38
241.662	83.38
241.896	73.38
242.13	76.38
242.363	70.38
242.597	75.38
242.83	93.38
243.064	83.38
243.298	63.38
243.531	65.38
243.765	75.38
243.998	76.38
244.232	75.38
244.465	89.38
244.699	69.38
244.932	68.38
245.166	81.38
245.399	72.38
245.633	73.38
245.866	76.38
246.099	58.38
246.333	69.38
246.566	85.38
246.8	81.38
247.033	82.38
247.266	77.38
247.5	78.38
247.733	78.38
247.966	81.38
248.2	77.38
248.433	86.38
248.666	83.38
248.899	78.38
249.133	85.38
249.366	103.38
249.599	80.38
249.832	75.38
250.066	98.38
250.299	81.38
250.532	80.38
250.765	69.38
250.998	93.38
251.231	90.38
251.465	77.38
251.698	78.38
251.931	82.38
252.164	80.38
252.397	67.38
252.63	87.38
252.863	77.38
253.096	86.38
253.329	73.38
253.562	78.38
253.795	75.38
254.028	81.38
254.261	87.38
254.494	102.38
254.727	80.38
254.96	74.38
255.193	90.38
255.426	74.38
255.659	82.38
255.892	77.38
256.124	77.38
256.357	76.38
256.59	82.38
256.823	74.38
257.056	65.38
257.289	92.38
257.521	83.38
257.754	68.38
257.987	56.38
258.22	84.38
258.452	88.38
258.685	73.38
258.918	78.38
259.151	82.38
259.383	74.38
259.616	78.38
259.849	86.38
260.081	76.38
260.314	98.38
260.547	86.38
260.779	72.38
261.012	82.38
261.244	66.38
261.477	77.38
261.71	86.38
261.942	92.38
262.175	88.38
262.407	89.38
262.64	105.38
262.872	99.38
263.105	82.38
263.337	73.38
263.57	69.38
263.802	78.38
264.035	84.38
264.267	70.38
264.499	80.38
264.732	82.38
264.964	71.38
265.197	80.38
265.429	75.38
265.661	74.38
265.894	86.38
266.126	78.38
266.358	76.38
266.591	91.38
266.823	88.38
267.055	82.38
267.287	81.38
267.52	76.38
267.752	76.38
267.984	86.38
268.216	78.38
268.448	89.38
268.681	89.38
268.913	77.38
269.145	86.38
269.377	81.38
269.609	87.38
269.841	87.38
270.073	77.38
270.306	88.38
270.538	78.38
270.77	72.38
271.002	93.38
271.234	85.38
271.466	86.38
271.698	97.38
271.93	84.38
272.162	78.38
272.394	75.38
272.626	83.38
272.858	90.38
273.09	88.38
273.322	81.38
273.553	79.38
273.785	85.38
274.017	72.38
274.249	90.38
274.481	75.38
274.713	69.38
274.945	94.38
275.176	73.38
275.408	85.38
275.64	90.38
275.872	69.38
276.104	88.38
276.335	76.38
276.567	96.38
276.799	112.38
277.031	95.38
277.262	96.38
277.494	87.38
277.726	88.38
277.957	74.38
278.189	91.38
278.421	86.38
278.652	86.38
278.884	88.38
279.115	89.38
279.347	86.38
279.579	86.38
279.81	93.38
280.042	96.38
280.273	104.38
280.505	75.38
280.736	78.38
280.968	94.38
281.199	104.38
281.431	82.38
281.662	96.38
281.894	81.38
282.125	93.38
282.356	115.38
282.588	129.38
282.819	120.38
283.051	80.38
283.282	68.38
283.513	89.38
283.745	80.38
283.976	75.38
284.207	93.38
284.439	74.38
284.67	86.38
284.901	76.38
285.132	87.38
285.364	71.38
285.595	86.38
285.826	80.38
286.057	83.38
286.288	93.38
286.52	98.38
286.751	98.38
286.982	74.38
287.213	80.38
287.444	86.38
287.675	77.38
287.906	91.38
288.138	93.38
288.369	89.38
288.6	84.38
288.831	92.38
289.062	95.38
289.293	98.38
289.524	84.38
289.755	91.38
289.986	85.38
290.217	72.38
290.448	84.38
290.679	73.38
290.91	88.38
291.141	90.38
291.371	73.38
291.602	92.38
291.833	83.38
292.064	92.38
292.295	96.38
292.526	81.38
292.757	75.38
292.987	75.38
293.218	86.38
293.449	100.38
293.68	98.38
293.91	84.38
294.141	92.38
294.372	91.38
294.603	77.38
294.833	85.38
295.064	83.38
295.295	75.38
295.525	83.38
295.756	113.38
295.987	118.38
296.217	126.38
296.448	120.38
296.679	78.38
296.909	80.38
297.14	87.38
297.37	77.38
297.601	88.38
297.831	96.38
298.062	96.38
298.292	86.38
298.523	102.38
298.753	94.38
298.984	73.38
299.214	89.38
299.445	81.38
299.675	98.38
299.905	94.38
300.136	90.38
300.366	80.38
300.597	86.38
300.827	97.38
301.057	105.38
301.288	99.38
301.518	85.38
301.748	80.38
301.979	86.38
302.209	84.38
302.439	96.38
302.669	84.38
302.9	96.38
303.13	93.38
303.36	83.38
303.59	96.38
303.82	112.38
304.051	86.38
304.281	97.38
304.511	86.38
304.741	95.38
304.971	97.38
305.201	90.38
305.431	102.38
305.661	85.38
305.891	88.38
306.121	84.38
306.352	114.38
306.582	98.38
306.812	96.38
307.042	87.38
307.272	77.38
307.502	88.38
307.731	88.38
307.961	97.38
308.191	103.38
308.421	98.38
308.651	83.38
308.881	67.38
309.111	90.38
309.341	94.38
309.571	97.38
309.8	87.38
310.03	96.38
310.26	88.38
310.49	104.38
310.72	83.38
310.949	92.38
311.179	107.38
311.409	101.38
311.639	90.38
311.868	95.38
312.098	100.38
312.328	89.38
312.557	94.38
312.787	102.38
313.017	96.38
313.246	77.38
313.476	89.38
313.706	90.38
313.935	86.38
314.165	100.38
314.394	81.38
314.624	96.38
314.853	89.38
315.083	80.38
315.312	104.38
315.542	94.38
315.771	96.38
316.001	87.38
316.23	93.38
316.46	100.38
316.689	85.38
316.919	80.38
317.148	77.38
317.377	78.38
317.607	97.38
317.836	91.38
318.065	89.38
318.295	107.38
318.524	90.38
318.753	87.38
318.983	100.38
319.212	105.38
319.441	99.38
319.67	98.38
319.9	99.38
320.129	99.38
320.358	98.38
320.587	79.38
320.816	99.38
321.046	90.38
321.275	102.38
321.504	86.38
321.733	94.38
321.962	98.38
322.191	94.38
322.42	94.38
322.649	105.38
322.878	104.38
323.108	107.38
323.337	112.38
323.566	117.38
323.795	132.38
324.024	189.38
324.253	340.38
324.482	692.38
324.71	1454.38
324.939	1868.38
325.168	708.38
325.397	227.38
325.626	121.38
325.855	136.38
326.084	116.38
326.313	119.38
326.542	129.38
326.77	200.38
326.999	411.38
327.228	838.38
327.457	1539.38
327.686	1195.38
327.914	334.38
328.143	183.38
328.372	140.38
328.6	129.38
328.829	125.38
329.058	125.38
329.287	136.38
329.515	118.38
329.744	104.38
329.972	100.38
330.201	120.38
330.43	154.38
330.658	132.38
330.887	128.38
331.115	114.38
331.344	77.38
331.572	88.38
331.801	91.38
332.03	77.38
332.258	106.38
332.486	91.38
332.715	105.38
332.943	92.38
333.172	85.38
333.4	91.38
333.629	93.38
333.857	102.38
334.085	96.38
334.314	129.38
334.542	185.38
334.771	173.38
334.999	104.38
335.227	96.38
335.455	83.38
335.684	92.38
335.912	87.38
336.14	95.38
336.369	89.38
336.597	106.38
336.825	91.38
337.053	87.38
337.281	86.38
337.51	85.38
337.738	94.38
337.966	97.38
338.194	97.38
338.422	83.38
338.65	70.38
338.878	84.38
339.106	74.38
339.334	81.38
339.562	92.38
339.79	93.38
340.018	91.38
340.246	105.38
340.474	88.38
340.702	97.38
340.93	93.38
341.158	91.38
341.386	93.38
341.614	93.38
341.842	99.38
342.07	93.38
342.298	81.38
342.526	76.38
342.754	74.38
342.981	84.38
343.209	85.38
343.437	96.38
343.665	76.38
343.893	86.38
344.12	83.38
344.348	81.38
344.576	76.38
344.804	79.38
345.031	87.38
345.259	72.38
345.487	89.38
345.714	98.38
345.942	86.38
346.17	87.38
346.397	94.38
346.625	94.38
346.853	86.38
347.08	102.38
347.308	91.38
347.535	86.38
347.763	110.38
347.99	83.38
348.218	91.38
348.445	82.38
348.673	91.38
348.9	97.38
349.128	85.38
349.355	97.38
349.583	84.38
349.81	85.38
350.037	81.38
350.265	91.38
350.492	84.38
350.72	87.38
350.947	92.38
351.174	100.38
351.402	98.38
351.629	90.38
351.856	98.38
352.083	104.38
352.311	91.38
352.538	101.38
352.765	113.38
352.992	105.38
353.22	106.38
353.447	92.38
353.674	106.38
353.901	88.38
354.128	88.38
354.355	83.38
354.583	89.38
354.81	102.38
355.037	89.38
355.264	98.38
355.491	89.38
355.718	105.38
355.945	96.38
356.172	112.38
356.399	84.38
356.626	96.38
356.853	85.38
357.08	90.38
357.307	99.38
357.534	114.38
357.761	93.38
357.988	86.38
358.215	93.38
358.441	85.38
358.668	93.38
358.895	92.38
359.122	90.38
359.349	88.38
359.576	80.38
359.802	93.38
360.029	99.38
360.256	103.38
360.483	92.38
360.709	87.38
360.936	78.38
361.163	96.38
361.39	100.38
361.616	87.38
361.843	96.38
362.07	80.38
362.296	82.38
362.523	105.38
362.749	82.38
362.976	93.38
363.203	82.38
363.429	86.38
363.656	74.38
363.882	81.38
364.109	86.38
364.335	83.38
364.562	82.38
364.788	101.38
365.015	104.38
365.241	98.38
365.468	103.38
365.694	98.38
365.92	84.38
366.147	90.38
366.373	87.38
366.599	83.38
366.826	94.38
367.052	84.38
367.278	87.38
367.505	74.38
367.731	81.38
367.957	95.38
368.184	93.38
368.41	99.38
368.636	104.38
368.862	106.38
369.089	100.38
369.315	92.38
369.541	91.38
369.767	95.38
369.993	82.38
370.219	82.38
370.445	75.38
370.672	86.38
370.898	90.38
371.124	90.38
371.35	80.38
371.576	89.38
371.802	83.38
372.028	73.38
372.254	99.38
372.48	86.38
372.706	89.38
372.932	85.38
373.158	82.38
373.384	78.38
373.61	94.38
373.835	103.38
374.061	93.38
374.287	80.38
374.513	78.38
374.739	77.38
374.965	74.38
375.191	85.38
375.416	87.38
375.642	81.38
375.868	85.38
376.094	79.38
376.319	85.38
376.545	98.38
376.771	76.38
376.997	84.38
377.222	90.38
377.448	94.38
377.674	80.38
377.899	91.38
378.125	96.38
378.35	87.38
378.576	88.38
378.802	79.38
379.027	95.38
379.253	93.38
379.478	86.38
379.704	91.38
379.929	82.38
380.155	90.38
380.38	84.38
380.606	101.38
380.831	86.38
381.057	97.38
381.282	87.38
381.507	88.38
381.733	78.38
381.958	104.38
382.184	104.38
382.409	101.38
382.634	101.38
382.86	97.38
383.085	105.38
383.31	91.38
383.535	91.38
383.761	101.38
383.986	90.38
384.211	94.38
384.436	104.38
384.662	96.38
384.887	97.38
385.112	97.38
385.337	101.38
385.562	84.38
385.787	97.38
386.013	96.38
386.238	93.38
386.463	101.38
386.688	103.38
386.913	93.38
387.138	93.38
387.363	97.38
387.588	97.38
387.813	95.38
388.038	107.38
388.263	120.38
388.488	102.38
388.713	99.38
388.938	97.38
389.163	85.38
389.387	100.38
389.612	88.38
389.837	115.38
390.062	88.38
390.287	85.38
390.512	82.38
390.736	83.38
390.961	85.38
391.186	92.38
391.411	84.38
391.636	93.38
391.86	84.38
392.085	89.38
392.31	84.38
392.534	76.38
392.759	74.38
392.984	81.38
393.208	83.38
393.433	94.38
393.658	91.38
393.882	82.38
394.107	86.38
394.331	93.38
394.556	81.38
394.78	96.38
395.005	88.38
395.229	77.38
395.454	89.38
395.678	77.38
395.903	85.38
396.127	84.38
396.352	81.38
396.576	69.38
396.801	67.38
397.025	71.38
397.249	84.38
397.474	96.38
397.698	86.38
397.922	91.38
398.147	84.38
398.371	71.38
398.595	83.38
398.82	69.38
399.044	92.38
399.268	77.38
399.492	83.38
399.717	79.38
399.941	78.38
400.165	74.38
400.389	99.38
400.613	88.38
400.837	79.38
401.062	85.38
401.286	90.38
401.51	93.38
401.734	87.38
401.958	101.38
402.182	108.38
402.406	140.38
402.63	95.38
402.854	85.38
403.078	85.38
403.302	82.38
403.526	77.38
403.75	92.38
403.974	88.38
404.198	81.38
404.422	80.38
404.645	88.38
404.869	91.38
405.093	97.38
405.317	92.38
405.541	104.38
405.765	85.38
405.988	110.38
406.212	149.38
406.436	176.38
406.66	119.38
406.883	85.38
407.107	97.38
407.331	97.38
407.555	97.38
407.778	84.38
408.002	83.38
408.226	78.38
408.449	78.38
408.673	84.38
408.896	94.38
409.12	103.38
409.344	95.38
409.567	81.38
409.791	96.38
410.014	97.38
410.238	75.38
410.461	105.38
410.685	79.38
410.908	94.38
411.132	96.38
411.355	92.38
411.578	90.38
411.802	75.38
412.025	88.38
412.249	92.38
412.472	89.38
412.695	81.38
412.919	93.38
413.142	92.38
413.365	87.38
413.589	84.38
413.812	81.38
414.035	87.38
414.258	93.38
414.482	85.38
414.705	78.38
414.928	91.38
415.151	95.38
415.374	93.38
415.597	79.38
415.821	92.38
416.044	88.38
416.267	77.38
416.49	86.38
416.713	78.38
416.936	96.38
417.159	85.38
417.382	80.38
417.605	87.38
417.828	86.38
418.051	78.38
418.274	93.38
418.497	86.38
418.72	78.38
418.943	81.38
419.166	91.38
419.389	75.38
419.611	86.38
419.834	86.38
420.057	91.38
420.28	73.38
420.503	90.38
420.726	78.38
420.948	76.38
421.171	97.38
421.394	103.38
421.617	96.38
421.839	81.38
422.062	82.38
422.285	83.38
422.507	106.38
422.73	96.38
422.953	96.38
423.175	89.38
423.398	93.38
423.621	90.38
423.843	98.38
424.066	82.38
424.288	81.38
424.511	81.38
424.733	101.38
424.956	100.38
425.178	92.38
425.401	89.38
425.623	92.38
425.846	76.38
426.068	77.38
426.291	83.38
426.513	88.38
426.735	70.38
426.958	77.38
427.18	89.38
427.402	121.38
427.625	142.38
427.847	126.38
428.069	119.38
428.292	88.38
428.514	62.38
428.736	83.38
428.958	77.38
429.181	90.38
429.403	74.38
429.625	96.38
429.847	75.38
430.069	104.38
430.292	85.38
430.514	85.38
430.736	83.38
430.958	90.38
431.18	78.38
431.402	90.38
431.624	76.38
431.846	98.38
432.068	96.38
432.29	78.38
432.512	85.38
432.734	87.38
432.956	97.38
433.178	75.38
433.4	94.38
433.622	91.38
433.844	84.38
434.066	89.38
434.287	98.38
434.509	99.38
434.731	92.38
434.953	84.38
435.175	81.38
435.397	84.38
435.618	93.38
435.84	82.38
436.062	110.38
436.284	104.38
436.505	94.38
436.727	100.38
436.949	85.38
437.17	81.38
437.392	80.38
437.614	81.38
437.835	97.38
438.057	99.38
438.278	106.38
438.5	99.38
438.721	109.38
438.943	92.38
439.165	84.38
439.386	96.38
439.608	98.38
439.829	98.38
440.05	118.38
440.272	125.38
440.493	93.38
440.715	87.38
440.936	88.38
441.158	88.38
441.379	82.38
441.6	80.38
441.822	84.38
442.043	97.38
442.264	96.38
442.486	106.38
442.707	84.38
442.928	108.38
443.149	121.38
443.371	108.38
443.592	111.38
443.813	94.38
444.034	94.38
444.255	84.38
444.476	78.38
444.698	74.38
444.919	78.38
445.14	116.38
445.361	117.38
445.582	105.38
445.803	115.38
446.024	127.38
446.245	134.38
446.466	107.38
446.687	72.38
446.908	87.38
447.129	97.38
447.35	93.38
447.571	84.38
447.792	89.38
448.013	85.38
448.234	99.38
448.455	93.38
448.675	105.38
448.896	105.38
449.117	111.38
449.338	101.38
449.559	123.38
449.779	123.38
450	96.38
450.221	86.38
450.442	95.38
450.662	90.38
450.883	94.38
451.104	95.38
451.324	105.38
451.545	89.38
451.766	77.38
451.986	77.38
452.207	82.38
452.428	90.38
452.648	87.38
452.869	96.38
453.089	105.38
453.31	105.38
453.53	97.38
453.751	97.38
453.971	94.38
454.192	90.38
454.412	85.38
454.633	79.38
454.853	85.38
455.073	88.38
455.294	91.38
455.514	101.38
455.734	76.38
455.955	82.38
456.175	79.38
456.395	98.38
456.616	86.38
456.836	96.38
457.056	92.38
457.276	80.38
457.497	76.38
457.717	85.38
457.937	82.38
458.157	92.38
458.377	98.38
458.598	92.38
458.818	131.38
459.038	134.38
459.258	99.38
459.478	91.38
459.698	93.38
459.918	75.38
460.138	78.38
460.358	84.38
460.578	82.38
460.798	81.38
461.018	76.38
461.238	84.38
461.458	97.38
461.678	89.38
461.898	96.38
462.118	91.38
462.338	74.38
462.558	85.38
462.777	84.38
462.997	92.38
463.217	87.38
463.437	100.38
463.657	99.38
463.876	88.38
464.096	76.38
464.316	112.38
464.536	84.38
464.755	102.38
464.975	92.38
465.195	142.38
465.414	130.38
465.634	77.38
465.854	95.38
466.073	91.38
466.293	84.38
466.512	96.38
466.732	80.38
466.951	87.38
467.171	73.38
467.391	72.38
467.61	95.38
467.829	101.38
468.049	102.38
468.268	121.38
468.488	74.38
468.707	83.38
468.927	81.38
469.146	82.38
469.365	74.38
469.585	89.38
469.804	92.38
470.023	87.38
470.243	88.38
470.462	70.38
470.681	102.38
470.901	71.38
471.12	91.38
471.339	105.38
471.558	77.38
471.777	100.38
471.997	90.38
472.216	132.38
472.435	204.38
472.654	107.38
472.873	74.38
473.092	82.38
473.311	86.38
473.53	90.38
473.749	85.38
473.968	109.38
474.187	88.38
474.406	83.38
474.625	76.38
474.844	83.38
475.063	69.38
475.282	90.38
475.501	93.38
475.72	101.38
475.939	93.38
476.158	98.38
476.377	86.38
476.596	82.38
476.814	98.38
477.033	72.38
477.252	87.38
477.471	96.38
477.69	93.38
477.908	96.38
478.127	92.38
478.346	89.38
478.564	93.38
478.783	87.38
479.002	78.38
479.22	85.38
479.439	91.38
479.658	108.38
479.876	96.38
480.095	72.38
480.313	77.38
480.532	94.38
480.751	99.38
480.969	138.38
481.188	304.38
481.406	225.38
481.624	121.38
481.843	95.38
482.061	95.38
482.28	96.38
482.498	84.38
482.717	68.38
482.935	77.38
483.153	91.38
483.372	91.38
483.59	80.38
483.808	75.38
484.027	83.38
484.245	76.38
484.463	97.38
484.681	89.38
484.9	94.38
485.118	83.38
485.336	79.38
485.554	87.38
485.772	105.38
485.99	85.38
486.209	104.38
486.427	84.38
486.645	101.38
486.863	108.38
487.081	93.38
487.299	92.38
487.517	82.38
487.735	105.38
487.953	82.38
488.171	84.38
488.389	104.38
488.607	99.38
488.825	85.38
489.043	76.38
489.261	86.38
489.479	87.38
489.696	95.38
489.914	70.38
490.132	93.38
490.35	87.38
490.568	87.38
490.786	68.38
491.003	74.38
491.221	92.38
491.439	80.38
491.657	101.38
491.874	95.38
492.092	87.38
492.31	98.38
492.527	78.38
492.745	76.38
492.963	89.38
493.18	91.38
493.398	89.38
493.615	95.38
493.833	88.38
494.05	79.38
494.268	94.38
494.485	90.38
494.703	77.38
494.92	82.38
495.138	79.38
495.355	81.38
495.573	87.38
495.79	78.38
496.008	93.38
496.225	102.38
496.442	84.38
496.66	90.38
496.877	92.38
497.094	91.38
497.312	76.38
497.529	71.38
497.746	92.38
497.963	76.38
498.181	96.38
498.398	88.38
498.615	96.38
498.832	86.38
499.049	81.38
499.267	69.38
499.484	85.38
499.701	89.38
499.918	81.38
500.135	82.38
500.352	88.38
500.569	82.38
500.786	88.38
501.003	90.38
501.22	98.38
501.437	102.38
501.654	95.38
501.871	90.38
502.088	71.38
502.305	90.38
502.522	83.38
502.739	96.38
502.956	94.38
503.172	76.38
503.389	77.38
503.606	97.38
503.823	90.38
504.04	90.38
504.256	89.38
504.473	71.38
504.69	89.38
504.907	82.38
505.123	93.38
505.34	85.38
505.557	92.38
505.773	85.38
505.99	85.38
506.207	70.38
506.423	86.38
506.64	80.38
506.856	99.38
507.073	90.38
507.289	91.38
507.506	93.38
507.722	113.38
507.939	100.38
508.155	99.38
508.372	85.38
508.588	96.38
508.805	96.38
509.021	96.38
509.238	98.38
509.454	99.38
509.67	97.38
509.887	96.38
510.103	117.38
510.319	184.38
510.536	629.38
510.752	2050.38
510.968	596.38
511.184	126.38
511.401	102.38
511.617	107.38
511.833	74.38
512.049	81.38
512.265	86.38
512.481	86.38
512.698	96.38
512.914	88.38
513.13	89.38
513.346	91.38
513.562	108.38
513.778	85.38
513.994	96.38
514.21	96.38
514.426	111.38
514.642	132.38
514.858	114.38
515.074	140.38
515.29	373.38
515.506	1206.38
515.721	478.38
515.937	135.38
516.153	117.38
516.369	92.38
516.585	88.38
516.801	100.38
517.016	85.38
