Data from Circ_2012_H10_HRD10591_00021.txt Node
Date: Wed Jan 03 10:05:54 EST 2024
User: Yrep
Spectrometer: HR+D1059
Trigger mode: 1
Integration Time (sec): 1.000000E-1
Scans to average: 1
Electric dark correction enabled: true
Nonlinearity correction enabled: false
Boxcar width: 0
XAxis mode: Wavelengths
Number of Pixels in Spectrum: 2048
>>>>>Begin Spectral Data<<<<<
223.165	-17.69
223.4	-17.69
223.635	-17.69
223.869	-11.69
224.104	-12.69
224.338	-17.69
224.573	-16.69
224.808	-21.69
225.042	2.31
225.277	-3.69
225.511	-1.69
225.746	10.31
225.98	6.31
226.215	26.31
226.449	6.31
226.683	18.31
226.918	10.31
227.152	23.31
227.387	27.31
227.621	43.31
227.856	39.31
228.09	41.31
228.324	60.31
228.559	39.31
228.793	57.31
229.027	68.31
229.262	75.31
229.496	79.31
229.73	63.31
229.964	81.31
230.199	70.31
230.433	84.31
230.667	79.31
230.901	79.31
231.136	72.31
231.37	85.31
231.604	71.31
231.838	72.31
232.072	75.31
232.306	85.31
232.541	81.31
232.775	80.31
233.009	81.31
233.243	84.31
233.477	79.31
233.711	92.31
233.945	90.31
234.179	78.31
234.413	87.31
234.647	77.31
234.881	84.31
235.115	79.31
235.349	73.31
235.583	80.31
235.817	81.31
236.051	80.31
236.285	89.31
236.519	88.31
236.753	88.31
236.987	86.31
237.221	63.31
237.455	76.31
237.689	74.31
237.922	75.31
238.156	72.31
238.39	70.31
238.624	68.31
238.858	92.31
239.091	59.31
239.325	75.31
239.559	83.31
239.793	77.31
240.027	85.31
240.26	76.31
240.494	70.31
240.728	66.31
240.961	86.31
241.195	81.31
241.429	71.31
241.662	87.31
241.896	75.31
242.13	82.31
242.363	81.31
242.597	67.31
242.83	80.31
243.064	62.31
243.298	88.31
243.531	67.31
243.765	76.31
243.998	95.31
244.232	75.31
244.465	84.31
244.699	86.31
244.932	70.31
245.166	90.31
245.399	74.31
245.633	78.31
245.866	91.31
246.099	75.31
246.333	77.31
246.566	71.31
246.8	76.31
247.033	86.31
247.266	76.31
247.5	77.31
247.733	73.31
247.966	80.31
248.2	75.31
248.433	70.31
248.666	73.31
248.899	100.31
249.133	85.31
249.366	104.31
249.599	90.31
249.832	86.31
250.066	85.31
250.299	79.31
250.532	76.31
250.765	84.31
250.998	76.31
251.231	90.31
251.465	83.31
251.698	94.31
251.931	76.31
252.164	69.31
252.397	68.31
252.63	78.31
252.863	79.31
253.096	77.31
253.329	79.31
253.562	80.31
253.795	80.31
254.028	79.31
254.261	73.31
254.494	80.31
254.727	94.31
254.96	79.31
255.193	87.31
255.426	75.31
255.659	75.31
255.892	80.31
256.124	77.31
256.357	86.31
256.59	83.31
256.823	72.31
257.056	86.31
257.289	79.31
257.521	87.31
257.754	89.31
257.987	82.31
258.22	81.31
258.452	83.31
258.685	78.31
258.918	77.31
259.151	79.31
259.383	98.31
259.616	73.31
259.849	77.31
260.081	90.31
260.314	78.31
260.547	72.31
260.779	79.31
261.012	75.31
261.244	86.31
261.477	86.31
261.71	85.31
261.942	101.31
262.175	135.31
262.407	89.31
262.64	67.31
262.872	82.31
263.105	92.31
263.337	76.31
263.57	79.31
263.802	85.31
264.035	90.31
264.267	83.31
264.499	76.31
264.732	87.31
264.964	78.31
265.197	84.31
265.429	83.31
265.661	97.31
265.894	107.31
266.126	88.31
266.358	85.31
266.591	84.31
266.823	90.31
267.055	85.31
267.287	89.31
267.52	88.31
267.752	80.31
267.984	87.31
268.216	83.31
268.448	88.31
268.681	71.31
268.913	87.31
269.145	78.31
269.377	90.31
269.609	78.31
269.841	91.31
270.073	96.31
270.306	71.31
270.538	78.31
270.77	81.31
271.002	85.31
271.234	88.31
271.466	85.31
271.698	88.31
271.93	80.31
272.162	80.31
272.394	85.31
272.626	92.31
272.858	78.31
273.09	83.31
273.322	71.31
273.553	63.31
273.785	87.31
274.017	78.31
274.249	84.31
274.481	79.31
274.713	76.31
274.945	89.31
275.176	78.31
275.408	72.31
275.64	77.31
275.872	83.31
276.104	83.31
276.335	98.31
276.567	104.31
276.799	97.31
277.031	103.31
277.262	101.31
277.494	83.31
277.726	79.31
277.957	65.31
278.189	69.31
278.421	95.31
278.652	87.31
278.884	77.31
279.115	86.31
279.347	77.31
279.579	85.31
279.81	92.31
280.042	92.31
280.273	84.31
280.505	93.31
280.736	82.31
280.968	94.31
281.199	79.31
281.431	95.31
281.662	114.31
281.894	93.31
282.125	100.31
282.356	133.31
282.588	159.31
282.819	139.31
283.051	105.31
283.282	93.31
283.513	82.31
283.745	108.31
283.976	95.31
284.207	82.31
284.439	83.31
284.67	92.31
284.901	92.31
285.132	85.31
285.364	78.31
285.595	80.31
285.826	94.31
286.057	98.31
286.288	81.31
286.52	98.31
286.751	93.31
286.982	88.31
287.213	86.31
287.444	84.31
287.675	88.31
287.906	82.31
288.138	84.31
288.369	101.31
288.6	88.31
288.831	95.31
289.062	94.31
289.293	93.31
289.524	81.31
289.755	99.31
289.986	85.31
290.217	99.31
290.448	84.31
290.679	89.31
290.91	80.31
291.141	87.31
291.371	93.31
291.602	87.31
291.833	85.31
292.064	98.31
292.295	83.31
292.526	79.31
292.757	86.31
292.987	93.31
293.218	102.31
293.449	92.31
293.68	92.31
293.91	99.31
294.141	101.31
294.372	82.31
294.603	87.31
294.833	96.31
295.064	103.31
295.295	90.31
295.525	107.31
295.756	101.31
295.987	124.31
296.217	145.31
296.448	143.31
296.679	100.31
296.909	88.31
297.14	89.31
297.37	89.31
297.601	80.31
297.831	92.31
298.062	87.31
298.292	94.31
298.523	97.31
298.753	84.31
298.984	78.31
299.214	94.31
299.445	86.31
299.675	102.31
299.905	90.31
300.136	94.31
300.366	95.31
300.597	85.31
300.827	91.31
301.057	104.31
301.288	100.31
301.518	102.31
301.748	108.31
301.979	102.31
302.209	86.31
302.439	93.31
302.669	98.31
302.9	98.31
303.13	81.31
303.36	89.31
303.59	109.31
303.82	115.31
304.051	105.31
304.281	95.31
304.511	94.31
304.741	81.31
304.971	96.31
305.201	93.31
305.431	91.31
305.661	98.31
305.891	89.31
306.121	98.31
306.352	103.31
306.582	110.31
306.812	109.31
307.042	86.31
307.272	82.31
307.502	86.31
307.731	87.31
307.961	89.31
308.191	99.31
308.421	87.31
308.651	101.31
308.881	110.31
309.111	99.31
309.341	91.31
309.571	103.31
309.8	110.31
310.03	97.31
310.26	91.31
310.49	95.31
310.72	112.31
310.949	112.31
311.179	116.31
311.409	110.31
311.639	100.31
311.868	93.31
312.098	93.31
312.328	102.31
312.557	119.31
312.787	129.31
313.017	112.31
313.246	95.31
313.476	94.31
313.706	100.31
313.935	106.31
314.165	96.31
314.394	100.31
314.624	104.31
314.853	102.31
315.083	87.31
315.312	101.31
315.542	107.31
315.771	105.31
316.001	97.31
316.23	91.31
316.46	101.31
316.689	88.31
316.919	108.31
317.148	90.31
317.377	85.31
317.607	94.31
317.836	106.31
318.065	92.31
318.295	88.31
318.524	96.31
318.753	87.31
318.983	97.31
319.212	111.31
319.441	111.31
319.67	97.31
319.9	90.31
320.129	94.31
320.358	101.31
320.587	99.31
320.816	102.31
321.046	105.31
321.275	87.31
321.504	87.31
321.733	94.31
321.962	113.31
322.191	102.31
322.42	110.31
322.649	115.31
322.878	125.31
323.108	111.31
323.337	133.31
323.566	147.31
323.795	167.31
324.024	253.31
324.253	460.31
324.482	1017.31
324.71	2124.31
324.939	2806.31
325.168	1027.31
325.397	292.31
325.626	150.31
325.855	144.31
326.084	136.31
326.313	149.31
326.542	183.31
326.77	256.31
326.999	556.31
327.228	1120.31
327.457	2102.31
327.686	1681.31
327.914	421.31
328.143	232.31
328.372	167.31
328.6	149.31
328.829	132.31
329.058	146.31
329.287	139.31
329.515	115.31
329.744	107.31
329.972	113.31
330.201	128.31
330.43	125.31
330.658	139.31
330.887	168.31
331.115	145.31
331.344	96.31
331.572	107.31
331.801	117.31
332.03	113.31
332.258	98.31
332.486	80.31
332.715	94.31
332.943	94.31
333.172	101.31
333.4	99.31
333.629	108.31
333.857	120.31
334.085	121.31
334.314	110.31
334.542	127.31
334.771	125.31
334.999	103.31
335.227	110.31
335.455	101.31
335.684	96.31
335.912	99.31
336.14	108.31
336.369	101.31
336.597	110.31
336.825	95.31
337.053	86.31
337.281	101.31
337.51	102.31
337.738	87.31
337.966	90.31
338.194	119.31
338.422	96.31
338.65	106.31
338.878	98.31
339.106	89.31
339.334	102.31
339.562	93.31
339.79	89.31
340.018	105.31
340.246	103.31
340.474	97.31
340.702	83.31
340.93	100.31
341.158	91.31
341.386	92.31
341.614	104.31
341.842	87.31
342.07	107.31
342.298	98.31
342.526	75.31
342.754	99.31
342.981	91.31
343.209	94.31
343.437	106.31
343.665	89.31
343.893	97.31
344.12	89.31
344.348	92.31
344.576	92.31
344.804	99.31
345.031	101.31
345.259	93.31
345.487	109.31
345.714	95.31
345.942	104.31
346.17	92.31
346.397	102.31
346.625	107.31
346.853	98.31
347.08	84.31
347.308	87.31
347.535	111.31
347.763	117.31
347.99	104.31
348.218	124.31
348.445	115.31
348.673	103.31
348.9	93.31
349.128	95.31
349.355	99.31
349.583	101.31
349.81	76.31
350.037	92.31
350.265	106.31
350.492	91.31
350.72	92.31
350.947	100.31
351.174	111.31
351.402	123.31
351.629	108.31
351.856	120.31
352.083	109.31
352.311	113.31
352.538	109.31
352.765	93.31
352.992	115.31
353.22	117.31
353.447	121.31
353.674	108.31
353.901	93.31
354.128	104.31
354.355	90.31
354.583	99.31
354.81	93.31
355.037	90.31
355.264	82.31
355.491	88.31
355.718	96.31
355.945	91.31
356.172	107.31
356.399	92.31
356.626	108.31
356.853	107.31
357.08	81.31
357.307	93.31
357.534	83.31
357.761	86.31
357.988	95.31
358.215	84.31
358.441	108.31
358.668	98.31
358.895	72.31
359.122	98.31
359.349	91.31
359.576	95.31
359.802	113.31
360.029	122.31
360.256	117.31
360.483	119.31
360.709	86.31
360.936	97.31
361.163	100.31
361.39	102.31
361.616	101.31
361.843	96.31
362.07	93.31
362.296	92.31
362.523	89.31
362.749	89.31
362.976	86.31
363.203	93.31
363.429	97.31
363.656	98.31
363.882	98.31
364.109	84.31
364.335	89.31
364.562	81.31
364.788	96.31
365.015	112.31
365.241	115.31
365.468	115.31
365.694	115.31
365.92	102.31
366.147	95.31
366.373	83.31
366.599	87.31
366.826	94.31
367.052	101.31
367.278	100.31
367.505	98.31
367.731	95.31
367.957	100.31
368.184	102.31
368.41	112.31
368.636	120.31
368.862	135.31
369.089	108.31
369.315	103.31
369.541	100.31
369.767	101.31
369.993	87.31
370.219	90.31
370.445	105.31
370.672	90.31
370.898	96.31
371.124	101.31
371.35	94.31
371.576	110.31
371.802	76.31
372.028	78.31
372.254	88.31
372.48	99.31
372.706	91.31
372.932	97.31
373.158	96.31
373.384	95.31
373.61	101.31
373.835	87.31
374.061	86.31
374.287	78.31
374.513	90.31
374.739	91.31
374.965	89.31
375.191	87.31
375.416	101.31
375.642	93.31
375.868	109.31
376.094	86.31
376.319	95.31
376.545	92.31
376.771	87.31
376.997	92.31
377.222	88.31
377.448	95.31
377.674	85.31
377.899	76.31
378.125	78.31
378.35	72.31
378.576	97.31
378.802	93.31
379.027	93.31
379.253	105.31
379.478	83.31
379.704	98.31
379.929	103.31
380.155	91.31
380.38	99.31
380.606	110.31
380.831	90.31
381.057	92.31
381.282	97.31
381.507	95.31
381.733	84.31
381.958	94.31
382.184	103.31
382.409	105.31
382.634	100.31
382.86	93.31
383.085	105.31
383.31	88.31
383.535	101.31
383.761	95.31
383.986	96.31
384.211	100.31
384.436	100.31
384.662	105.31
384.887	108.31
385.112	110.31
385.337	97.31
385.562	100.31
385.787	103.31
386.013	111.31
386.238	121.31
386.463	102.31
386.688	120.31
386.913	109.31
387.138	110.31
387.363	99.31
387.588	99.31
387.813	113.31
388.038	104.31
388.263	117.31
388.488	124.31
388.713	89.31
388.938	92.31
389.163	75.31
389.387	93.31
389.612	89.31
389.837	100.31
390.062	94.31
390.287	96.31
390.512	95.31
390.736	85.31
390.961	92.31
391.186	100.31
391.411	99.31
391.636	81.31
391.86	75.31
392.085	91.31
392.31	86.31
392.534	115.31
392.759	87.31
392.984	99.31
393.208	88.31
393.433	89.31
393.658	76.31
393.882	87.31
394.107	89.31
394.331	92.31
394.556	94.31
394.78	88.31
395.005	96.31
395.229	91.31
395.454	76.31
395.678	81.31
395.903	102.31
396.127	93.31
396.352	86.31
396.576	97.31
396.801	90.31
397.025	84.31
397.249	86.31
397.474	94.31
397.698	77.31
397.922	96.31
398.147	87.31
398.371	87.31
398.595	81.31
398.82	87.31
399.044	86.31
399.268	100.31
399.492	95.31
399.717	95.31
399.941	92.31
400.165	97.31
400.389	85.31
400.613	85.31
400.837	84.31
401.062	91.31
401.286	85.31
401.51	88.31
401.734	97.31
401.958	111.31
402.182	145.31
402.406	189.31
402.63	127.31
402.854	103.31
403.078	92.31
403.302	94.31
403.526	98.31
403.75	88.31
403.974	91.31
404.198	76.31
404.422	89.31
404.645	105.31
404.869	84.31
405.093	99.31
405.317	100.31
405.541	93.31
405.765	91.31
405.988	122.31
406.212	192.31
406.436	287.31
406.66	180.31
406.883	103.31
407.107	80.31
407.331	96.31
407.555	106.31
407.778	106.31
408.002	91.31
408.226	89.31
408.449	78.31
408.673	93.31
408.896	78.31
409.12	93.31
409.344	82.31
409.567	94.31
409.791	81.31
410.014	87.31
410.238	85.31
410.461	101.31
410.685	75.31
410.908	87.31
411.132	110.31
411.355	104.31
411.578	97.31
411.802	99.31
412.025	103.31
412.249	90.31
412.472	110.31
412.695	99.31
412.919	89.31
413.142	99.31
413.365	86.31
413.589	79.31
413.812	78.31
414.035	94.31
414.258	98.31
414.482	81.31
414.705	91.31
414.928	97.31
415.151	88.31
415.374	96.31
415.597	95.31
415.821	81.31
416.044	93.31
416.267	94.31
416.49	81.31
416.713	89.31
416.936	97.31
417.159	101.31
417.382	101.31
417.605	102.31
417.828	94.31
418.051	109.31
418.274	102.31
418.497	86.31
418.72	97.31
418.943	99.31
419.166	102.31
419.389	99.31
419.611	77.31
419.834	96.31
420.057	90.31
420.28	87.31
420.503	90.31
420.726	107.31
420.948	86.31
421.171	112.31
421.394	92.31
421.617	85.31
421.839	79.31
422.062	90.31
422.285	101.31
422.507	100.31
422.73	110.31
422.953	103.31
423.175	89.31
423.398	99.31
423.621	91.31
423.843	92.31
424.066	89.31
424.288	88.31
424.511	101.31
424.733	111.31
424.956	104.31
425.178	106.31
425.401	108.31
425.623	100.31
425.846	86.31
426.068	103.31
426.291	105.31
426.513	103.31
426.735	94.31
426.958	97.31
427.18	110.31
427.402	157.31
427.625	204.31
427.847	149.31
428.069	121.31
428.292	94.31
428.514	96.31
428.736	93.31
428.958	98.31
429.181	86.31
429.403	88.31
429.625	88.31
429.847	90.31
430.069	100.31
430.292	107.31
430.514	79.31
430.736	86.31
430.958	94.31
431.18	83.31
431.402	87.31
431.624	89.31
431.846	92.31
432.068	83.31
432.29	101.31
432.512	79.31
432.734	89.31
432.956	90.31
433.178	99.31
433.4	116.31
433.622	100.31
433.844	92.31
434.066	88.31
434.287	86.31
434.509	96.31
434.731	89.31
434.953	81.31
435.175	79.31
435.397	87.31
435.618	99.31
435.84	108.31
436.062	137.31
436.284	108.31
436.505	110.31
436.727	93.31
436.949	95.31
437.17	94.31
437.392	94.31
437.614	100.31
437.835	111.31
438.057	125.31
438.278	117.31
438.5	100.31
438.721	133.31
438.943	105.31
439.165	102.31
439.386	94.31
439.608	101.31
439.829	101.31
440.05	133.31
440.272	159.31
440.493	108.31
440.715	77.31
440.936	92.31
441.158	89.31
441.379	91.31
441.6	99.31
441.822	92.31
442.043	77.31
442.264	101.31
442.486	111.31
442.707	118.31
442.928	112.31
443.149	140.31
443.371	160.31
443.592	139.31
443.813	115.31
444.034	105.31
444.255	95.31
444.476	70.31
444.698	87.31
444.919	82.31
445.14	117.31
445.361	137.31
445.582	127.31
445.803	153.31
446.024	156.31
446.245	139.31
446.466	116.31
446.687	91.31
446.908	99.31
447.129	91.31
447.35	93.31
447.571	105.31
447.792	99.31
448.013	102.31
448.234	119.31
448.455	109.31
448.675	121.31
448.896	123.31
449.117	112.31
449.338	96.31
449.559	115.31
449.779	156.31
450	99.31
450.221	93.31
450.442	72.31
450.662	101.31
450.883	113.31
451.104	120.31
451.324	97.31
451.545	88.31
451.766	87.31
451.986	84.31
452.207	85.31
452.428	83.31
452.648	100.31
452.869	135.31
453.089	136.31
453.31	137.31
453.53	106.31
453.751	94.31
453.971	109.31
454.192	105.31
454.412	81.31
454.633	90.31
454.853	82.31
455.073	85.31
455.294	85.31
455.514	92.31
455.734	86.31
455.955	79.31
456.175	81.31
456.395	83.31
456.616	82.31
456.836	112.31
457.056	100.31
457.276	91.31
457.497	102.31
457.717	110.31
457.937	85.31
458.157	87.31
458.377	97.31
458.598	107.31
458.818	172.31
459.038	199.31
459.258	135.31
459.478	84.31
459.698	88.31
459.918	75.31
460.138	80.31
460.358	81.31
460.578	96.31
460.798	95.31
461.018	86.31
461.238	84.31
461.458	93.31
461.678	94.31
461.898	78.31
462.118	85.31
462.338	86.31
462.558	82.31
462.777	83.31
462.997	76.31
463.217	92.31
463.437	86.31
463.657	96.31
463.876	83.31
464.096	94.31
464.316	99.31
464.536	102.31
464.755	102.31
464.975	118.31
465.195	200.31
465.414	204.31
465.634	109.31
465.854	82.31
466.073	81.31
466.293	91.31
466.512	90.31
466.732	96.31
466.951	81.31
467.171	81.31
467.391	89.31
467.61	106.31
467.829	110.31
468.049	100.31
468.268	105.31
468.488	92.31
468.707	78.31
468.927	81.31
469.146	98.31
469.365	89.31
469.585	95.31
469.804	96.31
470.023	101.31
470.243	102.31
470.462	102.31
470.681	124.31
470.901	89.31
471.12	82.31
471.339	89.31
471.558	91.31
471.777	99.31
471.997	73.31
472.216	93.31
472.435	123.31
472.654	91.31
472.873	89.31
473.092	88.31
473.311	67.31
473.53	89.31
473.749	85.31
473.968	107.31
474.187	107.31
474.406	112.31
474.625	96.31
474.844	90.31
475.063	89.31
475.282	93.31
475.501	85.31
475.72	100.31
475.939	80.31
476.158	86.31
476.377	81.31
476.596	90.31
476.814	81.31
477.033	81.31
477.252	81.31
477.471	76.31
477.69	87.31
477.908	89.31
478.127	95.31
478.346	102.31
478.564	96.31
478.783	87.31
479.002	92.31
479.22	90.31
479.439	102.31
479.658	94.31
479.876	77.31
480.095	107.31
480.313	80.31
480.532	95.31
480.751	89.31
480.969	118.31
481.188	159.31
481.406	142.31
481.624	93.31
481.843	92.31
482.061	93.31
482.28	101.31
482.498	102.31
482.717	89.31
482.935	84.31
483.153	73.31
483.372	92.31
483.59	104.31
483.808	88.31
484.027	90.31
484.245	82.31
484.463	101.31
484.681	105.31
484.9	110.31
485.118	96.31
485.336	93.31
485.554	101.31
485.772	90.31
485.99	100.31
486.209	99.31
486.427	108.31
486.645	101.31
486.863	111.31
487.081	113.31
487.299	103.31
487.517	93.31
487.735	95.31
487.953	87.31
488.171	80.31
488.389	101.31
488.607	98.31
488.825	93.31
489.043	81.31
489.261	87.31
489.479	89.31
489.696	90.31
489.914	94.31
490.132	81.31
490.35	87.31
490.568	86.31
490.786	89.31
491.003	95.31
491.221	91.31
491.439	79.31
491.657	98.31
491.874	82.31
492.092	92.31
492.31	81.31
492.527	80.31
492.745	93.31
492.963	91.31
493.18	88.31
493.398	83.31
493.615	103.31
493.833	90.31
494.05	91.31
494.268	84.31
494.485	90.31
494.703	85.31
494.92	90.31
495.138	89.31
495.355	88.31
495.573	94.31
495.79	89.31
496.008	94.31
496.225	96.31
496.442	98.31
496.66	87.31
496.877	91.31
497.094	100.31
497.312	88.31
497.529	89.31
497.746	79.31
497.963	84.31
498.181	93.31
498.398	105.31
498.615	118.31
498.832	109.31
499.049	105.31
499.267	101.31
499.484	78.31
499.701	84.31
499.918	81.31
500.135	78.31
500.352	102.31
500.569	99.31
500.786	96.31
501.003	97.31
501.22	92.31
501.437	98.31
501.654	84.31
501.871	119.31
502.088	87.31
502.305	97.31
502.522	107.31
502.739	90.31
502.956	87.31
503.172	108.31
503.389	107.31
503.606	114.31
503.823	102.31
504.04	99.31
504.256	87.31
504.473	90.31
504.69	93.31
504.907	84.31
505.123	113.31
505.34	100.31
505.557	85.31
505.773	100.31
505.99	75.31
506.207	104.31
506.423	92.31
506.64	84.31
506.856	85.31
507.073	87.31
507.289	85.31
507.506	107.31
507.722	106.31
507.939	104.31
508.155	103.31
508.372	92.31
508.588	88.31
508.805	101.31
509.021	110.31
509.238	112.31
509.454	107.31
509.67	93.31
509.887	123.31
510.103	149.31
510.319	238.31
510.536	916.31
510.752	3149.31
510.968	888.31
511.184	192.31
511.401	136.31
511.617	104.31
511.833	109.31
512.049	92.31
512.265	93.31
512.481	79.31
512.698	91.31
512.914	95.31
513.13	81.31
513.346	93.31
513.562	91.31
513.778	107.31
513.994	101.31
514.21	108.31
