Data from Circ_2012_H10_HRD10591_00095.txt Node
Date: Wed Jan 03 10:06:09 EST 2024
User: Yrep
Spectrometer: HR+D1059
Trigger mode: 1
Integration Time (sec): 1.000000E-1
Scans to average: 1
Electric dark correction enabled: true
Nonlinearity correction enabled: false
Boxcar width: 0
XAxis mode: Wavelengths
Number of Pixels in Spectrum: 2048
>>>>>Begin Spectral Data<<<<<
223.165	-12.56
223.4	-12.56
223.635	-12.56
223.869	-17.56
224.104	-28.56
224.338	-17.56
224.573	-14.56
224.808	-10.56
225.042	-10.56
225.277	-8.56
225.511	3.44
225.746	1.44
225.98	6.44
226.215	11.44
226.449	17.44
226.683	25.44
226.918	23.44
227.152	31.44
227.387	32.44
227.621	35.44
227.856	41.44
228.09	45.44
228.324	49.44
228.559	50.44
228.793	58.44
229.027	66.44
229.262	66.44
229.496	82.44
229.73	76.44
229.964	80.44
230.199	70.44
230.433	76.44
230.667	70.44
230.901	79.44
231.136	68.44
231.37	82.44
231.604	78.44
231.838	83.44
232.072	87.44
232.306	94.44
232.541	87.44
232.775	85.44
233.009	87.44
233.243	79.44
233.477	75.44
233.711	76.44
233.945	81.44
234.179	79.44
234.413	75.44
234.647	78.44
234.881	87.44
235.115	73.44
235.349	70.44
235.583	84.44
235.817	64.44
236.051	80.44
236.285	77.44
236.519	74.44
236.753	85.44
236.987	72.44
237.221	73.44
237.455	76.44
237.689	69.44
237.922	76.44
238.156	76.44
238.39	73.44
238.624	73.44
238.858	76.44
239.091	76.44
239.325	71.44
239.559	70.44
239.793	77.44
240.027	82.44
240.26	77.44
240.494	67.44
240.728	84.44
240.961	73.44
241.195	81.44
241.429	77.44
241.662	59.44
241.896	69.44
242.13	76.44
242.363	66.44
242.597	82.44
242.83	79.44
243.064	96.44
243.298	69.44
243.531	68.44
243.765	73.44
243.998	85.44
244.232	73.44
244.465	82.44
244.699	82.44
244.932	73.44
245.166	77.44
245.399	74.44
245.633	70.44
245.866	80.44
246.099	79.44
246.333	77.44
246.566	74.44
246.8	79.44
247.033	75.44
247.266	82.44
247.5	67.44
247.733	71.44
247.966	72.44
248.2	71.44
248.433	87.44
248.666	78.44
248.899	71.44
249.133	89.44
249.366	86.44
249.599	76.44
249.832	98.44
250.066	75.44
250.299	79.44
250.532	84.44
250.765	81.44
250.998	79.44
251.231	75.44
251.465	83.44
251.698	76.44
251.931	66.44
252.164	77.44
252.397	85.44
252.63	93.44
252.863	78.44
253.096	74.44
253.329	77.44
253.562	71.44
253.795	74.44
254.028	72.44
254.261	84.44
254.494	79.44
254.727	85.44
254.96	83.44
255.193	72.44
255.426	67.44
255.659	78.44
255.892	91.44
256.124	83.44
256.357	74.44
256.59	85.44
256.823	86.44
257.056	70.44
257.289	70.44
257.521	87.44
257.754	79.44
257.987	71.44
258.22	80.44
258.452	81.44
258.685	76.44
258.918	81.44
259.151	73.44
259.383	90.44
259.616	73.44
259.849	88.44
260.081	96.44
260.314	80.44
260.547	77.44
260.779	84.44
261.012	81.44
261.244	75.44
261.477	84.44
261.71	99.44
261.942	103.44
262.175	105.44
262.407	79.44
262.64	88.44
262.872	78.44
263.105	99.44
263.337	74.44
263.57	78.44
263.802	83.44
264.035	80.44
264.267	70.44
264.499	73.44
264.732	75.44
264.964	89.44
265.197	98.44
265.429	78.44
265.661	80.44
265.894	74.44
266.126	83.44
266.358	84.44
266.591	86.44
266.823	75.44
267.055	91.44
267.287	72.44
267.52	91.44
267.752	83.44
267.984	90.44
268.216	83.44
268.448	87.44
268.681	72.44
268.913	78.44
269.145	77.44
269.377	84.44
269.609	88.44
269.841	84.44
270.073	90.44
270.306	85.44
270.538	91.44
270.77	83.44
271.002	83.44
271.234	94.44
271.466	77.44
271.698	83.44
271.93	91.44
272.162	86.44
272.394	100.44
272.626	94.44
272.858	88.44
273.09	91.44
273.322	76.44
273.553	71.44
273.785	77.44
274.017	89.44
274.249	81.44
274.481	91.44
274.713	85.44
274.945	68.44
275.176	84.44
275.408	80.44
275.64	83.44
275.872	77.44
276.104	91.44
276.335	79.44
276.567	78.44
276.799	110.44
277.031	90.44
277.262	82.44
277.494	87.44
277.726	92.44
277.957	95.44
278.189	75.44
278.421	79.44
278.652	78.44
278.884	77.44
279.115	80.44
279.347	85.44
279.579	89.44
279.81	83.44
280.042	100.44
280.273	101.44
280.505	93.44
280.736	90.44
280.968	90.44
281.199	89.44
281.431	96.44
281.662	80.44
281.894	86.44
282.125	93.44
282.356	114.44
282.588	143.44
282.819	119.44
283.051	88.44
283.282	74.44
283.513	81.44
283.745	101.44
283.976	89.44
284.207	91.44
284.439	86.44
284.67	98.44
284.901	88.44
285.132	89.44
285.364	86.44
285.595	88.44
285.826	74.44
286.057	85.44
286.288	90.44
286.52	91.44
286.751	82.44
286.982	86.44
287.213	86.44
287.444	89.44
287.675	81.44
287.906	87.44
288.138	90.44
288.369	87.44
288.6	92.44
288.831	90.44
289.062	86.44
289.293	75.44
289.524	70.44
289.755	80.44
289.986	102.44
290.217	91.44
290.448	79.44
290.679	95.44
290.91	93.44
291.141	73.44
291.371	93.44
291.602	85.44
291.833	82.44
292.064	82.44
292.295	92.44
292.526	87.44
292.757	82.44
292.987	83.44
293.218	83.44
293.449	92.44
293.68	91.44
293.91	91.44
294.141	92.44
294.372	81.44
294.603	89.44
294.833	88.44
295.064	91.44
295.295	84.44
295.525	77.44
295.756	100.44
295.987	123.44
296.217	121.44
296.448	124.44
296.679	109.44
296.909	84.44
297.14	95.44
297.37	83.44
297.601	92.44
297.831	86.44
298.062	105.44
298.292	90.44
298.523	95.44
298.753	81.44
298.984	76.44
299.214	96.44
299.445	85.44
299.675	75.44
299.905	87.44
300.136	83.44
300.366	83.44
300.597	93.44
300.827	79.44
301.057	99.44
301.288	105.44
301.518	94.44
301.748	90.44
301.979	104.44
302.209	92.44
302.439	72.44
302.669	84.44
302.9	72.44
303.13	79.44
303.36	88.44
303.59	89.44
303.82	86.44
304.051	95.44
304.281	78.44
304.511	82.44
304.741	98.44
304.971	95.44
305.201	94.44
305.431	98.44
305.661	98.44
305.891	105.44
306.121	82.44
306.352	89.44
306.582	104.44
306.812	105.44
307.042	82.44
307.272	97.44
307.502	94.44
307.731	84.44
307.961	90.44
308.191	95.44
308.421	102.44
308.651	102.44
308.881	88.44
309.111	83.44
309.341	84.44
309.571	92.44
309.8	98.44
310.03	104.44
310.26	89.44
310.49	99.44
310.72	101.44
310.949	93.44
311.179	94.44
311.409	87.44
311.639	89.44
311.868	94.44
312.098	87.44
312.328	95.44
312.557	101.44
312.787	94.44
313.017	92.44
313.246	100.44
313.476	77.44
313.706	85.44
313.935	91.44
314.165	97.44
314.394	93.44
314.624	117.44
314.853	84.44
315.083	92.44
315.312	88.44
315.542	90.44
315.771	92.44
316.001	99.44
316.23	91.44
316.46	91.44
316.689	88.44
316.919	93.44
317.148	84.44
317.377	86.44
317.607	97.44
317.836	75.44
318.065	89.44
318.295	97.44
318.524	86.44
318.753	91.44
318.983	95.44
319.212	86.44
319.441	107.44
319.67	102.44
319.9	94.44
320.129	101.44
320.358	85.44
320.587	104.44
320.816	80.44
321.046	106.44
321.275	97.44
321.504	85.44
321.733	82.44
321.962	85.44
322.191	102.44
322.42	105.44
322.649	116.44
322.878	103.44
323.108	109.44
323.337	122.44
323.566	118.44
323.795	151.44
324.024	221.44
324.253	396.44
324.482	827.44
324.71	1694.44
324.939	2161.44
325.168	803.44
325.397	247.44
325.626	157.44
325.855	133.44
326.084	132.44
326.313	129.44
326.542	143.44
326.77	231.44
326.999	458.44
327.228	955.44
327.457	1709.44
327.686	1353.44
327.914	356.44
328.143	203.44
328.372	168.44
328.6	118.44
328.829	109.44
329.058	127.44
329.287	119.44
329.515	113.44
329.744	119.44
329.972	114.44
330.201	150.44
330.43	171.44
330.658	144.44
330.887	135.44
331.115	124.44
331.344	107.44
331.572	105.44
331.801	102.44
332.03	102.44
332.258	104.44
332.486	103.44
332.715	82.44
332.943	87.44
333.172	95.44
333.4	97.44
333.629	101.44
333.857	128.44
334.085	121.44
334.314	141.44
334.542	190.44
334.771	185.44
334.999	105.44
335.227	107.44
335.455	90.44
335.684	90.44
335.912	100.44
336.14	99.44
336.369	87.44
336.597	92.44
336.825	78.44
337.053	83.44
337.281	91.44
337.51	86.44
337.738	97.44
337.966	101.44
338.194	93.44
338.422	94.44
338.65	89.44
338.878	83.44
339.106	91.44
339.334	93.44
339.562	95.44
339.79	89.44
340.018	74.44
340.246	83.44
340.474	90.44
340.702	88.44
340.93	92.44
341.158	77.44
341.386	82.44
341.614	101.44
341.842	92.44
342.07	89.44
342.298	94.44
342.526	77.44
342.754	89.44
342.981	82.44
343.209	80.44
343.437	95.44
343.665	95.44
343.893	77.44
344.12	87.44
344.348	95.44
344.576	98.44
344.804	84.44
345.031	99.44
345.259	87.44
345.487	83.44
345.714	100.44
345.942	82.44
346.17	79.44
346.397	93.44
346.625	85.44
346.853	97.44
347.08	78.44
347.308	91.44
347.535	94.44
347.763	95.44
347.99	90.44
348.218	77.44
348.445	99.44
348.673	78.44
348.9	85.44
349.128	98.44
349.355	97.44
349.583	83.44
349.81	96.44
350.037	83.44
350.265	88.44
350.492	96.44
350.72	99.44
350.947	93.44
351.174	95.44
351.402	109.44
351.629	100.44
351.856	100.44
352.083	87.44
352.311	89.44
352.538	96.44
352.765	96.44
352.992	104.44
353.22	118.44
353.447	108.44
353.674	82.44
353.901	101.44
354.128	87.44
354.355	98.44
354.583	99.44
354.81	91.44
355.037	94.44
355.264	86.44
355.491	94.44
355.718	82.44
355.945	86.44
356.172	95.44
356.399	92.44
356.626	79.44
356.853	106.44
357.08	95.44
357.307	89.44
357.534	76.44
357.761	94.44
357.988	91.44
358.215	92.44
358.441	92.44
358.668	97.44
358.895	85.44
359.122	85.44
359.349	76.44
359.576	103.44
359.802	83.44
360.029	90.44
360.256	98.44
360.483	100.44
360.709	87.44
360.936	107.44
361.163	92.44
361.39	95.44
361.616	92.44
361.843	91.44
362.07	91.44
362.296	99.44
362.523	92.44
362.749	98.44
362.976	94.44
363.203	102.44
363.429	89.44
363.656	88.44
363.882	87.44
364.109	93.44
364.335	93.44
364.562	82.44
364.788	93.44
365.015	91.44
365.241	84.44
365.468	102.44
365.694	98.44
365.92	95.44
366.147	84.44
366.373	93.44
366.599	98.44
366.826	77.44
367.052	78.44
367.278	80.44
367.505	86.44
367.731	69.44
367.957	87.44
368.184	81.44
368.41	74.44
368.636	97.44
368.862	114.44
369.089	105.44
369.315	105.44
369.541	86.44
369.767	109.44
369.993	97.44
370.219	91.44
370.445	86.44
370.672	71.44
370.898	82.44
371.124	99.44
371.35	83.44
371.576	70.44
371.802	90.44
372.028	95.44
372.254	86.44
372.48	95.44
372.706	84.44
372.932	90.44
373.158	88.44
373.384	92.44
373.61	88.44
373.835	86.44
374.061	75.44
374.287	93.44
374.513	87.44
374.739	91.44
374.965	84.44
375.191	71.44
375.416	82.44
375.642	86.44
375.868	96.44
376.094	77.44
376.319	91.44
376.545	84.44
376.771	96.44
376.997	91.44
377.222	85.44
377.448	69.44
377.674	86.44
377.899	87.44
378.125	85.44
378.35	89.44
378.576	93.44
378.802	92.44
379.027	98.44
379.253	98.44
379.478	100.44
379.704	95.44
379.929	94.44
380.155	84.44
380.38	93.44
380.606	96.44
380.831	100.44
381.057	91.44
381.282	104.44
381.507	98.44
381.733	92.44
381.958	97.44
382.184	92.44
382.409	95.44
382.634	108.44
382.86	89.44
383.085	96.44
383.31	105.44
383.535	104.44
383.761	97.44
383.986	100.44
384.211	95.44
384.436	86.44
384.662	107.44
384.887	98.44
385.112	102.44
385.337	109.44
385.562	107.44
385.787	91.44
386.013	105.44
386.238	116.44
386.463	110.44
386.688	105.44
386.913	91.44
387.138	100.44
387.363	99.44
387.588	110.44
387.813	90.44
388.038	97.44
388.263	118.44
388.488	103.44
388.713	98.44
388.938	105.44
389.163	96.44
389.387	94.44
389.612	106.44
389.837	84.44
390.062	83.44
390.287	84.44
390.512	90.44
390.736	85.44
390.961	93.44
391.186	72.44
391.411	91.44
391.636	83.44
391.86	83.44
392.085	85.44
392.31	76.44
392.534	77.44
392.759	85.44
392.984	79.44
393.208	88.44
393.433	93.44
393.658	83.44
393.882	92.44
394.107	87.44
394.331	77.44
394.556	82.44
394.78	87.44
395.005	92.44
395.229	95.44
395.454	96.44
395.678	95.44
395.903	102.44
396.127	86.44
396.352	94.44
396.576	84.44
396.801	76.44
397.025	82.44
397.249	89.44
397.474	79.44
397.698	76.44
397.922	96.44
398.147	85.44
398.371	84.44
398.595	94.44
398.82	80.44
399.044	74.44
399.268	78.44
399.492	88.44
399.717	83.44
399.941	82.44
400.165	82.44
400.389	92.44
400.613	110.44
400.837	89.44
401.062	93.44
401.286	89.44
401.51	98.44
401.734	80.44
401.958	93.44
402.182	115.44
402.406	154.44
402.63	110.44
402.854	101.44
403.078	86.44
403.302	84.44
403.526	87.44
403.75	84.44
403.974	82.44
404.198	85.44
404.422	83.44
404.645	78.44
404.869	77.44
405.093	97.44
405.317	93.44
405.541	99.44
405.765	104.44
405.988	110.44
406.212	153.44
406.436	220.44
406.66	146.44
406.883	97.44
407.107	94.44
407.331	86.44
407.555	97.44
407.778	93.44
408.002	94.44
408.226	91.44
408.449	92.44
408.673	87.44
408.896	99.44
409.12	89.44
409.344	87.44
409.567	97.44
409.791	87.44
410.014	92.44
410.238	94.44
410.461	79.44
410.685	98.44
410.908	89.44
411.132	132.44
411.355	99.44
411.578	81.44
411.802	81.44
412.025	85.44
412.249	102.44
412.472	81.44
412.695	79.44
412.919	86.44
413.142	78.44
413.365	85.44
413.589	90.44
413.812	85.44
414.035	94.44
414.258	99.44
414.482	87.44
414.705	91.44
414.928	92.44
415.151	83.44
415.374	101.44
415.597	92.44
415.821	85.44
416.044	76.44
416.267	90.44
416.49	84.44
416.713	91.44
416.936	73.44
417.159	78.44
417.382	85.44
417.605	90.44
417.828	92.44
418.051	90.44
418.274	77.44
418.497	86.44
418.72	86.44
418.943	81.44
419.166	72.44
419.389	74.44
419.611	82.44
419.834	93.44
420.057	84.44
420.28	94.44
420.503	79.44
420.726	87.44
420.948	91.44
421.171	91.44
421.394	82.44
421.617	96.44
421.839	83.44
422.062	76.44
422.285	90.44
422.507	102.44
422.73	100.44
422.953	88.44
423.175	76.44
423.398	86.44
423.621	90.44
423.843	91.44
424.066	71.44
424.288	87.44
424.511	94.44
424.733	88.44
424.956	102.44
425.178	97.44
425.401	95.44
425.623	88.44
425.846	83.44
426.068	102.44
426.291	97.44
426.513	92.44
426.735	102.44
426.958	100.44
427.18	122.44
427.402	143.44
427.625	153.44
427.847	133.44
428.069	118.44
428.292	80.44
428.514	83.44
428.736	90.44
428.958	73.44
429.181	87.44
429.403	76.44
429.625	88.44
429.847	89.44
430.069	92.44
430.292	88.44
430.514	87.44
430.736	89.44
430.958	86.44
431.18	87.44
431.402	81.44
431.624	86.44
431.846	73.44
432.068	91.44
432.29	94.44
432.512	82.44
432.734	83.44
432.956	91.44
433.178	98.44
433.4	93.44
433.622	96.44
433.844	78.44
434.066	87.44
434.287	95.44
434.509	92.44
434.731	78.44
434.953	91.44
435.175	78.44
435.397	73.44
435.618	103.44
435.84	106.44
436.062	138.44
436.284	111.44
436.505	96.44
436.727	93.44
436.949	99.44
437.17	91.44
437.392	88.44
437.614	93.44
437.835	121.44
438.057	106.44
438.278	117.44
438.5	85.44
438.721	107.44
438.943	100.44
439.165	86.44
439.386	84.44
439.608	98.44
439.829	93.44
440.05	117.44
440.272	147.44
440.493	107.44
440.715	76.44
440.936	86.44
441.158	78.44
441.379	84.44
441.6	75.44
441.822	92.44
442.043	93.44
442.264	91.44
442.486	94.44
442.707	93.44
442.928	113.44
443.149	118.44
443.371	111.44
443.592	98.44
443.813	111.44
444.034	99.44
444.255	93.44
444.476	95.44
444.698	88.44
444.919	77.44
445.14	125.44
445.361	104.44
445.582	104.44
445.803	137.44
446.024	124.44
446.245	129.44
446.466	102.44
446.687	97.44
446.908	73.44
447.129	79.44
447.35	86.44
447.571	91.44
447.792	88.44
448.013	98.44
448.234	102.44
448.455	101.44
448.675	108.44
448.896	106.44
449.117	88.44
449.338	104.44
449.559	135.44
449.779	124.44
450	85.44
450.221	90.44
450.442	84.44
450.662	91.44
450.883	91.44
451.104	104.44
451.324	105.44
451.545	80.44
451.766	100.44
451.986	71.44
452.207	81.44
452.428	81.44
452.648	102.44
452.869	105.44
453.089	99.44
453.31	116.44
453.53	80.44
453.751	82.44
453.971	97.44
454.192	97.44
454.412	78.44
454.633	78.44
454.853	91.44
455.073	82.44
455.294	92.44
455.514	80.44
455.734	98.44
455.955	81.44
456.175	67.44
456.395	70.44
456.616	81.44
456.836	73.44
457.056	83.44
457.276	87.44
457.497	87.44
457.717	94.44
457.937	78.44
458.157	81.44
458.377	87.44
458.598	107.44
458.818	140.44
459.038	158.44
459.258	121.44
459.478	76.44
459.698	70.44
459.918	74.44
460.138	99.44
460.358	79.44
460.578	72.44
460.798	93.44
461.018	100.44
461.238	93.44
461.458	92.44
461.678	75.44
461.898	96.44
462.118	93.44
462.338	69.44
462.558	58.44
462.777	84.44
462.997	77.44
463.217	81.44
463.437	83.44
463.657	86.44
463.876	77.44
464.096	77.44
464.316	68.44
464.536	82.44
464.755	107.44
464.975	95.44
465.195	149.44
465.414	154.44
465.634	90.44
465.854	86.44
466.073	78.44
466.293	86.44
466.512	79.44
466.732	86.44
466.951	74.44
467.171	77.44
467.391	75.44
467.61	94.44
467.829	107.44
468.049	115.44
468.268	120.44
468.488	102.44
468.707	76.44
468.927	73.44
469.146	90.44
469.365	93.44
469.585	75.44
469.804	106.44
470.023	94.44
470.243	91.44
470.462	106.44
470.681	104.44
470.901	87.44
471.12	74.44
471.339	86.44
471.558	93.44
471.777	109.44
471.997	105.44
472.216	164.44
472.435	229.44
472.654	114.44
472.873	94.44
473.092	87.44
473.311	94.44
473.53	76.44
473.749	81.44
473.968	100.44
474.187	103.44
474.406	81.44
474.625	74.44
474.844	82.44
475.063	113.44
475.282	85.44
475.501	74.44
475.72	97.44
475.939	81.44
476.158	97.44
476.377	88.44
476.596	86.44
476.814	95.44
477.033	101.44
477.252	90.44
477.471	86.44
477.69	81.44
477.908	89.44
478.127	96.44
478.346	93.44
478.564	77.44
478.783	75.44
479.002	94.44
479.22	89.44
479.439	104.44
479.658	102.44
479.876	94.44
480.095	90.44
480.313	83.44
480.532	100.44
480.751	109.44
480.969	165.44
481.188	372.44
481.406	261.44
481.624	98.44
481.843	87.44
482.061	92.44
482.28	97.44
482.498	80.44
482.717	76.44
482.935	82.44
483.153	75.44
483.372	99.44
483.59	93.44
483.808	76.44
484.027	90.44
484.245	90.44
484.463	87.44
484.681	76.44
484.9	96.44
485.118	93.44
485.336	92.44
485.554	103.44
485.772	90.44
485.99	94.44
486.209	101.44
486.427	97.44
486.645	100.44
486.863	112.44
487.081	103.44
487.299	89.44
487.517	90.44
487.735	91.44
487.953	74.44
488.171	95.44
488.389	83.44
488.607	107.44
488.825	103.44
489.043	83.44
489.261	84.44
489.479	79.44
489.696	80.44
489.914	82.44
490.132	80.44
490.35	95.44
490.568	92.44
490.786	82.44
491.003	87.44
491.221	90.44
491.439	89.44
491.657	81.44
491.874	84.44
492.092	75.44
492.31	87.44
492.527	93.44
492.745	95.44
492.963	84.44
493.18	85.44
493.398	92.44
493.615	97.44
493.833	74.44
494.05	106.44
494.268	84.44
494.485	93.44
494.703	76.44
494.92	90.44
495.138	79.44
495.355	75.44
495.573	83.44
495.79	85.44
496.008	87.44
496.225	91.44
496.442	75.44
496.66	85.44
496.877	107.44
497.094	96.44
497.312	71.44
497.529	79.44
497.746	85.44
497.963	92.44
498.181	98.44
498.398	93.44
498.615	104.44
498.832	102.44
499.049	89.44
499.267	84.44
499.484	86.44
499.701	86.44
499.918	81.44
500.135	73.44
500.352	108.44
500.569	102.44
500.786	90.44
501.003	84.44
501.22	72.44
501.437	82.44
501.654	79.44
501.871	103.44
502.088	82.44
502.305	82.44
502.522	95.44
502.739	67.44
502.956	99.44
503.172	85.44
503.389	100.44
503.606	95.44
503.823	86.44
504.04	85.44
504.256	90.44
504.473	77.44
504.69	94.44
504.907	87.44
505.123	76.44
505.34	103.44
505.557	101.44
505.773	100.44
505.99	93.44
506.207	83.44
506.423	82.44
506.64	93.44
506.856	82.44
507.073	91.44
507.289	89.44
507.506	84.44
507.722	101.44
507.939	104.44
508.155	91.44
508.372	97.44
508.588	90.44
508.805	86.44
509.021	83.44
509.238	86.44
509.454	97.44
509.67	100.44
509.887	116.44
510.103	129.44
510.319	219.44
510.536	781.44
510.752	2453.44
510.968	710.44
511.184	164.44
511.401	102.44
511.617	104.44
511.833	99.44
512.049	85.44
512.265	98.44
512.481	86.44
512.698	87.44
512.914	93.44
513.13	100.44
513.346	83.44
513.562	97.44
513.778	86.44
513.994	104.44
514.21	108.44
514.426	113.44
514.642	128.44
514.858	129.44
515.074	160.44
515.29	449.44
515.506	1467.44
515.721	556.44
515.937	153.44
516.153	103.44
516.369	91.44
