Data from Circ_2012_H10_HRD10591_00028.txt Node
Date: Wed Jan 03 10:05:56 EST 2024
User: Yrep
Spectrometer: HR+D1059
Trigger mode: 1
Integration Time (sec): 1.000000E-1
Scans to average: 1
Electric dark correction enabled: true
Nonlinearity correction enabled: false
Boxcar width: 0
XAxis mode: Wavelengths
Number of Pixels in Spectrum: 2048
>>>>>Begin Spectral Data<<<<<
223.165	-15.12
223.4	-15.12
223.635	-15.12
223.869	-27.12
224.104	-15.12
224.338	-9.12
224.573	-23.12
224.808	-20.12
225.042	-7.12
225.277	-8.12
225.511	-5.12
225.746	16.88
225.98	14.88
226.215	14.88
226.449	14.88
226.683	21.88
226.918	21.88
227.152	24.88
227.387	37.88
227.621	42.88
227.856	57.88
228.09	55.88
228.324	35.88
228.559	59.88
228.793	54.88
229.027	64.88
229.262	76.88
229.496	69.88
229.73	78.88
229.964	96.88
230.199	82.88
230.433	79.88
230.667	94.88
230.901	69.88
231.136	90.88
231.37	84.88
231.604	87.88
231.838	80.88
232.072	63.88
232.306	73.88
232.541	79.88
232.775	80.88
233.009	89.88
233.243	83.88
233.477	77.88
233.711	92.88
233.945	66.88
234.179	72.88
234.413	86.88
234.647	86.88
234.881	85.88
235.115	69.88
235.349	89.88
235.583	84.88
235.817	72.88
236.051	93.88
236.285	81.88
236.519	83.88
236.753	72.88
236.987	66.88
237.221	97.88
237.455	86.88
237.689	79.88
237.922	80.88
238.156	87.88
238.39	53.88
238.624	72.88
238.858	76.88
239.091	91.88
239.325	79.88
239.559	78.88
239.793	83.88
240.027	78.88
240.26	76.88
240.494	76.88
240.728	88.88
240.961	75.88
241.195	79.88
241.429	80.88
241.662	78.88
241.896	66.88
242.13	79.88
242.363	75.88
242.597	74.88
242.83	74.88
243.064	72.88
243.298	95.88
243.531	83.88
243.765	76.88
243.998	94.88
244.232	76.88
244.465	86.88
244.699	83.88
244.932	90.88
245.166	71.88
245.399	83.88
245.633	83.88
245.866	75.88
246.099	71.88
246.333	83.88
246.566	76.88
246.8	74.88
247.033	73.88
247.266	83.88
247.5	72.88
247.733	85.88
247.966	77.88
248.2	75.88
248.433	83.88
248.666	84.88
248.899	87.88
249.133	77.88
249.366	93.88
249.599	96.88
249.832	67.88
250.066	83.88
250.299	79.88
250.532	83.88
250.765	86.88
250.998	88.88
251.231	86.88
251.465	80.88
251.698	73.88
251.931	74.88
252.164	70.88
252.397	84.88
252.63	77.88
252.863	81.88
253.096	93.88
253.329	71.88
253.562	77.88
253.795	79.88
254.028	80.88
254.261	80.88
254.494	84.88
254.727	79.88
254.96	84.88
255.193	86.88
255.426	87.88
255.659	84.88
255.892	82.88
256.124	86.88
256.357	74.88
256.59	85.88
256.823	91.88
257.056	65.88
257.289	77.88
257.521	71.88
257.754	88.88
257.987	90.88
258.22	83.88
258.452	79.88
258.685	77.88
258.918	90.88
259.151	78.88
259.383	77.88
259.616	95.88
259.849	76.88
260.081	72.88
260.314	82.88
260.547	88.88
260.779	86.88
261.012	79.88
261.244	90.88
261.477	102.88
261.71	107.88
261.942	108.88
262.175	117.88
262.407	78.88
262.64	88.88
262.872	79.88
263.105	80.88
263.337	90.88
263.57	89.88
263.802	88.88
264.035	91.88
264.267	63.88
264.499	86.88
264.732	95.88
264.964	90.88
265.197	86.88
265.429	78.88
265.661	76.88
265.894	84.88
266.126	74.88
266.358	87.88
266.591	92.88
266.823	72.88
267.055	86.88
267.287	92.88
267.52	91.88
267.752	93.88
267.984	83.88
268.216	83.88
268.448	93.88
268.681	78.88
268.913	85.88
269.145	97.88
269.377	86.88
269.609	98.88
269.841	91.88
270.073	92.88
270.306	83.88
270.538	72.88
270.77	78.88
271.002	92.88
271.234	97.88
271.466	87.88
271.698	88.88
271.93	87.88
272.162	73.88
272.394	97.88
272.626	101.88
272.858	88.88
273.09	103.88
273.322	85.88
273.553	97.88
273.785	84.88
274.017	71.88
274.249	79.88
274.481	88.88
274.713	79.88
274.945	83.88
275.176	91.88
275.408	84.88
275.64	87.88
275.872	70.88
276.104	86.88
276.335	88.88
276.567	91.88
276.799	98.88
277.031	91.88
277.262	91.88
277.494	95.88
277.726	90.88
277.957	76.88
278.189	70.88
278.421	92.88
278.652	89.88
278.884	90.88
279.115	93.88
279.347	82.88
279.579	97.88
279.81	76.88
280.042	97.88
280.273	85.88
280.505	86.88
280.736	87.88
280.968	86.88
281.199	86.88
281.431	84.88
281.662	93.88
281.894	95.88
282.125	97.88
282.356	118.88
282.588	153.88
282.819	114.88
283.051	98.88
283.282	68.88
283.513	95.88
283.745	92.88
283.976	78.88
284.207	91.88
284.439	86.88
284.67	89.88
284.901	100.88
285.132	77.88
285.364	87.88
285.595	92.88
285.826	98.88
286.057	90.88
286.288	84.88
286.52	91.88
286.751	77.88
286.982	95.88
287.213	94.88
287.444	97.88
287.675	99.88
287.906	90.88
288.138	90.88
288.369	95.88
288.6	109.88
288.831	83.88
289.062	76.88
289.293	94.88
289.524	93.88
289.755	79.88
289.986	81.88
290.217	92.88
290.448	101.88
290.679	87.88
290.91	94.88
291.141	86.88
291.371	75.88
291.602	80.88
291.833	99.88
292.064	98.88
292.295	90.88
292.526	85.88
292.757	93.88
292.987	91.88
293.218	91.88
293.449	82.88
293.68	93.88
293.91	86.88
294.141	84.88
294.372	90.88
294.603	87.88
294.833	93.88
295.064	97.88
295.295	89.88
295.525	83.88
295.756	96.88
295.987	97.88
296.217	151.88
296.448	132.88
296.679	83.88
296.909	99.88
297.14	87.88
297.37	92.88
297.601	96.88
297.831	100.88
298.062	86.88
298.292	94.88
298.523	94.88
298.753	94.88
298.984	99.88
299.214	96.88
299.445	100.88
299.675	92.88
299.905	90.88
300.136	90.88
300.366	80.88
300.597	87.88
300.827	102.88
301.057	104.88
301.288	108.88
301.518	108.88
301.748	89.88
301.979	98.88
302.209	79.88
302.439	93.88
302.669	78.88
302.9	103.88
303.13	90.88
303.36	103.88
303.59	102.88
303.82	97.88
304.051	85.88
304.281	83.88
304.511	103.88
304.741	101.88
304.971	100.88
305.201	93.88
305.431	86.88
305.661	83.88
305.891	92.88
306.121	90.88
306.352	101.88
306.582	98.88
306.812	98.88
307.042	91.88
307.272	100.88
307.502	104.88
307.731	107.88
307.961	72.88
308.191	86.88
308.421	89.88
308.651	91.88
308.881	101.88
309.111	95.88
309.341	102.88
309.571	90.88
309.8	76.88
310.03	109.88
310.26	78.88
310.49	104.88
310.72	93.88
310.949	98.88
311.179	86.88
311.409	85.88
311.639	102.88
311.868	104.88
312.098	89.88
312.328	102.88
312.557	110.88
312.787	96.88
313.017	112.88
313.246	91.88
313.476	95.88
313.706	90.88
313.935	87.88
314.165	102.88
314.394	101.88
314.624	115.88
314.853	96.88
315.083	99.88
315.312	83.88
315.542	91.88
315.771	99.88
316.001	92.88
316.23	94.88
316.46	95.88
316.689	93.88
316.919	103.88
317.148	102.88
317.377	89.88
317.607	96.88
317.836	86.88
318.065	77.88
318.295	79.88
318.524	89.88
318.753	102.88
318.983	111.88
319.212	102.88
319.441	99.88
319.67	101.88
319.9	89.88
320.129	95.88
320.358	92.88
320.587	99.88
320.816	86.88
321.046	89.88
321.275	87.88
321.504	83.88
321.733	102.88
321.962	112.88
322.191	101.88
322.42	110.88
322.649	108.88
322.878	134.88
323.108	122.88
323.337	117.88
323.566	126.88
323.795	146.88
324.024	200.88
324.253	452.88
324.482	913.88
324.71	1890.88
324.939	2554.88
325.168	952.88
325.397	266.88
325.626	176.88
325.855	130.88
326.084	135.88
326.313	143.88
326.542	157.88
326.77	245.88
326.999	523.88
327.228	1060.88
327.457	1891.88
327.686	1513.88
327.914	426.88
328.143	208.88
328.372	171.88
328.6	132.88
328.829	119.88
329.058	132.88
329.287	124.88
329.515	105.88
329.744	96.88
329.972	101.88
330.201	106.88
330.43	149.88
330.658	127.88
330.887	141.88
331.115	121.88
331.344	111.88
331.572	82.88
331.801	111.88
332.03	104.88
332.258	112.88
332.486	79.88
332.715	87.88
332.943	92.88
333.172	83.88
333.4	113.88
333.629	114.88
333.857	106.88
334.085	124.88
334.314	106.88
334.542	123.88
334.771	129.88
334.999	116.88
335.227	95.88
335.455	95.88
335.684	95.88
335.912	90.88
336.14	92.88
336.369	103.88
336.597	93.88
336.825	98.88
337.053	88.88
337.281	87.88
337.51	100.88
337.738	88.88
337.966	86.88
338.194	104.88
338.422	101.88
338.65	99.88
338.878	108.88
339.106	110.88
339.334	98.88
339.562	115.88
339.79	93.88
340.018	81.88
340.246	99.88
340.474	108.88
340.702	99.88
340.93	91.88
341.158	92.88
341.386	86.88
341.614	95.88
341.842	94.88
342.07	93.88
342.298	103.88
342.526	102.88
342.754	81.88
342.981	104.88
343.209	79.88
343.437	90.88
343.665	98.88
343.893	95.88
344.12	101.88
344.348	93.88
344.576	98.88
344.804	98.88
345.031	94.88
345.259	103.88
345.487	94.88
345.714	94.88
345.942	86.88
346.17	91.88
346.397	100.88
346.625	91.88
346.853	102.88
347.08	86.88
347.308	91.88
347.535	93.88
347.763	104.88
347.99	96.88
348.218	105.88
348.445	96.88
348.673	112.88
348.9	87.88
349.128	79.88
349.355	90.88
349.583	97.88
349.81	103.88
350.037	93.88
350.265	85.88
350.492	110.88
350.72	115.88
350.947	111.88
351.174	114.88
351.402	108.88
351.629	112.88
351.856	90.88
352.083	99.88
352.311	110.88
352.538	110.88
352.765	111.88
352.992	125.88
353.22	101.88
353.447	112.88
353.674	88.88
353.901	108.88
354.128	108.88
354.355	102.88
354.583	101.88
354.81	86.88
355.037	94.88
355.264	86.88
355.491	108.88
355.718	93.88
355.945	90.88
356.172	89.88
356.399	98.88
356.626	100.88
356.853	99.88
357.08	94.88
357.307	93.88
357.534	83.88
357.761	93.88
357.988	92.88
358.215	90.88
358.441	101.88
358.668	83.88
358.895	81.88
359.122	101.88
359.349	91.88
359.576	95.88
359.802	102.88
360.029	115.88
360.256	118.88
360.483	96.88
360.709	92.88
360.936	88.88
361.163	101.88
361.39	91.88
361.616	101.88
361.843	84.88
362.07	106.88
362.296	101.88
362.523	96.88
362.749	102.88
362.976	85.88
363.203	96.88
363.429	90.88
363.656	104.88
363.882	87.88
364.109	84.88
364.335	96.88
364.562	92.88
364.788	94.88
365.015	78.88
365.241	100.88
365.468	111.88
365.694	102.88
365.92	95.88
366.147	104.88
366.373	82.88
366.599	88.88
366.826	92.88
367.052	77.88
367.278	101.88
367.505	95.88
367.731	94.88
367.957	97.88
368.184	86.88
368.41	95.88
368.636	115.88
368.862	118.88
369.089	96.88
369.315	92.88
369.541	89.88
369.767	87.88
369.993	79.88
370.219	100.88
370.445	93.88
370.672	92.88
370.898	86.88
371.124	93.88
371.35	90.88
371.576	82.88
371.802	85.88
372.028	93.88
372.254	92.88
372.48	85.88
372.706	68.88
372.932	95.88
373.158	85.88
373.384	89.88
373.61	99.88
373.835	108.88
374.061	70.88
374.287	88.88
374.513	98.88
374.739	80.88
374.965	93.88
375.191	80.88
375.416	89.88
375.642	87.88
375.868	91.88
376.094	79.88
376.319	94.88
376.545	78.88
376.771	86.88
376.997	97.88
377.222	96.88
377.448	93.88
377.674	87.88
377.899	96.88
378.125	95.88
378.35	91.88
378.576	96.88
378.802	92.88
379.027	93.88
379.253	110.88
379.478	91.88
379.704	77.88
379.929	94.88
380.155	99.88
380.38	87.88
380.606	77.88
380.831	95.88
381.057	96.88
381.282	96.88
381.507	100.88
381.733	95.88
381.958	91.88
382.184	95.88
382.409	102.88
382.634	107.88
382.86	85.88
383.085	98.88
383.31	98.88
383.535	103.88
383.761	96.88
383.986	82.88
384.211	101.88
384.436	101.88
384.662	99.88
384.887	89.88
385.112	112.88
385.337	96.88
385.562	95.88
385.787	92.88
386.013	99.88
386.238	114.88
386.463	110.88
386.688	108.88
386.913	97.88
387.138	115.88
387.363	103.88
387.588	110.88
387.813	93.88
388.038	96.88
388.263	115.88
388.488	110.88
388.713	95.88
388.938	83.88
389.163	95.88
389.387	86.88
389.612	93.88
389.837	85.88
390.062	84.88
390.287	85.88
390.512	87.88
390.736	96.88
390.961	93.88
391.186	98.88
391.411	75.88
391.636	103.88
391.86	89.88
392.085	81.88
392.31	91.88
392.534	89.88
392.759	94.88
392.984	85.88
393.208	74.88
393.433	95.88
393.658	77.88
393.882	94.88
394.107	89.88
394.331	95.88
394.556	91.88
394.78	95.88
395.005	87.88
395.229	91.88
395.454	88.88
395.678	81.88
395.903	87.88
396.127	88.88
396.352	80.88
396.576	80.88
396.801	95.88
397.025	103.88
397.249	89.88
397.474	79.88
397.698	78.88
397.922	89.88
398.147	93.88
398.371	76.88
398.595	85.88
398.82	84.88
399.044	93.88
399.268	93.88
399.492	89.88
399.717	84.88
399.941	93.88
400.165	83.88
400.389	91.88
400.613	79.88
400.837	92.88
401.062	87.88
401.286	80.88
401.51	73.88
401.734	77.88
401.958	92.88
402.182	125.88
402.406	165.88
402.63	124.88
402.854	92.88
403.078	99.88
403.302	101.88
403.526	85.88
403.75	87.88
403.974	101.88
404.198	86.88
404.422	101.88
404.645	77.88
404.869	87.88
405.093	91.88
405.317	92.88
405.541	115.88
405.765	96.88
405.988	120.88
406.212	186.88
406.436	239.88
406.66	168.88
406.883	103.88
407.107	90.88
407.331	80.88
407.555	99.88
407.778	85.88
408.002	91.88
408.226	92.88
408.449	91.88
408.673	77.88
408.896	90.88
409.12	92.88
409.344	99.88
409.567	88.88
409.791	80.88
410.014	111.88
410.238	98.88
410.461	104.88
410.685	96.88
410.908	86.88
411.132	91.88
411.355	100.88
411.578	74.88
411.802	97.88
412.025	87.88
412.249	94.88
412.472	86.88
412.695	93.88
412.919	94.88
413.142	79.88
413.365	81.88
413.589	89.88
413.812	91.88
414.035	109.88
414.258	91.88
414.482	99.88
414.705	91.88
414.928	87.88
415.151	90.88
415.374	94.88
415.597	80.88
415.821	88.88
416.044	111.88
416.267	84.88
416.49	94.88
416.713	102.88
416.936	91.88
417.159	95.88
417.382	93.88
417.605	83.88
417.828	102.88
418.051	95.88
418.274	95.88
418.497	83.88
418.72	79.88
418.943	81.88
419.166	93.88
419.389	86.88
419.611	82.88
419.834	85.88
420.057	87.88
420.28	89.88
420.503	86.88
420.726	89.88
420.948	79.88
421.171	86.88
421.394	90.88
421.617	82.88
421.839	83.88
422.062	83.88
422.285	87.88
422.507	99.88
422.73	105.88
422.953	102.88
423.175	100.88
423.398	92.88
423.621	77.88
423.843	96.88
424.066	91.88
424.288	101.88
424.511	82.88
424.733	105.88
424.956	109.88
425.178	103.88
425.401	96.88
425.623	99.88
425.846	87.88
426.068	104.88
426.291	86.88
426.513	83.88
426.735	92.88
426.958	88.88
427.18	106.88
427.402	143.88
427.625	167.88
427.847	130.88
428.069	104.88
428.292	83.88
428.514	92.88
428.736	89.88
428.958	91.88
429.181	89.88
429.403	98.88
429.625	92.88
429.847	85.88
430.069	92.88
430.292	94.88
430.514	93.88
430.736	87.88
430.958	98.88
431.18	82.88
431.402	84.88
431.624	79.88
431.846	88.88
432.068	77.88
432.29	89.88
432.512	79.88
432.734	75.88
432.956	85.88
433.178	113.88
433.4	100.88
433.622	96.88
433.844	88.88
434.066	77.88
434.287	81.88
434.509	91.88
434.731	93.88
434.953	87.88
435.175	92.88
435.397	97.88
435.618	103.88
435.84	106.88
436.062	118.88
436.284	114.88
436.505	100.88
436.727	119.88
436.949	94.88
437.17	77.88
437.392	93.88
437.614	95.88
437.835	113.88
438.057	122.88
438.278	108.88
438.5	105.88
438.721	125.88
438.943	84.88
439.165	101.88
439.386	98.88
439.608	82.88
439.829	99.88
440.05	115.88
440.272	143.88
440.493	118.88
440.715	99.88
440.936	97.88
441.158	94.88
441.379	67.88
441.6	90.88
441.822	90.88
442.043	90.88
442.264	92.88
442.486	109.88
442.707	92.88
442.928	107.88
443.149	155.88
443.371	134.88
443.592	106.88
443.813	114.88
444.034	113.88
444.255	83.88
444.476	89.88
444.698	92.88
444.919	77.88
445.14	119.88
445.361	116.88
445.582	117.88
445.803	140.88
446.024	143.88
446.245	134.88
446.466	124.88
446.687	88.88
446.908	86.88
447.129	84.88
447.35	86.88
447.571	93.88
447.792	97.88
448.013	103.88
448.234	113.88
448.455	94.88
448.675	104.88
448.896	119.88
449.117	104.88
449.338	116.88
449.559	132.88
449.779	132.88
450	95.88
450.221	95.88
450.442	94.88
450.662	80.88
450.883	102.88
451.104	116.88
451.324	108.88
451.545	98.88
451.766	84.88
451.986	92.88
452.207	80.88
452.428	86.88
452.648	109.88
452.869	101.88
453.089	111.88
453.31	121.88
453.53	98.88
453.751	96.88
453.971	97.88
454.192	95.88
454.412	94.88
454.633	90.88
454.853	85.88
455.073	84.88
455.294	85.88
455.514	104.88
455.734	86.88
455.955	84.88
456.175	80.88
456.395	82.88
456.616	88.88
456.836	98.88
457.056	93.88
457.276	76.88
457.497	84.88
457.717	88.88
457.937	92.88
458.157	108.88
458.377	95.88
458.598	122.88
458.818	153.88
459.038	165.88
459.258	120.88
459.478	93.88
459.698	93.88
459.918	97.88
460.138	92.88
460.358	91.88
460.578	78.88
460.798	100.88
461.018	85.88
461.238	82.88
461.458	94.88
461.678	100.88
461.898	70.88
462.118	83.88
462.338	92.88
462.558	84.88
462.777	86.88
462.997	84.88
463.217	95.88
463.437	90.88
463.657	84.88
463.876	85.88
464.096	89.88
464.316	105.88
464.536	92.88
464.755	105.88
464.975	95.88
465.195	171.88
465.414	184.88
465.634	92.88
465.854	86.88
466.073	84.88
466.293	84.88
466.512	89.88
466.732	91.88
466.951	83.88
467.171	78.88
467.391	101.88
467.61	115.88
467.829	107.88
468.049	101.88
468.268	116.88
468.488	101.88
468.707	86.88
468.927	75.88
469.146	88.88
469.365	87.88
469.585	87.88
469.804	88.88
470.023	74.88
470.243	92.88
470.462	98.88
470.681	123.88
470.901	104.88
471.12	98.88
471.339	83.88
471.558	91.88
471.777	88.88
471.997	97.88
472.216	102.88
472.435	129.88
472.654	108.88
472.873	81.88
473.092	91.88
473.311	86.88
473.53	95.88
473.749	98.88
473.968	99.88
474.187	103.88
474.406	107.88
474.625	88.88
474.844	86.88
475.063	88.88
475.282	98.88
475.501	78.88
475.72	77.88
475.939	69.88
476.158	92.88
476.377	86.88
476.596	94.88
476.814	79.88
477.033	93.88
477.252	88.88
477.471	103.88
477.69	86.88
477.908	78.88
478.127	84.88
478.346	86.88
478.564	90.88
478.783	105.88
479.002	96.88
479.22	97.88
479.439	93.88
479.658	109.88
479.876	100.88
480.095	88.88
480.313	91.88
480.532	89.88
480.751	96.88
480.969	121.88
481.188	160.88
481.406	134.88
481.624	101.88
481.843	89.88
482.061	88.88
482.28	92.88
482.498	78.88
482.717	106.88
482.935	88.88
483.153	84.88
483.372	91.88
483.59	96.88
483.808	93.88
484.027	87.88
484.245	84.88
484.463	102.88
484.681	97.88
484.9	86.88
485.118	101.88
485.336	90.88
485.554	102.88
485.772	86.88
485.99	100.88
486.209	104.88
486.427	103.88
486.645	115.88
486.863	120.88
487.081	102.88
487.299	102.88
487.517	87.88
487.735	90.88
487.953	87.88
488.171	89.88
488.389	82.88
488.607	97.88
488.825	80.88
489.043	94.88
489.261	97.88
489.479	77.88
489.696	87.88
489.914	80.88
490.132	88.88
490.35	85.88
490.568	88.88
490.786	88.88
491.003	95.88
491.221	97.88
491.439	90.88
491.657	87.88
491.874	90.88
492.092	97.88
492.31	88.88
492.527	77.88
492.745	93.88
492.963	94.88
493.18	86.88
493.398	98.88
493.615	103.88
493.833	92.88
494.05	88.88
494.268	88.88
494.485	89.88
494.703	96.88
494.92	87.88
495.138	98.88
495.355	77.88
495.573	87.88
495.79	91.88
496.008	90.88
496.225	85.88
496.442	107.88
496.66	86.88
496.877	89.88
497.094	98.88
497.312	83.88
497.529	86.88
497.746	87.88
497.963	96.88
498.181	99.88
498.398	91.88
498.615	116.88
498.832	106.88
499.049	95.88
499.267	93.88
499.484	100.88
499.701	86.88
499.918	90.88
500.135	91.88
500.352	91.88
500.569	102.88
500.786	82.88
501.003	87.88
501.22	75.88
501.437	96.88
501.654	88.88
501.871	106.88
502.088	107.88
502.305	88.88
502.522	98.88
502.739	92.88
502.956	90.88
503.172	100.88
503.389	101.88
503.606	107.88
503.823	99.88
504.04	85.88
504.256	103.88
504.473	83.88
504.69	86.88
504.907	90.88
505.123	94.88
505.34	90.88
505.557	85.88
505.773	97.88
505.99	86.88
506.207	99.88
506.423	80.88
506.64	91.88
506.856	87.88
507.073	97.88
507.289	80.88
507.506	96.88
507.722	123.88
507.939	116.88
508.155	105.88
508.372	91.88
508.588	96.88
508.805	77.88
509.021	87.88
509.238	93.88
509.454	101.88
509.67	104.88
509.887	126.88
510.103	136.88
510.319	237.88
510.536	886.88
510.752	2925.88
510.968	806.88
511.184	160.88
511.401	118.88
511.617	107.88
511.833	95.88
512.049	96.88
512.265	89.88
512.481	96.88
512.698	80.88
512.914	85.88
513.13	88.88
513.346	93.88
513.562	101.88
513.778	98.88
513.994	111.88
514.21	117.88
514.426	124.88
514.642	142.88
514.858	111.88
515.074	170.88
515.29	523.88
