Data from Circ_2012_H10_HRD10591_00004.txt Node
Date: Wed Jan 03 10:05:51 EST 2024
User: Yrep
Spectrometer: HR+D1059
Trigger mode: 1
Integration Time (sec): 1.000000E-1
Scans to average: 1
Electric dark correction enabled: true
Nonlinearity correction enabled: false
Boxcar width: 0
XAxis mode: Wavelengths
Number of Pixels in Spectrum: 2048
>>>>>Begin Spectral Data<<<<<
223.165	-16.44
223.4	-16.44
223.635	-16.44
223.869	-15.44
224.104	-12.44
224.338	-24.44
224.573	-17.44
224.808	2.56
225.042	-10.44
225.277	3.56
225.511	-9.44
225.746	5.56
225.98	0.56
226.215	11.56
226.449	10.56
226.683	14.56
226.918	29.56
227.152	27.56
227.387	38.56
227.621	35.56
227.856	47.56
228.09	51.56
228.324	48.56
228.559	66.56
228.793	51.56
229.027	77.56
229.262	72.56
229.496	79.56
229.73	77.56
229.964	94.56
230.199	77.56
230.433	72.56
230.667	80.56
230.901	76.56
231.136	75.56
231.37	73.56
231.604	76.56
231.838	77.56
232.072	84.56
232.306	81.56
232.541	77.56
232.775	99.56
233.009	73.56
233.243	95.56
233.477	77.56
233.711	75.56
233.945	79.56
234.179	84.56
234.413	88.56
234.647	76.56
234.881	90.56
235.115	73.56
235.349	68.56
235.583	86.56
235.817	91.56
236.051	80.56
236.285	84.56
236.519	91.56
236.753	73.56
236.987	81.56
237.221	84.56
237.455	95.56
237.689	88.56
237.922	83.56
238.156	71.56
238.39	69.56
238.624	77.56
238.858	73.56
239.091	86.56
239.325	82.56
239.559	77.56
239.793	80.56
240.027	80.56
240.26	82.56
240.494	81.56
240.728	81.56
240.961	86.56
241.195	91.56
241.429	80.56
241.662	78.56
241.896	90.56
242.13	78.56
242.363	77.56
242.597	69.56
242.83	85.56
243.064	76.56
243.298	72.56
243.531	71.56
243.765	91.56
243.998	79.56
244.232	95.56
244.465	99.56
244.699	86.56
244.932	77.56
245.166	71.56
245.399	75.56
245.633	76.56
245.866	86.56
246.099	73.56
246.333	85.56
246.566	90.56
246.8	87.56
247.033	89.56
247.266	75.56
247.5	91.56
247.733	83.56
247.966	70.56
248.2	75.56
248.433	76.56
248.666	83.56
248.899	86.56
249.133	78.56
249.366	112.56
249.599	89.56
249.832	84.56
250.066	88.56
250.299	79.56
250.532	93.56
250.765	86.56
250.998	75.56
251.231	77.56
251.465	83.56
251.698	77.56
251.931	75.56
252.164	79.56
252.397	85.56
252.63	70.56
252.863	78.56
253.096	68.56
253.329	82.56
253.562	83.56
253.795	81.56
254.028	96.56
254.261	89.56
254.494	91.56
254.727	88.56
254.96	93.56
255.193	74.56
255.426	84.56
255.659	74.56
255.892	85.56
256.124	92.56
256.357	86.56
256.59	87.56
256.823	90.56
257.056	80.56
257.289	80.56
257.521	78.56
257.754	73.56
257.987	88.56
258.22	84.56
258.452	80.56
258.685	81.56
258.918	78.56
259.151	87.56
259.383	92.56
259.616	89.56
259.849	72.56
260.081	75.56
260.314	87.56
260.547	82.56
260.779	82.56
261.012	92.56
261.244	96.56
261.477	99.56
261.71	109.56
261.942	128.56
262.175	135.56
262.407	95.56
262.64	72.56
262.872	91.56
263.105	88.56
263.337	78.56
263.57	78.56
263.802	87.56
264.035	86.56
264.267	90.56
264.499	83.56
264.732	91.56
264.964	86.56
265.197	85.56
265.429	83.56
265.661	95.56
265.894	82.56
266.126	80.56
266.358	94.56
266.591	76.56
266.823	75.56
267.055	75.56
267.287	76.56
267.52	98.56
267.752	80.56
267.984	73.56
268.216	70.56
268.448	77.56
268.681	88.56
268.913	75.56
269.145	89.56
269.377	88.56
269.609	79.56
269.841	91.56
270.073	81.56
270.306	85.56
270.538	74.56
270.77	93.56
271.002	93.56
271.234	86.56
271.466	85.56
271.698	79.56
271.93	81.56
272.162	93.56
272.394	91.56
272.626	82.56
272.858	90.56
273.09	99.56
273.322	84.56
273.553	85.56
273.785	86.56
274.017	80.56
274.249	89.56
274.481	86.56
274.713	80.56
274.945	88.56
275.176	78.56
275.408	95.56
275.64	81.56
275.872	92.56
276.104	81.56
276.335	83.56
276.567	119.56
276.799	117.56
277.031	104.56
277.262	100.56
277.494	90.56
277.726	91.56
277.957	100.56
278.189	98.56
278.421	78.56
278.652	89.56
278.884	83.56
279.115	87.56
279.347	92.56
279.579	96.56
279.81	85.56
280.042	101.56
280.273	91.56
280.505	80.56
280.736	88.56
280.968	85.56
281.199	86.56
281.431	92.56
281.662	79.56
281.894	95.56
282.125	113.56
282.356	137.56
282.588	182.56
282.819	152.56
283.051	103.56
283.282	103.56
283.513	89.56
283.745	99.56
283.976	80.56
284.207	81.56
284.439	99.56
284.67	93.56
284.901	94.56
285.132	79.56
285.364	76.56
285.595	88.56
285.826	92.56
286.057	81.56
286.288	89.56
286.52	81.56
286.751	108.56
286.982	86.56
287.213	98.56
287.444	98.56
287.675	91.56
287.906	95.56
288.138	93.56
288.369	96.56
288.6	97.56
288.831	87.56
289.062	92.56
289.293	97.56
289.524	88.56
289.755	92.56
289.986	88.56
290.217	91.56
290.448	84.56
290.679	96.56
290.91	98.56
291.141	79.56
291.371	99.56
291.602	94.56
291.833	85.56
292.064	102.56
292.295	92.56
292.526	87.56
292.757	91.56
292.987	87.56
293.218	102.56
293.449	102.56
293.68	92.56
293.91	88.56
294.141	86.56
294.372	88.56
294.603	92.56
294.833	100.56
295.064	94.56
295.295	96.56
295.525	94.56
295.756	112.56
295.987	135.56
296.217	173.56
296.448	142.56
296.679	91.56
296.909	101.56
297.14	99.56
297.37	88.56
297.601	93.56
297.831	85.56
298.062	104.56
298.292	101.56
298.523	92.56
298.753	101.56
298.984	92.56
299.214	91.56
299.445	82.56
299.675	88.56
299.905	110.56
300.136	97.56
300.366	102.56
300.597	85.56
300.827	98.56
301.057	100.56
301.288	115.56
301.518	108.56
301.748	76.56
301.979	94.56
302.209	101.56
302.439	87.56
302.669	94.56
302.9	91.56
303.13	95.56
303.36	99.56
303.59	100.56
303.82	116.56
304.051	81.56
304.281	96.56
304.511	87.56
304.741	108.56
304.971	86.56
305.201	96.56
305.431	85.56
305.661	107.56
305.891	95.56
306.121	95.56
306.352	94.56
306.582	112.56
306.812	96.56
307.042	101.56
307.272	91.56
307.502	93.56
307.731	89.56
307.961	86.56
308.191	84.56
308.421	86.56
308.651	80.56
308.881	96.56
309.111	104.56
309.341	108.56
309.571	104.56
309.8	98.56
310.03	103.56
310.26	99.56
310.49	94.56
310.72	103.56
310.949	101.56
311.179	94.56
311.409	102.56
311.639	111.56
311.868	82.56
312.098	103.56
312.328	104.56
312.557	113.56
312.787	115.56
313.017	107.56
313.246	108.56
313.476	95.56
313.706	92.56
313.935	92.56
314.165	101.56
314.394	117.56
314.624	111.56
314.853	108.56
315.083	87.56
315.312	90.56
315.542	114.56
315.771	95.56
316.001	88.56
316.23	80.56
316.46	88.56
316.689	86.56
316.919	102.56
317.148	98.56
317.377	84.56
317.607	101.56
317.836	94.56
318.065	85.56
318.295	93.56
318.524	86.56
318.753	97.56
318.983	88.56
319.212	109.56
319.441	120.56
319.67	127.56
319.9	91.56
320.129	86.56
320.358	88.56
320.587	115.56
320.816	109.56
321.046	115.56
321.275	104.56
321.504	109.56
321.733	102.56
321.962	103.56
322.191	101.56
322.42	121.56
322.649	130.56
322.878	125.56
323.108	144.56
323.337	148.56
323.566	156.56
323.795	172.56
324.024	247.56
324.253	537.56
324.482	1228.56
324.71	2526.56
324.939	3399.56
325.168	1193.56
325.397	326.56
325.626	195.56
325.855	152.56
326.084	151.56
326.313	152.56
326.542	188.56
326.77	311.56
326.999	649.56
327.228	1357.56
327.457	2463.56
327.686	1953.56
327.914	517.56
328.143	257.56
328.372	191.56
328.6	155.56
328.829	150.56
329.058	140.56
329.287	156.56
329.515	133.56
329.744	109.56
329.972	95.56
330.201	107.56
330.43	131.56
330.658	147.56
330.887	183.56
331.115	159.56
331.344	110.56
331.572	123.56
331.801	112.56
332.03	103.56
332.258	89.56
332.486	90.56
332.715	70.56
332.943	94.56
333.172	96.56
333.4	88.56
333.629	94.56
333.857	111.56
334.085	108.56
334.314	99.56
334.542	103.56
334.771	110.56
334.999	107.56
335.227	100.56
335.455	103.56
335.684	99.56
335.912	114.56
336.14	108.56
336.369	115.56
336.597	112.56
336.825	111.56
337.053	106.56
337.281	90.56
337.51	97.56
337.738	101.56
337.966	108.56
338.194	106.56
338.422	89.56
338.65	90.56
338.878	91.56
339.106	80.56
339.334	99.56
339.562	91.56
339.79	93.56
340.018	95.56
340.246	99.56
340.474	109.56
340.702	99.56
340.93	104.56
341.158	99.56
341.386	97.56
341.614	88.56
341.842	95.56
342.07	102.56
342.298	95.56
342.526	101.56
342.754	97.56
342.981	97.56
343.209	95.56
343.437	103.56
343.665	96.56
343.893	85.56
344.12	92.56
344.348	94.56
344.576	90.56
344.804	76.56
345.031	87.56
345.259	112.56
345.487	100.56
345.714	107.56
345.942	84.56
346.17	97.56
346.397	92.56
346.625	100.56
346.853	109.56
347.08	103.56
347.308	89.56
347.535	76.56
347.763	108.56
347.99	106.56
348.218	123.56
348.445	112.56
348.673	97.56
348.9	93.56
349.128	101.56
349.355	90.56
349.583	95.56
349.81	107.56
350.037	101.56
350.265	85.56
350.492	102.56
350.72	95.56
350.947	102.56
351.174	124.56
351.402	125.56
351.629	97.56
351.856	113.56
352.083	117.56
352.311	117.56
352.538	127.56
352.765	108.56
352.992	117.56
353.22	107.56
353.447	110.56
353.674	106.56
353.901	110.56
354.128	93.56
354.355	100.56
354.583	90.56
354.81	95.56
355.037	104.56
355.264	83.56
355.491	99.56
355.718	94.56
355.945	87.56
356.172	91.56
356.399	96.56
356.626	86.56
356.853	79.56
357.08	98.56
357.307	109.56
357.534	87.56
357.761	93.56
357.988	108.56
358.215	108.56
358.441	87.56
358.668	81.56
358.895	81.56
359.122	95.56
359.349	92.56
359.576	99.56
359.802	119.56
360.029	137.56
360.256	128.56
360.483	115.56
360.709	90.56
360.936	83.56
361.163	104.56
361.39	100.56
361.616	96.56
361.843	99.56
362.07	107.56
362.296	101.56
362.523	87.56
362.749	89.56
362.976	90.56
363.203	98.56
363.429	90.56
363.656	95.56
363.882	93.56
364.109	94.56
364.335	91.56
364.562	95.56
364.788	78.56
365.015	97.56
365.241	113.56
365.468	112.56
365.694	120.56
365.92	95.56
366.147	95.56
366.373	96.56
366.599	95.56
366.826	96.56
367.052	83.56
367.278	110.56
367.505	83.56
367.731	102.56
367.957	116.56
368.184	95.56
368.41	112.56
368.636	132.56
368.862	143.56
369.089	131.56
369.315	120.56
369.541	96.56
369.767	98.56
369.993	93.56
370.219	91.56
370.445	103.56
370.672	102.56
370.898	106.56
371.124	92.56
371.35	71.56
371.576	79.56
371.802	86.56
372.028	103.56
372.254	88.56
372.48	92.56
372.706	88.56
372.932	90.56
373.158	80.56
373.384	97.56
373.61	95.56
373.835	96.56
374.061	94.56
374.287	90.56
374.513	93.56
374.739	95.56
374.965	96.56
375.191	98.56
375.416	90.56
375.642	100.56
375.868	86.56
376.094	88.56
376.319	81.56
376.545	91.56
376.771	95.56
376.997	86.56
377.222	91.56
377.448	86.56
377.674	100.56
377.899	109.56
378.125	95.56
378.35	86.56
378.576	83.56
378.802	93.56
379.027	94.56
379.253	102.56
379.478	79.56
379.704	98.56
379.929	102.56
380.155	104.56
380.38	85.56
380.606	108.56
380.831	104.56
381.057	89.56
381.282	97.56
381.507	106.56
381.733	100.56
381.958	115.56
382.184	97.56
382.409	105.56
382.634	103.56
382.86	107.56
383.085	103.56
383.31	105.56
383.535	114.56
383.761	103.56
383.986	105.56
384.211	97.56
384.436	105.56
384.662	103.56
384.887	117.56
385.112	113.56
385.337	99.56
385.562	121.56
385.787	127.56
386.013	117.56
386.238	128.56
386.463	110.56
386.688	110.56
386.913	114.56
387.138	101.56
387.363	116.56
387.588	108.56
387.813	116.56
388.038	119.56
388.263	118.56
388.488	108.56
388.713	96.56
388.938	99.56
389.163	96.56
389.387	102.56
389.612	112.56
389.837	96.56
390.062	88.56
390.287	99.56
390.512	104.56
390.736	94.56
390.961	107.56
391.186	88.56
391.411	92.56
391.636	91.56
391.86	82.56
392.085	94.56
392.31	92.56
392.534	88.56
392.759	91.56
392.984	93.56
393.208	98.56
393.433	104.56
393.658	111.56
393.882	101.56
394.107	91.56
394.331	94.56
394.556	91.56
394.78	99.56
395.005	78.56
395.229	91.56
395.454	84.56
395.678	85.56
395.903	84.56
396.127	85.56
396.352	97.56
396.576	102.56
396.801	108.56
397.025	103.56
397.249	98.56
397.474	97.56
397.698	101.56
397.922	89.56
398.147	93.56
398.371	87.56
398.595	85.56
398.82	85.56
399.044	95.56
399.268	74.56
399.492	103.56
399.717	92.56
399.941	84.56
400.165	94.56
400.389	76.56
400.613	103.56
400.837	81.56
401.062	105.56
401.286	103.56
401.51	91.56
401.734	99.56
401.958	111.56
402.182	158.56
402.406	200.56
402.63	144.56
402.854	105.56
403.078	96.56
403.302	82.56
403.526	81.56
403.75	93.56
403.974	82.56
404.198	106.56
404.422	99.56
404.645	92.56
404.869	93.56
405.093	95.56
405.317	87.56
405.541	106.56
405.765	109.56
405.988	125.56
406.212	229.56
406.436	311.56
406.66	195.56
406.883	113.56
407.107	91.56
407.331	101.56
407.555	106.56
407.778	93.56
408.002	100.56
408.226	89.56
408.449	95.56
408.673	100.56
408.896	102.56
409.12	107.56
409.344	92.56
409.567	84.56
409.791	88.56
410.014	101.56
410.238	107.56
410.461	106.56
410.685	100.56
410.908	99.56
411.132	121.56
411.355	109.56
411.578	100.56
411.802	77.56
412.025	87.56
412.249	91.56
412.472	104.56
412.695	91.56
412.919	89.56
413.142	93.56
413.365	94.56
413.589	78.56
413.812	94.56
414.035	103.56
414.258	83.56
414.482	100.56
414.705	83.56
414.928	93.56
415.151	102.56
415.374	93.56
415.597	94.56
415.821	93.56
416.044	78.56
416.267	90.56
416.49	95.56
416.713	84.56
416.936	82.56
417.159	96.56
417.382	79.56
417.605	90.56
417.828	108.56
418.051	99.56
418.274	101.56
418.497	98.56
418.72	98.56
418.943	86.56
419.166	94.56
419.389	84.56
419.611	82.56
419.834	102.56
420.057	101.56
420.28	85.56
420.503	106.56
420.726	80.56
420.948	90.56
421.171	110.56
421.394	96.56
421.617	87.56
421.839	91.56
422.062	93.56
422.285	86.56
422.507	106.56
422.73	105.56
422.953	91.56
423.175	96.56
423.398	95.56
423.621	90.56
423.843	80.56
424.066	86.56
424.288	90.56
424.511	86.56
424.733	104.56
424.956	109.56
425.178	101.56
425.401	99.56
425.623	94.56
425.846	86.56
426.068	104.56
426.291	95.56
426.513	85.56
426.735	88.56
426.958	106.56
427.18	115.56
427.402	156.56
427.625	205.56
427.847	161.56
428.069	107.56
428.292	93.56
428.514	103.56
428.736	95.56
428.958	97.56
429.181	87.56
429.403	92.56
429.625	93.56
429.847	89.56
430.069	97.56
430.292	98.56
430.514	89.56
430.736	95.56
430.958	90.56
431.18	88.56
431.402	94.56
431.624	103.56
431.846	75.56
432.068	87.56
432.29	81.56
432.512	93.56
432.734	88.56
432.956	103.56
433.178	92.56
433.4	116.56
433.622	110.56
433.844	87.56
434.066	88.56
434.287	101.56
434.509	90.56
434.731	99.56
434.953	86.56
435.175	95.56
435.397	97.56
435.618	90.56
435.84	108.56
436.062	124.56
436.284	112.56
436.505	100.56
436.727	107.56
436.949	100.56
437.17	83.56
437.392	95.56
437.614	104.56
437.835	131.56
438.057	144.56
438.278	121.56
438.5	103.56
438.721	115.56
438.943	104.56
439.165	90.56
439.386	91.56
439.608	96.56
439.829	113.56
440.05	136.56
440.272	175.56
440.493	101.56
440.715	100.56
440.936	84.56
441.158	95.56
441.379	92.56
441.6	99.56
441.822	93.56
442.043	108.56
442.264	99.56
442.486	115.56
442.707	105.56
442.928	140.56
443.149	161.56
443.371	166.56
443.592	134.56
443.813	109.56
444.034	123.56
444.255	96.56
444.476	92.56
444.698	78.56
444.919	99.56
445.14	143.56
445.361	127.56
445.582	134.56
445.803	177.56
446.024	166.56
446.245	157.56
446.466	122.56
446.687	97.56
446.908	85.56
447.129	97.56
447.35	90.56
447.571	98.56
447.792	92.56
448.013	115.56
448.234	119.56
448.455	111.56
448.675	116.56
448.896	133.56
449.117	113.56
449.338	102.56
449.559	135.56
449.779	136.56
450	96.56
450.221	94.56
450.442	78.56
450.662	119.56
450.883	113.56
451.104	129.56
451.324	106.56
451.545	93.56
451.766	94.56
451.986	78.56
452.207	84.56
452.428	79.56
452.648	109.56
452.869	125.56
453.089	135.56
453.31	150.56
453.53	104.56
453.751	98.56
453.971	115.56
454.192	137.56
454.412	102.56
454.633	107.56
454.853	92.56
455.073	78.56
455.294	93.56
455.514	92.56
455.734	94.56
455.955	81.56
456.175	90.56
456.395	90.56
456.616	87.56
456.836	88.56
457.056	103.56
457.276	98.56
457.497	86.56
457.717	78.56
457.937	88.56
458.157	104.56
458.377	88.56
458.598	135.56
458.818	201.56
459.038	189.56
459.258	142.56
459.478	96.56
459.698	82.56
459.918	99.56
460.138	92.56
460.358	75.56
460.578	95.56
460.798	96.56
461.018	98.56
461.238	92.56
461.458	90.56
461.678	79.56
461.898	97.56
462.118	79.56
462.338	88.56
462.558	94.56
462.777	78.56
462.997	82.56
463.217	92.56
463.437	84.56
463.657	98.56
463.876	91.56
464.096	97.56
464.316	100.56
464.536	99.56
464.755	99.56
464.975	122.56
465.195	220.56
465.414	227.56
465.634	113.56
465.854	90.56
466.073	95.56
466.293	77.56
466.512	83.56
466.732	68.56
466.951	90.56
467.171	101.56
467.391	96.56
467.61	107.56
467.829	112.56
468.049	106.56
468.268	86.56
468.488	86.56
468.707	96.56
468.927	89.56
469.146	84.56
469.365	83.56
469.585	89.56
469.804	107.56
470.023	99.56
470.243	105.56
470.462	109.56
470.681	115.56
470.901	103.56
471.12	105.56
471.339	96.56
471.558	93.56
471.777	88.56
471.997	98.56
472.216	107.56
472.435	105.56
472.654	83.56
472.873	86.56
473.092	98.56
473.311	88.56
473.53	100.56
473.749	93.56
473.968	93.56
474.187	111.56
474.406	105.56
474.625	96.56
474.844	88.56
475.063	94.56
475.282	87.56
475.501	87.56
475.72	98.56
475.939	93.56
476.158	86.56
476.377	98.56
476.596	90.56
476.814	91.56
477.033	105.56
477.252	94.56
477.471	102.56
477.69	89.56
477.908	95.56
478.127	91.56
478.346	92.56
478.564	104.56
478.783	104.56
479.002	102.56
479.22	92.56
479.439	95.56
479.658	116.56
479.876	91.56
480.095	82.56
480.313	95.56
480.532	103.56
480.751	85.56
480.969	95.56
481.188	135.56
481.406	117.56
481.624	89.56
481.843	86.56
482.061	91.56
482.28	88.56
482.498	94.56
482.717	82.56
482.935	90.56
483.153	87.56
483.372	97.56
483.59	92.56
483.808	88.56
484.027	89.56
484.245	95.56
484.463	102.56
484.681	110.56
484.9	92.56
485.118	100.56
485.336	82.56
485.554	101.56
485.772	106.56
485.99	108.56
486.209	97.56
486.427	109.56
486.645	123.56
486.863	119.56
487.081	107.56
487.299	106.56
487.517	103.56
487.735	96.56
487.953	87.56
488.171	99.56
488.389	99.56
488.607	92.56
488.825	97.56
489.043	94.56
489.261	88.56
489.479	100.56
489.696	99.56
489.914	86.56
490.132	81.56
490.35	90.56
490.568	84.56
490.786	102.56
491.003	95.56
491.221	85.56
491.439	93.56
491.657	95.56
491.874	104.56
492.092	94.56
492.31	99.56
492.527	87.56
492.745	77.56
492.963	84.56
493.18	85.56
493.398	98.56
493.615	115.56
493.833	96.56
494.05	96.56
494.268	79.56
494.485	95.56
494.703	76.56
494.92	87.56
495.138	92.56
495.355	85.56
495.573	109.56
495.79	93.56
496.008	107.56
496.225	93.56
496.442	89.56
496.66	87.56
496.877	94.56
497.094	96.56
497.312	97.56
497.529	94.56
497.746	103.56
497.963	90.56
498.181	108.56
498.398	92.56
498.615	111.56
498.832	110.56
499.049	88.56
499.267	107.56
499.484	96.56
499.701	96.56
499.918	108.56
500.135	86.56
500.352	94.56
500.569	86.56
500.786	95.56
501.003	90.56
501.22	85.56
501.437	95.56
501.654	92.56
501.871	122.56
502.088	92.56
502.305	108.56
502.522	84.56
502.739	90.56
502.956	103.56
503.172	85.56
503.389	106.56
503.606	116.56
503.823	105.56
504.04	89.56
504.256	81.56
504.473	102.56
504.69	94.56
504.907	100.56
505.123	101.56
505.34	93.56
505.557	86.56
505.773	92.56
505.99	77.56
506.207	86.56
506.423	92.56
506.64	80.56
506.856	94.56
507.073	96.56
507.289	97.56
507.506	102.56
507.722	117.56
507.939	115.56
508.155	91.56
508.372	96.56
508.588	103.56
508.805	102.56
509.021	93.56
509.238	102.56
509.454	110.56
509.67	124.56
509.887	126.56
510.103	152.56
510.319	266.56
510.536	1036.56
510.752	3660.56
510.968	970.56
511.184	184.56
511.401	129.56
511.617	110.56
511.833	81.56
512.049	92.56
512.265	104.56
512.481	90.56
512.698	94.56
512.914	92.56
513.13	111.56
513.346	100.56
513.562	103.56
513.778	104.56
