Data from Circ_2012_H10_HRD10591_00072.txt Node
Date: Wed Jan 03 10:06:04 EST 2024
User: Yrep
Spectrometer: HR+D1059
Trigger mode: 1
Integration Time (sec): 1.000000E-1
Scans to average: 1
Electric dark correction enabled: true
Nonlinearity correction enabled: false
Boxcar width: 0
XAxis mode: Wavelengths
Number of Pixels in Spectrum: 2048
>>>>>Begin Spectral Data<<<<<
223.165	-14.88
223.4	-14.88
223.635	-14.88
223.869	-14.88
224.104	-18.88
224.338	-16.88
224.573	-23.88
224.808	-23.88
225.042	-3.88
225.277	-9.88
225.511	-2.88
225.746	12.12
225.98	11.12
226.215	11.12
226.449	18.12
226.683	30.12
226.918	14.12
227.152	33.12
227.387	32.12
227.621	26.12
227.856	51.12
228.09	40.12
228.324	45.12
228.559	52.12
228.793	52.12
229.027	65.12
229.262	65.12
229.496	77.12
229.73	79.12
229.964	84.12
230.199	78.12
230.433	71.12
230.667	78.12
230.901	81.12
231.136	73.12
231.37	62.12
231.604	60.12
231.838	77.12
232.072	71.12
232.306	80.12
232.541	76.12
232.775	70.12
233.009	73.12
233.243	77.12
233.477	76.12
233.711	88.12
233.945	88.12
234.179	64.12
234.413	75.12
234.647	75.12
234.881	83.12
235.115	77.12
235.349	81.12
235.583	73.12
235.817	71.12
236.051	85.12
236.285	67.12
236.519	79.12
236.753	82.12
236.987	77.12
237.221	68.12
237.455	82.12
237.689	70.12
237.922	73.12
238.156	84.12
238.39	69.12
238.624	64.12
238.858	60.12
239.091	54.12
239.325	72.12
239.559	88.12
239.793	75.12
240.027	73.12
240.26	83.12
240.494	75.12
240.728	76.12
240.961	54.12
241.195	68.12
241.429	73.12
241.662	81.12
241.896	77.12
242.13	68.12
242.363	78.12
242.597	77.12
242.83	70.12
243.064	69.12
243.298	88.12
243.531	76.12
243.765	93.12
243.998	75.12
244.232	72.12
244.465	87.12
244.699	64.12
244.932	69.12
245.166	89.12
245.399	75.12
245.633	81.12
245.866	72.12
246.099	72.12
246.333	79.12
246.566	85.12
246.8	71.12
247.033	73.12
247.266	77.12
247.5	84.12
247.733	82.12
247.966	70.12
248.2	76.12
248.433	53.12
248.666	67.12
248.899	72.12
249.133	89.12
249.366	102.12
249.599	94.12
249.832	66.12
250.066	79.12
250.299	74.12
250.532	85.12
250.765	89.12
250.998	81.12
251.231	68.12
251.465	74.12
251.698	89.12
251.931	86.12
252.164	82.12
252.397	79.12
252.63	75.12
252.863	68.12
253.096	74.12
253.329	86.12
253.562	81.12
253.795	91.12
254.028	76.12
254.261	69.12
254.494	70.12
254.727	89.12
254.96	92.12
255.193	88.12
255.426	82.12
255.659	73.12
255.892	85.12
256.124	69.12
256.357	80.12
256.59	84.12
256.823	73.12
257.056	70.12
257.289	68.12
257.521	86.12
257.754	85.12
257.987	70.12
258.22	82.12
258.452	74.12
258.685	84.12
258.918	82.12
259.151	72.12
259.383	72.12
259.616	83.12
259.849	70.12
260.081	87.12
260.314	82.12
260.547	74.12
260.779	86.12
261.012	86.12
261.244	76.12
261.477	88.12
261.71	91.12
261.942	97.12
262.175	109.12
262.407	88.12
262.64	83.12
262.872	78.12
263.105	86.12
263.337	79.12
263.57	70.12
263.802	92.12
264.035	69.12
264.267	75.12
264.499	80.12
264.732	73.12
264.964	74.12
265.197	71.12
265.429	78.12
265.661	77.12
265.894	83.12
266.126	92.12
266.358	97.12
266.591	91.12
266.823	93.12
267.055	76.12
267.287	82.12
267.52	83.12
267.752	74.12
267.984	78.12
268.216	92.12
268.448	78.12
268.681	87.12
268.913	89.12
269.145	86.12
269.377	89.12
269.609	82.12
269.841	70.12
270.073	80.12
270.306	83.12
270.538	81.12
270.77	81.12
271.002	91.12
271.234	80.12
271.466	79.12
271.698	95.12
271.93	88.12
272.162	98.12
272.394	89.12
272.626	85.12
272.858	82.12
273.09	73.12
273.322	73.12
273.553	76.12
273.785	91.12
274.017	79.12
274.249	77.12
274.481	93.12
274.713	77.12
274.945	70.12
275.176	76.12
275.408	88.12
275.64	74.12
275.872	76.12
276.104	87.12
276.335	77.12
276.567	84.12
276.799	87.12
277.031	82.12
277.262	80.12
277.494	88.12
277.726	92.12
277.957	94.12
278.189	91.12
278.421	79.12
278.652	86.12
278.884	94.12
279.115	75.12
279.347	95.12
279.579	83.12
279.81	81.12
280.042	84.12
280.273	97.12
280.505	74.12
280.736	89.12
280.968	78.12
281.199	86.12
281.431	77.12
281.662	74.12
281.894	89.12
282.125	89.12
282.356	100.12
282.588	119.12
282.819	104.12
283.051	88.12
283.282	81.12
283.513	89.12
283.745	89.12
283.976	71.12
284.207	91.12
284.439	97.12
284.67	80.12
284.901	91.12
285.132	76.12
285.364	86.12
285.595	76.12
285.826	88.12
286.057	91.12
286.288	79.12
286.52	82.12
286.751	86.12
286.982	80.12
287.213	81.12
287.444	82.12
287.675	93.12
287.906	84.12
288.138	80.12
288.369	82.12
288.6	96.12
288.831	92.12
289.062	89.12
289.293	89.12
289.524	78.12
289.755	82.12
289.986	72.12
290.217	80.12
290.448	94.12
290.679	86.12
290.91	76.12
291.141	87.12
291.371	77.12
291.602	87.12
291.833	82.12
292.064	87.12
292.295	93.12
292.526	87.12
292.757	83.12
292.987	88.12
293.218	91.12
293.449	86.12
293.68	92.12
293.91	79.12
294.141	84.12
294.372	79.12
294.603	79.12
294.833	80.12
295.064	88.12
295.295	89.12
295.525	80.12
295.756	92.12
295.987	118.12
296.217	128.12
296.448	118.12
296.679	89.12
296.909	82.12
297.14	94.12
297.37	93.12
297.601	92.12
297.831	93.12
298.062	85.12
298.292	74.12
298.523	77.12
298.753	91.12
298.984	73.12
299.214	81.12
299.445	77.12
299.675	92.12
299.905	93.12
300.136	96.12
300.366	92.12
300.597	89.12
300.827	81.12
301.057	105.12
301.288	102.12
301.518	89.12
301.748	95.12
301.979	109.12
302.209	81.12
302.439	77.12
302.669	79.12
302.9	86.12
303.13	82.12
303.36	90.12
303.59	101.12
303.82	103.12
304.051	82.12
304.281	89.12
304.511	80.12
304.741	92.12
304.971	87.12
305.201	79.12
305.431	87.12
305.661	89.12
305.891	90.12
306.121	94.12
306.352	93.12
306.582	117.12
306.812	84.12
307.042	98.12
307.272	98.12
307.502	92.12
307.731	93.12
307.961	88.12
308.191	69.12
308.421	84.12
308.651	102.12
308.881	79.12
309.111	87.12
309.341	90.12
309.571	96.12
309.8	75.12
310.03	95.12
310.26	97.12
310.49	97.12
310.72	92.12
310.949	96.12
311.179	79.12
311.409	103.12
311.639	76.12
311.868	105.12
312.098	89.12
312.328	76.12
312.557	102.12
312.787	94.12
313.017	84.12
313.246	93.12
313.476	78.12
313.706	85.12
313.935	93.12
314.165	82.12
314.394	90.12
314.624	89.12
314.853	86.12
315.083	81.12
315.312	79.12
315.542	82.12
315.771	93.12
316.001	81.12
316.23	88.12
316.46	96.12
316.689	82.12
316.919	82.12
317.148	83.12
317.377	90.12
317.607	83.12
317.836	96.12
318.065	81.12
318.295	97.12
318.524	85.12
318.753	87.12
318.983	106.12
319.212	89.12
319.441	97.12
319.67	104.12
319.9	97.12
320.129	89.12
320.358	86.12
320.587	101.12
320.816	98.12
321.046	95.12
321.275	76.12
321.504	91.12
321.733	94.12
321.962	93.12
322.191	96.12
322.42	93.12
322.649	101.12
322.878	117.12
323.108	119.12
323.337	109.12
323.566	120.12
323.795	128.12
324.024	203.12
324.253	340.12
324.482	741.12
324.71	1531.12
324.939	2014.12
325.168	749.12
325.397	212.12
325.626	131.12
325.855	111.12
326.084	135.12
326.313	135.12
326.542	130.12
326.77	216.12
326.999	417.12
327.228	850.12
327.457	1547.12
327.686	1274.12
327.914	339.12
328.143	173.12
328.372	137.12
328.6	126.12
328.829	116.12
329.058	112.12
329.287	135.12
329.515	112.12
329.744	89.12
329.972	103.12
330.201	116.12
330.43	146.12
330.658	107.12
330.887	141.12
331.115	110.12
331.344	101.12
331.572	97.12
331.801	94.12
332.03	89.12
332.258	76.12
332.486	94.12
332.715	90.12
332.943	81.12
333.172	101.12
333.4	102.12
333.629	107.12
333.857	106.12
334.085	104.12
334.314	130.12
334.542	165.12
334.771	141.12
334.999	100.12
335.227	100.12
335.455	95.12
335.684	88.12
335.912	96.12
336.14	95.12
336.369	84.12
336.597	109.12
336.825	96.12
337.053	93.12
337.281	87.12
337.51	86.12
337.738	98.12
337.966	90.12
338.194	85.12
338.422	83.12
338.65	80.12
338.878	93.12
339.106	90.12
339.334	96.12
339.562	93.12
339.79	83.12
340.018	93.12
340.246	91.12
340.474	89.12
340.702	89.12
340.93	83.12
341.158	88.12
341.386	85.12
341.614	94.12
341.842	85.12
342.07	83.12
342.298	93.12
342.526	86.12
342.754	81.12
342.981	99.12
343.209	85.12
343.437	77.12
343.665	86.12
343.893	98.12
344.12	89.12
344.348	78.12
344.576	103.12
344.804	78.12
345.031	98.12
345.259	88.12
345.487	98.12
345.714	86.12
345.942	82.12
346.17	93.12
346.397	102.12
346.625	94.12
346.853	89.12
347.08	95.12
347.308	75.12
347.535	88.12
347.763	87.12
347.99	97.12
348.218	103.12
348.445	97.12
348.673	100.12
348.9	103.12
349.128	98.12
349.355	91.12
349.583	90.12
349.81	77.12
350.037	77.12
350.265	104.12
350.492	104.12
350.72	100.12
350.947	101.12
351.174	118.12
351.402	110.12
351.629	92.12
351.856	90.12
352.083	105.12
352.311	111.12
352.538	104.12
352.765	95.12
352.992	114.12
353.22	101.12
353.447	104.12
353.674	85.12
353.901	112.12
354.128	107.12
354.355	82.12
354.583	101.12
354.81	85.12
355.037	89.12
355.264	82.12
355.491	83.12
355.718	71.12
355.945	89.12
356.172	87.12
356.399	104.12
356.626	81.12
356.853	92.12
357.08	82.12
357.307	91.12
357.534	76.12
357.761	80.12
357.988	87.12
358.215	94.12
358.441	82.12
358.668	87.12
358.895	76.12
359.122	83.12
359.349	83.12
359.576	86.12
359.802	108.12
360.029	114.12
360.256	99.12
360.483	82.12
360.709	94.12
360.936	89.12
361.163	89.12
361.39	87.12
361.616	94.12
361.843	81.12
362.07	89.12
362.296	90.12
362.523	88.12
362.749	81.12
362.976	91.12
363.203	80.12
363.429	86.12
363.656	78.12
363.882	80.12
364.109	99.12
364.335	97.12
364.562	92.12
364.788	92.12
365.015	85.12
365.241	92.12
365.468	90.12
365.694	90.12
365.92	106.12
366.147	89.12
366.373	76.12
366.599	83.12
366.826	96.12
367.052	93.12
367.278	82.12
367.505	97.12
367.731	83.12
367.957	89.12
368.184	88.12
368.41	91.12
368.636	101.12
368.862	103.12
369.089	100.12
369.315	89.12
369.541	98.12
369.767	85.12
369.993	86.12
370.219	91.12
370.445	87.12
370.672	91.12
370.898	88.12
371.124	90.12
371.35	87.12
371.576	92.12
371.802	99.12
372.028	75.12
372.254	99.12
372.48	86.12
372.706	58.12
372.932	80.12
373.158	68.12
373.384	94.12
373.61	100.12
373.835	76.12
374.061	76.12
374.287	88.12
374.513	80.12
374.739	93.12
374.965	88.12
375.191	89.12
375.416	92.12
375.642	79.12
375.868	95.12
376.094	88.12
376.319	91.12
376.545	96.12
376.771	95.12
376.997	74.12
377.222	94.12
377.448	77.12
377.674	98.12
377.899	81.12
378.125	94.12
378.35	91.12
378.576	88.12
378.802	83.12
379.027	83.12
379.253	102.12
379.478	86.12
379.704	84.12
379.929	81.12
380.155	81.12
380.38	84.12
380.606	96.12
380.831	92.12
381.057	91.12
381.282	91.12
381.507	94.12
381.733	84.12
381.958	86.12
382.184	91.12
382.409	79.12
382.634	92.12
382.86	101.12
383.085	90.12
383.31	85.12
383.535	93.12
383.761	87.12
383.986	93.12
384.211	87.12
384.436	112.12
384.662	96.12
384.887	99.12
385.112	105.12
385.337	91.12
385.562	96.12
385.787	93.12
386.013	116.12
386.238	95.12
386.463	96.12
386.688	107.12
386.913	93.12
387.138	104.12
387.363	100.12
387.588	85.12
387.813	97.12
388.038	91.12
388.263	76.12
388.488	98.12
388.713	96.12
388.938	99.12
389.163	77.12
389.387	91.12
389.612	98.12
389.837	99.12
390.062	75.12
390.287	85.12
390.512	90.12
390.736	76.12
390.961	108.12
391.186	92.12
391.411	75.12
391.636	93.12
391.86	84.12
392.085	95.12
392.31	89.12
392.534	78.12
392.759	89.12
392.984	78.12
393.208	87.12
393.433	73.12
393.658	96.12
393.882	90.12
394.107	82.12
394.331	96.12
394.556	78.12
394.78	75.12
395.005	77.12
395.229	72.12
395.454	88.12
395.678	94.12
395.903	96.12
396.127	77.12
396.352	72.12
396.576	85.12
396.801	86.12
397.025	85.12
397.249	89.12
397.474	89.12
397.698	82.12
397.922	88.12
398.147	74.12
398.371	81.12
398.595	84.12
398.82	90.12
399.044	85.12
399.268	93.12
399.492	93.12
399.717	86.12
399.941	78.12
400.165	91.12
400.389	82.12
400.613	82.12
400.837	73.12
401.062	91.12
401.286	88.12
401.51	97.12
401.734	76.12
401.958	101.12
402.182	120.12
402.406	130.12
402.63	103.12
402.854	88.12
403.078	86.12
403.302	90.12
403.526	88.12
403.75	83.12
403.974	88.12
404.198	75.12
404.422	90.12
404.645	93.12
404.869	89.12
405.093	92.12
405.317	119.12
405.541	98.12
405.765	99.12
405.988	106.12
406.212	162.12
406.436	198.12
406.66	134.12
406.883	103.12
407.107	86.12
407.331	82.12
407.555	84.12
407.778	97.12
408.002	93.12
408.226	91.12
408.449	72.12
408.673	85.12
408.896	104.12
409.12	87.12
409.344	77.12
409.567	104.12
409.791	87.12
410.014	76.12
410.238	95.12
410.461	92.12
410.685	78.12
410.908	91.12
411.132	103.12
411.355	100.12
411.578	83.12
411.802	88.12
412.025	77.12
412.249	94.12
412.472	103.12
412.695	92.12
412.919	80.12
413.142	96.12
413.365	84.12
413.589	91.12
413.812	87.12
414.035	86.12
414.258	79.12
414.482	91.12
414.705	83.12
414.928	96.12
415.151	96.12
415.374	91.12
415.597	89.12
415.821	83.12
416.044	82.12
416.267	93.12
416.49	82.12
416.713	90.12
416.936	84.12
417.159	92.12
417.382	95.12
417.605	75.12
417.828	88.12
418.051	84.12
418.274	104.12
418.497	81.12
418.72	82.12
418.943	89.12
419.166	84.12
419.389	93.12
419.611	81.12
419.834	76.12
420.057	77.12
420.28	88.12
420.503	97.12
420.726	85.12
420.948	74.12
421.171	98.12
421.394	94.12
421.617	89.12
421.839	79.12
422.062	78.12
422.285	90.12
422.507	86.12
422.73	94.12
422.953	82.12
423.175	83.12
423.398	92.12
423.621	89.12
423.843	75.12
424.066	71.12
424.288	78.12
424.511	98.12
424.733	88.12
424.956	92.12
425.178	105.12
425.401	91.12
425.623	109.12
425.846	86.12
426.068	91.12
426.291	85.12
426.513	90.12
426.735	77.12
426.958	98.12
427.18	87.12
427.402	108.12
427.625	150.12
427.847	127.12
428.069	114.12
428.292	83.12
428.514	84.12
428.736	88.12
428.958	84.12
429.181	77.12
429.403	92.12
429.625	97.12
429.847	95.12
430.069	84.12
430.292	82.12
430.514	59.12
430.736	89.12
430.958	77.12
431.18	63.12
431.402	94.12
431.624	78.12
431.846	84.12
432.068	77.12
432.29	88.12
432.512	87.12
432.734	90.12
432.956	79.12
433.178	98.12
433.4	102.12
433.622	85.12
433.844	84.12
434.066	92.12
434.287	90.12
434.509	76.12
434.731	88.12
434.953	89.12
435.175	82.12
435.397	92.12
435.618	82.12
435.84	100.12
436.062	105.12
436.284	109.12
436.505	89.12
436.727	102.12
436.949	102.12
437.17	91.12
437.392	75.12
437.614	93.12
437.835	116.12
438.057	102.12
438.278	89.12
438.5	95.12
438.721	116.12
438.943	112.12
439.165	87.12
439.386	75.12
439.608	84.12
439.829	95.12
440.05	99.12
440.272	117.12
440.493	103.12
440.715	86.12
440.936	83.12
441.158	98.12
441.379	77.12
441.6	88.12
441.822	92.12
442.043	93.12
442.264	101.12
442.486	81.12
442.707	86.12
442.928	102.12
443.149	111.12
443.371	94.12
443.592	100.12
443.813	100.12
444.034	95.12
444.255	83.12
444.476	89.12
444.698	83.12
444.919	85.12
445.14	137.12
445.361	132.12
445.582	119.12
445.803	105.12
446.024	108.12
446.245	120.12
446.466	112.12
446.687	99.12
446.908	82.12
447.129	88.12
447.35	86.12
447.571	78.12
447.792	77.12
448.013	94.12
448.234	104.12
448.455	104.12
448.675	120.12
448.896	114.12
449.117	104.12
449.338	89.12
449.559	113.12
449.779	132.12
450	85.12
450.221	86.12
450.442	83.12
450.662	99.12
450.883	96.12
451.104	100.12
451.324	95.12
451.545	78.12
451.766	79.12
451.986	69.12
452.207	83.12
452.428	87.12
452.648	89.12
452.869	88.12
453.089	108.12
453.31	92.12
453.53	82.12
453.751	82.12
453.971	97.12
454.192	100.12
454.412	85.12
454.633	91.12
454.853	89.12
455.073	89.12
455.294	91.12
455.514	80.12
455.734	84.12
455.955	86.12
456.175	76.12
456.395	75.12
456.616	82.12
456.836	90.12
457.056	81.12
457.276	96.12
457.497	74.12
457.717	87.12
457.937	82.12
458.157	93.12
458.377	84.12
458.598	86.12
458.818	125.12
459.038	134.12
459.258	106.12
459.478	93.12
459.698	64.12
459.918	85.12
460.138	76.12
460.358	73.12
460.578	82.12
460.798	89.12
461.018	83.12
461.238	65.12
461.458	94.12
461.678	85.12
461.898	77.12
462.118	83.12
462.338	87.12
462.558	85.12
462.777	88.12
462.997	89.12
463.217	83.12
463.437	75.12
463.657	87.12
463.876	76.12
464.096	85.12
464.316	117.12
464.536	80.12
464.755	89.12
464.975	85.12
465.195	156.12
465.414	141.12
465.634	83.12
465.854	80.12
466.073	90.12
466.293	78.12
466.512	83.12
466.732	80.12
466.951	73.12
467.171	87.12
467.391	94.12
467.61	91.12
467.829	100.12
468.049	91.12
468.268	110.12
468.488	77.12
468.707	73.12
468.927	85.12
469.146	73.12
469.365	88.12
469.585	83.12
469.804	85.12
470.023	99.12
470.243	107.12
470.462	92.12
470.681	116.12
470.901	88.12
471.12	88.12
471.339	81.12
471.558	81.12
471.777	86.12
471.997	94.12
472.216	138.12
472.435	189.12
472.654	112.12
472.873	98.12
473.092	88.12
473.311	76.12
473.53	86.12
473.749	91.12
473.968	80.12
474.187	109.12
474.406	83.12
474.625	79.12
474.844	75.12
475.063	76.12
475.282	78.12
475.501	89.12
475.72	72.12
475.939	83.12
476.158	96.12
476.377	98.12
476.596	83.12
476.814	97.12
477.033	88.12
477.252	88.12
477.471	89.12
477.69	83.12
477.908	84.12
478.127	92.12
478.346	90.12
478.564	82.12
478.783	100.12
479.002	104.12
479.22	97.12
479.439	89.12
479.658	102.12
479.876	94.12
480.095	88.12
480.313	84.12
480.532	92.12
480.751	92.12
480.969	136.12
481.188	257.12
481.406	196.12
481.624	112.12
481.843	105.12
482.061	82.12
482.28	98.12
482.498	93.12
482.717	88.12
482.935	82.12
483.153	89.12
483.372	90.12
483.59	81.12
483.808	90.12
484.027	80.12
484.245	100.12
484.463	93.12
484.681	85.12
484.9	91.12
485.118	90.12
485.336	91.12
485.554	105.12
485.772	106.12
485.99	91.12
486.209	91.12
486.427	104.12
486.645	100.12
486.863	93.12
487.081	90.12
487.299	86.12
487.517	98.12
487.735	93.12
487.953	76.12
488.171	96.12
488.389	93.12
488.607	87.12
488.825	83.12
489.043	76.12
489.261	84.12
489.479	90.12
489.696	91.12
489.914	90.12
490.132	86.12
490.35	82.12
490.568	86.12
490.786	89.12
491.003	92.12
491.221	80.12
491.439	90.12
491.657	81.12
491.874	93.12
492.092	95.12
492.31	88.12
492.527	83.12
492.745	79.12
492.963	92.12
493.18	90.12
493.398	91.12
493.615	88.12
493.833	92.12
494.05	81.12
494.268	88.12
494.485	82.12
494.703	79.12
494.92	92.12
495.138	99.12
495.355	90.12
495.573	92.12
495.79	86.12
496.008	107.12
496.225	82.12
496.442	89.12
496.66	82.12
496.877	93.12
497.094	83.12
497.312	83.12
497.529	88.12
497.746	72.12
497.963	97.12
498.181	89.12
498.398	84.12
498.615	100.12
498.832	99.12
499.049	98.12
499.267	85.12
499.484	94.12
499.701	103.12
499.918	83.12
500.135	69.12
500.352	83.12
500.569	87.12
500.786	86.12
501.003	85.12
501.22	86.12
501.437	103.12
501.654	85.12
501.871	91.12
502.088	80.12
502.305	89.12
502.522	86.12
502.739	85.12
502.956	92.12
503.172	89.12
503.389	91.12
503.606	103.12
503.823	87.12
504.04	91.12
504.256	91.12
504.473	89.12
504.69	83.12
504.907	91.12
505.123	95.12
505.34	78.12
505.557	89.12
505.773	92.12
505.99	93.12
506.207	86.12
506.423	80.12
506.64	82.12
506.856	104.12
507.073	88.12
507.289	88.12
507.506	85.12
507.722	105.12
507.939	114.12
508.155	101.12
508.372	88.12
508.588	98.12
508.805	90.12
509.021	95.12
509.238	108.12
509.454	94.12
509.67	84.12
509.887	115.12
510.103	125.12
510.319	194.12
510.536	696.12
510.752	2182.12
510.968	632.12
511.184	157.12
511.401	96.12
511.617	89.12
511.833	80.12
512.049	88.12
512.265	87.12
512.481	97.12
512.698	84.12
512.914	89.12
513.13	85.12
513.346	77.12
513.562	93.12
513.778	97.12
513.994	99.12
514.21	96.12
514.426	114.12
514.642	131.12
514.858	107.12
515.074	148.12
515.29	380.12
515.506	1266.12
515.721	508.12
515.937	159.12
516.153	101.12
516.369	95.12
516.585	69.12
516.801	97.12
517.016	96.12
