Data from Circ_2012_H10_HRD10591_00001.txt Node
Date: Wed Jan 03 10:05:50 EST 2024
User: Yrep
Spectrometer: HR+D1059
Trigger mode: 1
Integration Time (sec): 1.000000E-1
Scans to average: 1
Electric dark correction enabled: true
Nonlinearity correction enabled: false
Boxcar width: 0
XAxis mode: Wavelengths
Number of Pixels in Spectrum: 2048
>>>>>Begin Spectral Data<<<<<
223.165	-15.56
223.4	-15.56
223.635	-15.56
223.869	-7.56
224.104	-18.56
224.338	-30.56
224.573	-8.56
224.808	-9.56
225.042	-22.56
225.277	-11.56
225.511	3.44
225.746	1.44
225.98	7.44
226.215	12.44
226.449	25.44
226.683	14.44
226.918	38.44
227.152	21.44
227.387	30.44
227.621	46.44
227.856	55.44
228.09	42.44
228.324	52.44
228.559	74.44
228.793	66.44
229.027	61.44
229.262	76.44
229.496	72.44
229.73	88.44
229.964	109.44
230.199	82.44
230.433	75.44
230.667	71.44
230.901	86.44
231.136	76.44
231.37	82.44
231.604	83.44
231.838	78.44
232.072	76.44
232.306	82.44
232.541	72.44
232.775	78.44
233.009	69.44
233.243	81.44
233.477	83.44
233.711	83.44
233.945	89.44
234.179	84.44
234.413	69.44
234.647	80.44
234.881	83.44
235.115	76.44
235.349	71.44
235.583	75.44
235.817	76.44
236.051	74.44
236.285	59.44
236.519	79.44
236.753	83.44
236.987	92.44
237.221	78.44
237.455	80.44
237.689	75.44
237.922	75.44
238.156	68.44
238.39	68.44
238.624	75.44
238.858	83.44
239.091	84.44
239.325	79.44
239.559	90.44
239.793	82.44
240.027	83.44
240.26	73.44
240.494	79.44
240.728	69.44
240.961	84.44
241.195	79.44
241.429	66.44
241.662	88.44
241.896	71.44
242.13	87.44
242.363	71.44
242.597	87.44
242.83	73.44
243.064	68.44
243.298	79.44
243.531	70.44
243.765	68.44
243.998	85.44
244.232	86.44
244.465	84.44
244.699	63.44
244.932	72.44
245.166	81.44
245.399	74.44
245.633	96.44
245.866	85.44
246.099	69.44
246.333	83.44
246.566	82.44
246.8	72.44
247.033	76.44
247.266	80.44
247.5	91.44
247.733	58.44
247.966	89.44
248.2	82.44
248.433	90.44
248.666	71.44
248.899	82.44
249.133	87.44
249.366	105.44
249.599	118.44
249.832	87.44
250.066	89.44
250.299	78.44
250.532	85.44
250.765	81.44
250.998	76.44
251.231	86.44
251.465	85.44
251.698	90.44
251.931	75.44
252.164	72.44
252.397	67.44
252.63	73.44
252.863	82.44
253.096	91.44
253.329	98.44
253.562	78.44
253.795	79.44
254.028	89.44
254.261	85.44
254.494	91.44
254.727	83.44
254.96	94.44
255.193	82.44
255.426	88.44
255.659	69.44
255.892	91.44
256.124	85.44
256.357	88.44
256.59	83.44
256.823	77.44
257.056	81.44
257.289	82.44
257.521	78.44
257.754	75.44
257.987	72.44
258.22	79.44
258.452	86.44
258.685	79.44
258.918	88.44
259.151	75.44
259.383	93.44
259.616	76.44
259.849	85.44
260.081	90.44
260.314	87.44
260.547	76.44
260.779	80.44
261.012	86.44
261.244	84.44
261.477	85.44
261.71	88.44
261.942	123.44
262.175	142.44
262.407	92.44
262.64	93.44
262.872	78.44
263.105	88.44
263.337	77.44
263.57	86.44
263.802	84.44
264.035	77.44
264.267	88.44
264.499	95.44
264.732	72.44
264.964	89.44
265.197	78.44
265.429	91.44
265.661	92.44
265.894	86.44
266.126	92.44
266.358	84.44
266.591	83.44
266.823	78.44
267.055	84.44
267.287	69.44
267.52	82.44
267.752	79.44
267.984	71.44
268.216	82.44
268.448	83.44
268.681	93.44
268.913	92.44
269.145	82.44
269.377	83.44
269.609	77.44
269.841	75.44
270.073	76.44
270.306	88.44
270.538	79.44
270.77	87.44
271.002	88.44
271.234	82.44
271.466	85.44
271.698	93.44
271.93	95.44
272.162	91.44
272.394	83.44
272.626	79.44
272.858	83.44
273.09	79.44
273.322	89.44
273.553	74.44
273.785	79.44
274.017	79.44
274.249	93.44
274.481	75.44
274.713	77.44
274.945	82.44
275.176	88.44
275.408	89.44
275.64	81.44
275.872	93.44
276.104	83.44
276.335	97.44
276.567	103.44
276.799	110.44
277.031	118.44
277.262	101.44
277.494	86.44
277.726	89.44
277.957	81.44
278.189	76.44
278.421	92.44
278.652	90.44
278.884	77.44
279.115	100.44
279.347	87.44
279.579	87.44
279.81	82.44
280.042	83.44
280.273	90.44
280.505	90.44
280.736	82.44
280.968	96.44
281.199	88.44
281.431	88.44
281.662	84.44
281.894	100.44
282.125	100.44
282.356	133.44
282.588	159.44
282.819	142.44
283.051	96.44
283.282	94.44
283.513	87.44
283.745	87.44
283.976	83.44
284.207	87.44
284.439	92.44
284.67	78.44
284.901	97.44
285.132	73.44
285.364	88.44
285.595	92.44
285.826	84.44
286.057	87.44
286.288	87.44
286.52	78.44
286.751	99.44
286.982	88.44
287.213	87.44
287.444	79.44
287.675	82.44
287.906	94.44
288.138	106.44
288.369	87.44
288.6	84.44
288.831	88.44
289.062	87.44
289.293	90.44
289.524	96.44
289.755	92.44
289.986	84.44
290.217	98.44
290.448	95.44
290.679	85.44
290.91	80.44
291.141	99.44
291.371	93.44
291.602	91.44
291.833	76.44
292.064	80.44
292.295	86.44
292.526	78.44
292.757	95.44
292.987	93.44
293.218	87.44
293.449	103.44
293.68	83.44
293.91	80.44
294.141	92.44
294.372	90.44
294.603	85.44
294.833	77.44
295.064	89.44
295.295	90.44
295.525	90.44
295.756	106.44
295.987	131.44
296.217	150.44
296.448	145.44
296.679	101.44
296.909	104.44
297.14	84.44
297.37	89.44
297.601	78.44
297.831	95.44
298.062	91.44
298.292	89.44
298.523	92.44
298.753	88.44
298.984	90.44
299.214	101.44
299.445	82.44
299.675	98.44
299.905	100.44
300.136	93.44
300.366	92.44
300.597	93.44
300.827	94.44
301.057	102.44
301.288	114.44
301.518	101.44
301.748	92.44
301.979	101.44
302.209	84.44
302.439	92.44
302.669	84.44
302.9	89.44
303.13	80.44
303.36	100.44
303.59	123.44
303.82	117.44
304.051	100.44
304.281	79.44
304.511	86.44
304.741	84.44
304.971	83.44
305.201	85.44
305.431	94.44
305.661	97.44
305.891	90.44
306.121	106.44
306.352	108.44
306.582	115.44
306.812	97.44
307.042	94.44
307.272	94.44
307.502	95.44
307.731	89.44
307.961	87.44
308.191	81.44
308.421	100.44
308.651	111.44
308.881	86.44
309.111	110.44
309.341	114.44
309.571	110.44
309.8	102.44
310.03	110.44
310.26	97.44
310.49	106.44
310.72	120.44
310.949	108.44
311.179	102.44
311.409	98.44
311.639	93.44
311.868	97.44
312.098	104.44
312.328	100.44
312.557	119.44
312.787	108.44
313.017	106.44
313.246	85.44
313.476	82.44
313.706	91.44
313.935	99.44
314.165	112.44
314.394	116.44
314.624	103.44
314.853	106.44
315.083	108.44
315.312	102.44
315.542	92.44
315.771	93.44
316.001	78.44
316.23	111.44
316.46	95.44
316.689	90.44
316.919	103.44
317.148	102.44
317.377	105.44
317.607	100.44
317.836	100.44
318.065	91.44
318.295	87.44
318.524	91.44
318.753	102.44
318.983	97.44
319.212	105.44
319.441	112.44
319.67	126.44
319.9	93.44
320.129	92.44
320.358	94.44
320.587	99.44
320.816	104.44
321.046	106.44
321.275	101.44
321.504	103.44
321.733	100.44
321.962	98.44
322.191	107.44
322.42	123.44
322.649	122.44
322.878	121.44
323.108	132.44
323.337	148.44
323.566	149.44
323.795	191.44
324.024	253.44
324.253	542.44
324.482	1214.44
324.71	2475.44
324.939	3222.44
325.168	1150.44
325.397	317.44
325.626	176.44
325.855	144.44
326.084	148.44
326.313	155.44
326.542	171.44
326.77	291.44
326.999	606.44
327.228	1288.44
327.457	2412.44
327.686	1865.44
327.914	499.44
328.143	248.44
328.372	182.44
328.6	145.44
328.829	153.44
329.058	147.44
329.287	142.44
329.515	130.44
329.744	104.44
329.972	92.44
330.201	104.44
330.43	120.44
330.658	151.44
330.887	185.44
331.115	138.44
331.344	103.44
331.572	102.44
331.801	111.44
332.03	119.44
332.258	101.44
332.486	86.44
332.715	88.44
332.943	86.44
333.172	98.44
333.4	111.44
333.629	117.44
333.857	124.44
334.085	113.44
334.314	102.44
334.542	99.44
334.771	108.44
334.999	106.44
335.227	86.44
335.455	92.44
335.684	107.44
335.912	85.44
336.14	94.44
336.369	104.44
336.597	113.44
336.825	94.44
337.053	102.44
337.281	105.44
337.51	85.44
337.738	86.44
337.966	101.44
338.194	112.44
338.422	90.44
338.65	98.44
338.878	89.44
339.106	87.44
339.334	94.44
339.562	87.44
339.79	77.44
340.018	86.44
340.246	99.44
340.474	95.44
340.702	101.44
340.93	95.44
341.158	97.44
341.386	95.44
341.614	108.44
341.842	110.44
342.07	82.44
342.298	81.44
342.526	96.44
342.754	87.44
342.981	89.44
343.209	97.44
343.437	96.44
343.665	105.44
343.893	83.44
344.12	85.44
344.348	92.44
344.576	90.44
344.804	92.44
345.031	106.44
345.259	99.44
345.487	95.44
345.714	100.44
345.942	75.44
346.17	93.44
346.397	95.44
346.625	98.44
346.853	103.44
347.08	105.44
347.308	101.44
347.535	103.44
347.763	114.44
347.99	104.44
348.218	105.44
348.445	108.44
348.673	108.44
348.9	102.44
349.128	114.44
349.355	103.44
349.583	87.44
349.81	103.44
350.037	84.44
350.265	92.44
350.492	90.44
350.72	104.44
350.947	104.44
351.174	125.44
351.402	131.44
351.629	109.44
351.856	110.44
352.083	94.44
352.311	116.44
352.538	111.44
352.765	110.44
352.992	123.44
353.22	117.44
353.447	107.44
353.674	106.44
353.901	100.44
354.128	114.44
354.355	116.44
354.583	95.44
354.81	95.44
355.037	101.44
355.264	81.44
355.491	94.44
355.718	89.44
355.945	86.44
356.172	85.44
356.399	93.44
356.626	95.44
356.853	85.44
357.08	99.44
357.307	98.44
357.534	80.44
357.761	91.44
357.988	98.44
358.215	89.44
358.441	94.44
358.668	88.44
358.895	90.44
359.122	101.44
359.349	77.44
359.576	108.44
359.802	100.44
360.029	136.44
360.256	118.44
360.483	112.44
360.709	101.44
360.936	91.44
361.163	97.44
361.39	99.44
361.616	97.44
361.843	102.44
362.07	108.44
362.296	111.44
362.523	107.44
362.749	90.44
362.976	92.44
363.203	88.44
363.429	87.44
363.656	94.44
363.882	94.44
364.109	95.44
364.335	99.44
364.562	118.44
364.788	95.44
365.015	93.44
365.241	104.44
365.468	125.44
365.694	109.44
365.92	108.44
366.147	99.44
366.373	84.44
366.599	96.44
366.826	95.44
367.052	86.44
367.278	81.44
367.505	96.44
367.731	85.44
367.957	95.44
368.184	99.44
368.41	101.44
368.636	111.44
368.862	127.44
369.089	105.44
369.315	102.44
369.541	91.44
369.767	99.44
369.993	94.44
370.219	96.44
370.445	73.44
370.672	86.44
370.898	94.44
371.124	94.44
371.35	99.44
371.576	78.44
371.802	97.44
372.028	91.44
372.254	84.44
372.48	90.44
372.706	88.44
372.932	87.44
373.158	97.44
373.384	83.44
373.61	93.44
373.835	85.44
374.061	102.44
374.287	96.44
374.513	94.44
374.739	82.44
374.965	93.44
375.191	87.44
375.416	98.44
375.642	96.44
375.868	96.44
376.094	85.44
376.319	89.44
376.545	97.44
376.771	100.44
376.997	76.44
377.222	99.44
377.448	100.44
377.674	90.44
377.899	105.44
378.125	94.44
378.35	91.44
378.576	103.44
378.802	80.44
379.027	87.44
379.253	86.44
379.478	102.44
379.704	99.44
379.929	86.44
380.155	94.44
380.38	91.44
380.606	100.44
380.831	73.44
381.057	94.44
381.282	98.44
381.507	93.44
381.733	102.44
381.958	107.44
382.184	108.44
382.409	113.44
382.634	103.44
382.86	112.44
383.085	103.44
383.31	107.44
383.535	109.44
383.761	112.44
383.986	102.44
384.211	98.44
384.436	92.44
384.662	98.44
384.887	109.44
385.112	115.44
385.337	117.44
385.562	92.44
385.787	124.44
386.013	120.44
386.238	126.44
386.463	116.44
386.688	116.44
386.913	109.44
387.138	119.44
387.363	103.44
387.588	97.44
387.813	103.44
388.038	105.44
388.263	116.44
388.488	108.44
388.713	100.44
388.938	93.44
389.163	93.44
389.387	87.44
389.612	100.44
389.837	87.44
390.062	103.44
390.287	88.44
390.512	90.44
390.736	90.44
390.961	99.44
391.186	87.44
391.411	89.44
391.636	106.44
391.86	85.44
392.085	78.44
392.31	74.44
392.534	95.44
392.759	85.44
392.984	94.44
393.208	92.44
393.433	85.44
393.658	111.44
393.882	91.44
394.107	95.44
394.331	73.44
394.556	93.44
394.78	74.44
395.005	82.44
395.229	92.44
395.454	95.44
395.678	84.44
395.903	82.44
396.127	102.44
396.352	96.44
396.576	84.44
396.801	84.44
397.025	99.44
397.249	86.44
397.474	96.44
397.698	84.44
397.922	96.44
398.147	81.44
398.371	91.44
398.595	91.44
398.82	88.44
399.044	82.44
399.268	87.44
399.492	87.44
399.717	94.44
399.941	90.44
400.165	93.44
400.389	76.44
400.613	83.44
400.837	84.44
401.062	90.44
401.286	86.44
401.51	92.44
401.734	86.44
401.958	114.44
402.182	159.44
402.406	205.44
402.63	141.44
402.854	100.44
403.078	103.44
403.302	92.44
403.526	89.44
403.75	76.44
403.974	83.44
404.198	92.44
404.422	88.44
404.645	89.44
404.869	99.44
405.093	106.44
405.317	106.44
405.541	109.44
405.765	107.44
405.988	138.44
406.212	203.44
406.436	294.44
406.66	176.44
406.883	116.44
407.107	107.44
407.331	101.44
407.555	119.44
407.778	99.44
408.002	84.44
408.226	93.44
408.449	92.44
408.673	100.44
408.896	100.44
409.12	91.44
409.344	89.44
409.567	86.44
409.791	93.44
410.014	93.44
410.238	107.44
410.461	102.44
410.685	102.44
410.908	93.44
411.132	103.44
411.355	116.44
411.578	100.44
411.802	80.44
412.025	85.44
412.249	101.44
412.472	85.44
412.695	95.44
412.919	98.44
413.142	93.44
413.365	92.44
413.589	92.44
413.812	87.44
414.035	98.44
414.258	83.44
414.482	89.44
414.705	83.44
414.928	82.44
415.151	95.44
415.374	95.44
415.597	94.44
415.821	109.44
416.044	99.44
416.267	83.44
416.49	94.44
416.713	80.44
416.936	88.44
417.159	83.44
417.382	87.44
417.605	105.44
417.828	109.44
418.051	111.44
418.274	80.44
418.497	100.44
418.72	87.44
418.943	76.44
419.166	82.44
419.389	97.44
419.611	78.44
419.834	89.44
420.057	100.44
420.28	85.44
420.503	82.44
420.726	75.44
420.948	76.44
421.171	88.44
421.394	78.44
421.617	80.44
421.839	95.44
422.062	92.44
422.285	108.44
422.507	94.44
422.73	103.44
422.953	80.44
423.175	108.44
423.398	90.44
423.621	81.44
423.843	80.44
424.066	94.44
424.288	85.44
424.511	101.44
424.733	90.44
424.956	108.44
425.178	112.44
425.401	98.44
425.623	98.44
425.846	92.44
426.068	108.44
426.291	89.44
426.513	96.44
426.735	86.44
426.958	94.44
427.18	110.44
427.402	147.44
427.625	210.44
427.847	162.44
428.069	122.44
428.292	94.44
428.514	82.44
428.736	86.44
428.958	72.44
429.181	93.44
429.403	90.44
429.625	77.44
429.847	82.44
430.069	105.44
430.292	85.44
430.514	85.44
430.736	91.44
430.958	84.44
431.18	103.44
431.402	84.44
431.624	85.44
431.846	93.44
432.068	83.44
432.29	94.44
432.512	87.44
432.734	87.44
432.956	86.44
433.178	104.44
433.4	110.44
433.622	99.44
433.844	89.44
434.066	88.44
434.287	93.44
434.509	96.44
434.731	88.44
434.953	91.44
435.175	94.44
435.397	98.44
435.618	95.44
435.84	110.44
436.062	135.44
436.284	117.44
436.505	114.44
436.727	109.44
436.949	89.44
437.17	94.44
437.392	93.44
437.614	91.44
437.835	125.44
438.057	146.44
438.278	116.44
438.5	104.44
438.721	137.44
438.943	98.44
439.165	96.44
439.386	78.44
439.608	101.44
439.829	116.44
440.05	130.44
440.272	174.44
440.493	100.44
440.715	89.44
440.936	92.44
441.158	93.44
441.379	100.44
441.6	85.44
441.822	99.44
442.043	98.44
442.264	122.44
442.486	112.44
442.707	109.44
442.928	121.44
443.149	160.44
443.371	154.44
443.592	129.44
443.813	140.44
444.034	118.44
444.255	96.44
444.476	91.44
444.698	90.44
444.919	92.44
445.14	155.44
445.361	141.44
445.582	137.44
445.803	188.44
446.024	154.44
446.245	156.44
446.466	122.44
446.687	94.44
446.908	95.44
447.129	74.44
447.35	98.44
447.571	92.44
447.792	92.44
448.013	106.44
448.234	120.44
448.455	114.44
448.675	130.44
448.896	129.44
449.117	118.44
449.338	110.44
449.559	133.44
449.779	142.44
450	109.44
450.221	85.44
450.442	103.44
450.662	108.44
450.883	112.44
451.104	131.44
451.324	101.44
451.545	83.44
451.766	95.44
451.986	87.44
452.207	98.44
452.428	90.44
452.648	94.44
452.869	129.44
453.089	141.44
453.31	151.44
453.53	112.44
453.751	106.44
453.971	112.44
454.192	127.44
454.412	98.44
454.633	86.44
454.853	86.44
455.073	84.44
455.294	104.44
455.514	110.44
455.734	82.44
455.955	94.44
456.175	96.44
456.395	103.44
456.616	91.44
456.836	91.44
457.056	88.44
457.276	91.44
457.497	87.44
457.717	76.44
457.937	88.44
458.157	102.44
458.377	97.44
458.598	135.44
458.818	181.44
459.038	202.44
459.258	138.44
459.478	105.44
459.698	88.44
459.918	83.44
460.138	79.44
460.358	92.44
460.578	79.44
460.798	82.44
461.018	91.44
461.238	96.44
461.458	101.44
461.678	83.44
461.898	94.44
462.118	86.44
462.338	84.44
462.558	79.44
462.777	88.44
462.997	85.44
463.217	86.44
463.437	86.44
463.657	100.44
463.876	75.44
464.096	106.44
464.316	95.44
464.536	92.44
464.755	91.44
464.975	108.44
465.195	220.44
465.414	214.44
465.634	99.44
465.854	103.44
466.073	83.44
466.293	87.44
466.512	84.44
466.732	93.44
466.951	87.44
467.171	98.44
467.391	94.44
467.61	114.44
467.829	100.44
468.049	104.44
468.268	93.44
468.488	88.44
468.707	79.44
468.927	91.44
469.146	83.44
469.365	91.44
469.585	101.44
469.804	97.44
470.023	107.44
470.243	101.44
470.462	103.44
470.681	125.44
470.901	96.44
471.12	90.44
471.339	102.44
471.558	93.44
471.777	89.44
471.997	95.44
472.216	93.44
472.435	106.44
472.654	102.44
472.873	78.44
473.092	90.44
473.311	76.44
473.53	85.44
473.749	86.44
473.968	97.44
474.187	129.44
474.406	83.44
474.625	90.44
474.844	90.44
475.063	91.44
475.282	92.44
475.501	85.44
475.72	83.44
475.939	75.44
476.158	90.44
476.377	91.44
476.596	99.44
476.814	101.44
477.033	104.44
477.252	95.44
477.471	96.44
477.69	82.44
477.908	83.44
478.127	83.44
478.346	93.44
478.564	101.44
478.783	104.44
479.002	90.44
479.22	112.44
479.439	98.44
479.658	110.44
479.876	76.44
480.095	94.44
480.313	91.44
480.532	86.44
480.751	98.44
480.969	104.44
481.188	129.44
481.406	109.44
481.624	103.44
481.843	76.44
482.061	91.44
482.28	87.44
482.498	90.44
482.717	91.44
482.935	101.44
483.153	83.44
483.372	86.44
483.59	93.44
483.808	92.44
484.027	98.44
484.245	102.44
484.463	87.44
484.681	93.44
484.9	93.44
485.118	101.44
485.336	91.44
485.554	81.44
485.772	86.44
485.99	104.44
486.209	105.44
486.427	85.44
486.645	104.44
486.863	106.44
487.081	96.44
487.299	86.44
487.517	103.44
487.735	86.44
487.953	101.44
488.171	94.44
488.389	99.44
488.607	103.44
488.825	92.44
489.043	93.44
489.261	85.44
489.479	83.44
489.696	95.44
489.914	91.44
490.132	90.44
490.35	87.44
490.568	74.44
490.786	94.44
491.003	109.44
491.221	94.44
491.439	86.44
491.657	88.44
491.874	95.44
492.092	79.44
492.31	85.44
492.527	98.44
492.745	91.44
492.963	82.44
493.18	85.44
493.398	103.44
493.615	102.44
493.833	101.44
494.05	83.44
494.268	95.44
494.485	104.44
494.703	87.44
494.92	79.44
495.138	85.44
495.355	109.44
495.573	93.44
495.79	92.44
496.008	100.44
496.225	89.44
496.442	74.44
496.66	87.44
496.877	94.44
497.094	99.44
497.312	98.44
497.529	86.44
497.746	93.44
497.963	91.44
498.181	96.44
498.398	96.44
498.615	114.44
498.832	98.44
499.049	98.44
499.267	104.44
499.484	100.44
499.701	97.44
499.918	96.44
500.135	94.44
500.352	93.44
500.569	92.44
500.786	94.44
501.003	94.44
501.22	90.44
501.437	92.44
501.654	102.44
501.871	123.44
502.088	93.44
502.305	99.44
502.522	94.44
502.739	100.44
502.956	94.44
503.172	94.44
503.389	91.44
503.606	112.44
503.823	88.44
504.04	94.44
504.256	95.44
504.473	96.44
504.69	82.44
504.907	80.44
505.123	84.44
505.34	87.44
505.557	87.44
505.773	99.44
505.99	96.44
506.207	95.44
506.423	82.44
506.64	78.44
506.856	95.44
507.073	95.44
507.289	91.44
507.506	121.44
507.722	140.44
507.939	127.44
508.155	102.44
508.372	97.44
508.588	76.44
508.805	104.44
509.021	109.44
509.238	87.44
509.454	105.44
509.67	114.44
509.887	107.44
510.103	143.44
510.319	262.44
510.536	1018.44
510.752	3592.44
510.968	974.44
511.184	199.44
511.401	126.44
511.617	116.44
511.833	105.44
512.049	91.44
512.265	108.44
512.481	100.44
512.698	107.44
512.914	91.44
513.13	96.44
513.346	76.44
513.562	88.44
513.778	93.44
513.994	120.44
514.21	109.44
