Data from Circ_2012_H10_HRD10591_00013.txt Node
Date: Wed Jan 03 10:05:53 EST 2024
User: Yrep
Spectrometer: HR+D1059
Trigger mode: 1
Integration Time (sec): 1.000000E-1
Scans to average: 1
Electric dark correction enabled: true
Nonlinearity correction enabled: false
Boxcar width: 0
XAxis mode: Wavelengths
Number of Pixels in Spectrum: 2048
>>>>>Begin Spectral Data<<<<<
223.165	-11.5
223.4	-11.5
223.635	-11.5
223.869	-18.5
224.104	-34.5
224.338	-34.5
224.573	-11.5
224.808	-11.5
225.042	-6.5
225.277	-12.5
225.511	-5.5
225.746	11.5
225.98	5.5
226.215	14.5
226.449	26.5
226.683	22.5
226.918	27.5
227.152	38.5
227.387	30.5
227.621	33.5
227.856	42.5
228.09	54.5
228.324	54.5
228.559	60.5
228.793	58.5
229.027	51.5
229.262	77.5
229.496	71.5
229.73	82.5
229.964	90.5
230.199	70.5
230.433	83.5
230.667	81.5
230.901	88.5
231.136	81.5
231.37	76.5
231.604	81.5
231.838	87.5
232.072	83.5
232.306	84.5
232.541	96.5
232.775	67.5
233.009	72.5
233.243	79.5
233.477	80.5
233.711	73.5
233.945	88.5
234.179	97.5
234.413	81.5
234.647	84.5
234.881	67.5
235.115	78.5
235.349	71.5
235.583	82.5
235.817	81.5
236.051	73.5
236.285	71.5
236.519	78.5
236.753	78.5
236.987	87.5
237.221	102.5
237.455	70.5
237.689	88.5
237.922	86.5
238.156	79.5
238.39	87.5
238.624	85.5
238.858	70.5
239.091	67.5
239.325	88.5
239.559	72.5
239.793	77.5
240.027	89.5
240.26	78.5
240.494	79.5
240.728	87.5
240.961	92.5
241.195	81.5
241.429	83.5
241.662	85.5
241.896	83.5
242.13	90.5
242.363	91.5
242.597	79.5
242.83	83.5
243.064	61.5
243.298	88.5
243.531	88.5
243.765	75.5
243.998	78.5
244.232	81.5
244.465	89.5
244.699	75.5
244.932	77.5
245.166	75.5
245.399	82.5
245.633	79.5
245.866	80.5
246.099	82.5
246.333	74.5
246.566	84.5
246.8	94.5
247.033	74.5
247.266	62.5
247.5	83.5
247.733	94.5
247.966	81.5
248.2	74.5
248.433	76.5
248.666	79.5
248.899	91.5
249.133	89.5
249.366	124.5
249.599	115.5
249.832	87.5
250.066	92.5
250.299	100.5
250.532	82.5
250.765	87.5
250.998	75.5
251.231	82.5
251.465	96.5
251.698	76.5
251.931	77.5
252.164	93.5
252.397	98.5
252.63	83.5
252.863	82.5
253.096	82.5
253.329	94.5
253.562	82.5
253.795	83.5
254.028	79.5
254.261	67.5
254.494	81.5
254.727	79.5
254.96	97.5
255.193	76.5
255.426	88.5
255.659	86.5
255.892	73.5
256.124	80.5
256.357	81.5
256.59	67.5
256.823	82.5
257.056	69.5
257.289	77.5
257.521	83.5
257.754	79.5
257.987	85.5
258.22	77.5
258.452	78.5
258.685	84.5
258.918	72.5
259.151	76.5
259.383	84.5
259.616	84.5
259.849	80.5
260.081	81.5
260.314	74.5
260.547	78.5
260.779	81.5
261.012	88.5
261.244	79.5
261.477	104.5
261.71	98.5
261.942	130.5
262.175	144.5
262.407	95.5
262.64	80.5
262.872	83.5
263.105	89.5
263.337	82.5
263.57	84.5
263.802	88.5
264.035	79.5
264.267	78.5
264.499	74.5
264.732	82.5
264.964	98.5
265.197	93.5
265.429	82.5
265.661	90.5
265.894	91.5
266.126	81.5
266.358	83.5
266.591	88.5
266.823	84.5
267.055	95.5
267.287	91.5
267.52	88.5
267.752	105.5
267.984	87.5
268.216	92.5
268.448	89.5
268.681	78.5
268.913	80.5
269.145	95.5
269.377	83.5
269.609	89.5
269.841	91.5
270.073	90.5
270.306	89.5
270.538	81.5
270.77	78.5
271.002	96.5
271.234	97.5
271.466	99.5
271.698	88.5
271.93	102.5
272.162	90.5
272.394	96.5
272.626	90.5
272.858	90.5
273.09	83.5
273.322	83.5
273.553	95.5
273.785	102.5
274.017	87.5
274.249	98.5
274.481	97.5
274.713	86.5
274.945	93.5
275.176	75.5
275.408	79.5
275.64	85.5
275.872	94.5
276.104	95.5
276.335	110.5
276.567	124.5
276.799	140.5
277.031	129.5
277.262	114.5
277.494	91.5
277.726	113.5
277.957	87.5
278.189	94.5
278.421	71.5
278.652	90.5
278.884	99.5
279.115	99.5
279.347	89.5
279.579	99.5
279.81	85.5
280.042	88.5
280.273	83.5
280.505	79.5
280.736	92.5
280.968	99.5
281.199	106.5
281.431	98.5
281.662	97.5
281.894	91.5
282.125	111.5
282.356	139.5
282.588	166.5
282.819	132.5
283.051	98.5
283.282	82.5
283.513	84.5
283.745	93.5
283.976	88.5
284.207	82.5
284.439	88.5
284.67	77.5
284.901	81.5
285.132	93.5
285.364	85.5
285.595	83.5
285.826	92.5
286.057	104.5
286.288	87.5
286.52	88.5
286.751	96.5
286.982	80.5
287.213	86.5
287.444	96.5
287.675	105.5
287.906	102.5
288.138	97.5
288.369	106.5
288.6	96.5
288.831	88.5
289.062	88.5
289.293	92.5
289.524	91.5
289.755	82.5
289.986	84.5
290.217	88.5
290.448	82.5
290.679	90.5
290.91	85.5
291.141	86.5
291.371	95.5
291.602	84.5
291.833	95.5
292.064	102.5
292.295	94.5
292.526	91.5
292.757	104.5
292.987	94.5
293.218	80.5
293.449	88.5
293.68	85.5
293.91	92.5
294.141	95.5
294.372	99.5
294.603	91.5
294.833	96.5
295.064	94.5
295.295	93.5
295.525	93.5
295.756	96.5
295.987	131.5
296.217	190.5
296.448	157.5
296.679	80.5
296.909	99.5
297.14	91.5
297.37	89.5
297.601	104.5
297.831	99.5
298.062	102.5
298.292	104.5
298.523	90.5
298.753	93.5
298.984	91.5
299.214	87.5
299.445	99.5
299.675	100.5
299.905	107.5
300.136	106.5
300.366	97.5
300.597	88.5
300.827	92.5
301.057	113.5
301.288	111.5
301.518	112.5
301.748	100.5
301.979	110.5
302.209	96.5
302.439	94.5
302.669	91.5
302.9	93.5
303.13	84.5
303.36	112.5
303.59	109.5
303.82	120.5
304.051	96.5
304.281	106.5
304.511	97.5
304.741	92.5
304.971	92.5
305.201	94.5
305.431	109.5
305.661	92.5
305.891	94.5
306.121	112.5
306.352	114.5
306.582	123.5
306.812	109.5
307.042	103.5
307.272	101.5
307.502	100.5
307.731	105.5
307.961	109.5
308.191	107.5
308.421	95.5
308.651	90.5
308.881	99.5
309.111	88.5
309.341	87.5
309.571	97.5
309.8	99.5
310.03	104.5
310.26	97.5
310.49	113.5
310.72	99.5
310.949	121.5
311.179	124.5
311.409	98.5
311.639	100.5
311.868	100.5
312.098	100.5
312.328	114.5
312.557	99.5
312.787	123.5
313.017	127.5
313.246	107.5
313.476	96.5
313.706	94.5
313.935	116.5
314.165	105.5
314.394	126.5
314.624	110.5
314.853	89.5
315.083	109.5
315.312	111.5
315.542	110.5
315.771	92.5
316.001	89.5
316.23	98.5
316.46	99.5
316.689	83.5
316.919	97.5
317.148	107.5
317.377	107.5
317.607	110.5
317.836	100.5
318.065	110.5
318.295	102.5
318.524	100.5
318.753	91.5
318.983	86.5
319.212	122.5
319.441	136.5
319.67	121.5
319.9	105.5
320.129	101.5
320.358	111.5
320.587	94.5
320.816	99.5
321.046	119.5
321.275	111.5
321.504	96.5
321.733	110.5
321.962	118.5
322.191	100.5
322.42	103.5
322.649	124.5
322.878	122.5
323.108	126.5
323.337	148.5
323.566	172.5
323.795	202.5
324.024	288.5
324.253	565.5
324.482	1218.5
324.71	2567.5
324.939	3388.5
325.168	1201.5
325.397	342.5
325.626	178.5
325.855	147.5
326.084	148.5
326.313	148.5
326.542	196.5
326.77	298.5
326.999	638.5
327.228	1354.5
327.457	2508.5
327.686	1970.5
327.914	508.5
328.143	265.5
328.372	188.5
328.6	170.5
328.829	130.5
329.058	163.5
329.287	186.5
329.515	130.5
329.744	107.5
329.972	110.5
330.201	106.5
330.43	144.5
330.658	169.5
330.887	211.5
331.115	172.5
331.344	108.5
331.572	134.5
331.801	115.5
332.03	126.5
332.258	107.5
332.486	96.5
332.715	103.5
332.943	104.5
333.172	102.5
333.4	108.5
333.629	127.5
333.857	128.5
334.085	129.5
334.314	101.5
334.542	107.5
334.771	130.5
334.999	107.5
335.227	112.5
335.455	94.5
335.684	96.5
335.912	104.5
336.14	91.5
336.369	114.5
336.597	116.5
336.825	109.5
337.053	97.5
337.281	103.5
337.51	85.5
337.738	102.5
337.966	86.5
338.194	112.5
338.422	103.5
338.65	79.5
338.878	94.5
339.106	111.5
339.334	96.5
339.562	102.5
339.79	94.5
340.018	94.5
340.246	95.5
340.474	100.5
340.702	100.5
340.93	108.5
341.158	98.5
341.386	105.5
341.614	102.5
341.842	115.5
342.07	96.5
342.298	104.5
342.526	89.5
342.754	100.5
342.981	94.5
343.209	78.5
343.437	108.5
343.665	93.5
343.893	83.5
344.12	97.5
344.348	96.5
344.576	100.5
344.804	106.5
345.031	112.5
345.259	106.5
345.487	108.5
345.714	91.5
345.942	93.5
346.17	102.5
346.397	98.5
346.625	105.5
346.853	106.5
347.08	88.5
347.308	96.5
347.535	100.5
347.763	96.5
347.99	99.5
348.218	126.5
348.445	113.5
348.673	122.5
348.9	98.5
349.128	100.5
349.355	115.5
349.583	94.5
349.81	107.5
350.037	97.5
350.265	99.5
350.492	95.5
350.72	99.5
350.947	111.5
351.174	146.5
351.402	122.5
351.629	105.5
351.856	102.5
352.083	119.5
352.311	121.5
352.538	136.5
352.765	135.5
352.992	127.5
353.22	122.5
353.447	100.5
353.674	108.5
353.901	108.5
354.128	96.5
354.355	103.5
354.583	100.5
354.81	113.5
355.037	98.5
355.264	95.5
355.491	92.5
355.718	99.5
355.945	102.5
356.172	98.5
356.399	77.5
356.626	97.5
356.853	83.5
357.08	99.5
357.307	98.5
357.534	93.5
357.761	95.5
357.988	103.5
358.215	88.5
358.441	94.5
358.668	81.5
358.895	91.5
359.122	102.5
359.349	99.5
359.576	111.5
359.802	111.5
360.029	133.5
360.256	147.5
360.483	111.5
360.709	94.5
360.936	98.5
361.163	102.5
361.39	110.5
361.616	113.5
361.843	104.5
362.07	102.5
362.296	114.5
362.523	101.5
362.749	89.5
362.976	102.5
363.203	94.5
363.429	96.5
363.656	90.5
363.882	87.5
364.109	99.5
364.335	98.5
364.562	119.5
364.788	88.5
365.015	109.5
365.241	104.5
365.468	114.5
365.694	115.5
365.92	121.5
366.147	108.5
366.373	99.5
366.599	87.5
366.826	107.5
367.052	92.5
367.278	105.5
367.505	82.5
367.731	100.5
367.957	99.5
368.184	101.5
368.41	113.5
368.636	131.5
368.862	150.5
369.089	120.5
369.315	110.5
369.541	102.5
369.767	107.5
369.993	89.5
370.219	104.5
370.445	107.5
370.672	87.5
370.898	97.5
371.124	92.5
371.35	88.5
371.576	95.5
371.802	91.5
372.028	88.5
372.254	107.5
372.48	87.5
372.706	83.5
372.932	97.5
373.158	94.5
373.384	105.5
373.61	97.5
373.835	99.5
374.061	81.5
374.287	108.5
374.513	96.5
374.739	106.5
374.965	95.5
375.191	84.5
375.416	104.5
375.642	88.5
375.868	99.5
376.094	95.5
376.319	103.5
376.545	88.5
376.771	92.5
376.997	95.5
377.222	93.5
377.448	85.5
377.674	90.5
377.899	93.5
378.125	98.5
378.35	100.5
378.576	98.5
378.802	89.5
379.027	85.5
379.253	89.5
379.478	94.5
379.704	105.5
379.929	93.5
380.155	106.5
380.38	102.5
380.606	108.5
380.831	91.5
381.057	99.5
381.282	103.5
381.507	103.5
381.733	107.5
381.958	93.5
382.184	106.5
382.409	103.5
382.634	111.5
382.86	118.5
383.085	103.5
383.31	108.5
383.535	98.5
383.761	99.5
383.986	93.5
384.211	83.5
384.436	103.5
384.662	113.5
384.887	116.5
385.112	104.5
385.337	102.5
385.562	106.5
385.787	108.5
386.013	125.5
386.238	120.5
386.463	118.5
386.688	112.5
386.913	116.5
387.138	118.5
387.363	103.5
387.588	124.5
387.813	107.5
388.038	107.5
388.263	118.5
388.488	107.5
388.713	89.5
388.938	92.5
389.163	98.5
389.387	102.5
389.612	97.5
389.837	99.5
390.062	99.5
390.287	92.5
390.512	95.5
390.736	100.5
390.961	94.5
391.186	105.5
391.411	87.5
391.636	98.5
391.86	87.5
392.085	92.5
392.31	79.5
392.534	90.5
392.759	90.5
392.984	89.5
393.208	82.5
393.433	102.5
393.658	96.5
393.882	82.5
394.107	91.5
394.331	82.5
394.556	97.5
394.78	107.5
395.005	98.5
395.229	96.5
395.454	87.5
395.678	92.5
395.903	98.5
396.127	88.5
396.352	95.5
396.576	83.5
396.801	90.5
397.025	103.5
397.249	106.5
397.474	109.5
397.698	80.5
397.922	99.5
398.147	85.5
398.371	83.5
398.595	92.5
398.82	88.5
399.044	79.5
399.268	90.5
399.492	92.5
399.717	82.5
399.941	101.5
400.165	99.5
400.389	103.5
400.613	87.5
400.837	78.5
401.062	96.5
401.286	95.5
401.51	106.5
401.734	106.5
401.958	103.5
402.182	148.5
402.406	207.5
402.63	154.5
402.854	103.5
403.078	109.5
403.302	98.5
403.526	97.5
403.75	105.5
403.974	90.5
404.198	87.5
404.422	102.5
404.645	107.5
404.869	111.5
405.093	96.5
405.317	112.5
405.541	108.5
405.765	124.5
405.988	138.5
406.212	232.5
406.436	330.5
406.66	203.5
406.883	114.5
407.107	119.5
407.331	100.5
407.555	113.5
407.778	111.5
408.002	105.5
408.226	87.5
408.449	91.5
408.673	106.5
408.896	103.5
409.12	91.5
409.344	106.5
409.567	95.5
409.791	102.5
410.014	98.5
410.238	86.5
410.461	88.5
410.685	111.5
410.908	103.5
411.132	130.5
411.355	102.5
411.578	102.5
411.802	84.5
412.025	88.5
412.249	93.5
412.472	89.5
412.695	94.5
412.919	88.5
413.142	90.5
413.365	86.5
413.589	91.5
413.812	95.5
414.035	106.5
414.258	95.5
414.482	93.5
414.705	97.5
414.928	110.5
415.151	91.5
415.374	98.5
415.597	84.5
415.821	89.5
416.044	96.5
416.267	98.5
416.49	88.5
416.713	97.5
416.936	102.5
417.159	90.5
417.382	88.5
417.605	91.5
417.828	96.5
418.051	102.5
418.274	103.5
418.497	85.5
418.72	75.5
418.943	102.5
419.166	104.5
419.389	98.5
419.611	98.5
419.834	87.5
420.057	96.5
420.28	108.5
420.503	85.5
420.726	98.5
420.948	108.5
421.171	107.5
421.394	99.5
421.617	78.5
421.839	87.5
422.062	93.5
422.285	94.5
422.507	100.5
422.73	121.5
422.953	94.5
423.175	92.5
423.398	84.5
423.621	85.5
423.843	94.5
424.066	80.5
424.288	99.5
424.511	91.5
424.733	112.5
424.956	121.5
425.178	111.5
425.401	112.5
425.623	116.5
425.846	96.5
426.068	98.5
426.291	100.5
426.513	104.5
426.735	99.5
426.958	105.5
427.18	106.5
427.402	185.5
427.625	230.5
427.847	156.5
428.069	108.5
428.292	87.5
428.514	77.5
428.736	95.5
428.958	90.5
429.181	83.5
429.403	99.5
429.625	93.5
429.847	105.5
430.069	121.5
430.292	112.5
430.514	94.5
430.736	83.5
430.958	73.5
431.18	99.5
431.402	107.5
431.624	90.5
431.846	84.5
432.068	94.5
432.29	78.5
432.512	90.5
432.734	97.5
432.956	104.5
433.178	106.5
433.4	112.5
433.622	91.5
433.844	86.5
434.066	107.5
434.287	99.5
434.509	104.5
434.731	93.5
434.953	88.5
435.175	90.5
435.397	86.5
435.618	104.5
435.84	103.5
436.062	140.5
436.284	129.5
436.505	123.5
436.727	111.5
436.949	90.5
437.17	93.5
437.392	96.5
437.614	123.5
437.835	141.5
438.057	154.5
438.278	124.5
438.5	109.5
438.721	109.5
438.943	90.5
439.165	98.5
439.386	104.5
439.608	113.5
439.829	131.5
440.05	138.5
440.272	179.5
440.493	98.5
440.715	98.5
440.936	96.5
441.158	109.5
441.379	105.5
441.6	104.5
441.822	106.5
442.043	110.5
442.264	118.5
442.486	114.5
442.707	114.5
442.928	127.5
443.149	179.5
443.371	164.5
443.592	134.5
443.813	126.5
444.034	115.5
444.255	86.5
444.476	83.5
444.698	84.5
444.919	92.5
445.14	132.5
445.361	142.5
445.582	139.5
445.803	191.5
446.024	161.5
446.245	164.5
446.466	120.5
446.687	109.5
446.908	95.5
447.129	85.5
447.35	96.5
447.571	97.5
447.792	104.5
448.013	110.5
448.234	131.5
448.455	115.5
448.675	128.5
448.896	138.5
449.117	115.5
449.338	87.5
449.559	142.5
449.779	148.5
450	111.5
450.221	95.5
450.442	97.5
450.662	109.5
450.883	125.5
451.104	145.5
451.324	103.5
451.545	97.5
451.766	99.5
451.986	97.5
452.207	83.5
452.428	94.5
452.648	120.5
452.869	135.5
453.089	142.5
453.31	146.5
453.53	95.5
453.751	96.5
453.971	128.5
454.192	139.5
454.412	120.5
454.633	87.5
454.853	96.5
455.073	102.5
455.294	89.5
455.514	92.5
455.734	98.5
455.955	69.5
456.175	96.5
456.395	77.5
456.616	98.5
456.836	90.5
457.056	73.5
457.276	74.5
457.497	84.5
457.717	95.5
457.937	87.5
458.157	100.5
458.377	90.5
458.598	140.5
458.818	194.5
459.038	207.5
459.258	147.5
459.478	100.5
459.698	96.5
459.918	94.5
460.138	99.5
460.358	93.5
460.578	96.5
460.798	88.5
461.018	94.5
461.238	85.5
461.458	91.5
461.678	95.5
461.898	97.5
462.118	89.5
462.338	80.5
462.558	88.5
462.777	94.5
462.997	84.5
463.217	85.5
463.437	94.5
463.657	88.5
463.876	94.5
464.096	97.5
464.316	104.5
464.536	102.5
464.755	103.5
464.975	122.5
465.195	248.5
465.414	216.5
465.634	120.5
465.854	112.5
466.073	107.5
466.293	100.5
466.512	94.5
466.732	92.5
466.951	102.5
467.171	99.5
467.391	96.5
467.61	131.5
467.829	114.5
468.049	102.5
468.268	105.5
468.488	93.5
468.707	75.5
468.927	78.5
469.146	80.5
469.365	93.5
469.585	99.5
469.804	100.5
470.023	95.5
470.243	97.5
470.462	112.5
470.681	140.5
470.901	107.5
471.12	104.5
471.339	94.5
471.558	89.5
471.777	89.5
471.997	92.5
472.216	97.5
472.435	124.5
472.654	88.5
472.873	94.5
473.092	97.5
473.311	98.5
473.53	111.5
473.749	108.5
473.968	116.5
474.187	106.5
474.406	88.5
474.625	86.5
474.844	89.5
475.063	80.5
475.282	93.5
475.501	102.5
475.72	86.5
475.939	88.5
476.158	109.5
476.377	104.5
476.596	91.5
476.814	110.5
477.033	99.5
477.252	105.5
477.471	93.5
477.69	92.5
477.908	95.5
478.127	105.5
478.346	90.5
478.564	73.5
478.783	93.5
479.002	102.5
479.22	110.5
479.439	130.5
479.658	112.5
479.876	102.5
480.095	97.5
480.313	85.5
480.532	92.5
480.751	102.5
480.969	112.5
481.188	148.5
481.406	135.5
481.624	110.5
481.843	87.5
482.061	84.5
482.28	82.5
482.498	81.5
482.717	103.5
482.935	87.5
483.153	102.5
483.372	99.5
483.59	90.5
483.808	90.5
484.027	97.5
484.245	103.5
484.463	98.5
484.681	119.5
484.9	89.5
485.118	95.5
485.336	110.5
485.554	105.5
485.772	102.5
485.99	114.5
486.209	101.5
486.427	105.5
486.645	115.5
486.863	121.5
487.081	107.5
487.299	107.5
487.517	96.5
487.735	102.5
487.953	96.5
488.171	110.5
488.389	89.5
488.607	112.5
488.825	105.5
489.043	95.5
489.261	105.5
489.479	97.5
489.696	89.5
489.914	91.5
490.132	91.5
490.35	106.5
490.568	98.5
490.786	88.5
491.003	91.5
491.221	90.5
491.439	106.5
491.657	109.5
491.874	85.5
492.092	110.5
492.31	100.5
492.527	102.5
492.745	98.5
492.963	94.5
493.18	100.5
493.398	106.5
493.615	103.5
493.833	91.5
494.05	88.5
494.268	108.5
494.485	100.5
494.703	109.5
494.92	102.5
495.138	94.5
495.355	104.5
495.573	104.5
495.79	91.5
496.008	95.5
496.225	94.5
496.442	104.5
496.66	104.5
496.877	107.5
497.094	102.5
497.312	92.5
497.529	102.5
497.746	98.5
497.963	107.5
498.181	105.5
498.398	104.5
498.615	123.5
498.832	118.5
499.049	90.5
499.267	88.5
499.484	92.5
499.701	86.5
499.918	75.5
500.135	93.5
500.352	81.5
500.569	95.5
500.786	104.5
501.003	94.5
501.22	101.5
501.437	114.5
501.654	113.5
501.871	136.5
502.088	109.5
502.305	106.5
502.522	76.5
502.739	101.5
502.956	106.5
503.172	88.5
503.389	105.5
503.606	132.5
503.823	105.5
504.04	102.5
504.256	96.5
504.473	96.5
504.69	100.5
504.907	101.5
505.123	92.5
505.34	99.5
505.557	102.5
505.773	87.5
505.99	106.5
506.207	93.5
506.423	104.5
506.64	94.5
506.856	90.5
507.073	104.5
507.289	95.5
507.506	111.5
507.722	152.5
507.939	125.5
508.155	119.5
508.372	98.5
508.588	113.5
508.805	103.5
509.021	100.5
509.238	107.5
509.454	137.5
509.67	136.5
509.887	130.5
510.103	141.5
510.319	274.5
510.536	1049.5
510.752	3703.5
510.968	1010.5
511.184	208.5
511.401	115.5
511.617	105.5
511.833	100.5
512.049	92.5
512.265	86.5
512.481	90.5
512.698	99.5
512.914	98.5
513.13	105.5
513.346	102.5
513.562	99.5
513.778	118.5
513.994	110.5
514.21	115.5
514.426	146.5
514.642	184.5
514.858	151.5
515.074	224.5
515.29	779.5
515.506	2669.5
515.721	966.5
515.937	219.5
516.153	138.5
516.369	118.5
516.585	107.5
516.801	106.5
517.016	103.5
517.232	124.5
517.448	104.5
517.664	100.5
517.879	90.5
518.095	97.5
518.311	113.5
518.527	107.5
518.742	104.5
518.958	99.5
519.173	107.5
519.389	102.5
519.605	104.5
519.82	102.5
520.036	123.5
520.251	148.5
520.467	146.5
520.682	137.5
520.898	119.5
521.113	145.5
521.329	197.5
521.544	319.5
521.76	971.5
521.975	4406.5
522.19	2697.5
522.406	532.5
522.621	171.5
522.836	106.5
523.052	102.5
523.267	103.5
523.482	103.5
523.698	118.5
523.913	151.5
524.128	129.5
524.343	110.5
524.559	99.5
524.774	95.5
524.989	101.5
525.204	127.5
525.419	111.5
525.634	111.5
525.849	101.5
526.064	99.5
526.28	92.5
526.495	107.5
526.71	103.5
526.925	94.5
527.14	96.5
527.355	102.5
527.57	96.5
527.785	86.5
527.999	99.5
528.214	90.5
528.429	114.5
528.644	98.5
528.859	95.5
529.074	101.5
529.289	153.5
529.503	257.5
529.718	124.5
529.933	107.5
530.148	87.5
530.363	89.5
530.577	95.5
530.792	99.5
531.007	98.5
