Data from Circ_2012_H10_HRD10591_00099.txt Node
Date: Wed Jan 03 10:06:10 EST 2024
User: Yrep
Spectrometer: HR+D1059
Trigger mode: 1
Integration Time (sec): 1.000000E-1
Scans to average: 1
Electric dark correction enabled: true
Nonlinearity correction enabled: false
Boxcar width: 0
XAxis mode: Wavelengths
Number of Pixels in Spectrum: 2048
>>>>>Begin Spectral Data<<<<<
223.165	-15.31
223.4	-15.31
223.635	-15.31
223.869	-14.31
224.104	-18.31
224.338	-19.31
224.573	-6.31
224.808	-13.31
225.042	-13.31
225.277	-8.31
225.511	-6.31
225.746	1.69
225.98	6.69
226.215	3.69
226.449	19.69
226.683	16.69
226.918	29.69
227.152	36.69
227.387	36.69
227.621	37.69
227.856	31.69
228.09	63.69
228.324	54.69
228.559	46.69
228.793	53.69
229.027	55.69
229.262	77.69
229.496	72.69
229.73	83.69
229.964	77.69
230.199	74.69
230.433	78.69
230.667	66.69
230.901	60.69
231.136	82.69
231.37	78.69
231.604	80.69
231.838	77.69
232.072	78.69
232.306	70.69
232.541	58.69
232.775	74.69
233.009	87.69
233.243	79.69
233.477	79.69
233.711	82.69
233.945	82.69
234.179	69.69
234.413	69.69
234.647	79.69
234.881	59.69
235.115	70.69
235.349	81.69
235.583	82.69
235.817	77.69
236.051	88.69
236.285	81.69
236.519	78.69
236.753	90.69
236.987	77.69
237.221	82.69
237.455	91.69
237.689	94.69
237.922	60.69
238.156	76.69
238.39	82.69
238.624	67.69
238.858	76.69
239.091	75.69
239.325	82.69
239.559	76.69
239.793	88.69
240.027	72.69
240.26	79.69
240.494	78.69
240.728	59.69
240.961	79.69
241.195	79.69
241.429	77.69
241.662	70.69
241.896	68.69
242.13	62.69
242.363	84.69
242.597	86.69
242.83	75.69
243.064	70.69
243.298	73.69
243.531	71.69
243.765	86.69
243.998	91.69
244.232	98.69
244.465	78.69
244.699	84.69
244.932	79.69
245.166	77.69
245.399	76.69
245.633	82.69
245.866	66.69
246.099	82.69
246.333	90.69
246.566	76.69
246.8	74.69
247.033	78.69
247.266	77.69
247.5	85.69
247.733	75.69
247.966	77.69
248.2	87.69
248.433	83.69
248.666	86.69
248.899	74.69
249.133	87.69
249.366	92.69
249.599	88.69
249.832	71.69
250.066	74.69
250.299	83.69
250.532	71.69
250.765	82.69
250.998	67.69
251.231	80.69
251.465	90.69
251.698	72.69
251.931	93.69
252.164	74.69
252.397	83.69
252.63	94.69
252.863	78.69
253.096	84.69
253.329	84.69
253.562	76.69
253.795	69.69
254.028	73.69
254.261	84.69
254.494	84.69
254.727	93.69
254.96	85.69
255.193	79.69
255.426	69.69
255.659	65.69
255.892	83.69
256.124	92.69
256.357	76.69
256.59	89.69
256.823	77.69
257.056	77.69
257.289	85.69
257.521	85.69
257.754	82.69
257.987	68.69
258.22	81.69
258.452	79.69
258.685	74.69
258.918	83.69
259.151	91.69
259.383	75.69
259.616	86.69
259.849	84.69
260.081	85.69
260.314	79.69
260.547	87.69
260.779	97.69
261.012	93.69
261.244	99.69
261.477	99.69
261.71	73.69
261.942	97.69
262.175	109.69
262.407	93.69
262.64	88.69
262.872	92.69
263.105	73.69
263.337	89.69
263.57	75.69
263.802	95.69
264.035	82.69
264.267	76.69
264.499	85.69
264.732	85.69
264.964	77.69
265.197	73.69
265.429	86.69
265.661	83.69
265.894	84.69
266.126	87.69
266.358	89.69
266.591	92.69
266.823	86.69
267.055	77.69
267.287	88.69
267.52	87.69
267.752	92.69
267.984	81.69
268.216	75.69
268.448	85.69
268.681	84.69
268.913	77.69
269.145	90.69
269.377	71.69
269.609	86.69
269.841	87.69
270.073	81.69
270.306	85.69
270.538	96.69
270.77	85.69
271.002	88.69
271.234	83.69
271.466	85.69
271.698	90.69
271.93	95.69
272.162	79.69
272.394	86.69
272.626	80.69
272.858	84.69
273.09	92.69
273.322	94.69
273.553	79.69
273.785	82.69
274.017	99.69
274.249	91.69
274.481	86.69
274.713	82.69
274.945	92.69
275.176	84.69
275.408	78.69
275.64	73.69
275.872	95.69
276.104	91.69
276.335	99.69
276.567	89.69
276.799	102.69
277.031	91.69
277.262	90.69
277.494	96.69
277.726	79.69
277.957	90.69
278.189	83.69
278.421	75.69
278.652	81.69
278.884	93.69
279.115	81.69
279.347	88.69
279.579	99.69
279.81	84.69
280.042	81.69
280.273	108.69
280.505	84.69
280.736	85.69
280.968	88.69
281.199	73.69
281.431	74.69
281.662	95.69
281.894	93.69
282.125	90.69
282.356	110.69
282.588	127.69
282.819	102.69
283.051	97.69
283.282	86.69
283.513	90.69
283.745	92.69
283.976	88.69
284.207	94.69
284.439	84.69
284.67	86.69
284.901	82.69
285.132	77.69
285.364	81.69
285.595	87.69
285.826	84.69
286.057	81.69
286.288	95.69
286.52	83.69
286.751	77.69
286.982	81.69
287.213	93.69
287.444	95.69
287.675	79.69
287.906	86.69
288.138	88.69
288.369	105.69
288.6	77.69
288.831	85.69
289.062	73.69
289.293	81.69
289.524	82.69
289.755	83.69
289.986	91.69
290.217	88.69
290.448	84.69
290.679	70.69
290.91	91.69
291.141	77.69
291.371	84.69
291.602	84.69
291.833	82.69
292.064	92.69
292.295	91.69
292.526	92.69
292.757	84.69
292.987	88.69
293.218	87.69
293.449	76.69
293.68	78.69
293.91	91.69
294.141	98.69
294.372	101.69
294.603	88.69
294.833	90.69
295.064	82.69
295.295	87.69
295.525	78.69
295.756	90.69
295.987	106.69
296.217	102.69
296.448	122.69
296.679	93.69
296.909	85.69
297.14	106.69
297.37	78.69
297.601	83.69
297.831	76.69
298.062	100.69
298.292	89.69
298.523	84.69
298.753	86.69
298.984	83.69
299.214	91.69
299.445	96.69
299.675	82.69
299.905	89.69
300.136	82.69
300.366	92.69
300.597	92.69
300.827	98.69
301.057	85.69
301.288	115.69
301.518	92.69
301.748	97.69
301.979	89.69
302.209	84.69
302.439	83.69
302.669	95.69
302.9	85.69
303.13	84.69
303.36	102.69
303.59	96.69
303.82	101.69
304.051	95.69
304.281	101.69
304.511	96.69
304.741	78.69
304.971	72.69
305.201	85.69
305.431	93.69
305.661	100.69
305.891	93.69
306.121	101.69
306.352	92.69
306.582	101.69
306.812	93.69
307.042	86.69
307.272	97.69
307.502	95.69
307.731	93.69
307.961	84.69
308.191	91.69
308.421	79.69
308.651	96.69
308.881	85.69
309.111	86.69
309.341	89.69
309.571	93.69
309.8	87.69
310.03	101.69
310.26	97.69
310.49	85.69
310.72	100.69
310.949	106.69
311.179	90.69
311.409	102.69
311.639	96.69
311.868	90.69
312.098	96.69
312.328	98.69
312.557	85.69
312.787	100.69
313.017	84.69
313.246	88.69
313.476	96.69
313.706	83.69
313.935	96.69
314.165	98.69
314.394	89.69
314.624	98.69
314.853	100.69
315.083	106.69
315.312	91.69
315.542	78.69
315.771	93.69
316.001	95.69
316.23	82.69
316.46	96.69
316.689	77.69
316.919	77.69
317.148	79.69
317.377	87.69
317.607	101.69
317.836	87.69
318.065	98.69
318.295	79.69
318.524	97.69
318.753	112.69
318.983	87.69
319.212	95.69
319.441	98.69
319.67	113.69
319.9	104.69
320.129	87.69
320.358	85.69
320.587	86.69
320.816	97.69
321.046	99.69
321.275	102.69
321.504	99.69
321.733	93.69
321.962	97.69
322.191	91.69
322.42	107.69
322.649	92.69
322.878	99.69
323.108	128.69
323.337	126.69
323.566	125.69
323.795	150.69
324.024	185.69
324.253	381.69
324.482	773.69
324.71	1603.69
324.939	2081.69
325.168	790.69
325.397	216.69
325.626	147.69
325.855	114.69
326.084	135.69
326.313	133.69
326.542	143.69
326.77	230.69
326.999	448.69
327.228	891.69
327.457	1645.69
327.686	1317.69
327.914	344.69
328.143	191.69
328.372	152.69
328.6	139.69
328.829	116.69
329.058	115.69
329.287	110.69
329.515	100.69
329.744	100.69
329.972	127.69
330.201	143.69
330.43	169.69
330.658	118.69
330.887	131.69
331.115	119.69
331.344	106.69
331.572	90.69
331.801	111.69
332.03	111.69
332.258	90.69
332.486	96.69
332.715	82.69
332.943	82.69
333.172	93.69
333.4	104.69
333.629	110.69
333.857	117.69
334.085	131.69
334.314	142.69
334.542	194.69
334.771	166.69
334.999	98.69
335.227	84.69
335.455	88.69
335.684	97.69
335.912	76.69
336.14	108.69
336.369	99.69
336.597	98.69
336.825	80.69
337.053	90.69
337.281	100.69
337.51	92.69
337.738	94.69
337.966	93.69
338.194	95.69
338.422	98.69
338.65	89.69
338.878	78.69
339.106	79.69
339.334	79.69
339.562	90.69
339.79	85.69
340.018	80.69
340.246	82.69
340.474	90.69
340.702	88.69
340.93	86.69
341.158	78.69
341.386	93.69
341.614	95.69
341.842	87.69
342.07	95.69
342.298	82.69
342.526	72.69
342.754	77.69
342.981	97.69
343.209	88.69
343.437	92.69
343.665	85.69
343.893	92.69
344.12	87.69
344.348	95.69
344.576	83.69
344.804	87.69
345.031	102.69
345.259	91.69
345.487	90.69
345.714	74.69
345.942	86.69
346.17	77.69
346.397	107.69
346.625	94.69
346.853	76.69
347.08	86.69
347.308	76.69
347.535	98.69
347.763	99.69
347.99	93.69
348.218	92.69
348.445	90.69
348.673	110.69
348.9	93.69
349.128	98.69
349.355	91.69
349.583	88.69
349.81	91.69
350.037	102.69
350.265	92.69
350.492	92.69
350.72	92.69
350.947	96.69
351.174	94.69
351.402	92.69
351.629	100.69
351.856	84.69
352.083	92.69
352.311	102.69
352.538	99.69
352.765	111.69
352.992	102.69
353.22	102.69
353.447	96.69
353.674	98.69
353.901	91.69
354.128	94.69
354.355	97.69
354.583	99.69
354.81	95.69
355.037	92.69
355.264	101.69
355.491	87.69
355.718	83.69
355.945	96.69
356.172	93.69
356.399	86.69
356.626	94.69
356.853	82.69
357.08	93.69
357.307	82.69
357.534	72.69
357.761	91.69
357.988	98.69
358.215	86.69
358.441	93.69
358.668	96.69
358.895	80.69
359.122	76.69
359.349	91.69
359.576	82.69
359.802	86.69
360.029	104.69
360.256	89.69
360.483	99.69
360.709	99.69
360.936	102.69
361.163	91.69
361.39	90.69
361.616	91.69
361.843	82.69
362.07	78.69
362.296	91.69
362.523	92.69
362.749	81.69
362.976	86.69
363.203	89.69
363.429	89.69
363.656	84.69
363.882	78.69
364.109	96.69
364.335	89.69
364.562	79.69
364.788	100.69
365.015	94.69
365.241	97.69
365.468	110.69
365.694	93.69
365.92	87.69
366.147	86.69
366.373	95.69
366.599	83.69
366.826	92.69
367.052	90.69
367.278	92.69
367.505	84.69
367.731	99.69
367.957	86.69
368.184	78.69
368.41	102.69
368.636	101.69
368.862	115.69
369.089	85.69
369.315	90.69
369.541	98.69
369.767	88.69
369.993	76.69
370.219	84.69
370.445	84.69
370.672	85.69
370.898	83.69
371.124	82.69
371.35	91.69
371.576	71.69
371.802	81.69
372.028	81.69
372.254	90.69
372.48	97.69
372.706	81.69
372.932	78.69
373.158	98.69
373.384	79.69
373.61	85.69
373.835	87.69
374.061	92.69
374.287	87.69
374.513	91.69
374.739	79.69
374.965	82.69
375.191	81.69
375.416	94.69
375.642	83.69
375.868	82.69
376.094	91.69
376.319	82.69
376.545	89.69
376.771	79.69
376.997	75.69
377.222	73.69
377.448	85.69
377.674	86.69
377.899	93.69
378.125	97.69
378.35	92.69
378.576	89.69
378.802	83.69
379.027	95.69
379.253	84.69
379.478	94.69
379.704	85.69
379.929	91.69
380.155	93.69
380.38	84.69
380.606	96.69
380.831	99.69
381.057	105.69
381.282	89.69
381.507	99.69
381.733	80.69
381.958	102.69
382.184	90.69
382.409	81.69
382.634	89.69
382.86	91.69
383.085	106.69
383.31	99.69
383.535	94.69
383.761	101.69
383.986	87.69
384.211	97.69
384.436	73.69
384.662	90.69
384.887	101.69
385.112	94.69
385.337	90.69
385.562	110.69
385.787	100.69
386.013	96.69
386.238	108.69
386.463	94.69
386.688	100.69
386.913	97.69
387.138	100.69
387.363	92.69
387.588	97.69
387.813	93.69
388.038	101.69
388.263	114.69
388.488	93.69
388.713	66.69
388.938	90.69
389.163	98.69
389.387	99.69
389.612	100.69
389.837	78.69
390.062	78.69
390.287	76.69
390.512	83.69
390.736	81.69
390.961	106.69
391.186	104.69
391.411	101.69
391.636	96.69
391.86	67.69
392.085	72.69
392.31	73.69
392.534	78.69
392.759	87.69
392.984	91.69
393.208	89.69
393.433	80.69
393.658	85.69
393.882	84.69
394.107	87.69
394.331	78.69
394.556	81.69
394.78	78.69
395.005	90.69
395.229	83.69
395.454	87.69
395.678	84.69
395.903	76.69
396.127	87.69
396.352	70.69
396.576	83.69
396.801	73.69
397.025	69.69
397.249	79.69
397.474	86.69
397.698	85.69
397.922	98.69
398.147	88.69
398.371	74.69
398.595	81.69
398.82	85.69
399.044	89.69
399.268	78.69
399.492	82.69
399.717	73.69
399.941	93.69
400.165	80.69
400.389	100.69
400.613	95.69
400.837	83.69
401.062	92.69
401.286	85.69
401.51	92.69
401.734	87.69
401.958	92.69
402.182	119.69
402.406	142.69
402.63	112.69
402.854	86.69
403.078	79.69
403.302	86.69
403.526	79.69
403.75	84.69
403.974	68.69
404.198	78.69
404.422	89.69
404.645	79.69
404.869	84.69
405.093	77.69
405.317	82.69
405.541	102.69
405.765	93.69
405.988	100.69
406.212	157.69
406.436	205.69
406.66	132.69
406.883	85.69
407.107	90.69
407.331	102.69
407.555	101.69
407.778	98.69
408.002	75.69
408.226	84.69
408.449	71.69
408.673	93.69
408.896	91.69
409.12	101.69
409.344	98.69
409.567	93.69
409.791	97.69
410.014	88.69
410.238	88.69
410.461	96.69
410.685	85.69
410.908	92.69
411.132	81.69
411.355	96.69
411.578	85.69
411.802	85.69
412.025	92.69
412.249	115.69
412.472	78.69
412.695	91.69
412.919	78.69
413.142	93.69
413.365	84.69
413.589	76.69
413.812	94.69
414.035	94.69
414.258	84.69
414.482	77.69
414.705	101.69
414.928	94.69
415.151	87.69
415.374	74.69
415.597	83.69
415.821	86.69
416.044	85.69
416.267	91.69
416.49	77.69
416.713	98.69
416.936	100.69
417.159	94.69
417.382	68.69
417.605	71.69
417.828	93.69
418.051	112.69
418.274	81.69
418.497	78.69
418.72	79.69
418.943	76.69
419.166	79.69
419.389	91.69
419.611	90.69
419.834	87.69
420.057	96.69
420.28	85.69
420.503	90.69
420.726	84.69
420.948	83.69
421.171	88.69
421.394	88.69
421.617	80.69
421.839	85.69
422.062	83.69
422.285	80.69
422.507	92.69
422.73	91.69
422.953	88.69
423.175	84.69
423.398	77.69
423.621	83.69
423.843	86.69
424.066	84.69
424.288	80.69
424.511	90.69
424.733	95.69
424.956	78.69
425.178	102.69
425.401	86.69
425.623	110.69
425.846	83.69
426.068	82.69
426.291	91.69
426.513	97.69
426.735	88.69
426.958	90.69
427.18	105.69
427.402	130.69
427.625	148.69
427.847	124.69
428.069	113.69
428.292	82.69
428.514	96.69
428.736	78.69
428.958	95.69
429.181	62.69
429.403	91.69
429.625	76.69
429.847	85.69
430.069	83.69
430.292	82.69
430.514	68.69
430.736	87.69
430.958	87.69
431.18	88.69
431.402	76.69
431.624	80.69
431.846	90.69
432.068	76.69
432.29	82.69
432.512	93.69
432.734	75.69
432.956	92.69
433.178	92.69
433.4	89.69
433.622	91.69
433.844	79.69
434.066	85.69
434.287	90.69
434.509	86.69
434.731	104.69
434.953	79.69
435.175	87.69
435.397	78.69
435.618	90.69
435.84	105.69
436.062	118.69
436.284	108.69
436.505	101.69
436.727	85.69
436.949	92.69
437.17	82.69
437.392	84.69
437.614	96.69
437.835	110.69
438.057	104.69
438.278	106.69
438.5	106.69
438.721	107.69
438.943	91.69
439.165	97.69
439.386	99.69
439.608	90.69
439.829	93.69
440.05	111.69
440.272	124.69
440.493	105.69
440.715	83.69
440.936	74.69
441.158	84.69
441.379	85.69
441.6	104.69
441.822	85.69
442.043	93.69
442.264	84.69
442.486	90.69
442.707	83.69
442.928	102.69
443.149	108.69
443.371	129.69
443.592	106.69
443.813	107.69
444.034	96.69
444.255	82.69
444.476	88.69
444.698	99.69
444.919	85.69
445.14	130.69
445.361	118.69
445.582	104.69
445.803	105.69
446.024	114.69
446.245	131.69
446.466	123.69
446.687	94.69
446.908	79.69
447.129	94.69
447.35	83.69
447.571	90.69
447.792	88.69
448.013	80.69
448.234	97.69
448.455	91.69
448.675	92.69
448.896	98.69
449.117	101.69
449.338	96.69
449.559	117.69
449.779	108.69
450	87.69
450.221	89.69
450.442	78.69
450.662	89.69
450.883	101.69
451.104	88.69
451.324	101.69
451.545	97.69
451.766	78.69
451.986	78.69
452.207	75.69
452.428	90.69
452.648	92.69
452.869	96.69
453.089	99.69
453.31	111.69
453.53	84.69
453.751	86.69
453.971	98.69
454.192	83.69
454.412	96.69
454.633	90.69
454.853	91.69
455.073	97.69
455.294	92.69
455.514	91.69
455.734	79.69
455.955	86.69
456.175	79.69
456.395	64.69
456.616	85.69
456.836	102.69
457.056	82.69
457.276	70.69
457.497	86.69
457.717	74.69
457.937	71.69
458.157	79.69
458.377	86.69
458.598	86.69
458.818	135.69
459.038	136.69
459.258	91.69
459.478	98.69
459.698	84.69
459.918	78.69
460.138	80.69
460.358	78.69
460.578	92.69
460.798	91.69
461.018	80.69
461.238	79.69
461.458	77.69
461.678	73.69
461.898	75.69
462.118	92.69
462.338	89.69
462.558	81.69
462.777	89.69
462.997	87.69
463.217	94.69
463.437	79.69
463.657	88.69
463.876	79.69
464.096	82.69
464.316	79.69
464.536	78.69
464.755	92.69
464.975	97.69
465.195	127.69
465.414	136.69
465.634	94.69
465.854	96.69
466.073	83.69
466.293	82.69
466.512	64.69
466.732	82.69
466.951	87.69
467.171	78.69
467.391	87.69
467.61	89.69
467.829	101.69
468.049	93.69
468.268	125.69
468.488	98.69
468.707	89.69
468.927	87.69
469.146	84.69
469.365	98.69
469.585	81.69
469.804	83.69
470.023	94.69
470.243	83.69
470.462	90.69
470.681	94.69
470.901	87.69
471.12	88.69
471.339	73.69
471.558	78.69
471.777	74.69
471.997	97.69
472.216	157.69
472.435	230.69
472.654	123.69
472.873	88.69
473.092	89.69
473.311	76.69
473.53	81.69
473.749	85.69
473.968	100.69
474.187	91.69
474.406	94.69
474.625	92.69
474.844	79.69
475.063	96.69
475.282	76.69
475.501	79.69
475.72	98.69
475.939	89.69
476.158	76.69
476.377	81.69
476.596	80.69
476.814	90.69
477.033	74.69
477.252	76.69
477.471	72.69
477.69	85.69
477.908	79.69
478.127	86.69
478.346	93.69
478.564	85.69
478.783	75.69
479.002	106.69
479.22	90.69
479.439	99.69
479.658	113.69
479.876	92.69
480.095	84.69
480.313	78.69
480.532	84.69
480.751	103.69
480.969	159.69
481.188	355.69
481.406	248.69
481.624	113.69
481.843	89.69
482.061	83.69
482.28	89.69
482.498	86.69
482.717	88.69
482.935	88.69
483.153	91.69
483.372	93.69
483.59	90.69
483.808	88.69
484.027	90.69
484.245	80.69
484.463	89.69
484.681	92.69
484.9	78.69
485.118	96.69
485.336	102.69
485.554	109.69
485.772	97.69
485.99	83.69
486.209	109.69
486.427	95.69
486.645	104.69
486.863	98.69
487.081	93.69
487.299	95.69
487.517	79.69
487.735	95.69
487.953	86.69
488.171	92.69
488.389	86.69
488.607	93.69
488.825	79.69
489.043	77.69
489.261	82.69
489.479	70.69
489.696	81.69
489.914	87.69
490.132	97.69
490.35	86.69
490.568	101.69
490.786	77.69
491.003	93.69
491.221	86.69
491.439	91.69
491.657	108.69
491.874	101.69
492.092	92.69
492.31	81.69
492.527	91.69
492.745	86.69
492.963	97.69
493.18	87.69
493.398	81.69
493.615	95.69
493.833	90.69
494.05	93.69
494.268	88.69
494.485	92.69
494.703	72.69
494.92	84.69
495.138	88.69
495.355	94.69
495.573	95.69
495.79	89.69
496.008	89.69
496.225	84.69
496.442	79.69
496.66	89.69
496.877	89.69
497.094	79.69
497.312	83.69
497.529	75.69
497.746	85.69
497.963	78.69
498.181	94.69
498.398	102.69
498.615	97.69
498.832	94.69
499.049	90.69
499.267	91.69
499.484	80.69
499.701	83.69
499.918	82.69
500.135	86.69
500.352	88.69
500.569	100.69
500.786	99.69
501.003	102.69
501.22	92.69
501.437	85.69
501.654	90.69
501.871	123.69
502.088	90.69
502.305	85.69
502.522	84.69
502.739	76.69
502.956	92.69
503.172	86.69
503.389	95.69
503.606	103.69
503.823	118.69
504.04	89.69
504.256	77.69
504.473	82.69
504.69	99.69
504.907	95.69
505.123	103.69
505.34	92.69
505.557	75.69
505.773	101.69
505.99	96.69
506.207	83.69
506.423	86.69
506.64	93.69
506.856	88.69
507.073	88.69
507.289	101.69
507.506	95.69
507.722	102.69
507.939	112.69
508.155	98.69
508.372	80.69
508.588	100.69
508.805	96.69
509.021	81.69
509.238	90.69
509.454	93.69
509.67	82.69
509.887	108.69
510.103	130.69
510.319	190.69
510.536	689.69
510.752	2177.69
510.968	621.69
511.184	151.69
511.401	110.69
511.617	98.69
511.833	100.69
512.049	90.69
512.265	88.69
512.481	96.69
512.698	86.69
512.914	93.69
513.13	98.69
513.346	78.69
513.562	81.69
513.778	87.69
513.994	95.69
514.21	102.69
514.426	94.69
514.642	131.69
514.858	105.69
515.074	137.69
515.29	383.69
515.506	1262.69
515.721	511.69
515.937	143.69
516.153	99.69
516.369	109.69
516.585	91.69
516.801	86.69
517.016	90.69
