Data from Circ_2012_H10_HRD10591_00038.txt Node
Date: Wed Jan 03 10:05:57 EST 2024
User: Yrep
Spectrometer: HR+D1059
Trigger mode: 1
Integration Time (sec): 1.000000E-1
Scans to average: 1
Electric dark correction enabled: true
Nonlinearity correction enabled: false
Boxcar width: 0
XAxis mode: Wavelengths
Number of Pixels in Spectrum: 2048
>>>>>Begin Spectral Data<<<<<
223.165	-18.5
223.4	-18.5
223.635	-18.5
223.869	-22.5
224.104	-33.5
224.338	-14.5
224.573	-20.5
224.808	-17.5
225.042	-9.5
225.277	4.5
225.511	-3.5
225.746	5.5
225.98	16.5
226.215	2.5
226.449	12.5
226.683	34.5
226.918	28.5
227.152	35.5
227.387	38.5
227.621	41.5
227.856	51.5
228.09	55.5
228.324	39.5
228.559	49.5
228.793	177.5
229.027	455.5
229.262	508.5
229.496	574.5
229.73	794.5
229.964	817.5
230.199	550.5
230.433	492.5
230.667	461.5
230.901	456.5
231.136	457.5
231.37	444.5
231.604	424.5
231.838	422.5
232.072	432.5
232.306	444.5
232.541	463.5
232.775	459.5
233.009	449.5
233.243	463.5
233.477	484.5
233.711	486.5
233.945	518.5
234.179	482.5
234.413	489.5
234.647	477.5
234.881	510.5
235.115	542.5
235.349	530.5
235.583	559.5
235.817	595.5
236.051	600.5
236.285	577.5
236.519	602.5
236.753	703.5
236.987	905.5
237.221	1359.5
237.455	1470.5
237.689	881.5
237.922	726.5
238.156	703.5
238.39	685.5
238.624	662.5
238.858	629.5
239.091	642.5
239.325	682.5
239.559	689.5
239.793	708.5
240.027	755.5
240.26	890.5
240.494	938.5
240.728	946.5
240.961	853.5
241.195	827.5
241.429	761.5
241.662	771.5
241.896	732.5
242.13	783.5
242.363	766.5
242.597	769.5
242.83	806.5
243.064	827.5
243.298	795.5
243.531	824.5
243.765	808.5
243.998	822.5
244.232	827.5
244.465	868.5
244.699	931.5
244.932	899.5
245.166	877.5
245.399	871.5
245.633	864.5
245.866	914.5
246.099	880.5
246.333	924.5
246.566	946.5
246.8	950.5
247.033	986.5
247.266	1033.5
247.5	1051.5
247.733	1127.5
247.966	1136.5
248.2	1124.5
248.433	1142.5
248.666	1176.5
248.899	1349.5
249.133	1432.5
249.366	1392.5
249.599	1310.5
249.832	1216.5
250.066	1211.5
250.299	1292.5
250.532	1456.5
250.765	1601.5
250.998	1737.5
251.231	1633.5
251.465	1457.5
251.698	1395.5
251.931	1349.5
252.164	1344.5
252.397	1379.5
252.63	1438.5
252.863	1520.5
253.096	1651.5
253.329	1689.5
253.562	1620.5
253.795	1516.5
254.028	1543.5
254.261	1559.5
254.494	1780.5
254.727	2073.5
254.96	2130.5
255.193	1867.5
255.426	1736.5
255.659	1684.5
255.892	1788.5
256.124	1947.5
256.357	1832.5
256.59	1629.5
256.823	1577.5
257.056	1506.5
257.289	1506.5
257.521	1531.5
257.754	1515.5
257.987	1522.5
258.22	1509.5
258.452	1495.5
258.685	1533.5
258.918	1581.5
259.151	1601.5
259.383	1666.5
259.616	1611.5
259.849	1716.5
260.081	1896.5
260.314	2028.5
260.547	1944.5
260.779	1813.5
261.012	1691.5
261.244	1686.5
261.477	1672.5
261.71	1665.5
261.942	1730.5
262.175	1745.5
262.407	1659.5
262.64	1632.5
262.872	1620.5
263.105	1606.5
263.337	1644.5
263.57	1642.5
263.802	1611.5
264.035	1652.5
264.267	1652.5
264.499	1632.5
264.732	1627.5
264.964	1678.5
265.197	1674.5
265.429	1719.5
265.661	1683.5
265.894	1729.5
266.126	1720.5
266.358	1732.5
266.591	1777.5
266.823	1874.5
267.055	1867.5
267.287	1894.5
267.52	1832.5
267.752	1818.5
267.984	1874.5
268.216	1862.5
268.448	1864.5
268.681	1987.5
268.913	2064.5
269.145	2315.5
269.377	2333.5
269.609	2259.5
269.841	2203.5
270.073	2350.5
270.306	2552.5
270.538	2710.5
270.77	2612.5
271.002	2449.5
271.234	2416.5
271.466	2562.5
271.698	2666.5
271.93	2669.5
272.162	2698.5
272.394	2609.5
272.626	2484.5
272.858	2326.5
273.09	2221.5
273.322	2243.5
273.553	2187.5
273.785	2194.5
274.017	2185.5
274.249	2203.5
274.481	2230.5
274.713	2264.5
274.945	2268.5
275.176	2254.5
275.408	2250.5
275.64	2200.5
275.872	2213.5
276.104	2287.5
276.335	2276.5
276.567	2400.5
276.799	2518.5
277.031	2769.5
277.262	2886.5
277.494	2716.5
277.726	2564.5
277.957	2482.5
278.189	2386.5
278.421	2363.5
278.652	2300.5
278.884	2336.5
279.115	2330.5
279.347	2357.5
279.579	2330.5
279.81	2337.5
280.042	2362.5
280.273	2406.5
280.505	2449.5
280.736	2361.5
280.968	2393.5
281.199	2397.5
281.431	2410.5
281.662	2424.5
281.894	2446.5
282.125	2521.5
282.356	2648.5
282.588	2850.5
282.819	2638.5
283.051	2510.5
283.282	2509.5
283.513	2561.5
283.745	2575.5
283.976	2598.5
284.207	2598.5
284.439	2588.5
284.67	2608.5
284.901	2635.5
285.132	2616.5
285.364	2592.5
285.595	2624.5
285.826	2580.5
286.057	2632.5
286.288	2644.5
286.52	2635.5
286.751	2676.5
286.982	2708.5
287.213	2709.5
287.444	2702.5
287.675	2808.5
287.906	2861.5
288.138	2893.5
288.369	2893.5
288.6	2830.5
288.831	2872.5
289.062	2820.5
289.293	2787.5
289.524	2794.5
289.755	2806.5
289.986	2792.5
290.217	2779.5
290.448	2771.5
290.679	2760.5
290.91	2799.5
291.141	2752.5
291.371	2738.5
291.602	2781.5
291.833	2760.5
292.064	2796.5
292.295	2778.5
292.526	2763.5
292.757	2799.5
292.987	2765.5
293.218	2761.5
293.449	2831.5
293.68	2876.5
293.91	2820.5
294.141	2808.5
294.372	2770.5
294.603	2831.5
294.833	2860.5
295.064	2882.5
295.295	2847.5
295.525	2862.5
295.756	2937.5
295.987	2990.5
296.217	3270.5
296.448	3130.5
296.679	2977.5
296.909	2908.5
297.14	2923.5
297.37	3021.5
297.601	3030.5
297.831	2991.5
298.062	3049.5
298.292	3030.5
298.523	3106.5
298.753	3128.5
298.984	3085.5
299.214	3005.5
299.445	3043.5
299.675	3065.5
299.905	3153.5
300.136	3111.5
300.366	3121.5
300.597	3166.5
300.827	3224.5
301.057	3304.5
301.288	3396.5
301.518	3253.5
301.748	3282.5
301.979	3368.5
302.209	3329.5
302.439	3366.5
302.669	3274.5
302.9	3275.5
303.13	3237.5
303.36	3306.5
303.59	3381.5
303.82	3421.5
304.051	3332.5
304.281	3294.5
304.511	3248.5
304.741	3217.5
304.971	3221.5
305.201	3229.5
305.431	3238.5
305.661	3257.5
305.891	3220.5
306.121	3232.5
306.352	3293.5
306.582	3283.5
306.812	3216.5
307.042	3227.5
307.272	3294.5
307.502	3234.5
307.731	3281.5
307.961	3240.5
308.191	3324.5
308.421	3233.5
308.651	3321.5
308.881	3214.5
309.111	3318.5
309.341	3292.5
309.571	3401.5
309.8	3474.5
310.03	3555.5
310.26	3533.5
310.49	3568.5
310.72	3718.5
310.949	3841.5
311.179	3708.5
311.409	3629.5
311.639	3644.5
311.868	3595.5
312.098	3677.5
312.328	3786.5
312.557	3866.5
312.787	3958.5
313.017	3837.5
313.246	3767.5
313.476	3689.5
313.706	3790.5
313.935	3801.5
314.165	3949.5
314.394	3944.5
314.624	3881.5
314.853	3770.5
315.083	3731.5
315.312	3662.5
315.542	3740.5
315.771	3655.5
316.001	3706.5
316.23	3650.5
316.46	3673.5
316.689	3704.5
316.919	3764.5
317.148	3756.5
317.377	3746.5
317.607	3744.5
317.836	3620.5
318.065	3629.5
318.295	3656.5
318.524	3646.5
318.753	3618.5
318.983	3662.5
319.212	3670.5
319.441	3751.5
319.67	3788.5
319.9	3645.5
320.129	3634.5
320.358	3725.5
320.587	3723.5
320.816	3791.5
321.046	3799.5
321.275	3784.5
321.504	3842.5
321.733	3852.5
321.962	3897.5
322.191	4016.5
322.42	4064.5
322.649	4195.5
322.878	4246.5
323.108	4382.5
323.337	4568.5
323.566	4742.5
323.795	5119.5
324.024	5690.5
324.253	7632.5
324.482	11508.5
324.71	15598.5
324.939	15598.5
325.168	13448.5
325.397	6739.5
325.626	5333.5
325.855	4930.5
326.084	4826.5
326.313	4856.5
326.542	5037.5
326.77	5691.5
326.999	7316.5
327.228	10814.5
327.457	14782.5
327.686	14058.5
327.914	7585.5
328.143	6059.5
328.372	5797.5
328.6	5460.5
328.829	5319.5
329.058	5492.5
329.287	5413.5
329.515	5086.5
329.744	4981.5
329.972	5158.5
330.201	5447.5
330.43	5846.5
330.658	5854.5
330.887	5991.5
331.115	5553.5
331.344	5062.5
331.572	4923.5
331.801	5012.5
332.03	5028.5
332.258	5036.5
332.486	5029.5
332.715	5055.5
332.943	5274.5
333.172	5432.5
333.4	5575.5
333.629	5662.5
333.857	5880.5
334.085	5989.5
334.314	6128.5
334.542	6427.5
334.771	6342.5
334.999	5644.5
335.227	5348.5
335.455	5229.5
335.684	5021.5
335.912	5074.5
336.14	4936.5
336.369	4894.5
336.597	4979.5
336.825	4909.5
337.053	4845.5
337.281	4804.5
337.51	4716.5
337.738	4747.5
337.966	4721.5
338.194	4743.5
338.422	4602.5
338.65	4505.5
338.878	4583.5
339.106	4499.5
339.334	4507.5
339.562	4417.5
339.79	4352.5
340.018	4373.5
340.246	4425.5
340.474	4456.5
340.702	4413.5
340.93	4374.5
341.158	4380.5
341.386	4386.5
341.614	4437.5
341.842	4362.5
342.07	4327.5
342.298	4314.5
342.526	4313.5
342.754	4237.5
342.981	4289.5
343.209	4422.5
343.437	4653.5
343.665	4928.5
343.893	5120.5
344.12	5106.5
344.348	4885.5
344.576	4710.5
344.804	4642.5
345.031	4578.5
345.259	4606.5
345.487	4409.5
345.714	4333.5
345.942	4126.5
346.17	4226.5
346.397	4155.5
346.625	4131.5
346.853	4165.5
347.08	4202.5
347.308	4208.5
347.535	4283.5
347.763	4321.5
347.99	4245.5
348.218	4312.5
348.445	4308.5
348.673	4270.5
348.9	4113.5
349.128	4063.5
349.355	4140.5
349.583	4092.5
349.81	4007.5
350.037	4024.5
350.265	4041.5
350.492	4028.5
350.72	4045.5
350.947	4107.5
351.174	4246.5
351.402	4275.5
351.629	4188.5
351.856	4167.5
352.083	4278.5
352.311	4233.5
352.538	4239.5
352.765	4233.5
352.992	4159.5
353.22	4147.5
353.447	4100.5
353.674	4008.5
353.901	3982.5
354.128	3953.5
354.355	3945.5
354.583	3990.5
354.81	3954.5
355.037	3998.5
355.264	3947.5
355.491	3872.5
355.718	3949.5
355.945	3925.5
356.172	3985.5
356.399	3923.5
356.626	3969.5
356.853	3910.5
357.08	3927.5
357.307	3951.5
357.534	3928.5
357.761	3932.5
357.988	4010.5
358.215	3899.5
358.441	3963.5
358.668	4044.5
358.895	3997.5
359.122	4091.5
359.349	4161.5
359.576	4257.5
359.802	4472.5
360.029	4630.5
360.256	4616.5
360.483	4421.5
360.709	4248.5
360.936	4114.5
361.163	4182.5
361.39	4221.5
361.616	4136.5
361.843	4187.5
362.07	4167.5
362.296	4206.5
362.523	4160.5
362.749	4185.5
362.976	4107.5
363.203	4103.5
363.429	4022.5
363.656	4027.5
363.882	4049.5
364.109	3995.5
364.335	3961.5
364.562	4045.5
364.788	3986.5
365.015	4059.5
365.241	4006.5
365.468	4032.5
365.694	4083.5
365.92	4101.5
366.147	4020.5
366.373	4018.5
366.599	4026.5
366.826	4024.5
367.052	3956.5
367.278	4004.5
367.505	4017.5
367.731	4108.5
367.957	4063.5
368.184	4129.5
368.41	4201.5
368.636	4283.5
368.862	4243.5
369.089	4157.5
369.315	4091.5
369.541	4128.5
369.767	4191.5
369.993	4168.5
370.219	4143.5
370.445	4076.5
370.672	4201.5
370.898	4210.5
371.124	4284.5
371.35	4308.5
371.576	4229.5
371.802	4267.5
372.028	4274.5
372.254	4269.5
372.48	4321.5
372.706	4408.5
372.932	4438.5
373.158	4388.5
373.384	4331.5
373.61	4308.5
373.835	4365.5
374.061	4365.5
374.287	4481.5
374.513	4484.5
374.739	4626.5
374.965	4682.5
375.191	4720.5
375.416	4546.5
375.642	4461.5
375.868	4472.5
376.094	4460.5
376.319	4372.5
376.545	4361.5
376.771	4279.5
376.997	4288.5
377.222	4305.5
377.448	4284.5
377.674	4299.5
377.899	4280.5
378.125	4277.5
378.35	4231.5
378.576	4201.5
378.802	4204.5
379.027	4276.5
379.253	4217.5
379.478	4290.5
379.704	4278.5
379.929	4291.5
380.155	4303.5
380.38	4269.5
380.606	4326.5
380.831	4267.5
381.057	4348.5
381.282	4308.5
381.507	4404.5
381.733	4344.5
381.958	4394.5
382.184	4422.5
382.409	4515.5
382.634	4536.5
382.86	4423.5
383.085	4537.5
383.31	4708.5
383.535	4698.5
383.761	4787.5
383.986	4860.5
384.211	4973.5
384.436	4942.5
384.662	5004.5
384.887	5180.5
385.112	5085.5
385.337	5169.5
385.562	5182.5
385.787	5155.5
386.013	5289.5
386.238	5296.5
386.463	5209.5
386.688	5236.5
386.913	5083.5
387.138	5185.5
387.363	5104.5
387.588	5061.5
387.813	5109.5
388.038	5160.5
388.263	5158.5
388.488	5183.5
388.713	5124.5
388.938	5065.5
389.163	5023.5
389.387	5083.5
389.612	5026.5
389.837	5061.5
390.062	4967.5
390.287	5105.5
390.512	5027.5
390.736	5060.5
390.961	5211.5
391.186	5244.5
391.411	5418.5
391.636	5581.5
391.86	5760.5
392.085	5772.5
392.31	5674.5
392.534	5540.5
392.759	5409.5
392.984	5317.5
393.208	5320.5
393.433	5337.5
393.658	5314.5
393.882	5282.5
394.107	5320.5
394.331	5310.5
394.556	5417.5
394.78	5419.5
395.005	5438.5
395.229	5502.5
395.454	5577.5
395.678	5742.5
395.903	5767.5
396.127	5849.5
396.352	5673.5
396.576	5504.5
396.801	5431.5
397.025	5476.5
397.249	5594.5
397.474	5722.5
397.698	5747.5
397.922	5926.5
398.147	5986.5
398.371	6117.5
398.595	6260.5
398.82	6537.5
399.044	7089.5
399.268	7794.5
399.492	8899.5
399.717	9573.5
399.941	9335.5
400.165	8651.5
400.389	7974.5
400.613	7225.5
400.837	6730.5
401.062	6540.5
401.286	6582.5
401.51	6480.5
401.734	6422.5
401.958	6615.5
402.182	6686.5
402.406	6845.5
402.63	6862.5
402.854	6962.5
403.078	7094.5
403.302	7124.5
403.526	7347.5
403.75	7208.5
403.974	7449.5
404.198	7468.5
404.422	7576.5
404.645	7551.5
404.869	7485.5
405.093	7763.5
405.317	8027.5
405.541	7999.5
405.765	7430.5
405.988	7276.5
406.212	7414.5
406.436	7698.5
406.66	7740.5
406.883	7680.5
407.107	8326.5
407.331	8761.5
407.555	9285.5
407.778	8974.5
408.002	8212.5
408.226	7822.5
408.449	7753.5
408.673	7563.5
408.896	7826.5
409.12	7890.5
409.344	7422.5
409.567	7122.5
409.791	7115.5
410.014	7011.5
410.238	6922.5
410.461	6980.5
410.685	6968.5
410.908	7132.5
411.132	7332.5
411.355	7334.5
411.578	7003.5
411.802	6719.5
412.025	6749.5
412.249	7026.5
412.472	7220.5
412.695	7350.5
412.919	6911.5
413.142	6684.5
413.365	6518.5
413.589	6535.5
413.812	6358.5
414.035	6432.5
414.258	6416.5
414.482	6419.5
414.705	6422.5
414.928	6350.5
415.151	6396.5
415.374	6374.5
415.597	6367.5
415.821	6227.5
416.044	6195.5
416.267	6206.5
416.49	6220.5
416.713	6128.5
416.936	6232.5
417.159	6307.5
417.382	6328.5
417.605	6353.5
417.828	6527.5
418.051	6623.5
418.274	6549.5
418.497	6352.5
418.72	6610.5
418.943	6440.5
419.166	6844.5
419.389	7206.5
419.611	7080.5
419.834	6906.5
420.057	6878.5
420.28	6805.5
420.503	6634.5
420.726	6643.5
420.948	6668.5
421.171	7033.5
421.394	6986.5
421.617	6546.5
421.839	6527.5
422.062	6591.5
422.285	6795.5
422.507	7382.5
422.73	7950.5
422.953	7257.5
423.175	7039.5
423.398	7014.5
423.621	7025.5
423.843	7204.5
424.066	7195.5
424.288	7070.5
424.511	7277.5
424.733	7756.5
424.956	8226.5
425.178	7731.5
425.401	7849.5
425.623	7692.5
425.846	6778.5
426.068	6588.5
426.291	6522.5
426.513	6569.5
426.735	6641.5
426.958	7109.5
427.18	7886.5
427.402	9003.5
427.625	9147.5
427.847	7878.5
428.069	7071.5
428.292	6517.5
428.514	6078.5
428.736	5970.5
428.958	5963.5
429.181	5740.5
429.403	5746.5
429.625	5987.5
429.847	6267.5
430.069	6771.5
430.292	6389.5
430.514	5885.5
430.736	5777.5
430.958	5680.5
431.18	5604.5
431.402	5646.5
431.624	5621.5
431.846	5727.5
432.068	5713.5
432.29	5824.5
432.512	5653.5
432.734	5858.5
432.956	5747.5
433.178	5803.5
433.4	5765.5
433.622	5636.5
433.844	5847.5
434.066	5783.5
434.287	5867.5
434.509	6098.5
434.731	6326.5
434.953	6478.5
435.175	6631.5
435.397	6704.5
435.618	6602.5
435.84	6864.5
436.062	7767.5
436.284	7729.5
436.505	6492.5
436.727	6272.5
436.949	5897.5
437.17	5814.5
437.392	5819.5
437.614	5919.5
437.835	6363.5
438.057	7376.5
438.278	7952.5
438.5	7911.5
438.721	8703.5
438.943	7613.5
439.165	6451.5
439.386	6186.5
439.608	6276.5
439.829	6336.5
440.05	6683.5
440.272	7115.5
440.493	6422.5
440.715	6112.5
440.936	6092.5
441.158	6107.5
441.379	6280.5
441.6	6598.5
441.822	6732.5
442.043	7325.5
442.264	8048.5
442.486	7682.5
442.707	6956.5
442.928	6770.5
443.149	6943.5
443.371	7110.5
443.592	7680.5
443.813	8701.5
444.034	8610.5
444.255	7523.5
444.476	7274.5
444.698	7460.5
444.919	7538.5
445.14	7430.5
445.361	7216.5
445.582	7438.5
445.803	8034.5
446.024	8659.5
446.245	8354.5
446.466	7413.5
446.687	6452.5
446.908	6072.5
447.129	5748.5
447.35	5678.5
447.571	5587.5
447.792	5524.5
448.013	5704.5
448.234	5863.5
448.455	6434.5
448.675	7621.5
448.896	8200.5
449.117	6696.5
449.338	6946.5
449.559	8191.5
449.779	8408.5
450	6404.5
450.221	5754.5
450.442	5531.5
450.662	5554.5
450.883	5630.5
451.104	5720.5
451.324	5472.5
451.545	5335.5
451.766	5183.5
451.986	5064.5
452.207	5085.5
452.428	5056.5
452.648	5162.5
452.869	5094.5
453.089	5143.5
453.31	5244.5
453.53	5118.5
453.751	5007.5
453.971	5046.5
454.192	5184.5
454.412	4985.5
454.633	4911.5
454.853	4950.5
455.073	4946.5
455.294	5339.5
455.514	5889.5
455.734	5367.5
455.955	4792.5
456.175	4716.5
456.395	4715.5
456.616	4633.5
456.836	4683.5
457.056	4595.5
457.276	4517.5
457.497	4738.5
457.717	4721.5
457.937	4785.5
458.157	4800.5
458.377	4983.5
458.598	5273.5
458.818	6062.5
459.038	6810.5
459.258	6592.5
459.478	5973.5
459.698	5785.5
459.918	5908.5
460.138	6105.5
460.358	6296.5
460.578	6274.5
460.798	6405.5
461.018	6324.5
461.238	6274.5
461.458	6192.5
461.678	6171.5
461.898	6283.5
462.118	6347.5
462.338	6608.5
462.558	6821.5
462.777	7078.5
462.997	7683.5
463.217	8116.5
463.437	7966.5
463.657	7386.5
463.876	7156.5
464.096	7230.5
464.316	7222.5
464.536	7176.5
464.755	6948.5
464.975	6898.5
465.195	7079.5
465.414	7122.5
465.634	6276.5
465.854	5892.5
466.073	5645.5
466.293	5514.5
466.512	5307.5
466.732	5214.5
466.951	5266.5
467.171	5198.5
467.391	5309.5
467.61	5347.5
467.829	5368.5
468.049	5293.5
468.268	5166.5
468.488	5069.5
468.707	5043.5
468.927	4998.5
469.146	4929.5
469.365	5009.5
469.585	5107.5
469.804	5281.5
470.023	5467.5
470.243	5461.5
470.462	5486.5
470.681	5672.5
470.901	5482.5
471.12	5307.5
471.339	5231.5
471.558	5274.5
471.777	5168.5
471.997	5061.5
472.216	5289.5
472.435	5618.5
472.654	5323.5
472.873	5096.5
473.092	5024.5
473.311	5026.5
473.53	4942.5
473.749	5129.5
473.968	5636.5
474.187	6733.5
474.406	6235.5
474.625	5266.5
474.844	5065.5
475.063	4982.5
475.282	4969.5
475.501	5063.5
475.72	5106.5
475.939	5147.5
476.158	5199.5
476.377	5197.5
476.596	5208.5
476.814	5322.5
477.033	5366.5
477.252	5438.5
477.471	5511.5
477.69	5694.5
477.908	5723.5
478.127	5931.5
478.346	5959.5
478.564	6045.5
478.783	6145.5
479.002	6307.5
479.22	6297.5
479.439	6381.5
479.658	6551.5
479.876	6495.5
480.095	6741.5
480.313	7181.5
480.532	7100.5
480.751	7033.5
480.969	7016.5
481.188	7592.5
481.406	7524.5
481.624	6605.5
481.843	6348.5
482.061	6228.5
482.28	6050.5
482.498	5943.5
482.717	5955.5
482.935	5920.5
483.153	5849.5
483.372	5813.5
483.59	5869.5
483.808	5856.5
484.027	5877.5
484.245	5908.5
484.463	5920.5
484.681	6024.5
484.9	5957.5
485.118	6103.5
485.336	6195.5
485.554	6248.5
485.772	6285.5
485.99	6237.5
486.209	6327.5
486.427	6326.5
486.645	6399.5
486.863	6480.5
487.081	6451.5
487.299	6388.5
487.517	6399.5
487.735	6271.5
487.953	6333.5
488.171	6371.5
488.389	6301.5
488.607	6285.5
488.825	6295.5
489.043	6266.5
489.261	6378.5
489.479	6402.5
489.696	6416.5
489.914	6494.5
490.132	6534.5
490.35	6633.5
490.568	6723.5
490.786	6812.5
491.003	6893.5
491.221	7073.5
491.439	7085.5
491.657	7195.5
491.874	7278.5
492.092	7320.5
492.31	7356.5
492.527	7428.5
492.745	7446.5
492.963	7594.5
493.18	7567.5
493.398	7654.5
493.615	7598.5
493.833	7643.5
494.05	7665.5
494.268	7571.5
494.485	7558.5
494.703	7521.5
494.92	7550.5
495.138	7437.5
495.355	7510.5
495.573	7501.5
495.79	7562.5
496.008	7467.5
496.225	7564.5
496.442	7532.5
496.66	7578.5
496.877	7716.5
497.094	7726.5
497.312	7897.5
497.529	8108.5
497.746	8288.5
497.963	8438.5
498.181	8875.5
498.398	8997.5
498.615	9425.5
498.832	9957.5
499.049	10433.5
499.267	11066.5
499.484	11860.5
499.701	12616.5
499.918	13378.5
500.135	14269.5
500.352	14875.5
500.569	14959.5
500.786	14846.5
501.003	14441.5
501.22	13802.5
501.437	12928.5
501.654	12204.5
501.871	11463.5
502.088	10681.5
502.305	10200.5
502.522	9706.5
502.739	9399.5
502.956	8843.5
503.172	8468.5
503.389	8328.5
503.606	8178.5
