Data from Circ_2012_H10_HRD10591_00009.txt Node
Date: Wed Jan 03 10:05:52 EST 2024
User: Yrep
Spectrometer: HR+D1059
Trigger mode: 1
Integration Time (sec): 1.000000E-1
Scans to average: 1
Electric dark correction enabled: true
Nonlinearity correction enabled: false
Boxcar width: 0
XAxis mode: Wavelengths
Number of Pixels in Spectrum: 2048
>>>>>Begin Spectral Data<<<<<
223.165	-24.38
223.4	-24.38
223.635	-24.38
223.869	-15.38
224.104	-30.38
224.338	-6.38
224.573	-20.38
224.808	4.62
225.042	-3.38
225.277	-1.38
225.511	-2.38
225.746	0.62
225.98	-3.38
226.215	6.62
226.449	20.62
226.683	20.62
226.918	24.62
227.152	29.62
227.387	36.62
227.621	44.62
227.856	25.62
228.09	41.62
228.324	43.62
228.559	45.62
228.793	50.62
229.027	71.62
229.262	64.62
229.496	80.62
229.73	90.62
229.964	79.62
230.199	76.62
230.433	67.62
230.667	72.62
230.901	74.62
231.136	62.62
231.37	73.62
231.604	66.62
231.838	87.62
232.072	77.62
232.306	92.62
232.541	83.62
232.775	83.62
233.009	76.62
233.243	74.62
233.477	76.62
233.711	88.62
233.945	67.62
234.179	71.62
234.413	80.62
234.647	79.62
234.881	71.62
235.115	84.62
235.349	90.62
235.583	77.62
235.817	88.62
236.051	73.62
236.285	77.62
236.519	73.62
236.753	100.62
236.987	68.62
237.221	77.62
237.455	87.62
237.689	79.62
237.922	73.62
238.156	77.62
238.39	74.62
238.624	76.62
238.858	73.62
239.091	69.62
239.325	74.62
239.559	83.62
239.793	101.62
240.027	86.62
240.26	58.62
240.494	68.62
240.728	78.62
240.961	77.62
241.195	60.62
241.429	62.62
241.662	68.62
241.896	89.62
242.13	71.62
242.363	72.62
242.597	82.62
242.83	72.62
243.064	65.62
243.298	81.62
243.531	66.62
243.765	69.62
243.998	84.62
244.232	86.62
244.465	73.62
244.699	70.62
244.932	73.62
245.166	84.62
245.399	77.62
245.633	83.62
245.866	77.62
246.099	91.62
246.333	78.62
246.566	79.62
246.8	65.62
247.033	76.62
247.266	82.62
247.5	73.62
247.733	75.62
247.966	59.62
248.2	74.62
248.433	75.62
248.666	77.62
248.899	88.62
249.133	79.62
249.366	104.62
249.599	109.62
249.832	89.62
250.066	72.62
250.299	71.62
250.532	77.62
250.765	85.62
250.998	65.62
251.231	65.62
251.465	84.62
251.698	83.62
251.931	86.62
252.164	76.62
252.397	75.62
252.63	88.62
252.863	78.62
253.096	74.62
253.329	90.62
253.562	72.62
253.795	78.62
254.028	74.62
254.261	64.62
254.494	93.62
254.727	91.62
254.96	81.62
255.193	76.62
255.426	70.62
255.659	76.62
255.892	77.62
256.124	88.62
256.357	72.62
256.59	84.62
256.823	77.62
257.056	96.62
257.289	89.62
257.521	76.62
257.754	90.62
257.987	84.62
258.22	94.62
258.452	82.62
258.685	84.62
258.918	87.62
259.151	77.62
259.383	71.62
259.616	79.62
259.849	77.62
260.081	98.62
260.314	78.62
260.547	85.62
260.779	83.62
261.012	75.62
261.244	86.62
261.477	86.62
261.71	97.62
261.942	151.62
262.175	168.62
262.407	94.62
262.64	78.62
262.872	76.62
263.105	88.62
263.337	87.62
263.57	81.62
263.802	83.62
264.035	78.62
264.267	90.62
264.499	76.62
264.732	66.62
264.964	73.62
265.197	82.62
265.429	71.62
265.661	80.62
265.894	82.62
266.126	76.62
266.358	76.62
266.591	88.62
266.823	79.62
267.055	88.62
267.287	90.62
267.52	71.62
267.752	94.62
267.984	78.62
268.216	91.62
268.448	85.62
268.681	79.62
268.913	75.62
269.145	82.62
269.377	85.62
269.609	75.62
269.841	89.62
270.073	75.62
270.306	78.62
270.538	70.62
270.77	80.62
271.002	81.62
271.234	75.62
271.466	81.62
271.698	76.62
271.93	91.62
272.162	96.62
272.394	85.62
272.626	77.62
272.858	75.62
273.09	77.62
273.322	89.62
273.553	81.62
273.785	87.62
274.017	86.62
274.249	77.62
274.481	77.62
274.713	78.62
274.945	87.62
275.176	86.62
275.408	89.62
275.64	98.62
275.872	100.62
276.104	84.62
276.335	100.62
276.567	115.62
276.799	124.62
277.031	113.62
277.262	101.62
277.494	83.62
277.726	77.62
277.957	91.62
278.189	81.62
278.421	78.62
278.652	102.62
278.884	88.62
279.115	99.62
279.347	82.62
279.579	81.62
279.81	74.62
280.042	88.62
280.273	74.62
280.505	94.62
280.736	88.62
280.968	84.62
281.199	85.62
281.431	84.62
281.662	81.62
281.894	93.62
282.125	102.62
282.356	138.62
282.588	183.62
282.819	128.62
283.051	92.62
283.282	72.62
283.513	92.62
283.745	80.62
283.976	78.62
284.207	78.62
284.439	81.62
284.67	84.62
284.901	97.62
285.132	82.62
285.364	66.62
285.595	82.62
285.826	79.62
286.057	92.62
286.288	83.62
286.52	86.62
286.751	100.62
286.982	79.62
287.213	87.62
287.444	92.62
287.675	78.62
287.906	88.62
288.138	92.62
288.369	98.62
288.6	104.62
288.831	72.62
289.062	90.62
289.293	85.62
289.524	84.62
289.755	87.62
289.986	96.62
290.217	91.62
290.448	84.62
290.679	88.62
290.91	80.62
291.141	75.62
291.371	85.62
291.602	71.62
291.833	86.62
292.064	81.62
292.295	96.62
292.526	100.62
292.757	82.62
292.987	77.62
293.218	82.62
293.449	93.62
293.68	90.62
293.91	84.62
294.141	94.62
294.372	71.62
294.603	95.62
294.833	91.62
295.064	89.62
295.295	86.62
295.525	78.62
295.756	114.62
295.987	133.62
296.217	182.62
296.448	163.62
296.679	101.62
296.909	97.62
297.14	80.62
297.37	91.62
297.601	96.62
297.831	95.62
298.062	87.62
298.292	83.62
298.523	105.62
298.753	101.62
298.984	93.62
299.214	94.62
299.445	91.62
299.675	95.62
299.905	84.62
300.136	77.62
300.366	88.62
300.597	100.62
300.827	109.62
301.057	105.62
301.288	112.62
301.518	93.62
301.748	88.62
301.979	92.62
302.209	98.62
302.439	89.62
302.669	84.62
302.9	96.62
303.13	102.62
303.36	93.62
303.59	114.62
303.82	117.62
304.051	100.62
304.281	90.62
304.511	99.62
304.741	95.62
304.971	104.62
305.201	95.62
305.431	81.62
305.661	98.62
305.891	89.62
306.121	97.62
306.352	119.62
306.582	121.62
306.812	94.62
307.042	86.62
307.272	94.62
307.502	99.62
307.731	101.62
307.961	85.62
308.191	92.62
308.421	90.62
308.651	89.62
308.881	87.62
309.111	93.62
309.341	101.62
309.571	97.62
309.8	91.62
310.03	103.62
310.26	125.62
310.49	105.62
310.72	109.62
310.949	106.62
311.179	129.62
311.409	108.62
311.639	93.62
311.868	107.62
312.098	101.62
312.328	101.62
312.557	102.62
312.787	118.62
313.017	102.62
313.246	99.62
313.476	102.62
313.706	88.62
313.935	99.62
314.165	111.62
314.394	106.62
314.624	89.62
314.853	103.62
315.083	99.62
315.312	87.62
315.542	89.62
315.771	109.62
316.001	86.62
316.23	101.62
316.46	100.62
316.689	101.62
316.919	82.62
317.148	102.62
317.377	98.62
317.607	96.62
317.836	101.62
318.065	101.62
318.295	97.62
318.524	84.62
318.753	88.62
318.983	83.62
319.212	100.62
319.441	114.62
319.67	126.62
319.9	91.62
320.129	97.62
320.358	104.62
320.587	107.62
320.816	96.62
321.046	114.62
321.275	108.62
321.504	100.62
321.733	99.62
321.962	107.62
322.191	117.62
322.42	133.62
322.649	122.62
322.878	137.62
323.108	128.62
323.337	150.62
323.566	164.62
323.795	185.62
324.024	274.62
324.253	618.62
324.482	1385.62
324.71	2869.62
324.939	3789.62
325.168	1336.62
325.397	372.62
325.626	200.62
325.855	177.62
326.084	152.62
326.313	158.62
326.542	187.62
326.77	304.62
326.999	696.62
327.228	1474.62
327.457	2713.62
327.686	2139.62
327.914	563.62
328.143	257.62
328.372	205.62
328.6	156.62
328.829	147.62
329.058	164.62
329.287	174.62
329.515	140.62
329.744	112.62
329.972	96.62
330.201	122.62
330.43	138.62
330.658	178.62
330.887	211.62
331.115	169.62
331.344	116.62
331.572	129.62
331.801	120.62
332.03	128.62
332.258	112.62
332.486	102.62
332.715	98.62
332.943	97.62
333.172	108.62
333.4	89.62
333.629	129.62
333.857	138.62
334.085	114.62
334.314	113.62
334.542	114.62
334.771	102.62
334.999	95.62
335.227	107.62
335.455	98.62
335.684	95.62
335.912	95.62
336.14	101.62
336.369	82.62
336.597	110.62
336.825	113.62
337.053	106.62
337.281	99.62
337.51	87.62
337.738	93.62
337.966	100.62
338.194	100.62
338.422	110.62
338.65	97.62
338.878	83.62
339.106	91.62
339.334	89.62
339.562	97.62
339.79	94.62
340.018	91.62
340.246	105.62
340.474	92.62
340.702	101.62
340.93	96.62
341.158	99.62
341.386	101.62
341.614	116.62
341.842	90.62
342.07	102.62
342.298	95.62
342.526	87.62
342.754	90.62
342.981	104.62
343.209	83.62
343.437	101.62
343.665	102.62
343.893	77.62
344.12	80.62
344.348	98.62
344.576	97.62
344.804	89.62
345.031	96.62
345.259	107.62
345.487	121.62
345.714	78.62
345.942	90.62
346.17	88.62
346.397	95.62
346.625	103.62
346.853	102.62
347.08	94.62
347.308	102.62
347.535	122.62
347.763	114.62
347.99	99.62
348.218	102.62
348.445	138.62
348.673	128.62
348.9	106.62
349.128	106.62
349.355	87.62
349.583	109.62
349.81	101.62
350.037	97.62
350.265	92.62
350.492	84.62
350.72	98.62
350.947	103.62
351.174	119.62
351.402	116.62
351.629	108.62
351.856	120.62
352.083	102.62
352.311	114.62
352.538	127.62
352.765	132.62
352.992	140.62
353.22	115.62
353.447	121.62
353.674	109.62
353.901	82.62
354.128	91.62
354.355	99.62
354.583	88.62
354.81	95.62
355.037	91.62
355.264	101.62
355.491	76.62
355.718	89.62
355.945	92.62
356.172	98.62
356.399	77.62
356.626	107.62
356.853	87.62
357.08	101.62
357.307	87.62
357.534	101.62
357.761	95.62
357.988	100.62
358.215	71.62
358.441	95.62
358.668	92.62
358.895	100.62
359.122	88.62
359.349	91.62
359.576	96.62
359.802	113.62
360.029	150.62
360.256	153.62
360.483	120.62
360.709	84.62
360.936	102.62
361.163	89.62
361.39	109.62
361.616	105.62
361.843	90.62
362.07	95.62
362.296	109.62
362.523	105.62
362.749	90.62
362.976	89.62
363.203	101.62
363.429	98.62
363.656	93.62
363.882	88.62
364.109	82.62
364.335	95.62
364.562	93.62
364.788	100.62
365.015	97.62
365.241	104.62
365.468	125.62
365.694	112.62
365.92	115.62
366.147	99.62
366.373	86.62
366.599	81.62
366.826	81.62
367.052	95.62
367.278	89.62
367.505	92.62
367.731	84.62
367.957	90.62
368.184	100.62
368.41	101.62
368.636	128.62
368.862	137.62
369.089	121.62
369.315	96.62
369.541	94.62
369.767	83.62
369.993	82.62
370.219	101.62
370.445	84.62
370.672	91.62
370.898	82.62
371.124	84.62
371.35	76.62
371.576	77.62
371.802	85.62
372.028	82.62
372.254	75.62
372.48	84.62
372.706	68.62
372.932	88.62
373.158	89.62
373.384	88.62
373.61	105.62
373.835	89.62
374.061	94.62
374.287	84.62
374.513	91.62
374.739	84.62
374.965	92.62
375.191	92.62
375.416	88.62
375.642	89.62
375.868	89.62
376.094	90.62
376.319	88.62
376.545	78.62
376.771	94.62
376.997	84.62
377.222	82.62
377.448	83.62
377.674	77.62
377.899	83.62
378.125	96.62
378.35	80.62
378.576	87.62
378.802	93.62
379.027	93.62
379.253	93.62
379.478	83.62
379.704	87.62
379.929	100.62
380.155	96.62
380.38	92.62
380.606	93.62
380.831	88.62
381.057	90.62
381.282	92.62
381.507	83.62
381.733	95.62
381.958	88.62
382.184	100.62
382.409	91.62
382.634	86.62
382.86	90.62
383.085	105.62
383.31	76.62
383.535	118.62
383.761	99.62
383.986	100.62
384.211	105.62
384.436	105.62
384.662	102.62
384.887	99.62
385.112	113.62
385.337	102.62
385.562	107.62
385.787	124.62
386.013	116.62
386.238	121.62
386.463	128.62
386.688	111.62
386.913	92.62
387.138	97.62
387.363	89.62
387.588	98.62
387.813	102.62
388.038	112.62
388.263	105.62
388.488	102.62
388.713	98.62
388.938	91.62
389.163	102.62
389.387	87.62
389.612	97.62
389.837	94.62
390.062	94.62
390.287	104.62
390.512	100.62
390.736	87.62
390.961	74.62
391.186	89.62
391.411	70.62
391.636	81.62
391.86	102.62
392.085	82.62
392.31	86.62
392.534	101.62
392.759	86.62
392.984	76.62
393.208	106.62
393.433	100.62
393.658	85.62
393.882	89.62
394.107	84.62
394.331	85.62
394.556	80.62
394.78	97.62
395.005	64.62
395.229	84.62
395.454	79.62
395.678	89.62
395.903	91.62
396.127	88.62
396.352	76.62
396.576	86.62
396.801	93.62
397.025	102.62
397.249	103.62
397.474	90.62
397.698	83.62
397.922	93.62
398.147	82.62
398.371	78.62
398.595	96.62
398.82	87.62
399.044	93.62
399.268	87.62
399.492	83.62
399.717	92.62
399.941	95.62
400.165	90.62
400.389	103.62
400.613	91.62
400.837	81.62
401.062	94.62
401.286	93.62
401.51	85.62
401.734	91.62
401.958	115.62
402.182	159.62
402.406	224.62
402.63	169.62
402.854	102.62
403.078	89.62
403.302	80.62
403.526	81.62
403.75	89.62
403.974	94.62
404.198	85.62
404.422	94.62
404.645	93.62
404.869	69.62
405.093	119.62
405.317	120.62
405.541	124.62
405.765	118.62
405.988	152.62
406.212	232.62
406.436	348.62
406.66	233.62
406.883	135.62
407.107	110.62
407.331	106.62
407.555	123.62
407.778	107.62
408.002	102.62
408.226	95.62
408.449	103.62
408.673	92.62
408.896	96.62
409.12	89.62
409.344	90.62
409.567	97.62
409.791	92.62
410.014	89.62
410.238	86.62
410.461	84.62
410.685	78.62
410.908	100.62
411.132	105.62
411.355	107.62
411.578	91.62
411.802	110.62
412.025	87.62
412.249	90.62
412.472	93.62
412.695	100.62
412.919	88.62
413.142	73.62
413.365	84.62
413.589	88.62
413.812	85.62
414.035	88.62
414.258	92.62
414.482	97.62
414.705	78.62
414.928	83.62
415.151	105.62
415.374	96.62
415.597	90.62
415.821	88.62
416.044	101.62
416.267	98.62
416.49	76.62
416.713	81.62
416.936	87.62
417.159	89.62
417.382	93.62
417.605	102.62
417.828	103.62
418.051	95.62
418.274	93.62
418.497	85.62
418.72	82.62
418.943	94.62
419.166	74.62
419.389	89.62
419.611	91.62
419.834	94.62
420.057	77.62
420.28	84.62
420.503	96.62
420.726	81.62
420.948	90.62
421.171	91.62
421.394	96.62
421.617	96.62
421.839	92.62
422.062	94.62
422.285	85.62
422.507	104.62
422.73	108.62
422.953	89.62
423.175	80.62
423.398	93.62
423.621	75.62
423.843	77.62
424.066	94.62
424.288	82.62
424.511	90.62
424.733	106.62
424.956	119.62
425.178	113.62
425.401	100.62
425.623	86.62
425.846	89.62
426.068	94.62
426.291	99.62
426.513	87.62
426.735	104.62
426.958	93.62
427.18	105.62
427.402	180.62
427.625	228.62
427.847	174.62
428.069	118.62
428.292	96.62
428.514	83.62
428.736	81.62
428.958	77.62
429.181	65.62
429.403	90.62
429.625	91.62
429.847	98.62
430.069	98.62
430.292	86.62
430.514	92.62
430.736	91.62
430.958	91.62
431.18	97.62
431.402	93.62
431.624	88.62
431.846	82.62
432.068	80.62
432.29	81.62
432.512	86.62
432.734	83.62
432.956	97.62
433.178	103.62
433.4	101.62
433.622	85.62
433.844	93.62
434.066	84.62
434.287	82.62
434.509	84.62
434.731	81.62
434.953	89.62
435.175	78.62
435.397	78.62
435.618	85.62
435.84	114.62
436.062	136.62
436.284	123.62
436.505	93.62
436.727	106.62
436.949	103.62
437.17	87.62
437.392	78.62
437.614	113.62
437.835	140.62
438.057	164.62
438.278	133.62
438.5	92.62
438.721	119.62
438.943	99.62
439.165	92.62
439.386	76.62
439.608	105.62
439.829	116.62
440.05	152.62
440.272	198.62
440.493	103.62
440.715	89.62
440.936	83.62
441.158	75.62
441.379	94.62
441.6	104.62
441.822	117.62
442.043	105.62
442.264	108.62
442.486	106.62
442.707	94.62
442.928	134.62
443.149	196.62
443.371	184.62
443.592	142.62
443.813	133.62
444.034	133.62
444.255	98.62
444.476	85.62
444.698	100.62
444.919	92.62
445.14	136.62
445.361	133.62
445.582	152.62
445.803	180.62
446.024	166.62
446.245	160.62
446.466	126.62
446.687	101.62
446.908	77.62
447.129	86.62
447.35	91.62
447.571	88.62
447.792	91.62
448.013	119.62
448.234	126.62
448.455	114.62
448.675	131.62
448.896	127.62
449.117	112.62
449.338	105.62
449.559	138.62
449.779	143.62
450	103.62
450.221	93.62
450.442	92.62
450.662	110.62
450.883	114.62
451.104	132.62
451.324	98.62
451.545	98.62
451.766	99.62
451.986	102.62
452.207	71.62
452.428	96.62
452.648	104.62
452.869	144.62
453.089	138.62
453.31	164.62
453.53	110.62
453.751	102.62
453.971	139.62
454.192	133.62
454.412	105.62
454.633	85.62
454.853	89.62
455.073	99.62
455.294	99.62
455.514	99.62
455.734	94.62
455.955	88.62
456.175	82.62
456.395	76.62
456.616	83.62
456.836	85.62
457.056	86.62
457.276	96.62
457.497	74.62
457.717	90.62
457.937	92.62
458.157	83.62
458.377	104.62
458.598	136.62
458.818	230.62
459.038	230.62
459.258	156.62
459.478	100.62
459.698	78.62
459.918	93.62
460.138	83.62
460.358	93.62
460.578	90.62
460.798	103.62
461.018	89.62
461.238	77.62
461.458	85.62
461.678	86.62
461.898	93.62
462.118	98.62
462.338	72.62
462.558	86.62
462.777	76.62
462.997	87.62
463.217	92.62
463.437	75.62
463.657	92.62
463.876	90.62
464.096	102.62
464.316	77.62
464.536	101.62
464.755	101.62
464.975	133.62
465.195	246.62
465.414	249.62
465.634	101.62
465.854	93.62
466.073	89.62
466.293	82.62
466.512	93.62
466.732	79.62
466.951	87.62
467.171	82.62
467.391	108.62
467.61	122.62
467.829	120.62
468.049	93.62
468.268	92.62
468.488	78.62
468.707	86.62
468.927	69.62
469.146	88.62
469.365	85.62
469.585	95.62
469.804	94.62
470.023	102.62
470.243	94.62
470.462	116.62
470.681	132.62
470.901	94.62
471.12	85.62
471.339	84.62
471.558	96.62
471.777	90.62
471.997	92.62
472.216	113.62
472.435	109.62
472.654	77.62
472.873	90.62
473.092	106.62
473.311	86.62
473.53	89.62
473.749	93.62
473.968	101.62
474.187	121.62
474.406	100.62
474.625	77.62
474.844	94.62
475.063	88.62
475.282	102.62
475.501	99.62
475.72	96.62
475.939	86.62
476.158	82.62
476.377	98.62
476.596	92.62
476.814	98.62
477.033	93.62
477.252	93.62
477.471	85.62
477.69	90.62
477.908	76.62
478.127	69.62
478.346	80.62
478.564	92.62
478.783	105.62
479.002	108.62
479.22	110.62
479.439	119.62
479.658	112.62
479.876	112.62
480.095	102.62
480.313	110.62
480.532	89.62
480.751	93.62
480.969	97.62
481.188	138.62
481.406	123.62
481.624	100.62
481.843	91.62
482.061	77.62
482.28	73.62
482.498	84.62
482.717	97.62
482.935	92.62
483.153	69.62
483.372	80.62
483.59	98.62
483.808	91.62
484.027	87.62
484.245	100.62
484.463	100.62
484.681	84.62
484.9	91.62
485.118	91.62
485.336	104.62
485.554	84.62
485.772	114.62
485.99	91.62
486.209	87.62
486.427	115.62
486.645	120.62
486.863	120.62
487.081	108.62
487.299	106.62
487.517	105.62
487.735	97.62
487.953	100.62
488.171	99.62
488.389	84.62
488.607	110.62
488.825	92.62
489.043	96.62
489.261	87.62
489.479	86.62
489.696	78.62
489.914	88.62
490.132	76.62
490.35	86.62
490.568	89.62
490.786	94.62
491.003	97.62
491.221	82.62
491.439	84.62
491.657	85.62
491.874	97.62
492.092	94.62
492.31	84.62
492.527	96.62
492.745	84.62
492.963	88.62
493.18	89.62
493.398	91.62
493.615	87.62
493.833	98.62
494.05	80.62
494.268	78.62
494.485	93.62
494.703	96.62
494.92	90.62
495.138	102.62
495.355	78.62
495.573	93.62
495.79	94.62
496.008	105.62
496.225	94.62
496.442	77.62
496.66	89.62
496.877	100.62
497.094	87.62
497.312	84.62
497.529	81.62
497.746	97.62
497.963	88.62
498.181	77.62
498.398	97.62
498.615	121.62
498.832	110.62
499.049	92.62
499.267	88.62
499.484	90.62
499.701	97.62
499.918	83.62
500.135	104.62
500.352	95.62
500.569	90.62
500.786	88.62
501.003	87.62
501.22	84.62
501.437	90.62
501.654	99.62
501.871	135.62
502.088	87.62
502.305	88.62
502.522	92.62
502.739	85.62
502.956	101.62
503.172	93.62
503.389	107.62
503.606	121.62
503.823	131.62
504.04	107.62
504.256	82.62
504.473	68.62
504.69	85.62
504.907	85.62
505.123	88.62
505.34	97.62
505.557	96.62
505.773	91.62
505.99	76.62
506.207	94.62
506.423	100.62
506.64	98.62
506.856	84.62
507.073	84.62
507.289	85.62
507.506	104.62
507.722	151.62
507.939	133.62
508.155	101.62
508.372	92.62
508.588	103.62
508.805	101.62
509.021	111.62
509.238	99.62
509.454	121.62
509.67	110.62
509.887	120.62
510.103	143.62
510.319	282.62
510.536	1191.62
510.752	4268.62
510.968	1144.62
511.184	231.62
511.401	132.62
511.617	122.62
511.833	93.62
512.049	98.62
512.265	93.62
512.481	99.62
512.698	90.62
512.914	100.62
513.13	107.62
513.346	85.62
513.562	93.62
513.778	108.62
513.994	94.62
514.21	105.62
