Data from Circ_2012_H10_HRD10591_00088.txt Node
Date: Wed Jan 03 10:06:08 EST 2024
User: Yrep
Spectrometer: HR+D1059
Trigger mode: 1
Integration Time (sec): 1.000000E-1
Scans to average: 1
Electric dark correction enabled: true
Nonlinearity correction enabled: false
Boxcar width: 0
XAxis mode: Wavelengths
Number of Pixels in Spectrum: 2048
>>>>>Begin Spectral Data<<<<<
223.165	-26.12
223.4	-26.12
223.635	-26.12
223.869	-23.12
224.104	-36.12
224.338	-16.12
224.573	-16.12
224.808	-21.12
225.042	-15.12
225.277	-1.12
225.511	6.88
225.746	30.88
225.98	22.88
226.215	2.88
226.449	10.88
226.683	25.88
226.918	26.88
227.152	27.88
227.387	33.88
227.621	45.88
227.856	27.88
228.09	55.88
228.324	58.88
228.559	61.88
228.793	36.88
229.027	67.88
229.262	67.88
229.496	77.88
229.73	77.88
229.964	82.88
230.199	83.88
230.433	73.88
230.667	76.88
230.901	70.88
231.136	83.88
231.37	73.88
231.604	75.88
231.838	67.88
232.072	78.88
232.306	71.88
232.541	70.88
232.775	84.88
233.009	80.88
233.243	71.88
233.477	87.88
233.711	76.88
233.945	64.88
234.179	78.88
234.413	75.88
234.647	80.88
234.881	74.88
235.115	71.88
235.349	75.88
235.583	70.88
235.817	84.88
236.051	96.88
236.285	70.88
236.519	93.88
236.753	75.88
236.987	59.88
237.221	79.88
237.455	76.88
237.689	84.88
237.922	80.88
238.156	82.88
238.39	80.88
238.624	71.88
238.858	78.88
239.091	74.88
239.325	76.88
239.559	85.88
239.793	76.88
240.027	62.88
240.26	76.88
240.494	73.88
240.728	70.88
240.961	71.88
241.195	78.88
241.429	79.88
241.662	84.88
241.896	84.88
242.13	70.88
242.363	80.88
242.597	81.88
242.83	69.88
243.064	92.88
243.298	75.88
243.531	82.88
243.765	73.88
243.998	73.88
244.232	75.88
244.465	86.88
244.699	95.88
244.932	72.88
245.166	69.88
245.399	75.88
245.633	86.88
245.866	73.88
246.099	81.88
246.333	78.88
246.566	83.88
246.8	80.88
247.033	82.88
247.266	78.88
247.5	75.88
247.733	85.88
247.966	80.88
248.2	74.88
248.433	88.88
248.666	94.88
248.899	84.88
249.133	80.88
249.366	100.88
249.599	93.88
249.832	66.88
250.066	93.88
250.299	99.88
250.532	81.88
250.765	80.88
250.998	86.88
251.231	75.88
251.465	84.88
251.698	72.88
251.931	92.88
252.164	84.88
252.397	73.88
252.63	80.88
252.863	86.88
253.096	72.88
253.329	67.88
253.562	75.88
253.795	88.88
254.028	86.88
254.261	81.88
254.494	74.88
254.727	83.88
254.96	75.88
255.193	74.88
255.426	84.88
255.659	96.88
255.892	95.88
256.124	82.88
256.357	84.88
256.59	69.88
256.823	69.88
257.056	86.88
257.289	80.88
257.521	75.88
257.754	72.88
257.987	90.88
258.22	77.88
258.452	73.88
258.685	73.88
258.918	83.88
259.151	84.88
259.383	80.88
259.616	86.88
259.849	69.88
260.081	75.88
260.314	78.88
260.547	86.88
260.779	90.88
261.012	79.88
261.244	77.88
261.477	87.88
261.71	94.88
261.942	102.88
262.175	117.88
262.407	82.88
262.64	68.88
262.872	85.88
263.105	98.88
263.337	84.88
263.57	76.88
263.802	93.88
264.035	94.88
264.267	75.88
264.499	86.88
264.732	73.88
264.964	77.88
265.197	74.88
265.429	83.88
265.661	88.88
265.894	95.88
266.126	83.88
266.358	95.88
266.591	82.88
266.823	85.88
267.055	101.88
267.287	92.88
267.52	87.88
267.752	94.88
267.984	90.88
268.216	83.88
268.448	87.88
268.681	91.88
268.913	91.88
269.145	80.88
269.377	76.88
269.609	94.88
269.841	76.88
270.073	66.88
270.306	102.88
270.538	85.88
270.77	91.88
271.002	77.88
271.234	80.88
271.466	76.88
271.698	87.88
271.93	94.88
272.162	89.88
272.394	86.88
272.626	82.88
272.858	90.88
273.09	89.88
273.322	81.88
273.553	76.88
273.785	80.88
274.017	88.88
274.249	92.88
274.481	89.88
274.713	84.88
274.945	74.88
275.176	79.88
275.408	75.88
275.64	93.88
275.872	88.88
276.104	90.88
276.335	93.88
276.567	99.88
276.799	102.88
277.031	82.88
277.262	85.88
277.494	79.88
277.726	75.88
277.957	90.88
278.189	107.88
278.421	95.88
278.652	98.88
278.884	83.88
279.115	92.88
279.347	89.88
279.579	92.88
279.81	89.88
280.042	92.88
280.273	91.88
280.505	96.88
280.736	90.88
280.968	96.88
281.199	73.88
281.431	84.88
281.662	74.88
281.894	85.88
282.125	96.88
282.356	124.88
282.588	137.88
282.819	104.88
283.051	93.88
283.282	100.88
283.513	85.88
283.745	85.88
283.976	91.88
284.207	91.88
284.439	96.88
284.67	78.88
284.901	73.88
285.132	74.88
285.364	80.88
285.595	100.88
285.826	99.88
286.057	91.88
286.288	99.88
286.52	80.88
286.751	67.88
286.982	66.88
287.213	96.88
287.444	90.88
287.675	77.88
287.906	94.88
288.138	103.88
288.369	93.88
288.6	87.88
288.831	90.88
289.062	86.88
289.293	92.88
289.524	92.88
289.755	86.88
289.986	94.88
290.217	90.88
290.448	73.88
290.679	75.88
290.91	95.88
291.141	77.88
291.371	93.88
291.602	75.88
291.833	88.88
292.064	77.88
292.295	90.88
292.526	84.88
292.757	85.88
292.987	87.88
293.218	75.88
293.449	80.88
293.68	83.88
293.91	91.88
294.141	92.88
294.372	70.88
294.603	92.88
294.833	99.88
295.064	87.88
295.295	80.88
295.525	102.88
295.756	100.88
295.987	121.88
296.217	135.88
296.448	112.88
296.679	77.88
296.909	80.88
297.14	81.88
297.37	96.88
297.601	85.88
297.831	93.88
298.062	82.88
298.292	83.88
298.523	96.88
298.753	87.88
298.984	89.88
299.214	98.88
299.445	102.88
299.675	99.88
299.905	100.88
300.136	108.88
300.366	93.88
300.597	85.88
300.827	100.88
301.057	107.88
301.288	103.88
301.518	104.88
301.748	91.88
301.979	104.88
302.209	93.88
302.439	81.88
302.669	76.88
302.9	84.88
303.13	84.88
303.36	103.88
303.59	103.88
303.82	100.88
304.051	94.88
304.281	89.88
304.511	90.88
304.741	81.88
304.971	97.88
305.201	82.88
305.431	77.88
305.661	87.88
305.891	83.88
306.121	103.88
306.352	106.88
306.582	105.88
306.812	101.88
307.042	93.88
307.272	95.88
307.502	100.88
307.731	95.88
307.961	104.88
308.191	85.88
308.421	95.88
308.651	98.88
308.881	86.88
309.111	92.88
309.341	103.88
309.571	101.88
309.8	104.88
310.03	94.88
310.26	103.88
310.49	92.88
310.72	87.88
310.949	94.88
311.179	91.88
311.409	101.88
311.639	89.88
311.868	94.88
312.098	95.88
312.328	95.88
312.557	120.88
312.787	104.88
313.017	100.88
313.246	97.88
313.476	102.88
313.706	106.88
313.935	82.88
314.165	103.88
314.394	102.88
314.624	115.88
314.853	90.88
315.083	101.88
315.312	87.88
315.542	92.88
315.771	82.88
316.001	75.88
316.23	93.88
316.46	80.88
316.689	83.88
316.919	95.88
317.148	104.88
317.377	88.88
317.607	86.88
317.836	103.88
318.065	70.88
318.295	107.88
318.524	107.88
318.753	98.88
318.983	94.88
319.212	102.88
319.441	110.88
319.67	100.88
319.9	104.88
320.129	88.88
320.358	80.88
320.587	87.88
320.816	106.88
321.046	105.88
321.275	112.88
321.504	96.88
321.733	98.88
321.962	98.88
322.191	100.88
322.42	108.88
322.649	103.88
322.878	87.88
323.108	114.88
323.337	118.88
323.566	122.88
323.795	127.88
324.024	199.88
324.253	376.88
324.482	781.88
324.71	1570.88
324.939	2103.88
325.168	790.88
325.397	246.88
325.626	143.88
325.855	122.88
326.084	104.88
326.313	122.88
326.542	130.88
326.77	226.88
326.999	446.88
327.228	875.88
327.457	1619.88
327.686	1323.88
327.914	344.88
328.143	208.88
328.372	166.88
328.6	142.88
328.829	109.88
329.058	118.88
329.287	127.88
329.515	106.88
329.744	124.88
329.972	136.88
330.201	147.88
330.43	196.88
330.658	140.88
330.887	156.88
331.115	110.88
331.344	97.88
331.572	103.88
331.801	119.88
332.03	108.88
332.258	73.88
332.486	104.88
332.715	109.88
332.943	96.88
333.172	102.88
333.4	92.88
333.629	108.88
333.857	121.88
334.085	135.88
334.314	156.88
334.542	191.88
334.771	182.88
334.999	112.88
335.227	91.88
335.455	98.88
335.684	107.88
335.912	100.88
336.14	86.88
336.369	94.88
336.597	87.88
336.825	95.88
337.053	99.88
337.281	96.88
337.51	99.88
337.738	80.88
337.966	93.88
338.194	98.88
338.422	83.88
338.65	87.88
338.878	101.88
339.106	90.88
339.334	94.88
339.562	91.88
339.79	79.88
340.018	79.88
340.246	103.88
340.474	95.88
340.702	88.88
340.93	67.88
341.158	90.88
341.386	106.88
341.614	110.88
341.842	87.88
342.07	97.88
342.298	98.88
342.526	89.88
342.754	84.88
342.981	71.88
343.209	98.88
343.437	105.88
343.665	93.88
343.893	95.88
344.12	79.88
344.348	86.88
344.576	91.88
344.804	99.88
345.031	90.88
345.259	90.88
345.487	82.88
345.714	100.88
345.942	98.88
346.17	86.88
346.397	80.88
346.625	86.88
346.853	91.88
347.08	83.88
347.308	94.88
347.535	94.88
347.763	104.88
347.99	92.88
348.218	101.88
348.445	102.88
348.673	87.88
348.9	93.88
349.128	104.88
349.355	101.88
349.583	105.88
349.81	101.88
350.037	102.88
350.265	107.88
350.492	95.88
350.72	96.88
350.947	99.88
351.174	120.88
351.402	115.88
351.629	106.88
351.856	91.88
352.083	91.88
352.311	94.88
352.538	85.88
352.765	112.88
352.992	115.88
353.22	99.88
353.447	100.88
353.674	93.88
353.901	91.88
354.128	84.88
354.355	88.88
354.583	107.88
354.81	112.88
355.037	105.88
355.264	88.88
355.491	78.88
355.718	90.88
355.945	89.88
356.172	87.88
356.399	80.88
356.626	80.88
356.853	93.88
357.08	90.88
357.307	85.88
357.534	80.88
357.761	90.88
357.988	95.88
358.215	101.88
358.441	111.88
358.668	88.88
358.895	97.88
359.122	90.88
359.349	93.88
359.576	110.88
359.802	97.88
360.029	110.88
360.256	107.88
360.483	96.88
360.709	87.88
360.936	89.88
361.163	82.88
361.39	111.88
361.616	85.88
361.843	101.88
362.07	94.88
362.296	86.88
362.523	87.88
362.749	97.88
362.976	93.88
363.203	99.88
363.429	77.88
363.656	78.88
363.882	81.88
364.109	88.88
364.335	84.88
364.562	87.88
364.788	98.88
365.015	108.88
365.241	96.88
365.468	103.88
365.694	94.88
365.92	95.88
366.147	93.88
366.373	84.88
366.599	82.88
366.826	95.88
367.052	93.88
367.278	77.88
367.505	79.88
367.731	85.88
367.957	99.88
368.184	85.88
368.41	87.88
368.636	101.88
368.862	128.88
369.089	105.88
369.315	84.88
369.541	81.88
369.767	95.88
369.993	98.88
370.219	104.88
370.445	75.88
370.672	88.88
370.898	97.88
371.124	90.88
371.35	81.88
371.576	76.88
371.802	90.88
372.028	87.88
372.254	94.88
372.48	94.88
372.706	96.88
372.932	93.88
373.158	74.88
373.384	75.88
373.61	83.88
373.835	91.88
374.061	93.88
374.287	87.88
374.513	92.88
374.739	76.88
374.965	88.88
375.191	91.88
375.416	84.88
375.642	80.88
375.868	78.88
376.094	92.88
376.319	93.88
376.545	89.88
376.771	94.88
376.997	78.88
377.222	90.88
377.448	102.88
377.674	80.88
377.899	88.88
378.125	94.88
378.35	94.88
378.576	79.88
378.802	90.88
379.027	77.88
379.253	76.88
379.478	84.88
379.704	99.88
379.929	86.88
380.155	92.88
380.38	95.88
380.606	102.88
380.831	88.88
381.057	86.88
381.282	98.88
381.507	112.88
381.733	99.88
381.958	87.88
382.184	102.88
382.409	104.88
382.634	99.88
382.86	94.88
383.085	92.88
383.31	102.88
383.535	100.88
383.761	86.88
383.986	101.88
384.211	92.88
384.436	108.88
384.662	92.88
384.887	103.88
385.112	111.88
385.337	111.88
385.562	98.88
385.787	102.88
386.013	103.88
386.238	121.88
386.463	105.88
386.688	85.88
386.913	93.88
387.138	107.88
387.363	97.88
387.588	88.88
387.813	100.88
388.038	108.88
388.263	103.88
388.488	95.88
388.713	84.88
388.938	93.88
389.163	96.88
389.387	96.88
389.612	97.88
389.837	96.88
390.062	88.88
390.287	95.88
390.512	81.88
390.736	91.88
390.961	97.88
391.186	87.88
391.411	87.88
391.636	91.88
391.86	89.88
392.085	87.88
392.31	82.88
392.534	98.88
392.759	68.88
392.984	86.88
393.208	80.88
393.433	90.88
393.658	102.88
393.882	101.88
394.107	90.88
394.331	84.88
394.556	98.88
394.78	91.88
395.005	89.88
395.229	82.88
395.454	78.88
395.678	96.88
395.903	84.88
396.127	87.88
396.352	87.88
396.576	91.88
396.801	88.88
397.025	92.88
397.249	76.88
397.474	94.88
397.698	83.88
397.922	99.88
398.147	89.88
398.371	80.88
398.595	98.88
398.82	94.88
399.044	75.88
399.268	83.88
399.492	94.88
399.717	95.88
399.941	87.88
400.165	96.88
400.389	70.88
400.613	96.88
400.837	91.88
401.062	85.88
401.286	97.88
401.51	92.88
401.734	98.88
401.958	108.88
402.182	106.88
402.406	153.88
402.63	114.88
402.854	85.88
403.078	95.88
403.302	85.88
403.526	95.88
403.75	93.88
403.974	87.88
404.198	90.88
404.422	92.88
404.645	91.88
404.869	68.88
405.093	104.88
405.317	103.88
405.541	104.88
405.765	82.88
405.988	103.88
406.212	170.88
406.436	194.88
406.66	140.88
406.883	98.88
407.107	98.88
407.331	79.88
407.555	99.88
407.778	79.88
408.002	87.88
408.226	91.88
408.449	99.88
408.673	80.88
408.896	96.88
409.12	88.88
409.344	88.88
409.567	94.88
409.791	92.88
410.014	91.88
410.238	97.88
410.461	84.88
410.685	91.88
410.908	94.88
411.132	103.88
411.355	85.88
411.578	75.88
411.802	78.88
412.025	84.88
412.249	87.88
412.472	93.88
412.695	106.88
412.919	94.88
413.142	90.88
413.365	74.88
413.589	96.88
413.812	99.88
414.035	90.88
414.258	91.88
414.482	92.88
414.705	98.88
414.928	99.88
415.151	75.88
415.374	89.88
415.597	92.88
415.821	92.88
416.044	95.88
416.267	97.88
416.49	65.88
416.713	77.88
416.936	67.88
417.159	89.88
417.382	86.88
417.605	90.88
417.828	93.88
418.051	104.88
418.274	81.88
418.497	96.88
418.72	84.88
418.943	92.88
419.166	93.88
419.389	93.88
419.611	93.88
419.834	92.88
420.057	90.88
420.28	94.88
420.503	91.88
420.726	86.88
420.948	99.88
421.171	88.88
421.394	86.88
421.617	84.88
421.839	83.88
422.062	87.88
422.285	92.88
422.507	85.88
422.73	102.88
422.953	95.88
423.175	83.88
423.398	82.88
423.621	95.88
423.843	96.88
424.066	84.88
424.288	82.88
424.511	88.88
424.733	91.88
424.956	96.88
425.178	95.88
425.401	80.88
425.623	103.88
425.846	79.88
426.068	93.88
426.291	88.88
426.513	97.88
426.735	91.88
426.958	93.88
427.18	99.88
427.402	130.88
427.625	164.88
427.847	130.88
428.069	112.88
428.292	80.88
428.514	97.88
428.736	91.88
428.958	90.88
429.181	93.88
429.403	91.88
429.625	92.88
429.847	85.88
430.069	98.88
430.292	94.88
430.514	91.88
430.736	86.88
430.958	84.88
431.18	77.88
431.402	70.88
431.624	89.88
431.846	75.88
432.068	83.88
432.29	81.88
432.512	85.88
432.734	73.88
432.956	97.88
433.178	103.88
433.4	100.88
433.622	95.88
433.844	90.88
434.066	90.88
434.287	83.88
434.509	105.88
434.731	100.88
434.953	98.88
435.175	86.88
435.397	92.88
435.618	99.88
435.84	103.88
436.062	114.88
436.284	111.88
436.505	98.88
436.727	84.88
436.949	86.88
437.17	88.88
437.392	86.88
437.614	88.88
437.835	108.88
438.057	103.88
438.278	108.88
438.5	113.88
438.721	114.88
438.943	109.88
439.165	98.88
439.386	82.88
439.608	95.88
439.829	100.88
440.05	110.88
440.272	132.88
440.493	101.88
440.715	68.88
440.936	93.88
441.158	115.88
441.379	86.88
441.6	90.88
441.822	90.88
442.043	94.88
442.264	94.88
442.486	109.88
442.707	96.88
442.928	110.88
443.149	127.88
443.371	134.88
443.592	115.88
443.813	92.88
444.034	111.88
444.255	95.88
444.476	88.88
444.698	96.88
444.919	86.88
445.14	131.88
445.361	111.88
445.582	112.88
445.803	138.88
446.024	126.88
446.245	133.88
446.466	93.88
446.687	93.88
446.908	98.88
447.129	88.88
447.35	97.88
447.571	92.88
447.792	88.88
448.013	105.88
448.234	96.88
448.455	93.88
448.675	113.88
448.896	119.88
449.117	110.88
449.338	109.88
449.559	135.88
449.779	121.88
450	91.88
450.221	86.88
450.442	81.88
450.662	93.88
450.883	91.88
451.104	109.88
451.324	99.88
451.545	90.88
451.766	77.88
451.986	80.88
452.207	84.88
452.428	87.88
452.648	102.88
452.869	128.88
453.089	110.88
453.31	130.88
453.53	92.88
453.751	86.88
453.971	100.88
454.192	103.88
454.412	94.88
454.633	85.88
454.853	90.88
455.073	89.88
455.294	84.88
455.514	102.88
455.734	78.88
455.955	80.88
456.175	89.88
456.395	85.88
456.616	71.88
456.836	82.88
457.056	84.88
457.276	95.88
457.497	80.88
457.717	93.88
457.937	86.88
458.157	85.88
458.377	89.88
458.598	98.88
458.818	139.88
459.038	152.88
459.258	106.88
459.478	90.88
459.698	78.88
459.918	90.88
460.138	97.88
460.358	90.88
460.578	84.88
460.798	103.88
461.018	102.88
461.238	78.88
461.458	75.88
461.678	95.88
461.898	89.88
462.118	100.88
462.338	84.88
462.558	92.88
462.777	91.88
462.997	78.88
463.217	74.88
463.437	76.88
463.657	98.88
463.876	96.88
464.096	88.88
464.316	102.88
464.536	92.88
464.755	100.88
464.975	111.88
465.195	156.88
465.414	162.88
465.634	104.88
465.854	78.88
466.073	91.88
466.293	102.88
466.512	86.88
466.732	94.88
466.951	85.88
467.171	96.88
467.391	92.88
467.61	96.88
467.829	98.88
468.049	109.88
468.268	132.88
468.488	101.88
468.707	92.88
468.927	89.88
469.146	74.88
469.365	87.88
469.585	88.88
469.804	108.88
470.023	85.88
470.243	94.88
470.462	89.88
470.681	99.88
470.901	100.88
471.12	90.88
471.339	88.88
471.558	91.88
471.777	100.88
471.997	100.88
472.216	159.88
472.435	250.88
472.654	119.88
472.873	90.88
473.092	103.88
473.311	84.88
473.53	80.88
473.749	75.88
473.968	84.88
474.187	109.88
474.406	99.88
474.625	94.88
474.844	78.88
475.063	87.88
475.282	87.88
475.501	92.88
475.72	83.88
475.939	84.88
476.158	88.88
476.377	86.88
476.596	92.88
476.814	87.88
477.033	94.88
477.252	98.88
477.471	80.88
477.69	84.88
477.908	80.88
478.127	74.88
478.346	98.88
478.564	97.88
478.783	99.88
479.002	87.88
479.22	88.88
479.439	99.88
479.658	103.88
479.876	101.88
480.095	100.88
480.313	110.88
480.532	100.88
480.751	103.88
480.969	153.88
481.188	364.88
481.406	252.88
481.624	100.88
481.843	82.88
482.061	59.88
482.28	96.88
482.498	80.88
482.717	95.88
482.935	88.88
483.153	78.88
483.372	84.88
483.59	94.88
483.808	103.88
484.027	84.88
484.245	91.88
484.463	89.88
484.681	85.88
484.9	89.88
485.118	91.88
485.336	84.88
485.554	87.88
485.772	79.88
485.99	81.88
486.209	95.88
486.427	96.88
486.645	109.88
486.863	109.88
487.081	100.88
487.299	101.88
487.517	91.88
487.735	91.88
487.953	87.88
488.171	98.88
488.389	104.88
488.607	109.88
488.825	101.88
489.043	91.88
489.261	101.88
489.479	103.88
489.696	89.88
489.914	91.88
490.132	73.88
490.35	86.88
490.568	83.88
490.786	80.88
491.003	92.88
491.221	88.88
491.439	75.88
491.657	87.88
491.874	91.88
492.092	85.88
492.31	89.88
492.527	75.88
492.745	77.88
492.963	93.88
493.18	93.88
493.398	88.88
493.615	93.88
493.833	82.88
494.05	88.88
494.268	85.88
494.485	83.88
494.703	80.88
494.92	87.88
495.138	92.88
495.355	79.88
495.573	92.88
495.79	86.88
496.008	100.88
496.225	78.88
496.442	88.88
496.66	83.88
496.877	85.88
497.094	86.88
497.312	91.88
497.529	87.88
497.746	94.88
497.963	85.88
498.181	88.88
498.398	108.88
498.615	103.88
498.832	107.88
499.049	103.88
499.267	87.88
499.484	95.88
499.701	104.88
499.918	79.88
500.135	70.88
500.352	88.88
500.569	74.88
500.786	81.88
501.003	98.88
501.22	78.88
501.437	86.88
501.654	92.88
501.871	106.88
502.088	78.88
502.305	90.88
502.522	97.88
502.739	96.88
502.956	91.88
503.172	86.88
503.389	89.88
503.606	107.88
503.823	107.88
504.04	93.88
504.256	86.88
504.473	65.88
504.69	86.88
504.907	89.88
505.123	96.88
505.34	94.88
505.557	84.88
505.773	84.88
505.99	77.88
506.207	90.88
506.423	89.88
506.64	99.88
506.856	100.88
507.073	74.88
507.289	98.88
507.506	96.88
507.722	119.88
507.939	115.88
508.155	93.88
508.372	92.88
508.588	84.88
508.805	90.88
509.021	103.88
509.238	91.88
509.454	112.88
509.67	92.88
509.887	114.88
510.103	139.88
510.319	205.88
510.536	746.88
510.752	2343.88
510.968	682.88
511.184	159.88
511.401	101.88
511.617	96.88
511.833	89.88
512.049	90.88
512.265	89.88
512.481	82.88
512.698	87.88
512.914	101.88
513.13	111.88
513.346	101.88
513.562	93.88
513.778	93.88
513.994	95.88
514.21	99.88
514.426	116.88
514.642	132.88
514.858	109.88
515.074	164.88
515.29	420.88
515.506	1397.88
