Data from Circ_2012_H10_HRD10591_00077.txt Node
Date: Wed Jan 03 10:06:05 EST 2024
User: Yrep
Spectrometer: HR+D1059
Trigger mode: 1
Integration Time (sec): 1.000000E-1
Scans to average: 1
Electric dark correction enabled: true
Nonlinearity correction enabled: false
Boxcar width: 0
XAxis mode: Wavelengths
Number of Pixels in Spectrum: 2048
>>>>>Begin Spectral Data<<<<<
223.165	-28.94
223.4	-28.94
223.635	-28.94
223.869	-5.94
224.104	-7.94
224.338	-18.94
224.573	-18.94
224.808	-6.94
225.042	-8.94
225.277	-15.94
225.511	-2.94
225.746	-0.94
225.98	1.06
226.215	16.06
226.449	11.06
226.683	14.06
226.918	40.06
227.152	34.06
227.387	35.06
227.621	48.06
227.856	44.06
228.09	49.06
228.324	44.06
228.559	47.06
228.793	61.06
229.027	76.06
229.262	78.06
229.496	62.06
229.73	71.06
229.964	73.06
230.199	71.06
230.433	76.06
230.667	79.06
230.901	78.06
231.136	81.06
231.37	76.06
231.604	83.06
231.838	94.06
232.072	80.06
232.306	82.06
232.541	76.06
232.775	87.06
233.009	95.06
233.243	73.06
233.477	91.06
233.711	69.06
233.945	78.06
234.179	84.06
234.413	71.06
234.647	75.06
234.881	68.06
235.115	82.06
235.349	83.06
235.583	78.06
235.817	71.06
236.051	73.06
236.285	73.06
236.519	66.06
236.753	77.06
236.987	78.06
237.221	76.06
237.455	81.06
237.689	65.06
237.922	75.06
238.156	63.06
238.39	76.06
238.624	72.06
238.858	72.06
239.091	71.06
239.325	82.06
239.559	87.06
239.793	90.06
240.027	80.06
240.26	87.06
240.494	74.06
240.728	79.06
240.961	77.06
241.195	77.06
241.429	80.06
241.662	75.06
241.896	71.06
242.13	77.06
242.363	73.06
242.597	74.06
242.83	74.06
243.064	81.06
243.298	75.06
243.531	71.06
243.765	81.06
243.998	83.06
244.232	81.06
244.465	81.06
244.699	82.06
244.932	77.06
245.166	75.06
245.399	85.06
245.633	86.06
245.866	70.06
246.099	88.06
246.333	75.06
246.566	72.06
246.8	80.06
247.033	89.06
247.266	71.06
247.5	79.06
247.733	82.06
247.966	75.06
248.2	83.06
248.433	77.06
248.666	82.06
248.899	91.06
249.133	79.06
249.366	78.06
249.599	92.06
249.832	89.06
250.066	74.06
250.299	77.06
250.532	87.06
250.765	79.06
250.998	73.06
251.231	85.06
251.465	81.06
251.698	75.06
251.931	76.06
252.164	82.06
252.397	72.06
252.63	81.06
252.863	80.06
253.096	72.06
253.329	79.06
253.562	73.06
253.795	85.06
254.028	70.06
254.261	61.06
254.494	74.06
254.727	90.06
254.96	84.06
255.193	68.06
255.426	78.06
255.659	75.06
255.892	71.06
256.124	73.06
256.357	83.06
256.59	89.06
256.823	78.06
257.056	82.06
257.289	68.06
257.521	82.06
257.754	88.06
257.987	72.06
258.22	94.06
258.452	70.06
258.685	83.06
258.918	67.06
259.151	78.06
259.383	79.06
259.616	73.06
259.849	81.06
260.081	76.06
260.314	93.06
260.547	73.06
260.779	80.06
261.012	96.06
261.244	103.06
261.477	89.06
261.71	77.06
261.942	91.06
262.175	127.06
262.407	88.06
262.64	65.06
262.872	97.06
263.105	70.06
263.337	73.06
263.57	95.06
263.802	100.06
264.035	78.06
264.267	71.06
264.499	76.06
264.732	64.06
264.964	83.06
265.197	81.06
265.429	89.06
265.661	76.06
265.894	94.06
266.126	83.06
266.358	85.06
266.591	79.06
266.823	75.06
267.055	90.06
267.287	71.06
267.52	91.06
267.752	71.06
267.984	88.06
268.216	77.06
268.448	81.06
268.681	80.06
268.913	65.06
269.145	87.06
269.377	88.06
269.609	91.06
269.841	85.06
270.073	87.06
270.306	85.06
270.538	83.06
270.77	88.06
271.002	80.06
271.234	73.06
271.466	89.06
271.698	91.06
271.93	96.06
272.162	99.06
272.394	81.06
272.626	86.06
272.858	83.06
273.09	98.06
273.322	95.06
273.553	84.06
273.785	78.06
274.017	87.06
274.249	64.06
274.481	76.06
274.713	78.06
274.945	77.06
275.176	101.06
275.408	89.06
275.64	76.06
275.872	92.06
276.104	91.06
276.335	105.06
276.567	86.06
276.799	101.06
277.031	91.06
277.262	101.06
277.494	89.06
277.726	89.06
277.957	83.06
278.189	83.06
278.421	81.06
278.652	78.06
278.884	91.06
279.115	81.06
279.347	85.06
279.579	75.06
279.81	86.06
280.042	83.06
280.273	74.06
280.505	65.06
280.736	93.06
280.968	85.06
281.199	86.06
281.431	75.06
281.662	70.06
281.894	87.06
282.125	91.06
282.356	109.06
282.588	108.06
282.819	112.06
283.051	77.06
283.282	95.06
283.513	80.06
283.745	88.06
283.976	90.06
284.207	98.06
284.439	79.06
284.67	90.06
284.901	88.06
285.132	81.06
285.364	92.06
285.595	88.06
285.826	89.06
286.057	93.06
286.288	92.06
286.52	80.06
286.751	87.06
286.982	88.06
287.213	80.06
287.444	80.06
287.675	95.06
287.906	99.06
288.138	79.06
288.369	100.06
288.6	93.06
288.831	86.06
289.062	92.06
289.293	91.06
289.524	82.06
289.755	82.06
289.986	91.06
290.217	91.06
290.448	77.06
290.679	93.06
290.91	109.06
291.141	87.06
291.371	86.06
291.602	79.06
291.833	94.06
292.064	92.06
292.295	80.06
292.526	90.06
292.757	79.06
292.987	80.06
293.218	82.06
293.449	70.06
293.68	86.06
293.91	93.06
294.141	89.06
294.372	87.06
294.603	86.06
294.833	93.06
295.064	94.06
295.295	84.06
295.525	96.06
295.756	95.06
295.987	99.06
296.217	137.06
296.448	121.06
296.679	92.06
296.909	93.06
297.14	103.06
297.37	90.06
297.601	91.06
297.831	87.06
298.062	102.06
298.292	81.06
298.523	78.06
298.753	83.06
298.984	76.06
299.214	94.06
299.445	92.06
299.675	94.06
299.905	87.06
300.136	94.06
300.366	101.06
300.597	81.06
300.827	91.06
301.057	95.06
301.288	113.06
301.518	84.06
301.748	95.06
301.979	87.06
302.209	81.06
302.439	103.06
302.669	95.06
302.9	101.06
303.13	91.06
303.36	85.06
303.59	96.06
303.82	108.06
304.051	92.06
304.281	89.06
304.511	96.06
304.741	82.06
304.971	71.06
305.201	83.06
305.431	93.06
305.661	104.06
305.891	83.06
306.121	92.06
306.352	100.06
306.582	93.06
306.812	99.06
307.042	95.06
307.272	77.06
307.502	86.06
307.731	100.06
307.961	98.06
308.191	100.06
308.421	95.06
308.651	100.06
308.881	87.06
309.111	86.06
309.341	89.06
309.571	81.06
309.8	91.06
310.03	96.06
310.26	85.06
310.49	94.06
310.72	94.06
310.949	88.06
311.179	87.06
311.409	97.06
311.639	100.06
311.868	108.06
312.098	96.06
312.328	100.06
312.557	102.06
312.787	109.06
313.017	85.06
313.246	93.06
313.476	96.06
313.706	87.06
313.935	84.06
314.165	93.06
314.394	89.06
314.624	99.06
314.853	100.06
315.083	95.06
315.312	95.06
315.542	83.06
315.771	86.06
316.001	86.06
316.23	86.06
316.46	82.06
316.689	100.06
316.919	92.06
317.148	95.06
317.377	95.06
317.607	87.06
317.836	98.06
318.065	89.06
318.295	94.06
318.524	88.06
318.753	85.06
318.983	88.06
319.212	115.06
319.441	108.06
319.67	105.06
319.9	75.06
320.129	93.06
320.358	90.06
320.587	94.06
320.816	97.06
321.046	87.06
321.275	85.06
321.504	84.06
321.733	88.06
321.962	99.06
322.191	105.06
322.42	109.06
322.649	106.06
322.878	110.06
323.108	110.06
323.337	95.06
323.566	112.06
323.795	152.06
324.024	176.06
324.253	324.06
324.482	705.06
324.71	1382.06
324.939	1804.06
325.168	679.06
325.397	207.06
325.626	150.06
325.855	119.06
326.084	102.06
326.313	118.06
326.542	142.06
326.77	206.06
326.999	410.06
327.228	781.06
327.457	1440.06
327.686	1125.06
327.914	333.06
328.143	174.06
328.372	145.06
328.6	122.06
328.829	100.06
329.058	120.06
329.287	124.06
329.515	106.06
329.744	109.06
329.972	107.06
330.201	131.06
330.43	160.06
330.658	133.06
330.887	115.06
331.115	121.06
331.344	96.06
331.572	87.06
331.801	111.06
332.03	103.06
332.258	85.06
332.486	89.06
332.715	78.06
332.943	101.06
333.172	90.06
333.4	86.06
333.629	99.06
333.857	125.06
334.085	122.06
334.314	133.06
334.542	157.06
334.771	171.06
334.999	106.06
335.227	104.06
335.455	95.06
335.684	101.06
335.912	102.06
336.14	81.06
336.369	113.06
336.597	97.06
336.825	93.06
337.053	94.06
337.281	95.06
337.51	93.06
337.738	89.06
337.966	102.06
338.194	95.06
338.422	97.06
338.65	99.06
338.878	96.06
339.106	89.06
339.334	95.06
339.562	94.06
339.79	91.06
340.018	80.06
340.246	86.06
340.474	93.06
340.702	89.06
340.93	80.06
341.158	89.06
341.386	94.06
341.614	87.06
341.842	81.06
342.07	96.06
342.298	89.06
342.526	97.06
342.754	90.06
342.981	78.06
343.209	91.06
343.437	104.06
343.665	101.06
343.893	100.06
344.12	97.06
344.348	73.06
344.576	86.06
344.804	92.06
345.031	95.06
345.259	94.06
345.487	81.06
345.714	94.06
345.942	79.06
346.17	87.06
346.397	116.06
346.625	85.06
346.853	103.06
347.08	99.06
347.308	98.06
347.535	95.06
347.763	92.06
347.99	84.06
348.218	106.06
348.445	107.06
348.673	96.06
348.9	108.06
349.128	95.06
349.355	91.06
349.583	91.06
349.81	78.06
350.037	99.06
350.265	102.06
350.492	97.06
350.72	106.06
350.947	108.06
351.174	102.06
351.402	113.06
351.629	88.06
351.856	90.06
352.083	78.06
352.311	95.06
352.538	98.06
352.765	111.06
352.992	104.06
353.22	113.06
353.447	113.06
353.674	87.06
353.901	96.06
354.128	91.06
354.355	103.06
354.583	95.06
354.81	111.06
355.037	91.06
355.264	87.06
355.491	87.06
355.718	90.06
355.945	91.06
356.172	82.06
356.399	94.06
356.626	107.06
356.853	100.06
357.08	98.06
357.307	86.06
357.534	98.06
357.761	77.06
357.988	88.06
358.215	109.06
358.441	92.06
358.668	92.06
358.895	80.06
359.122	101.06
359.349	89.06
359.576	107.06
359.802	110.06
360.029	104.06
360.256	111.06
360.483	100.06
360.709	81.06
360.936	88.06
361.163	96.06
361.39	94.06
361.616	112.06
361.843	84.06
362.07	71.06
362.296	92.06
362.523	92.06
362.749	94.06
362.976	95.06
363.203	93.06
363.429	73.06
363.656	79.06
363.882	81.06
364.109	85.06
364.335	88.06
364.562	78.06
364.788	102.06
365.015	100.06
365.241	104.06
365.468	101.06
365.694	109.06
365.92	99.06
366.147	94.06
366.373	103.06
366.599	95.06
366.826	85.06
367.052	90.06
367.278	108.06
367.505	84.06
367.731	88.06
367.957	79.06
368.184	87.06
368.41	88.06
368.636	103.06
368.862	107.06
369.089	105.06
369.315	86.06
369.541	89.06
369.767	95.06
369.993	83.06
370.219	107.06
370.445	75.06
370.672	91.06
370.898	95.06
371.124	85.06
371.35	78.06
371.576	83.06
371.802	71.06
372.028	83.06
372.254	89.06
372.48	84.06
372.706	97.06
372.932	86.06
373.158	94.06
373.384	93.06
373.61	92.06
373.835	92.06
374.061	95.06
374.287	102.06
374.513	96.06
374.739	104.06
374.965	104.06
375.191	102.06
375.416	71.06
375.642	98.06
375.868	86.06
376.094	95.06
376.319	90.06
376.545	91.06
376.771	83.06
376.997	108.06
377.222	79.06
377.448	100.06
377.674	99.06
377.899	82.06
378.125	89.06
378.35	84.06
378.576	92.06
378.802	94.06
379.027	86.06
379.253	99.06
379.478	92.06
379.704	89.06
379.929	73.06
380.155	100.06
380.38	97.06
380.606	92.06
380.831	90.06
381.057	100.06
381.282	95.06
381.507	91.06
381.733	92.06
381.958	94.06
382.184	89.06
382.409	109.06
382.634	97.06
382.86	83.06
383.085	103.06
383.31	90.06
383.535	103.06
383.761	98.06
383.986	87.06
384.211	94.06
384.436	105.06
384.662	101.06
384.887	101.06
385.112	104.06
385.337	112.06
385.562	96.06
385.787	105.06
386.013	101.06
386.238	86.06
386.463	102.06
386.688	107.06
386.913	99.06
387.138	97.06
387.363	96.06
387.588	95.06
387.813	92.06
388.038	111.06
388.263	103.06
388.488	106.06
388.713	100.06
388.938	94.06
389.163	95.06
389.387	90.06
389.612	88.06
389.837	85.06
390.062	89.06
390.287	87.06
390.512	103.06
390.736	90.06
390.961	85.06
391.186	89.06
391.411	92.06
391.636	95.06
391.86	93.06
392.085	89.06
392.31	83.06
392.534	81.06
392.759	72.06
392.984	100.06
393.208	89.06
393.433	90.06
393.658	86.06
393.882	82.06
394.107	86.06
394.331	73.06
394.556	86.06
394.78	90.06
395.005	91.06
395.229	75.06
395.454	73.06
395.678	82.06
395.903	92.06
396.127	101.06
396.352	86.06
396.576	78.06
396.801	81.06
397.025	79.06
397.249	87.06
397.474	91.06
397.698	71.06
397.922	89.06
398.147	102.06
398.371	84.06
398.595	89.06
398.82	85.06
399.044	78.06
399.268	89.06
399.492	82.06
399.717	79.06
399.941	92.06
400.165	85.06
400.389	88.06
400.613	84.06
400.837	79.06
401.062	97.06
401.286	92.06
401.51	93.06
401.734	88.06
401.958	89.06
402.182	111.06
402.406	151.06
402.63	110.06
402.854	96.06
403.078	80.06
403.302	86.06
403.526	82.06
403.75	84.06
403.974	89.06
404.198	89.06
404.422	88.06
404.645	79.06
404.869	81.06
405.093	96.06
405.317	103.06
405.541	96.06
405.765	84.06
405.988	102.06
406.212	143.06
406.436	209.06
406.66	140.06
406.883	95.06
407.107	86.06
407.331	84.06
407.555	99.06
407.778	93.06
408.002	78.06
408.226	70.06
408.449	82.06
408.673	96.06
408.896	89.06
409.12	92.06
409.344	99.06
409.567	93.06
409.791	86.06
410.014	85.06
410.238	91.06
410.461	92.06
410.685	96.06
410.908	100.06
411.132	100.06
411.355	81.06
411.578	77.06
411.802	91.06
412.025	87.06
412.249	113.06
412.472	91.06
412.695	116.06
412.919	80.06
413.142	83.06
413.365	95.06
413.589	82.06
413.812	86.06
414.035	87.06
414.258	90.06
414.482	100.06
414.705	88.06
414.928	98.06
415.151	82.06
415.374	89.06
415.597	90.06
415.821	78.06
416.044	91.06
416.267	91.06
416.49	98.06
416.713	102.06
416.936	79.06
417.159	76.06
417.382	86.06
417.605	92.06
417.828	93.06
418.051	86.06
418.274	93.06
418.497	91.06
418.72	87.06
418.943	85.06
419.166	84.06
419.389	72.06
419.611	92.06
419.834	84.06
420.057	87.06
420.28	96.06
420.503	89.06
420.726	92.06
420.948	96.06
421.171	88.06
421.394	99.06
421.617	92.06
421.839	86.06
422.062	86.06
422.285	92.06
422.507	89.06
422.73	76.06
422.953	80.06
423.175	67.06
423.398	72.06
423.621	93.06
423.843	87.06
424.066	70.06
424.288	87.06
424.511	91.06
424.733	91.06
424.956	98.06
425.178	90.06
425.401	94.06
425.623	103.06
425.846	102.06
426.068	94.06
426.291	84.06
426.513	89.06
426.735	84.06
426.958	87.06
427.18	97.06
427.402	120.06
427.625	150.06
427.847	130.06
428.069	106.06
428.292	81.06
428.514	68.06
428.736	90.06
428.958	82.06
429.181	100.06
429.403	88.06
429.625	85.06
429.847	84.06
430.069	97.06
430.292	95.06
430.514	102.06
430.736	83.06
430.958	73.06
431.18	76.06
431.402	77.06
431.624	86.06
431.846	80.06
432.068	90.06
432.29	84.06
432.512	79.06
432.734	79.06
432.956	82.06
433.178	89.06
433.4	91.06
433.622	94.06
433.844	95.06
434.066	85.06
434.287	99.06
434.509	83.06
434.731	85.06
434.953	75.06
435.175	84.06
435.397	87.06
435.618	99.06
435.84	100.06
436.062	106.06
436.284	112.06
436.505	89.06
436.727	87.06
436.949	64.06
437.17	77.06
437.392	93.06
437.614	90.06
437.835	115.06
438.057	109.06
438.278	106.06
438.5	93.06
438.721	105.06
438.943	97.06
439.165	94.06
439.386	84.06
439.608	91.06
439.829	84.06
440.05	122.06
440.272	122.06
440.493	87.06
440.715	83.06
440.936	87.06
441.158	115.06
441.379	92.06
441.6	84.06
441.822	85.06
442.043	80.06
442.264	96.06
442.486	92.06
442.707	82.06
442.928	92.06
443.149	107.06
443.371	109.06
443.592	108.06
443.813	106.06
444.034	104.06
444.255	92.06
444.476	83.06
444.698	80.06
444.919	81.06
445.14	126.06
445.361	115.06
445.582	109.06
445.803	121.06
446.024	139.06
446.245	116.06
446.466	112.06
446.687	92.06
446.908	83.06
447.129	92.06
447.35	90.06
447.571	84.06
447.792	79.06
448.013	96.06
448.234	95.06
448.455	95.06
448.675	103.06
448.896	111.06
449.117	92.06
449.338	89.06
449.559	119.06
449.779	122.06
450	83.06
450.221	97.06
450.442	80.06
450.662	93.06
450.883	106.06
451.104	98.06
451.324	85.06
451.545	83.06
451.766	94.06
451.986	86.06
452.207	84.06
452.428	85.06
452.648	94.06
452.869	93.06
453.089	94.06
453.31	97.06
453.53	99.06
453.751	94.06
453.971	100.06
454.192	103.06
454.412	89.06
454.633	93.06
454.853	88.06
455.073	84.06
455.294	108.06
455.514	87.06
455.734	87.06
455.955	77.06
456.175	89.06
456.395	97.06
456.616	88.06
456.836	75.06
457.056	80.06
457.276	103.06
457.497	96.06
457.717	75.06
457.937	95.06
458.157	80.06
458.377	82.06
458.598	109.06
458.818	125.06
459.038	144.06
459.258	123.06
459.478	85.06
459.698	88.06
459.918	88.06
460.138	83.06
460.358	84.06
460.578	91.06
460.798	83.06
461.018	83.06
461.238	71.06
461.458	73.06
461.678	88.06
461.898	78.06
462.118	85.06
462.338	87.06
462.558	73.06
462.777	84.06
462.997	75.06
463.217	91.06
463.437	81.06
463.657	81.06
463.876	94.06
464.096	90.06
464.316	96.06
464.536	87.06
464.755	93.06
464.975	89.06
465.195	154.06
465.414	143.06
465.634	90.06
465.854	90.06
466.073	84.06
466.293	81.06
466.512	70.06
466.732	75.06
466.951	104.06
467.171	100.06
467.391	94.06
467.61	102.06
467.829	99.06
468.049	97.06
468.268	103.06
468.488	97.06
468.707	103.06
468.927	77.06
469.146	96.06
469.365	83.06
469.585	98.06
469.804	89.06
470.023	97.06
470.243	90.06
470.462	104.06
470.681	115.06
470.901	91.06
471.12	84.06
471.339	87.06
471.558	88.06
471.777	63.06
471.997	104.06
472.216	131.06
472.435	201.06
472.654	104.06
472.873	87.06
473.092	84.06
473.311	84.06
473.53	79.06
473.749	83.06
473.968	88.06
474.187	94.06
474.406	99.06
474.625	84.06
474.844	99.06
475.063	88.06
475.282	83.06
475.501	96.06
475.72	100.06
475.939	90.06
476.158	84.06
476.377	82.06
476.596	100.06
476.814	96.06
477.033	93.06
477.252	81.06
477.471	104.06
477.69	99.06
477.908	93.06
478.127	76.06
478.346	73.06
478.564	91.06
478.783	99.06
479.002	104.06
479.22	95.06
479.439	100.06
479.658	89.06
479.876	95.06
480.095	102.06
480.313	88.06
480.532	105.06
480.751	101.06
480.969	136.06
481.188	298.06
481.406	211.06
481.624	100.06
481.843	91.06
482.061	88.06
482.28	91.06
482.498	78.06
482.717	70.06
482.935	85.06
483.153	105.06
483.372	99.06
483.59	87.06
483.808	78.06
484.027	96.06
484.245	86.06
484.463	97.06
484.681	106.06
484.9	94.06
485.118	97.06
485.336	92.06
485.554	96.06
485.772	100.06
485.99	101.06
486.209	105.06
486.427	104.06
486.645	95.06
486.863	98.06
487.081	93.06
487.299	112.06
487.517	97.06
487.735	80.06
487.953	88.06
488.171	88.06
488.389	91.06
488.607	96.06
488.825	101.06
489.043	101.06
489.261	94.06
489.479	78.06
489.696	81.06
489.914	90.06
490.132	84.06
490.35	88.06
490.568	96.06
490.786	109.06
491.003	87.06
491.221	79.06
491.439	97.06
491.657	92.06
491.874	90.06
492.092	97.06
492.31	90.06
492.527	97.06
492.745	95.06
492.963	82.06
493.18	94.06
493.398	96.06
493.615	94.06
493.833	101.06
494.05	87.06
494.268	82.06
494.485	82.06
494.703	110.06
494.92	89.06
495.138	105.06
495.355	94.06
495.573	90.06
495.79	93.06
496.008	94.06
496.225	77.06
496.442	107.06
496.66	90.06
496.877	96.06
497.094	100.06
497.312	87.06
497.529	93.06
497.746	84.06
497.963	94.06
498.181	110.06
498.398	103.06
498.615	103.06
498.832	103.06
499.049	88.06
499.267	80.06
499.484	77.06
499.701	95.06
499.918	102.06
500.135	82.06
500.352	92.06
500.569	92.06
500.786	99.06
501.003	103.06
501.22	81.06
501.437	90.06
501.654	82.06
501.871	105.06
502.088	97.06
502.305	97.06
502.522	82.06
502.739	99.06
502.956	101.06
503.172	91.06
503.389	84.06
503.606	96.06
503.823	75.06
504.04	86.06
504.256	101.06
504.473	87.06
504.69	90.06
504.907	106.06
505.123	78.06
505.34	86.06
505.557	92.06
505.773	100.06
505.99	93.06
506.207	88.06
506.423	94.06
506.64	75.06
506.856	91.06
507.073	91.06
507.289	100.06
507.506	100.06
507.722	101.06
507.939	103.06
508.155	101.06
508.372	96.06
508.588	96.06
508.805	95.06
509.021	95.06
509.238	104.06
509.454	105.06
509.67	107.06
509.887	93.06
510.103	132.06
510.319	201.06
510.536	647.06
510.752	2069.06
510.968	599.06
511.184	154.06
511.401	117.06
511.617	102.06
511.833	89.06
512.049	99.06
512.265	93.06
512.481	103.06
512.698	92.06
512.914	100.06
513.13	99.06
513.346	81.06
513.562	91.06
513.778	87.06
513.994	100.06
514.21	105.06
514.426	116.06
514.642	114.06
514.858	112.06
515.074	170.06
515.29	363.06
515.506	1245.06
515.721	472.06
515.937	149.06
