Data from Circ_2012_H10_HRD10591_00074.txt Node
Date: Wed Jan 03 10:06:05 EST 2024
User: Yrep
Spectrometer: HR+D1059
Trigger mode: 1
Integration Time (sec): 1.000000E-1
Scans to average: 1
Electric dark correction enabled: true
Nonlinearity correction enabled: false
Boxcar width: 0
XAxis mode: Wavelengths
Number of Pixels in Spectrum: 2048
>>>>>Begin Spectral Data<<<<<
223.165	-23.06
223.4	-23.06
223.635	-23.06
223.869	-6.06
224.104	-11.06
224.338	-28.06
224.573	-9.06
224.808	-18.06
225.042	-22.06
225.277	-9.06
225.511	3.94
225.746	6.94
225.98	7.94
226.215	10.94
226.449	18.94
226.683	23.94
226.918	23.94
227.152	29.94
227.387	45.94
227.621	36.94
227.856	49.94
228.09	52.94
228.324	56.94
228.559	48.94
228.793	60.94
229.027	69.94
229.262	70.94
229.496	74.94
229.73	78.94
229.964	84.94
230.199	79.94
230.433	78.94
230.667	65.94
230.901	72.94
231.136	79.94
231.37	83.94
231.604	95.94
231.838	73.94
232.072	68.94
232.306	75.94
232.541	82.94
232.775	100.94
233.009	75.94
233.243	79.94
233.477	107.94
233.711	79.94
233.945	85.94
234.179	73.94
234.413	74.94
234.647	84.94
234.881	78.94
235.115	89.94
235.349	84.94
235.583	70.94
235.817	70.94
236.051	77.94
236.285	83.94
236.519	77.94
236.753	80.94
236.987	82.94
237.221	79.94
237.455	92.94
237.689	80.94
237.922	88.94
238.156	86.94
238.39	78.94
238.624	64.94
238.858	65.94
239.091	65.94
239.325	87.94
239.559	78.94
239.793	70.94
240.027	67.94
240.26	80.94
240.494	86.94
240.728	77.94
240.961	76.94
241.195	71.94
241.429	66.94
241.662	62.94
241.896	83.94
242.13	67.94
242.363	77.94
242.597	85.94
242.83	70.94
243.064	66.94
243.298	79.94
243.531	91.94
243.765	70.94
243.998	82.94
244.232	83.94
244.465	71.94
244.699	84.94
244.932	75.94
245.166	72.94
245.399	87.94
245.633	69.94
245.866	87.94
246.099	87.94
246.333	80.94
246.566	87.94
246.8	59.94
247.033	78.94
247.266	83.94
247.5	84.94
247.733	91.94
247.966	88.94
248.2	76.94
248.433	82.94
248.666	58.94
248.899	85.94
249.133	85.94
249.366	90.94
249.599	95.94
249.832	91.94
250.066	67.94
250.299	77.94
250.532	76.94
250.765	84.94
250.998	94.94
251.231	79.94
251.465	71.94
251.698	79.94
251.931	77.94
252.164	87.94
252.397	93.94
252.63	70.94
252.863	64.94
253.096	71.94
253.329	76.94
253.562	72.94
253.795	89.94
254.028	90.94
254.261	90.94
254.494	80.94
254.727	86.94
254.96	68.94
255.193	66.94
255.426	78.94
255.659	81.94
255.892	81.94
256.124	87.94
256.357	78.94
256.59	88.94
256.823	77.94
257.056	86.94
257.289	85.94
257.521	78.94
257.754	86.94
257.987	78.94
258.22	85.94
258.452	78.94
258.685	92.94
258.918	98.94
259.151	81.94
259.383	87.94
259.616	82.94
259.849	73.94
260.081	77.94
260.314	83.94
260.547	86.94
260.779	98.94
261.012	87.94
261.244	94.94
261.477	89.94
261.71	85.94
261.942	103.94
262.175	107.94
262.407	80.94
262.64	74.94
262.872	84.94
263.105	96.94
263.337	89.94
263.57	96.94
263.802	93.94
264.035	74.94
264.267	71.94
264.499	74.94
264.732	97.94
264.964	84.94
265.197	69.94
265.429	83.94
265.661	75.94
265.894	82.94
266.126	82.94
266.358	83.94
266.591	88.94
266.823	80.94
267.055	82.94
267.287	86.94
267.52	79.94
267.752	87.94
267.984	84.94
268.216	69.94
268.448	94.94
268.681	88.94
268.913	79.94
269.145	84.94
269.377	91.94
269.609	70.94
269.841	80.94
270.073	81.94
270.306	87.94
270.538	79.94
270.77	82.94
271.002	82.94
271.234	84.94
271.466	79.94
271.698	76.94
271.93	90.94
272.162	98.94
272.394	90.94
272.626	92.94
272.858	94.94
273.09	99.94
273.322	75.94
273.553	98.94
273.785	78.94
274.017	85.94
274.249	83.94
274.481	74.94
274.713	82.94
274.945	73.94
275.176	85.94
275.408	94.94
275.64	86.94
275.872	77.94
276.104	80.94
276.335	90.94
276.567	88.94
276.799	105.94
277.031	106.94
277.262	106.94
277.494	95.94
277.726	88.94
277.957	87.94
278.189	96.94
278.421	91.94
278.652	87.94
278.884	77.94
279.115	87.94
279.347	96.94
279.579	98.94
279.81	86.94
280.042	90.94
280.273	104.94
280.505	92.94
280.736	86.94
280.968	86.94
281.199	80.94
281.431	83.94
281.662	82.94
281.894	72.94
282.125	95.94
282.356	122.94
282.588	135.94
282.819	104.94
283.051	91.94
283.282	84.94
283.513	100.94
283.745	87.94
283.976	91.94
284.207	78.94
284.439	79.94
284.67	85.94
284.901	87.94
285.132	93.94
285.364	79.94
285.595	75.94
285.826	86.94
286.057	83.94
286.288	85.94
286.52	91.94
286.751	86.94
286.982	99.94
287.213	90.94
287.444	88.94
287.675	79.94
287.906	70.94
288.138	91.94
288.369	85.94
288.6	103.94
288.831	83.94
289.062	82.94
289.293	81.94
289.524	79.94
289.755	87.94
289.986	95.94
290.217	89.94
290.448	93.94
290.679	81.94
290.91	87.94
291.141	88.94
291.371	82.94
291.602	56.94
291.833	103.94
292.064	92.94
292.295	99.94
292.526	78.94
292.757	98.94
292.987	74.94
293.218	88.94
293.449	93.94
293.68	87.94
293.91	83.94
294.141	97.94
294.372	83.94
294.603	85.94
294.833	79.94
295.064	91.94
295.295	83.94
295.525	91.94
295.756	91.94
295.987	103.94
296.217	118.94
296.448	128.94
296.679	95.94
296.909	89.94
297.14	94.94
297.37	91.94
297.601	86.94
297.831	97.94
298.062	83.94
298.292	93.94
298.523	92.94
298.753	85.94
298.984	82.94
299.214	86.94
299.445	95.94
299.675	102.94
299.905	97.94
300.136	98.94
300.366	98.94
300.597	91.94
300.827	98.94
301.057	94.94
301.288	107.94
301.518	99.94
301.748	80.94
301.979	95.94
302.209	91.94
302.439	95.94
302.669	81.94
302.9	99.94
303.13	95.94
303.36	103.94
303.59	98.94
303.82	105.94
304.051	88.94
304.281	80.94
304.511	88.94
304.741	94.94
304.971	84.94
305.201	85.94
305.431	84.94
305.661	98.94
305.891	88.94
306.121	98.94
306.352	100.94
306.582	107.94
306.812	80.94
307.042	110.94
307.272	82.94
307.502	101.94
307.731	105.94
307.961	94.94
308.191	95.94
308.421	93.94
308.651	92.94
308.881	99.94
309.111	98.94
309.341	103.94
309.571	94.94
309.8	91.94
310.03	87.94
310.26	88.94
310.49	87.94
310.72	99.94
310.949	108.94
311.179	98.94
311.409	100.94
311.639	85.94
311.868	95.94
312.098	102.94
312.328	99.94
312.557	97.94
312.787	110.94
313.017	117.94
313.246	98.94
313.476	86.94
313.706	87.94
313.935	99.94
314.165	100.94
314.394	90.94
314.624	81.94
314.853	88.94
315.083	110.94
315.312	70.94
315.542	79.94
315.771	94.94
316.001	99.94
316.23	76.94
316.46	84.94
316.689	108.94
316.919	88.94
317.148	94.94
317.377	107.94
317.607	91.94
317.836	80.94
318.065	100.94
318.295	100.94
318.524	93.94
318.753	99.94
318.983	96.94
319.212	98.94
319.441	95.94
319.67	106.94
319.9	97.94
320.129	93.94
320.358	102.94
320.587	93.94
320.816	99.94
321.046	86.94
321.275	92.94
321.504	92.94
321.733	100.94
321.962	102.94
322.191	94.94
322.42	125.94
322.649	100.94
322.878	94.94
323.108	103.94
323.337	104.94
323.566	132.94
323.795	154.94
324.024	188.94
324.253	356.94
324.482	715.94
324.71	1448.94
324.939	1854.94
325.168	698.94
325.397	203.94
325.626	143.94
325.855	127.94
326.084	118.94
326.313	127.94
326.542	154.94
326.77	196.94
326.999	406.94
327.228	818.94
327.457	1440.94
327.686	1167.94
327.914	335.94
328.143	173.94
328.372	138.94
328.6	125.94
328.829	106.94
329.058	120.94
329.287	119.94
329.515	106.94
329.744	98.94
329.972	100.94
330.201	129.94
330.43	149.94
330.658	132.94
330.887	122.94
331.115	116.94
331.344	95.94
331.572	108.94
331.801	107.94
332.03	109.94
332.258	90.94
332.486	100.94
332.715	104.94
332.943	90.94
333.172	88.94
333.4	110.94
333.629	103.94
333.857	124.94
334.085	124.94
334.314	135.94
334.542	150.94
334.771	166.94
334.999	111.94
335.227	92.94
335.455	105.94
335.684	100.94
335.912	87.94
336.14	96.94
336.369	104.94
336.597	115.94
336.825	95.94
337.053	84.94
337.281	93.94
337.51	86.94
337.738	97.94
337.966	83.94
338.194	88.94
338.422	92.94
338.65	84.94
338.878	85.94
339.106	99.94
339.334	86.94
339.562	97.94
339.79	96.94
340.018	102.94
340.246	87.94
340.474	86.94
340.702	91.94
340.93	88.94
341.158	77.94
341.386	90.94
341.614	87.94
341.842	79.94
342.07	87.94
342.298	78.94
342.526	90.94
342.754	103.94
342.981	95.94
343.209	96.94
343.437	105.94
343.665	95.94
343.893	102.94
344.12	93.94
344.348	86.94
344.576	82.94
344.804	101.94
345.031	89.94
345.259	93.94
345.487	88.94
345.714	86.94
345.942	91.94
346.17	80.94
346.397	88.94
346.625	80.94
346.853	92.94
347.08	90.94
347.308	89.94
347.535	97.94
347.763	106.94
347.99	80.94
348.218	111.94
348.445	102.94
348.673	91.94
348.9	102.94
349.128	88.94
349.355	83.94
349.583	95.94
349.81	95.94
350.037	83.94
350.265	102.94
350.492	84.94
350.72	84.94
350.947	107.94
351.174	107.94
351.402	106.94
351.629	88.94
351.856	111.94
352.083	89.94
352.311	103.94
352.538	109.94
352.765	111.94
352.992	98.94
353.22	114.94
353.447	99.94
353.674	101.94
353.901	90.94
354.128	95.94
354.355	94.94
354.583	102.94
354.81	87.94
355.037	92.94
355.264	91.94
355.491	106.94
355.718	92.94
355.945	96.94
356.172	89.94
356.399	103.94
356.626	95.94
356.853	80.94
357.08	91.94
357.307	89.94
357.534	88.94
357.761	97.94
357.988	107.94
358.215	104.94
358.441	103.94
358.668	97.94
358.895	81.94
359.122	94.94
359.349	95.94
359.576	84.94
359.802	87.94
360.029	116.94
360.256	110.94
360.483	89.94
360.709	75.94
360.936	98.94
361.163	82.94
361.39	103.94
361.616	102.94
361.843	79.94
362.07	93.94
362.296	95.94
362.523	71.94
362.749	92.94
362.976	82.94
363.203	94.94
363.429	81.94
363.656	88.94
363.882	93.94
364.109	96.94
364.335	91.94
364.562	84.94
364.788	96.94
365.015	96.94
365.241	102.94
365.468	107.94
365.694	119.94
365.92	95.94
366.147	106.94
366.373	90.94
366.599	79.94
366.826	95.94
367.052	89.94
367.278	77.94
367.505	78.94
367.731	92.94
367.957	88.94
368.184	87.94
368.41	92.94
368.636	103.94
368.862	116.94
369.089	122.94
369.315	83.94
369.541	103.94
369.767	106.94
369.993	85.94
370.219	87.94
370.445	77.94
370.672	84.94
370.898	84.94
371.124	98.94
371.35	93.94
371.576	79.94
371.802	79.94
372.028	89.94
372.254	94.94
372.48	86.94
372.706	75.94
372.932	94.94
373.158	100.94
373.384	98.94
373.61	78.94
373.835	104.94
374.061	87.94
374.287	89.94
374.513	84.94
374.739	88.94
374.965	89.94
375.191	78.94
375.416	92.94
375.642	86.94
375.868	87.94
376.094	94.94
376.319	80.94
376.545	86.94
376.771	88.94
376.997	87.94
377.222	91.94
377.448	88.94
377.674	98.94
377.899	95.94
378.125	81.94
378.35	82.94
378.576	97.94
378.802	90.94
379.027	86.94
379.253	93.94
379.478	80.94
379.704	104.94
379.929	90.94
380.155	86.94
380.38	93.94
380.606	89.94
380.831	77.94
381.057	106.94
381.282	105.94
381.507	100.94
381.733	84.94
381.958	87.94
382.184	102.94
382.409	87.94
382.634	98.94
382.86	98.94
383.085	87.94
383.31	101.94
383.535	99.94
383.761	107.94
383.986	98.94
384.211	104.94
384.436	87.94
384.662	97.94
384.887	100.94
385.112	93.94
385.337	101.94
385.562	116.94
385.787	101.94
386.013	105.94
386.238	114.94
386.463	108.94
386.688	116.94
386.913	100.94
387.138	103.94
387.363	104.94
387.588	90.94
387.813	92.94
388.038	99.94
388.263	99.94
388.488	99.94
388.713	99.94
388.938	88.94
389.163	97.94
389.387	105.94
389.612	76.94
389.837	107.94
390.062	100.94
390.287	98.94
390.512	94.94
390.736	84.94
390.961	87.94
391.186	100.94
391.411	101.94
391.636	95.94
391.86	91.94
392.085	82.94
392.31	84.94
392.534	84.94
392.759	84.94
392.984	75.94
393.208	84.94
393.433	95.94
393.658	77.94
393.882	79.94
394.107	82.94
394.331	84.94
394.556	98.94
394.78	90.94
395.005	89.94
395.229	87.94
395.454	91.94
395.678	80.94
395.903	92.94
396.127	98.94
396.352	95.94
396.576	74.94
396.801	78.94
397.025	95.94
397.249	83.94
397.474	84.94
397.698	91.94
397.922	78.94
398.147	94.94
398.371	94.94
398.595	95.94
398.82	92.94
399.044	73.94
399.268	86.94
399.492	90.94
399.717	95.94
399.941	81.94
400.165	92.94
400.389	86.94
400.613	88.94
400.837	82.94
401.062	86.94
401.286	83.94
401.51	80.94
401.734	79.94
401.958	101.94
402.182	108.94
402.406	140.94
402.63	114.94
402.854	100.94
403.078	101.94
403.302	84.94
403.526	86.94
403.75	80.94
403.974	71.94
404.198	86.94
404.422	77.94
404.645	74.94
404.869	99.94
405.093	80.94
405.317	108.94
405.541	101.94
405.765	98.94
405.988	119.94
406.212	139.94
406.436	216.94
406.66	131.94
406.883	100.94
407.107	87.94
407.331	90.94
407.555	94.94
407.778	102.94
408.002	86.94
408.226	88.94
408.449	98.94
408.673	76.94
408.896	90.94
409.12	93.94
409.344	96.94
409.567	98.94
409.791	91.94
410.014	94.94
410.238	97.94
410.461	90.94
410.685	98.94
410.908	99.94
411.132	98.94
411.355	106.94
411.578	100.94
411.802	106.94
412.025	83.94
412.249	93.94
412.472	100.94
412.695	84.94
412.919	82.94
413.142	84.94
413.365	98.94
413.589	92.94
413.812	70.94
414.035	87.94
414.258	79.94
414.482	83.94
414.705	94.94
414.928	95.94
415.151	92.94
415.374	92.94
415.597	81.94
415.821	80.94
416.044	88.94
416.267	90.94
416.49	70.94
416.713	88.94
416.936	77.94
417.159	87.94
417.382	95.94
417.605	96.94
417.828	103.94
418.051	78.94
418.274	77.94
418.497	88.94
418.72	93.94
418.943	82.94
419.166	94.94
419.389	82.94
419.611	92.94
419.834	73.94
420.057	90.94
420.28	78.94
420.503	88.94
420.726	90.94
420.948	92.94
421.171	102.94
421.394	93.94
421.617	84.94
421.839	104.94
422.062	70.94
422.285	91.94
422.507	87.94
422.73	104.94
422.953	87.94
423.175	98.94
423.398	98.94
423.621	92.94
423.843	96.94
424.066	84.94
424.288	76.94
424.511	88.94
424.733	93.94
424.956	106.94
425.178	95.94
425.401	83.94
425.623	93.94
425.846	98.94
426.068	88.94
426.291	85.94
426.513	88.94
426.735	87.94
426.958	93.94
427.18	114.94
427.402	111.94
427.625	134.94
427.847	124.94
428.069	83.94
428.292	92.94
428.514	91.94
428.736	96.94
428.958	82.94
429.181	82.94
429.403	89.94
429.625	88.94
429.847	88.94
430.069	90.94
430.292	84.94
430.514	83.94
430.736	81.94
430.958	78.94
431.18	90.94
431.402	78.94
431.624	85.94
431.846	94.94
432.068	82.94
432.29	95.94
432.512	83.94
432.734	99.94
432.956	90.94
433.178	84.94
433.4	95.94
433.622	88.94
433.844	93.94
434.066	86.94
434.287	86.94
434.509	80.94
434.731	87.94
434.953	90.94
435.175	100.94
435.397	89.94
435.618	105.94
435.84	101.94
436.062	108.94
436.284	110.94
436.505	98.94
436.727	103.94
436.949	91.94
437.17	99.94
437.392	85.94
437.614	78.94
437.835	107.94
438.057	106.94
438.278	98.94
438.5	101.94
438.721	125.94
438.943	103.94
439.165	95.94
439.386	87.94
439.608	93.94
439.829	99.94
440.05	114.94
440.272	109.94
440.493	90.94
440.715	83.94
440.936	91.94
441.158	95.94
441.379	75.94
441.6	83.94
441.822	99.94
442.043	79.94
442.264	95.94
442.486	79.94
442.707	80.94
442.928	105.94
443.149	126.94
443.371	136.94
443.592	112.94
443.813	99.94
444.034	95.94
444.255	91.94
444.476	93.94
444.698	94.94
444.919	101.94
445.14	137.94
445.361	134.94
445.582	110.94
445.803	144.94
446.024	114.94
446.245	118.94
446.466	92.94
446.687	98.94
446.908	81.94
447.129	84.94
447.35	79.94
447.571	88.94
447.792	93.94
448.013	97.94
448.234	108.94
448.455	110.94
448.675	104.94
448.896	115.94
449.117	105.94
449.338	96.94
449.559	119.94
449.779	112.94
450	93.94
450.221	83.94
450.442	75.94
450.662	100.94
450.883	103.94
451.104	115.94
451.324	83.94
451.545	98.94
451.766	88.94
451.986	89.94
452.207	77.94
452.428	91.94
452.648	98.94
452.869	106.94
453.089	119.94
453.31	116.94
453.53	90.94
453.751	84.94
453.971	101.94
454.192	99.94
454.412	95.94
454.633	76.94
454.853	76.94
455.073	83.94
455.294	97.94
455.514	87.94
455.734	91.94
455.955	87.94
456.175	84.94
456.395	82.94
456.616	78.94
456.836	79.94
457.056	80.94
457.276	95.94
457.497	85.94
457.717	76.94
457.937	83.94
458.157	85.94
458.377	102.94
458.598	96.94
458.818	133.94
459.038	148.94
459.258	121.94
459.478	93.94
459.698	91.94
459.918	95.94
460.138	80.94
460.358	82.94
460.578	71.94
460.798	74.94
461.018	82.94
461.238	89.94
461.458	91.94
461.678	90.94
461.898	87.94
462.118	73.94
462.338	84.94
462.558	80.94
462.777	87.94
462.997	87.94
463.217	83.94
463.437	94.94
463.657	91.94
463.876	77.94
464.096	101.94
464.316	76.94
464.536	84.94
464.755	86.94
464.975	96.94
465.195	150.94
465.414	149.94
465.634	89.94
465.854	84.94
466.073	70.94
466.293	70.94
466.512	86.94
466.732	71.94
466.951	75.94
467.171	88.94
467.391	84.94
467.61	103.94
467.829	85.94
468.049	109.94
468.268	119.94
468.488	92.94
468.707	89.94
468.927	89.94
469.146	96.94
469.365	75.94
469.585	84.94
469.804	86.94
470.023	94.94
470.243	94.94
470.462	97.94
470.681	96.94
470.901	89.94
471.12	91.94
471.339	83.94
471.558	75.94
471.777	95.94
471.997	92.94
472.216	133.94
472.435	182.94
472.654	117.94
472.873	77.94
473.092	91.94
473.311	80.94
473.53	79.94
473.749	77.94
473.968	86.94
474.187	106.94
474.406	88.94
474.625	97.94
474.844	91.94
475.063	88.94
475.282	83.94
475.501	60.94
475.72	94.94
475.939	78.94
476.158	77.94
476.377	87.94
476.596	84.94
476.814	80.94
477.033	86.94
477.252	87.94
477.471	80.94
477.69	87.94
477.908	95.94
478.127	78.94
478.346	95.94
478.564	90.94
478.783	93.94
479.002	93.94
479.22	96.94
479.439	98.94
479.658	106.94
479.876	94.94
480.095	100.94
480.313	87.94
480.532	95.94
480.751	97.94
480.969	120.94
481.188	287.94
481.406	196.94
481.624	105.94
481.843	85.94
482.061	68.94
482.28	88.94
482.498	89.94
482.717	78.94
482.935	87.94
483.153	84.94
483.372	83.94
483.59	84.94
483.808	79.94
484.027	76.94
484.245	96.94
484.463	90.94
484.681	92.94
484.9	82.94
485.118	87.94
485.336	94.94
485.554	98.94
485.772	98.94
485.99	100.94
486.209	92.94
486.427	99.94
486.645	122.94
486.863	101.94
487.081	98.94
487.299	121.94
487.517	85.94
487.735	94.94
487.953	93.94
488.171	85.94
488.389	87.94
488.607	100.94
488.825	86.94
489.043	80.94
489.261	103.94
489.479	98.94
489.696	86.94
489.914	102.94
490.132	84.94
490.35	83.94
490.568	69.94
490.786	90.94
491.003	79.94
491.221	82.94
491.439	80.94
491.657	86.94
491.874	80.94
492.092	79.94
492.31	90.94
492.527	84.94
492.745	98.94
492.963	75.94
493.18	82.94
493.398	88.94
493.615	111.94
493.833	92.94
494.05	83.94
494.268	80.94
494.485	75.94
494.703	94.94
494.92	90.94
495.138	88.94
495.355	85.94
495.573	80.94
495.79	81.94
496.008	91.94
496.225	80.94
496.442	84.94
496.66	96.94
496.877	84.94
497.094	98.94
497.312	76.94
497.529	84.94
497.746	94.94
497.963	80.94
498.181	82.94
498.398	88.94
498.615	93.94
498.832	103.94
499.049	88.94
499.267	102.94
499.484	97.94
499.701	77.94
499.918	99.94
500.135	74.94
500.352	87.94
500.569	91.94
500.786	92.94
501.003	90.94
501.22	95.94
501.437	94.94
501.654	81.94
501.871	99.94
502.088	92.94
502.305	84.94
502.522	76.94
502.739	96.94
502.956	93.94
503.172	80.94
503.389	88.94
503.606	104.94
503.823	89.94
504.04	96.94
504.256	94.94
504.473	90.94
504.69	78.94
504.907	83.94
505.123	84.94
505.34	77.94
505.557	94.94
505.773	95.94
505.99	85.94
506.207	87.94
506.423	88.94
506.64	83.94
506.856	95.94
507.073	77.94
507.289	96.94
507.506	98.94
507.722	93.94
507.939	101.94
508.155	97.94
508.372	78.94
508.588	89.94
508.805	89.94
509.021	68.94
509.238	103.94
509.454	97.94
509.67	88.94
509.887	109.94
510.103	128.94
510.319	192.94
510.536	667.94
510.752	2193.94
510.968	622.94
511.184	146.94
511.401	96.94
511.617	101.94
511.833	103.94
512.049	87.94
512.265	90.94
512.481	86.94
512.698	93.94
512.914	86.94
513.13	83.94
513.346	75.94
513.562	81.94
513.778	91.94
513.994	87.94
514.21	99.94
514.426	119.94
514.642	128.94
514.858	115.94
515.074	157.94
515.29	390.94
515.506	1277.94
515.721	502.94
515.937	140.94
516.153	107.94
