Data from Circ_2012_H10_HRD10591_00065.txt Node
Date: Wed Jan 03 10:06:03 EST 2024
User: Yrep
Spectrometer: HR+D1059
Trigger mode: 1
Integration Time (sec): 1.000000E-1
Scans to average: 1
Electric dark correction enabled: true
Nonlinearity correction enabled: false
Boxcar width: 0
XAxis mode: Wavelengths
Number of Pixels in Spectrum: 2048
>>>>>Begin Spectral Data<<<<<
223.165	-16
223.4	-16
223.635	-16
223.869	-20
224.104	2
224.338	-11
224.573	-8
224.808	-2
225.042	-16
225.277	-15
225.511	-11
225.746	0
225.98	17
226.215	4
226.449	15
226.683	10
226.918	19
227.152	32
227.387	24
227.621	40
227.856	41
228.09	50
228.324	63
228.559	40
228.793	55
229.027	53
229.262	55
229.496	69
229.73	79
229.964	77
230.199	63
230.433	60
230.667	74
230.901	76
231.136	68
231.37	77
231.604	71
231.838	73
232.072	87
232.306	92
232.541	73
232.775	67
233.009	77
233.243	70
233.477	63
233.711	76
233.945	72
234.179	70
234.413	91
234.647	77
234.881	69
235.115	74
235.349	72
235.583	85
235.817	88
236.051	72
236.285	68
236.519	84
236.753	74
236.987	85
237.221	77
237.455	79
237.689	66
237.922	74
238.156	84
238.39	72
238.624	67
238.858	77
239.091	71
239.325	60
239.559	63
239.793	80
240.027	85
240.26	80
240.494	88
240.728	71
240.961	71
241.195	80
241.429	71
241.662	69
241.896	75
242.13	72
242.363	65
242.597	75
242.83	77
243.064	79
243.298	57
243.531	68
243.765	77
243.998	80
244.232	76
244.465	67
244.699	93
244.932	82
245.166	82
245.399	84
245.633	80
245.866	79
246.099	71
246.333	76
246.566	65
246.8	68
247.033	71
247.266	64
247.5	63
247.733	77
247.966	78
248.2	73
248.433	71
248.666	68
248.899	82
249.133	87
249.366	92
249.599	98
249.832	92
250.066	84
250.299	78
250.532	79
250.765	76
250.998	72
251.231	78
251.465	81
251.698	61
251.931	80
252.164	73
252.397	81
252.63	84
252.863	85
253.096	77
253.329	85
253.562	81
253.795	78
254.028	65
254.261	72
254.494	80
254.727	85
254.96	76
255.193	77
255.426	72
255.659	77
255.892	84
256.124	80
256.357	81
256.59	68
256.823	79
257.056	72
257.289	86
257.521	57
257.754	77
257.987	80
258.22	87
258.452	84
258.685	85
258.918	72
259.151	86
259.383	64
259.616	84
259.849	89
260.081	77
260.314	73
260.547	67
260.779	84
261.012	75
261.244	74
261.477	81
261.71	74
261.942	96
262.175	120
262.407	98
262.64	85
262.872	83
263.105	89
263.337	73
263.57	74
263.802	82
264.035	77
264.267	88
264.499	83
264.732	77
264.964	95
265.197	78
265.429	67
265.661	82
265.894	79
266.126	77
266.358	83
266.591	76
266.823	82
267.055	81
267.287	69
267.52	74
267.752	80
267.984	93
268.216	87
268.448	84
268.681	91
268.913	86
269.145	95
269.377	79
269.609	75
269.841	77
270.073	74
270.306	66
270.538	74
270.77	83
271.002	84
271.234	85
271.466	90
271.698	70
271.93	72
272.162	86
272.394	88
272.626	69
272.858	91
273.09	77
273.322	89
273.553	82
273.785	86
274.017	72
274.249	90
274.481	96
274.713	75
274.945	76
275.176	83
275.408	88
275.64	80
275.872	89
276.104	84
276.335	85
276.567	101
276.799	115
277.031	104
277.262	74
277.494	77
277.726	88
277.957	87
278.189	85
278.421	86
278.652	73
278.884	73
279.115	80
279.347	87
279.579	78
279.81	79
280.042	80
280.273	83
280.505	89
280.736	79
280.968	84
281.199	76
281.431	98
281.662	75
281.894	101
282.125	101
282.356	122
282.588	145
282.819	115
283.051	81
283.282	88
283.513	90
283.745	71
283.976	74
284.207	86
284.439	83
284.67	81
284.901	94
285.132	79
285.364	77
285.595	77
285.826	82
286.057	77
286.288	83
286.52	70
286.751	94
286.982	83
287.213	88
287.444	86
287.675	82
287.906	77
288.138	77
288.369	87
288.6	81
288.831	87
289.062	96
289.293	90
289.524	91
289.755	74
289.986	68
290.217	87
290.448	95
290.679	91
290.91	94
291.141	90
291.371	82
291.602	74
291.833	87
292.064	82
292.295	85
292.526	95
292.757	92
292.987	85
293.218	82
293.449	86
293.68	87
293.91	85
294.141	77
294.372	90
294.603	84
294.833	80
295.064	85
295.295	89
295.525	94
295.756	103
295.987	106
296.217	129
296.448	133
296.679	96
296.909	98
297.14	82
297.37	77
297.601	93
297.831	87
298.062	85
298.292	106
298.523	88
298.753	83
298.984	93
299.214	83
299.445	99
299.675	100
299.905	100
300.136	89
300.366	98
300.597	90
300.827	86
301.057	99
301.288	97
301.518	67
301.748	83
301.979	103
302.209	91
302.439	88
302.669	84
302.9	84
303.13	87
303.36	88
303.59	87
303.82	106
304.051	101
304.281	99
304.511	93
304.741	71
304.971	90
305.201	100
305.431	97
305.661	84
305.891	97
306.121	85
306.352	99
306.582	94
306.812	95
307.042	92
307.272	101
307.502	97
307.731	94
307.961	82
308.191	89
308.421	91
308.651	89
308.881	97
309.111	98
309.341	83
309.571	90
309.8	89
310.03	96
310.26	89
310.49	106
310.72	90
310.949	92
311.179	93
311.409	75
311.639	91
311.868	101
312.098	98
312.328	79
312.557	92
312.787	111
313.017	99
313.246	88
313.476	93
313.706	85
313.935	99
314.165	97
314.394	100
314.624	105
314.853	72
315.083	100
315.312	83
315.542	79
315.771	85
316.001	83
316.23	94
316.46	70
316.689	90
316.919	91
317.148	81
317.377	85
317.607	100
317.836	82
318.065	94
318.295	86
318.524	90
318.753	80
318.983	105
319.212	97
319.441	106
319.67	106
319.9	88
320.129	81
320.358	95
320.587	102
320.816	87
321.046	101
321.275	90
321.504	93
321.733	97
321.962	108
322.191	105
322.42	81
322.649	112
322.878	115
323.108	113
323.337	131
323.566	135
323.795	156
324.024	205
324.253	413
324.482	852
324.71	1763
324.939	2266
325.168	837
325.397	240
325.626	149
325.855	113
326.084	107
326.313	119
326.542	160
326.77	221
326.999	462
327.228	922
327.457	1691
327.686	1334
327.914	387
328.143	192
328.372	157
328.6	140
328.829	112
329.058	119
329.287	133
329.515	108
329.744	103
329.972	113
330.201	128
330.43	144
330.658	130
330.887	144
331.115	114
331.344	103
331.572	107
331.801	95
332.03	94
332.258	98
332.486	111
332.715	76
332.943	94
333.172	88
333.4	90
333.629	89
333.857	114
334.085	118
334.314	127
334.542	154
334.771	162
334.999	114
335.227	89
335.455	86
335.684	91
335.912	97
336.14	82
336.369	104
336.597	81
336.825	88
337.053	92
337.281	98
337.51	83
337.738	86
337.966	88
338.194	84
338.422	91
338.65	95
338.878	82
339.106	91
339.334	97
339.562	87
339.79	95
340.018	87
340.246	82
340.474	93
340.702	79
340.93	83
341.158	94
341.386	95
341.614	93
341.842	91
342.07	89
342.298	83
342.526	96
342.754	91
342.981	89
343.209	75
343.437	109
343.665	84
343.893	79
344.12	83
344.348	94
344.576	100
344.804	89
345.031	83
345.259	82
345.487	104
345.714	98
345.942	100
346.17	81
346.397	87
346.625	83
346.853	97
347.08	84
347.308	86
347.535	99
347.763	95
347.99	96
348.218	107
348.445	102
348.673	101
348.9	107
349.128	80
349.355	87
349.583	80
349.81	77
350.037	90
350.265	97
350.492	103
350.72	82
350.947	79
351.174	108
351.402	115
351.629	104
351.856	107
352.083	103
352.311	98
352.538	101
352.765	116
352.992	106
353.22	102
353.447	101
353.674	96
353.901	95
354.128	103
354.355	81
354.583	96
354.81	90
355.037	95
355.264	83
355.491	90
355.718	103
355.945	89
356.172	92
356.399	91
356.626	103
356.853	86
357.08	101
357.307	94
357.534	93
357.761	87
357.988	81
358.215	90
358.441	86
358.668	103
358.895	99
359.122	100
359.349	91
359.576	90
359.802	93
360.029	109
360.256	124
360.483	88
360.709	92
360.936	83
361.163	103
361.39	91
361.616	95
361.843	87
362.07	88
362.296	102
362.523	106
362.749	90
362.976	96
363.203	87
363.429	79
363.656	90
363.882	91
364.109	86
364.335	89
364.562	97
364.788	90
365.015	96
365.241	107
365.468	121
365.694	114
365.92	93
366.147	72
366.373	84
366.599	81
366.826	88
367.052	84
367.278	89
367.505	81
367.731	90
367.957	95
368.184	81
368.41	103
368.636	107
368.862	118
369.089	107
369.315	101
369.541	84
369.767	94
369.993	81
370.219	77
370.445	76
370.672	90
370.898	69
371.124	93
371.35	92
371.576	80
371.802	86
372.028	83
372.254	90
372.48	78
372.706	103
372.932	84
373.158	87
373.384	86
373.61	89
373.835	81
374.061	79
374.287	76
374.513	92
374.739	93
374.965	85
375.191	92
375.416	81
375.642	80
375.868	75
376.094	80
376.319	92
376.545	84
376.771	96
376.997	92
377.222	92
377.448	91
377.674	85
377.899	84
378.125	89
378.35	91
378.576	84
378.802	83
379.027	99
379.253	97
379.478	83
379.704	88
379.929	89
380.155	98
380.38	91
380.606	104
380.831	96
381.057	107
381.282	98
381.507	73
381.733	86
381.958	93
382.184	92
382.409	97
382.634	89
382.86	85
383.085	93
383.31	99
383.535	93
383.761	88
383.986	94
384.211	86
384.436	99
384.662	98
384.887	106
385.112	74
385.337	90
385.562	84
385.787	99
386.013	98
386.238	101
386.463	110
386.688	122
386.913	96
387.138	93
387.363	106
387.588	87
387.813	103
388.038	114
388.263	96
388.488	97
388.713	95
388.938	92
389.163	91
389.387	97
389.612	84
389.837	87
390.062	94
390.287	89
390.512	75
390.736	68
390.961	65
391.186	86
391.411	96
391.636	72
391.86	84
392.085	75
392.31	77
392.534	85
392.759	106
392.984	89
393.208	92
393.433	90
393.658	87
393.882	85
394.107	76
394.331	74
394.556	83
394.78	77
395.005	74
395.229	80
395.454	71
395.678	85
395.903	90
396.127	82
396.352	90
396.576	82
396.801	67
397.025	89
397.249	91
397.474	83
397.698	87
397.922	80
398.147	82
398.371	96
398.595	84
398.82	85
399.044	82
399.268	93
399.492	83
399.717	85
399.941	77
400.165	80
400.389	76
400.613	78
400.837	60
401.062	87
401.286	91
401.51	84
401.734	88
401.958	83
402.182	122
402.406	164
402.63	120
402.854	94
403.078	95
403.302	100
403.526	79
403.75	95
403.974	80
404.198	71
404.422	94
404.645	78
404.869	80
405.093	107
405.317	99
405.541	90
405.765	100
405.988	105
406.212	181
406.436	235
406.66	150
406.883	95
407.107	76
407.331	115
407.555	100
407.778	89
408.002	99
408.226	94
408.449	88
408.673	84
408.896	86
409.12	96
409.344	89
409.567	78
409.791	92
410.014	87
410.238	81
410.461	89
410.685	88
410.908	77
411.132	106
411.355	109
411.578	76
411.802	89
412.025	84
412.249	87
412.472	78
412.695	95
412.919	84
413.142	79
413.365	97
413.589	90
413.812	79
414.035	88
414.258	91
414.482	87
414.705	76
414.928	79
415.151	75
415.374	101
415.597	83
415.821	76
416.044	81
416.267	90
416.49	83
416.713	93
416.936	83
417.159	88
417.382	83
417.605	71
417.828	79
418.051	84
418.274	89
418.497	80
418.72	84
418.943	89
419.166	87
419.389	84
419.611	91
419.834	92
420.057	77
420.28	84
420.503	90
420.726	85
420.948	109
421.171	95
421.394	86
421.617	87
421.839	84
422.062	73
422.285	82
422.507	95
422.73	93
422.953	73
423.175	91
423.398	81
423.621	89
423.843	81
424.066	80
424.288	85
424.511	94
424.733	90
424.956	92
425.178	91
425.401	108
425.623	93
425.846	90
426.068	99
426.291	91
426.513	75
426.735	84
426.958	87
427.18	111
427.402	135
427.625	156
427.847	131
428.069	110
428.292	87
428.514	88
428.736	88
428.958	84
429.181	87
429.403	83
429.625	98
429.847	89
430.069	92
430.292	90
430.514	86
430.736	75
430.958	93
431.18	86
431.402	95
431.624	76
431.846	75
432.068	80
432.29	79
432.512	63
432.734	88
432.956	90
433.178	101
433.4	99
433.622	91
433.844	90
434.066	93
434.287	92
434.509	88
434.731	88
434.953	100
435.175	74
435.397	94
435.618	87
435.84	81
436.062	107
436.284	109
436.505	91
436.727	107
436.949	81
437.17	83
437.392	79
437.614	106
437.835	100
438.057	115
438.278	106
438.5	95
438.721	113
438.943	101
439.165	97
439.386	82
439.608	82
439.829	95
440.05	104
440.272	139
440.493	87
440.715	76
440.936	100
441.158	92
441.379	89
441.6	90
441.822	99
442.043	105
442.264	100
442.486	92
442.707	82
442.928	100
443.149	120
443.371	131
443.592	100
443.813	100
444.034	105
444.255	88
444.476	76
444.698	85
444.919	75
445.14	119
445.361	114
445.582	98
445.803	129
446.024	135
446.245	126
446.466	101
446.687	82
446.908	88
447.129	85
447.35	80
447.571	85
447.792	94
448.013	103
448.234	104
448.455	93
448.675	107
448.896	105
449.117	94
449.338	97
449.559	122
449.779	122
450	97
450.221	90
450.442	75
450.662	91
450.883	118
451.104	104
451.324	85
451.545	76
451.766	85
451.986	80
452.207	83
452.428	86
452.648	89
452.869	105
453.089	108
453.31	123
453.53	92
453.751	84
453.971	98
454.192	111
454.412	80
454.633	69
454.853	83
455.073	91
455.294	99
455.514	89
455.734	85
455.955	88
456.175	95
456.395	93
456.616	72
456.836	69
457.056	84
457.276	89
457.497	84
457.717	82
457.937	77
458.157	73
458.377	97
458.598	98
458.818	138
459.038	168
459.258	106
459.478	92
459.698	79
459.918	90
460.138	75
460.358	75
460.578	81
460.798	75
461.018	84
461.238	93
461.458	84
461.678	71
461.898	82
462.118	80
462.338	80
462.558	84
462.777	79
462.997	67
463.217	63
463.437	67
463.657	77
463.876	83
464.096	81
464.316	90
464.536	88
464.755	105
464.975	100
465.195	166
465.414	142
465.634	98
465.854	97
466.073	82
466.293	91
466.512	84
466.732	81
466.951	87
467.171	82
467.391	92
467.61	78
467.829	98
468.049	98
468.268	102
468.488	88
468.707	92
468.927	92
469.146	82
469.365	85
469.585	74
469.804	101
470.023	85
470.243	82
470.462	100
470.681	124
470.901	93
471.12	82
471.339	81
471.558	87
471.777	83
471.997	83
472.216	126
472.435	189
472.654	103
472.873	75
473.092	76
473.311	73
473.53	88
473.749	90
473.968	100
474.187	97
474.406	100
474.625	83
474.844	74
475.063	75
475.282	76
475.501	78
475.72	83
475.939	69
476.158	75
476.377	88
476.596	79
476.814	95
477.033	76
477.252	80
477.471	83
477.69	86
477.908	91
478.127	94
478.346	81
478.564	76
478.783	86
479.002	106
479.22	89
479.439	93
479.658	93
479.876	91
480.095	93
480.313	80
480.532	71
480.751	97
480.969	132
481.188	269
481.406	193
481.624	106
481.843	95
482.061	63
482.28	80
482.498	88
482.717	86
482.935	84
483.153	82
483.372	69
483.59	77
483.808	81
484.027	89
484.245	86
484.463	91
484.681	90
484.9	87
485.118	93
485.336	97
485.554	99
485.772	98
485.99	101
486.209	105
486.427	81
486.645	97
486.863	120
487.081	90
487.299	103
487.517	95
487.735	92
487.953	80
488.171	77
488.389	85
488.607	102
488.825	84
489.043	84
489.261	83
489.479	83
489.696	80
489.914	76
490.132	89
490.35	78
490.568	89
490.786	102
491.003	92
491.221	77
491.439	81
491.657	92
491.874	72
492.092	95
492.31	68
492.527	79
492.745	97
492.963	77
493.18	82
493.398	97
493.615	101
493.833	77
494.05	89
494.268	94
494.485	96
494.703	90
494.92	89
495.138	87
495.355	81
495.573	92
495.79	72
496.008	87
496.225	81
496.442	78
496.66	82
496.877	83
497.094	81
497.312	77
497.529	96
497.746	79
497.963	94
498.181	87
498.398	90
498.615	101
498.832	101
499.049	87
499.267	92
499.484	95
499.701	71
499.918	97
500.135	89
500.352	95
500.569	87
500.786	92
501.003	89
501.22	81
501.437	102
501.654	74
501.871	93
502.088	96
502.305	87
502.522	68
502.739	80
502.956	77
503.172	80
503.389	90
503.606	93
503.823	101
504.04	101
504.256	87
504.473	86
504.69	93
504.907	97
505.123	81
505.34	72
505.557	96
505.773	101
505.99	88
506.207	94
506.423	86
506.64	93
506.856	87
507.073	63
507.289	98
507.506	101
507.722	105
507.939	99
508.155	96
508.372	79
508.588	103
508.805	94
509.021	83
509.238	88
509.454	100
509.67	105
509.887	111
510.103	135
510.319	235
510.536	846
510.752	2856
510.968	801
511.184	173
511.401	117
511.617	104
511.833	83
512.049	90
512.265	100
512.481	95
512.698	97
512.914	79
513.13	77
513.346	87
513.562	91
513.778	101
513.994	85
514.21	101
514.426	97
514.642	139
514.858	127
515.074	161
515.29	493
515.506	1692
515.721	625
515.937	148
516.153	93
516.369	91
516.585	96
516.801	100
517.016	99
517.232	82
517.448	103
517.664	77
517.879	99
518.095	101
518.311	100
518.527	97
518.742	97
518.958	90
519.173	88
519.389	103
519.605	93
519.82	96
520.036	91
520.251	113
520.467	111
520.682	101
520.898	116
521.113	115
521.329	130
521.544	204
521.76	591
521.975	2759
522.19	1643
522.406	332
522.621	123
522.836	92
523.052	94
523.267	98
523.482	92
523.698	103
523.913	129
524.128	101
524.343	82
524.559	82
524.774	77
524.989	95
525.204	93
525.419	87
525.634	93
525.849	84
526.064	87
526.28	91
526.495	92
526.71	96
526.925	91
527.14	90
527.355	79
527.57	82
527.785	90
527.999	92
528.214	98
528.429	108
528.644	97
528.859	86
529.074	87
529.289	108
529.503	185
529.718	107
529.933	86
530.148	87
530.363	81
530.577	85
530.792	95
531.007	90
531.221	101
531.436	77
531.651	92
531.865	100
532.08	95
532.295	92
532.509	75
532.724	96
532.938	82
533.153	96
533.367	91
533.582	93
533.796	116
534.011	95
534.225	88
534.44	89
534.654	81
534.868	94
535.083	109
535.297	88
535.511	87
535.726	100
535.94	94
536.154	77
536.369	97
536.583	93
536.797	95
537.011	100
537.225	87
537.44	81
537.654	87
537.868	95
538.082	83
538.296	84
538.51	91
538.724	101
538.938	88
539.153	100
539.367	103
539.581	87
539.795	85
540.009	83
540.222	73
540.436	98
540.65	83
540.864	91
541.078	79
541.292	86
541.506	85
541.72	95
541.934	89
542.147	85
542.361	89
542.575	78
542.789	85
543.002	95
543.216	89
543.43	89
543.644	78
543.857	96
544.071	89
544.285	72
544.498	89
544.712	96
544.925	85
545.139	81
545.352	96
545.566	78
545.779	80
545.993	82
546.206	85
546.42	91
546.633	80
546.847	98
547.06	85
547.274	88
547.487	80
547.7	72
547.914	83
548.127	100
548.34	77
548.554	93
548.767	74
548.98	94
549.193	83
549.407	87
549.62	91
549.833	83
550.046	82
550.259	87
550.473	85
550.686	82
550.899	74
551.112	96
551.325	95
551.538	92
551.751	88
551.964	80
552.177	78
552.39	92
552.603	89
552.816	89
553.029	91
553.242	92
553.455	93
553.667	104
553.88	108
554.093	83
554.306	90
554.519	79
554.732	84
554.944	87
555.157	81
555.37	87
555.583	88
555.795	91
556.008	81
556.221	92
556.433	87
556.646	79
556.859	87
557.071	88
557.284	99
557.496	81
557.709	93
557.921	78
558.134	88
558.346	71
558.559	75
558.771	89
558.984	82
559.196	83
559.409	89
559.621	95
559.833	88
560.046	92
560.258	84
560.47	84
560.683	77
560.895	83
561.107	81
561.32	97
561.532	105
561.744	74
561.956	79
562.168	103
562.381	81
562.593	94
562.805	90
563.017	82
563.229	85
563.441	75
563.653	84
563.865	77
564.077	94
564.289	83
564.501	83
564.713	77
564.925	75
565.137	102
565.349	96
565.561	85
565.773	69
565.985	92
566.197	91
566.408	100
566.62	90
566.832	107
567.044	77
567.255	86
567.467	81
567.679	80
567.891	77
568.102	86
568.314	99
568.526	81
568.737	94
568.949	81
569.161	92
569.372	81
569.584	96
569.795	96
570.007	118
570.218	272
570.43	142
570.641	91
570.853	81
571.064	77
571.276	79
571.487	78
571.698	86
571.91	88
572.121	84
572.333	94
572.544	84
572.755	87
572.966	91
573.178	87
573.389	80
573.6	77
573.811	73
574.023	84
574.234	87
574.445	87
574.656	84
574.867	71
575.078	83
575.289	77
575.501	85
575.712	82
575.923	74
576.134	91
576.345	99
576.556	102
576.767	96
576.978	90
577.188	99
577.399	82
577.61	95
577.821	102
578.032	120
578.243	281
578.454	868
578.665	244
578.875	106
579.086	97
579.297	95
579.508	81
579.718	97
579.929	83
580.14	82
580.35	89
580.561	77
580.772	76
580.982	82
581.193	71
581.403	83
581.614	87
581.825	89
582.035	76
582.246	88
582.456	84
582.667	80
582.877	77
583.087	86
583.298	95
583.508	96
583.719	88
583.929	71
584.139	86
584.35	90
584.56	107
584.77	84
584.981	80
585.191	95
585.401	81
585.611	72
