Data from Circ_2012_H10_HRD10591_00045.txt Node
Date: Wed Jan 03 10:05:59 EST 2024
User: Yrep
Spectrometer: HR+D1059
Trigger mode: 1
Integration Time (sec): 1.000000E-1
Scans to average: 1
Electric dark correction enabled: true
Nonlinearity correction enabled: false
Boxcar width: 0
XAxis mode: Wavelengths
Number of Pixels in Spectrum: 2048
>>>>>Begin Spectral Data<<<<<
223.165	-33.88
223.4	-33.88
223.635	-33.88
223.869	-2.88
224.104	-17.88
224.338	-11.88
224.573	-19.88
224.808	-7.88
225.042	-30.88
225.277	7.12
225.511	7.12
225.746	-5.88
225.98	4.12
226.215	18.12
226.449	25.12
226.683	22.12
226.918	10.12
227.152	37.12
227.387	25.12
227.621	21.12
227.856	42.12
228.09	56.12
228.324	48.12
228.559	58.12
228.793	167.12
229.027	461.12
229.262	495.12
229.496	591.12
229.73	789.12
229.964	793.12
230.199	537.12
230.433	469.12
230.667	463.12
230.901	468.12
231.136	434.12
231.37	424.12
231.604	444.12
231.838	420.12
232.072	431.12
232.306	455.12
232.541	451.12
232.775	454.12
233.009	467.12
233.243	446.12
233.477	463.12
233.711	478.12
233.945	503.12
234.179	508.12
234.413	504.12
234.647	520.12
234.881	493.12
235.115	504.12
235.349	536.12
235.583	528.12
235.817	589.12
236.051	601.12
236.285	595.12
236.519	601.12
236.753	696.12
236.987	877.12
237.221	1326.12
237.455	1445.12
237.689	875.12
237.922	713.12
238.156	705.12
238.39	648.12
238.624	630.12
238.858	624.12
239.091	620.12
239.325	642.12
239.559	672.12
239.793	696.12
240.027	745.12
240.26	847.12
240.494	919.12
240.728	928.12
240.961	883.12
241.195	788.12
241.429	776.12
241.662	739.12
241.896	756.12
242.13	746.12
242.363	759.12
242.597	795.12
242.83	801.12
243.064	825.12
243.298	792.12
243.531	803.12
243.765	828.12
243.998	818.12
244.232	856.12
244.465	879.12
244.699	884.12
244.932	888.12
245.166	865.12
245.399	888.12
245.633	872.12
245.866	884.12
246.099	904.12
246.333	903.12
246.566	942.12
246.8	948.12
247.033	996.12
247.266	1022.12
247.5	1062.12
247.733	1145.12
247.966	1132.12
248.2	1089.12
248.433	1137.12
248.666	1174.12
248.899	1298.12
249.133	1389.12
249.366	1427.12
249.599	1298.12
249.832	1210.12
250.066	1235.12
250.299	1298.12
250.532	1454.12
250.765	1648.12
250.998	1755.12
251.231	1615.12
251.465	1463.12
251.698	1386.12
251.931	1378.12
252.164	1327.12
252.397	1354.12
252.63	1421.12
252.863	1475.12
253.096	1630.12
253.329	1712.12
253.562	1600.12
253.795	1534.12
254.028	1499.12
254.261	1537.12
254.494	1761.12
254.727	2053.12
254.96	2165.12
255.193	1894.12
255.426	1750.12
255.659	1669.12
255.892	1857.12
256.124	1995.12
256.357	1877.12
256.59	1652.12
256.823	1564.12
257.056	1505.12
257.289	1553.12
257.521	1544.12
257.754	1510.12
257.987	1512.12
258.22	1495.12
258.452	1501.12
258.685	1520.12
258.918	1540.12
259.151	1590.12
259.383	1644.12
259.616	1628.12
259.849	1730.12
260.081	1868.12
260.314	2024.12
260.547	1948.12
260.779	1764.12
261.012	1700.12
261.244	1668.12
261.477	1633.12
261.71	1670.12
261.942	1721.12
262.175	1746.12
262.407	1697.12
262.64	1594.12
262.872	1617.12
263.105	1624.12
263.337	1586.12
263.57	1644.12
263.802	1644.12
264.035	1640.12
264.267	1620.12
264.499	1620.12
264.732	1634.12
264.964	1596.12
265.197	1686.12
265.429	1658.12
265.661	1672.12
265.894	1715.12
266.126	1726.12
266.358	1757.12
266.591	1743.12
266.823	1808.12
267.055	1811.12
267.287	1788.12
267.52	1760.12
267.752	1822.12
267.984	1832.12
268.216	1808.12
268.448	1917.12
268.681	1921.12
268.913	2027.12
269.145	2273.12
269.377	2286.12
269.609	2218.12
269.841	2127.12
270.073	2315.12
270.306	2530.12
270.538	2718.12
270.77	2562.12
271.002	2404.12
271.234	2416.12
271.466	2514.12
271.698	2670.12
271.93	2671.12
272.162	2648.12
272.394	2549.12
272.626	2428.12
272.858	2314.12
273.09	2215.12
273.322	2199.12
273.553	2196.12
273.785	2182.12
274.017	2191.12
274.249	2188.12
274.481	2220.12
274.713	2250.12
274.945	2244.12
275.176	2212.12
275.408	2217.12
275.64	2256.12
275.872	2216.12
276.104	2242.12
276.335	2269.12
276.567	2366.12
276.799	2482.12
277.031	2761.12
277.262	2825.12
277.494	2663.12
277.726	2511.12
277.957	2416.12
278.189	2366.12
278.421	2365.12
278.652	2318.12
278.884	2374.12
279.115	2326.12
279.347	2385.12
279.579	2372.12
279.81	2340.12
280.042	2367.12
280.273	2438.12
280.505	2384.12
280.736	2378.12
280.968	2335.12
281.199	2390.12
281.431	2395.12
281.662	2413.12
281.894	2417.12
282.125	2458.12
282.356	2624.12
282.588	2805.12
282.819	2671.12
283.051	2502.12
283.282	2499.12
283.513	2516.12
283.745	2524.12
283.976	2598.12
284.207	2572.12
284.439	2543.12
284.67	2505.12
284.901	2598.12
285.132	2578.12
285.364	2614.12
285.595	2547.12
285.826	2556.12
286.057	2622.12
286.288	2592.12
286.52	2618.12
286.751	2642.12
286.982	2617.12
287.213	2648.12
287.444	2666.12
287.675	2757.12
287.906	2807.12
288.138	2895.12
288.369	2871.12
288.6	2815.12
288.831	2744.12
289.062	2769.12
289.293	2738.12
289.524	2750.12
289.755	2718.12
289.986	2746.12
290.217	2748.12
290.448	2711.12
290.679	2764.12
290.91	2749.12
291.141	2722.12
291.371	2776.12
291.602	2728.12
291.833	2734.12
292.064	2785.12
292.295	2736.12
292.526	2804.12
292.757	2767.12
292.987	2705.12
293.218	2800.12
293.449	2813.12
293.68	2751.12
293.91	2801.12
294.141	2767.12
294.372	2799.12
294.603	2812.12
294.833	2822.12
295.064	2868.12
295.295	2869.12
295.525	2888.12
295.756	2900.12
295.987	2972.12
296.217	3140.12
296.448	3084.12
296.679	2895.12
296.909	2869.12
297.14	2913.12
297.37	2964.12
297.601	2972.12
297.831	2967.12
298.062	2938.12
298.292	3017.12
298.523	3060.12
298.753	3039.12
298.984	3053.12
299.214	3020.12
299.445	3065.12
299.675	3076.12
299.905	3093.12
300.136	3039.12
300.366	3086.12
300.597	3146.12
300.827	3201.12
301.057	3310.12
301.288	3327.12
301.518	3290.12
301.748	3288.12
301.979	3310.12
302.209	3282.12
302.439	3293.12
302.669	3301.12
302.9	3265.12
303.13	3260.12
303.36	3310.12
303.59	3324.12
303.82	3393.12
304.051	3316.12
304.281	3290.12
304.511	3168.12
304.741	3191.12
304.971	3217.12
305.201	3180.12
305.431	3186.12
305.661	3184.12
305.891	3189.12
306.121	3252.12
306.352	3270.12
306.582	3241.12
306.812	3129.12
307.042	3252.12
307.272	3219.12
307.502	3223.12
307.731	3284.12
307.961	3229.12
308.191	3256.12
308.421	3233.12
308.651	3243.12
308.881	3245.12
309.111	3311.12
309.341	3319.12
309.571	3384.12
309.8	3474.12
310.03	3529.12
310.26	3524.12
310.49	3528.12
310.72	3681.12
310.949	3766.12
311.179	3745.12
311.409	3554.12
311.639	3567.12
311.868	3531.12
312.098	3645.12
312.328	3721.12
312.557	3920.12
312.787	3985.12
313.017	3866.12
313.246	3721.12
313.476	3690.12
313.706	3728.12
313.935	3862.12
314.165	3917.12
314.394	3922.12
314.624	3899.12
314.853	3749.12
315.083	3736.12
315.312	3662.12
315.542	3670.12
315.771	3616.12
316.001	3652.12
316.23	3596.12
316.46	3580.12
316.689	3688.12
316.919	3668.12
317.148	3744.12
317.377	3726.12
317.607	3738.12
317.836	3693.12
318.065	3583.12
318.295	3639.12
318.524	3612.12
318.753	3590.12
318.983	3609.12
319.212	3628.12
319.441	3679.12
319.67	3736.12
319.9	3625.12
320.129	3666.12
320.358	3669.12
320.587	3670.12
320.816	3778.12
321.046	3792.12
321.275	3738.12
321.504	3792.12
321.733	3825.12
321.962	3877.12
322.191	3990.12
322.42	4094.12
322.649	4192.12
322.878	4275.12
323.108	4295.12
323.337	4521.12
323.566	4752.12
323.795	5113.12
324.024	5739.12
324.253	7504.12
324.482	11477.12
324.71	15554.12
324.939	15602.12
325.168	13456.12
325.397	6761.12
325.626	5324.12
325.855	4921.12
326.084	4751.12
326.313	4846.12
326.542	4964.12
326.77	5566.12
326.999	7323.12
327.228	10730.12
327.457	14760.12
327.686	14052.12
327.914	7624.12
328.143	6208.12
328.372	5828.12
328.6	5538.12
328.829	5334.12
329.058	5589.12
329.287	5523.12
329.515	5183.12
329.744	5056.12
329.972	5244.12
330.201	5678.12
330.43	6189.12
330.658	5965.12
330.887	6065.12
331.115	5545.12
331.344	5045.12
331.572	4937.12
331.801	5061.12
332.03	5007.12
332.258	4956.12
332.486	4951.12
332.715	5007.12
332.943	5218.12
333.172	5347.12
333.4	5564.12
333.629	5696.12
333.857	5826.12
334.085	6058.12
334.314	6392.12
334.542	6850.12
334.771	6719.12
334.999	5748.12
335.227	5412.12
335.455	5244.12
335.684	5100.12
335.912	5053.12
336.14	4924.12
336.369	4848.12
336.597	4952.12
336.825	4871.12
337.053	4752.12
337.281	4640.12
337.51	4659.12
337.738	4719.12
337.966	4671.12
338.194	4653.12
338.422	4589.12
338.65	4494.12
338.878	4476.12
339.106	4433.12
339.334	4502.12
339.562	4389.12
339.79	4287.12
340.018	4266.12
340.246	4327.12
340.474	4357.12
340.702	4328.12
340.93	4376.12
341.158	4335.12
341.386	4312.12
341.614	4344.12
341.842	4285.12
342.07	4236.12
342.298	4295.12
342.526	4161.12
342.754	4213.12
342.981	4215.12
343.209	4344.12
343.437	4607.12
343.665	4838.12
343.893	5068.12
344.12	5050.12
344.348	4852.12
344.576	4655.12
344.804	4602.12
345.031	4615.12
345.259	4561.12
345.487	4452.12
345.714	4310.12
345.942	4171.12
346.17	4122.12
346.397	4113.12
346.625	4182.12
346.853	4165.12
347.08	4124.12
347.308	4183.12
347.535	4288.12
347.763	4295.12
347.99	4200.12
348.218	4276.12
348.445	4302.12
348.673	4188.12
348.9	4136.12
349.128	3997.12
349.355	4042.12
349.583	4027.12
349.81	4037.12
350.037	3982.12
350.265	3990.12
350.492	4016.12
350.72	3994.12
350.947	4065.12
351.174	4176.12
351.402	4220.12
351.629	4127.12
351.856	4154.12
352.083	4207.12
352.311	4169.12
352.538	4211.12
352.765	4185.12
352.992	4148.12
353.22	4105.12
353.447	4042.12
353.674	3967.12
353.901	3866.12
354.128	3874.12
354.355	3850.12
354.583	3927.12
354.81	3921.12
355.037	3886.12
355.264	3867.12
355.491	3872.12
355.718	3893.12
355.945	3826.12
356.172	3896.12
356.399	3850.12
356.626	3873.12
356.853	3943.12
357.08	3872.12
357.307	3888.12
357.534	3823.12
357.761	3917.12
357.988	3906.12
358.215	3878.12
358.441	3899.12
358.668	3973.12
358.895	3976.12
359.122	4015.12
359.349	4106.12
359.576	4219.12
359.802	4480.12
360.029	4606.12
360.256	4643.12
360.483	4433.12
360.709	4187.12
360.936	4128.12
361.163	4194.12
361.39	4168.12
361.616	4152.12
361.843	4119.12
362.07	4143.12
362.296	4156.12
362.523	4138.12
362.749	4162.12
362.976	4109.12
363.203	4050.12
363.429	4050.12
363.656	3976.12
363.882	3994.12
364.109	3884.12
364.335	3990.12
364.562	3981.12
364.788	4000.12
365.015	3948.12
365.241	3983.12
365.468	3983.12
365.694	4027.12
365.92	4053.12
366.147	4010.12
366.373	4026.12
366.599	3942.12
366.826	3967.12
367.052	3938.12
367.278	3980.12
367.505	3939.12
367.731	4044.12
367.957	4052.12
368.184	4068.12
368.41	4173.12
368.636	4197.12
368.862	4224.12
369.089	4078.12
369.315	4044.12
369.541	4072.12
369.767	4113.12
369.993	4142.12
370.219	4155.12
370.445	4140.12
370.672	4156.12
370.898	4165.12
371.124	4152.12
371.35	4292.12
371.576	4237.12
371.802	4215.12
372.028	4153.12
372.254	4233.12
372.48	4287.12
372.706	4368.12
372.932	4359.12
373.158	4375.12
373.384	4256.12
373.61	4194.12
373.835	4279.12
374.061	4321.12
374.287	4368.12
374.513	4452.12
374.739	4592.12
374.965	4608.12
375.191	4658.12
375.416	4526.12
375.642	4431.12
375.868	4414.12
376.094	4328.12
376.319	4359.12
376.545	4242.12
376.771	4265.12
376.997	4262.12
377.222	4216.12
377.448	4198.12
377.674	4214.12
377.899	4244.12
378.125	4237.12
378.35	4159.12
378.576	4143.12
378.802	4207.12
379.027	4215.12
379.253	4199.12
379.478	4117.12
379.704	4218.12
379.929	4234.12
380.155	4221.12
380.38	4191.12
380.606	4295.12
380.831	4233.12
381.057	4244.12
381.282	4210.12
381.507	4297.12
381.733	4293.12
381.958	4369.12
382.184	4352.12
382.409	4488.12
382.634	4469.12
382.86	4500.12
383.085	4530.12
383.31	4616.12
383.535	4713.12
383.761	4753.12
383.986	4838.12
384.211	4886.12
384.436	4895.12
384.662	5028.12
384.887	5091.12
385.112	5077.12
385.337	5101.12
385.562	5100.12
385.787	5205.12
386.013	5177.12
386.238	5240.12
386.463	5168.12
386.688	5149.12
386.913	5072.12
387.138	5045.12
387.363	5068.12
387.588	4950.12
387.813	5039.12
388.038	5027.12
388.263	5083.12
388.488	5073.12
388.713	5015.12
388.938	5029.12
389.163	5022.12
389.387	5019.12
389.612	4930.12
389.837	4965.12
390.062	4959.12
390.287	4994.12
390.512	5018.12
390.736	5042.12
390.961	5132.12
391.186	5224.12
391.411	5332.12
391.636	5486.12
391.86	5632.12
392.085	5666.12
392.31	5674.12
392.534	5467.12
392.759	5382.12
392.984	5254.12
393.208	5263.12
393.433	5217.12
393.658	5248.12
393.882	5185.12
394.107	5253.12
394.331	5319.12
394.556	5355.12
394.78	5385.12
395.005	5428.12
395.229	5452.12
395.454	5596.12
395.678	5667.12
395.903	5667.12
396.127	5726.12
396.352	5462.12
396.576	5273.12
396.801	5338.12
397.025	5449.12
397.249	5490.12
397.474	5660.12
397.698	5691.12
397.922	5764.12
398.147	5899.12
398.371	5988.12
398.595	6095.12
398.82	6480.12
399.044	7016.12
399.268	7792.12
399.492	8964.12
399.717	9272.12
399.941	9258.12
400.165	8567.12
400.389	7943.12
400.613	7089.12
400.837	6688.12
401.062	6542.12
401.286	6404.12
401.51	6345.12
401.734	6359.12
401.958	6575.12
402.182	6548.12
402.406	6766.12
402.63	6753.12
402.854	6888.12
403.078	6949.12
403.302	7121.12
403.526	7148.12
403.75	7271.12
403.974	7310.12
404.198	7302.12
404.422	7436.12
404.645	7370.12
404.869	7422.12
405.093	7706.12
405.317	7996.12
405.541	7995.12
405.765	7361.12
405.988	7181.12
406.212	7405.12
406.436	7573.12
406.66	7710.12
406.883	7639.12
407.107	8224.12
407.331	8783.12
407.555	9163.12
407.778	8851.12
408.002	8145.12
408.226	7806.12
408.449	7649.12
408.673	7479.12
408.896	7750.12
409.12	7813.12
409.344	7405.12
409.567	7114.12
409.791	7008.12
410.014	6877.12
410.238	6790.12
410.461	6882.12
410.685	6932.12
410.908	6934.12
411.132	7273.12
411.355	7248.12
411.578	6885.12
411.802	6678.12
412.025	6736.12
412.249	6928.12
412.472	7155.12
412.695	7381.12
412.919	6942.12
413.142	6639.12
413.365	6437.12
413.589	6446.12
413.812	6274.12
414.035	6159.12
414.258	6226.12
414.482	6342.12
414.705	6355.12
414.928	6293.12
415.151	6314.12
415.374	6345.12
415.597	6205.12
415.821	6162.12
416.044	6204.12
416.267	6191.12
416.49	6137.12
416.713	6142.12
416.936	6182.12
417.159	6178.12
417.382	6292.12
417.605	6308.12
417.828	6472.12
418.051	6516.12
418.274	6413.12
418.497	6283.12
418.72	6409.12
418.943	6315.12
419.166	6743.12
419.389	7113.12
419.611	6941.12
419.834	6808.12
420.057	6782.12
420.28	6743.12
420.503	6532.12
420.726	6453.12
420.948	6636.12
421.171	6883.12
421.394	6881.12
421.617	6468.12
421.839	6428.12
422.062	6512.12
422.285	6753.12
422.507	7300.12
422.73	7698.12
422.953	7205.12
423.175	6830.12
423.398	6831.12
423.621	6825.12
423.843	7128.12
424.066	7087.12
424.288	7019.12
424.511	7202.12
424.733	7612.12
424.956	8052.12
425.178	7592.12
425.401	7683.12
425.623	7626.12
425.846	6704.12
426.068	6466.12
426.291	6455.12
426.513	6422.12
426.735	6573.12
426.958	7052.12
427.18	7697.12
427.402	8888.12
427.625	9126.12
427.847	7890.12
428.069	7208.12
428.292	6409.12
428.514	6031.12
428.736	5884.12
428.958	5831.12
429.181	5708.12
429.403	5668.12
429.625	5841.12
429.847	6185.12
430.069	6729.12
430.292	6322.12
430.514	5734.12
430.736	5728.12
430.958	5621.12
431.18	5588.12
431.402	5538.12
431.624	5570.12
431.846	5601.12
432.068	5665.12
432.29	5741.12
432.512	5621.12
432.734	5724.12
432.956	5621.12
433.178	5731.12
433.4	5751.12
433.622	5601.12
433.844	5638.12
434.066	5670.12
434.287	5773.12
434.509	5969.12
434.731	6224.12
434.953	6359.12
435.175	6470.12
435.397	6508.12
435.618	6473.12
435.84	6907.12
436.062	7635.12
436.284	7680.12
436.505	6374.12
436.727	6181.12
436.949	5825.12
437.17	5741.12
437.392	5716.12
437.614	5939.12
437.835	6274.12
438.057	7326.12
438.278	7823.12
438.5	7777.12
438.721	8503.12
438.943	7484.12
439.165	6220.12
439.386	6139.12
439.608	6188.12
439.829	6223.12
440.05	6585.12
440.272	7014.12
440.493	6346.12
440.715	6018.12
440.936	6014.12
441.158	6038.12
441.379	6193.12
441.6	6529.12
441.822	6700.12
442.043	7238.12
442.264	7857.12
442.486	7643.12
442.707	6726.12
442.928	6655.12
443.149	6861.12
443.371	7040.12
443.592	7527.12
443.813	8507.12
444.034	8552.12
444.255	7337.12
444.476	7258.12
444.698	7396.12
444.919	7472.12
445.14	7283.12
445.361	7150.12
445.582	7376.12
445.803	7835.12
446.024	8496.12
446.245	8150.12
446.466	7351.12
446.687	6349.12
446.908	6040.12
447.129	5678.12
447.35	5688.12
447.571	5573.12
447.792	5428.12
448.013	5583.12
448.234	5812.12
448.455	6442.12
448.675	7624.12
448.896	8072.12
449.117	6602.12
449.338	6875.12
449.559	8067.12
449.779	8334.12
450	6377.12
450.221	5721.12
450.442	5473.12
450.662	5376.12
450.883	5504.12
451.104	5634.12
451.324	5427.12
451.545	5244.12
451.766	5145.12
451.986	4996.12
452.207	5044.12
452.428	4989.12
452.648	5038.12
452.869	5045.12
453.089	5094.12
453.31	5239.12
453.53	5044.12
453.751	4988.12
453.971	5008.12
454.192	5148.12
454.412	4912.12
454.633	4856.12
454.853	4742.12
455.073	4872.12
455.294	5232.12
455.514	5811.12
455.734	5311.12
455.955	4720.12
456.175	4605.12
456.395	4581.12
456.616	4570.12
456.836	4609.12
457.056	4585.12
457.276	4504.12
457.497	4666.12
457.717	4632.12
457.937	4718.12
458.157	4843.12
458.377	4901.12
458.598	5252.12
458.818	5993.12
459.038	6734.12
459.258	6606.12
459.478	5897.12
459.698	5767.12
459.918	5840.12
460.138	5984.12
460.358	6173.12
460.578	6208.12
460.798	6244.12
461.018	6235.12
461.238	6209.12
461.458	6130.12
461.678	5964.12
461.898	6227.12
462.118	6264.12
462.338	6587.12
462.558	6696.12
462.777	7048.12
462.997	7606.12
463.217	7955.12
463.437	7770.12
463.657	7152.12
463.876	6996.12
464.096	7090.12
464.316	7111.12
464.536	7096.12
464.755	6906.12
464.975	6757.12
465.195	7034.12
465.414	7220.12
465.634	6236.12
465.854	5846.12
466.073	5614.12
466.293	5438.12
466.512	5249.12
466.732	5127.12
466.951	5127.12
467.171	5079.12
467.391	5198.12
467.61	5343.12
467.829	5289.12
468.049	5266.12
468.268	5238.12
468.488	5095.12
468.707	4979.12
468.927	4980.12
469.146	4917.12
469.365	4986.12
469.585	5006.12
469.804	5231.12
470.023	5442.12
470.243	5308.12
470.462	5492.12
470.681	5636.12
470.901	5537.12
471.12	5335.12
471.339	5217.12
471.558	5189.12
471.777	5131.12
471.997	5098.12
472.216	5357.12
472.435	5834.12
472.654	5403.12
472.873	5086.12
473.092	4978.12
473.311	4956.12
473.53	4934.12
473.749	5100.12
473.968	5571.12
474.187	6600.12
474.406	6096.12
474.625	5168.12
474.844	4961.12
475.063	4936.12
475.282	4986.12
475.501	5010.12
475.72	5054.12
475.939	5111.12
476.158	5078.12
476.377	5197.12
476.596	5102.12
476.814	5244.12
477.033	5276.12
477.252	5330.12
477.471	5493.12
477.69	5573.12
477.908	5676.12
478.127	5784.12
478.346	5926.12
478.564	5978.12
478.783	6052.12
479.002	6173.12
479.22	6212.12
479.439	6299.12
479.658	6400.12
479.876	6428.12
480.095	6714.12
480.313	7118.12
480.532	7078.12
480.751	6972.12
480.969	7029.12
481.188	7998.12
481.406	7957.12
481.624	6856.12
481.843	6452.12
482.061	6140.12
482.28	6088.12
482.498	5917.12
482.717	5824.12
482.935	5822.12
483.153	5781.12
483.372	5790.12
483.59	5773.12
483.808	5753.12
484.027	5767.12
484.245	5816.12
484.463	5906.12
484.681	5935.12
484.9	6068.12
485.118	6111.12
485.336	6049.12
485.554	6188.12
485.772	6172.12
485.99	6174.12
486.209	6273.12
486.427	6229.12
486.645	6317.12
486.863	6433.12
487.081	6332.12
487.299	6336.12
487.517	6231.12
487.735	6248.12
487.953	6220.12
