Data from Circ_2012_H10_HRD10591_00020.txt Node
Date: Wed Jan 03 10:05:54 EST 2024
User: Yrep
Spectrometer: HR+D1059
Trigger mode: 1
Integration Time (sec): 1.000000E-1
Scans to average: 1
Electric dark correction enabled: true
Nonlinearity correction enabled: false
Boxcar width: 0
XAxis mode: Wavelengths
Number of Pixels in Spectrum: 2048
>>>>>Begin Spectral Data<<<<<
223.165	-9.44
223.4	-9.44
223.635	-9.44
223.869	-21.44
224.104	-4.44
224.338	-7.44
224.573	-13.44
224.808	-10.44
225.042	-3.44
225.277	-4.44
225.511	0.56
225.746	-17.44
225.98	-2.44
226.215	7.56
226.449	10.56
226.683	15.56
226.918	26.56
227.152	33.56
227.387	33.56
227.621	41.56
227.856	43.56
228.09	55.56
228.324	60.56
228.559	61.56
228.793	147.56
229.027	435.56
229.262	526.56
229.496	607.56
229.73	781.56
229.964	833.56
230.199	538.56
230.433	479.56
230.667	457.56
230.901	449.56
231.136	442.56
231.37	441.56
231.604	437.56
231.838	460.56
232.072	431.56
232.306	449.56
232.541	464.56
232.775	491.56
233.009	481.56
233.243	486.56
233.477	461.56
233.711	478.56
233.945	473.56
234.179	486.56
234.413	503.56
234.647	480.56
234.881	507.56
235.115	520.56
235.349	537.56
235.583	540.56
235.817	586.56
236.051	600.56
236.285	593.56
236.519	583.56
236.753	693.56
236.987	877.56
237.221	1341.56
237.455	1465.56
237.689	886.56
237.922	721.56
238.156	726.56
238.39	671.56
238.624	629.56
238.858	629.56
239.091	637.56
239.325	648.56
239.559	667.56
239.793	693.56
240.027	751.56
240.26	875.56
240.494	930.56
240.728	932.56
240.961	871.56
241.195	778.56
241.429	776.56
241.662	774.56
241.896	763.56
242.13	758.56
242.363	759.56
242.597	787.56
242.83	793.56
243.064	805.56
243.298	802.56
243.531	828.56
243.765	837.56
243.998	831.56
244.232	841.56
244.465	856.56
244.699	881.56
244.932	886.56
245.166	888.56
245.399	891.56
245.633	877.56
245.866	902.56
246.099	915.56
246.333	909.56
246.566	938.56
246.8	963.56
247.033	972.56
247.266	1039.56
247.5	1083.56
247.733	1120.56
247.966	1121.56
248.2	1131.56
248.433	1153.56
248.666	1201.56
248.899	1293.56
249.133	1381.56
249.366	1401.56
249.599	1315.56
249.832	1204.56
250.066	1206.56
250.299	1247.56
250.532	1374.56
250.765	1533.56
250.998	1656.56
251.231	1554.56
251.465	1474.56
251.698	1379.56
251.931	1323.56
252.164	1349.56
252.397	1411.56
252.63	1431.56
252.863	1477.56
253.096	1656.56
253.329	1639.56
253.562	1563.56
253.795	1501.56
254.028	1495.56
254.261	1568.56
254.494	1759.56
254.727	2049.56
254.96	2176.56
255.193	1879.56
255.426	1721.56
255.659	1604.56
255.892	1655.56
256.124	1715.56
256.357	1644.56
256.59	1549.56
256.823	1503.56
257.056	1483.56
257.289	1524.56
257.521	1522.56
257.754	1496.56
257.987	1505.56
258.22	1486.56
258.452	1520.56
258.685	1517.56
258.918	1537.56
259.151	1587.56
259.383	1624.56
259.616	1673.56
259.849	1726.56
260.081	1847.56
260.314	2049.56
260.547	1982.56
260.779	1794.56
261.012	1679.56
261.244	1673.56
261.477	1669.56
261.71	1658.56
261.942	1733.56
262.175	1798.56
262.407	1664.56
262.64	1616.56
262.872	1628.56
263.105	1606.56
263.337	1635.56
263.57	1624.56
263.802	1632.56
264.035	1657.56
264.267	1654.56
264.499	1664.56
264.732	1694.56
264.964	1667.56
265.197	1667.56
265.429	1675.56
265.661	1645.56
265.894	1700.56
266.126	1694.56
266.358	1733.56
266.591	1752.56
266.823	1850.56
267.055	1821.56
267.287	1837.56
267.52	1806.56
267.752	1826.56
267.984	1847.56
268.216	1872.56
268.448	1919.56
268.681	1976.56
268.913	2049.56
269.145	2268.56
269.377	2352.56
269.609	2235.56
269.841	2229.56
270.073	2359.56
270.306	2577.56
270.538	2747.56
270.77	2556.56
271.002	2435.56
271.234	2399.56
271.466	2523.56
271.698	2603.56
271.93	2699.56
272.162	2671.56
272.394	2565.56
272.626	2456.56
272.858	2298.56
273.09	2256.56
273.322	2243.56
273.553	2171.56
273.785	2190.56
274.017	2204.56
274.249	2200.56
274.481	2176.56
274.713	2255.56
274.945	2270.56
275.176	2280.56
275.408	2199.56
275.64	2192.56
275.872	2183.56
276.104	2230.56
276.335	2259.56
276.567	2379.56
276.799	2541.56
277.031	2777.56
277.262	2813.56
277.494	2705.56
277.726	2487.56
277.957	2459.56
278.189	2363.56
278.421	2357.56
278.652	2351.56
278.884	2367.56
279.115	2332.56
279.347	2345.56
279.579	2332.56
279.81	2340.56
280.042	2322.56
280.273	2358.56
280.505	2388.56
280.736	2386.56
280.968	2340.56
281.199	2397.56
281.431	2428.56
281.662	2374.56
281.894	2418.56
282.125	2503.56
282.356	2700.56
282.588	2896.56
282.819	2699.56
283.051	2510.56
283.282	2484.56
283.513	2496.56
283.745	2530.56
283.976	2635.56
284.207	2580.56
284.439	2603.56
284.67	2610.56
284.901	2595.56
285.132	2553.56
285.364	2568.56
285.595	2590.56
285.826	2608.56
286.057	2649.56
286.288	2623.56
286.52	2575.56
286.751	2624.56
286.982	2663.56
287.213	2698.56
287.444	2718.56
287.675	2796.56
287.906	2844.56
288.138	2851.56
288.369	2870.56
288.6	2862.56
288.831	2770.56
289.062	2758.56
289.293	2737.56
289.524	2794.56
289.755	2760.56
289.986	2764.56
290.217	2765.56
290.448	2751.56
290.679	2777.56
290.91	2812.56
291.141	2773.56
291.371	2775.56
291.602	2726.56
291.833	2724.56
292.064	2832.56
292.295	2805.56
292.526	2846.56
292.757	2813.56
292.987	2783.56
293.218	2787.56
293.449	2798.56
293.68	2827.56
293.91	2817.56
294.141	2817.56
294.372	2789.56
294.603	2843.56
294.833	2836.56
295.064	2860.56
295.295	2934.56
295.525	2902.56
295.756	2964.56
295.987	3003.56
296.217	3183.56
296.448	3128.56
296.679	2954.56
296.909	2951.56
297.14	2926.56
297.37	3006.56
297.601	3004.56
297.831	3005.56
298.062	3044.56
298.292	3053.56
298.523	3130.56
298.753	3063.56
298.984	3039.56
299.214	3084.56
299.445	3083.56
299.675	3081.56
299.905	3169.56
300.136	3138.56
300.366	3099.56
300.597	3176.56
300.827	3267.56
301.057	3313.56
301.288	3418.56
301.518	3285.56
301.748	3319.56
301.979	3337.56
302.209	3370.56
302.439	3347.56
302.669	3351.56
302.9	3293.56
303.13	3208.56
303.36	3272.56
303.59	3334.56
303.82	3376.56
304.051	3267.56
304.281	3265.56
304.511	3234.56
304.741	3156.56
304.971	3267.56
305.201	3260.56
305.431	3245.56
305.661	3230.56
305.891	3199.56
306.121	3192.56
306.352	3332.56
306.582	3292.56
306.812	3270.56
307.042	3228.56
307.272	3269.56
307.502	3237.56
307.731	3280.56
307.961	3247.56
308.191	3220.56
308.421	3244.56
308.651	3291.56
308.881	3268.56
309.111	3327.56
309.341	3369.56
309.571	3471.56
309.8	3479.56
310.03	3614.56
310.26	3596.56
310.49	3575.56
310.72	3632.56
310.949	3768.56
311.179	3789.56
311.409	3600.56
311.639	3583.56
311.868	3598.56
312.098	3659.56
312.328	3749.56
312.557	3921.56
312.787	3977.56
313.017	3832.56
313.246	3783.56
313.476	3670.56
313.706	3747.56
313.935	3820.56
314.165	3887.56
314.394	3973.56
314.624	3913.56
314.853	3825.56
315.083	3768.56
315.312	3782.56
315.542	3673.56
315.771	3643.56
316.001	3623.56
316.23	3615.56
316.46	3665.56
316.689	3701.56
316.919	3768.56
317.148	3727.56
317.377	3755.56
317.607	3736.56
317.836	3715.56
318.065	3676.56
318.295	3611.56
318.524	3660.56
318.753	3636.56
318.983	3639.56
319.212	3619.56
319.441	3737.56
319.67	3774.56
319.9	3681.56
320.129	3694.56
320.358	3691.56
320.587	3751.56
320.816	3816.56
321.046	3825.56
321.275	3824.56
321.504	3813.56
321.733	3867.56
321.962	3895.56
322.191	4056.56
322.42	4122.56
322.649	4212.56
322.878	4320.56
323.108	4382.56
323.337	4651.56
323.566	4828.56
323.795	5135.56
324.024	5774.56
324.253	7784.56
324.482	11751.56
324.71	15601.56
324.939	15601.56
325.168	13538.56
325.397	6750.56
325.626	5336.56
325.855	4902.56
326.084	4738.56
326.313	4899.56
326.542	4993.56
326.77	5707.56
326.999	7254.56
327.228	10952.56
327.457	14931.56
327.686	14150.56
327.914	7607.56
328.143	5978.56
328.372	5720.56
328.6	5378.56
328.829	5275.56
329.058	5434.56
329.287	5451.56
329.515	5007.56
329.744	4863.56
329.972	4905.56
330.201	5092.56
330.43	5499.56
330.658	5668.56
330.887	5904.56
331.115	5458.56
331.344	5049.56
331.572	4868.56
331.801	5054.56
332.03	5009.56
332.258	4986.56
332.486	4918.56
332.715	5079.56
332.943	5206.56
333.172	5293.56
333.4	5447.56
333.629	5607.56
333.857	5773.56
334.085	5655.56
334.314	5726.56
334.542	5930.56
334.771	5815.56
334.999	5439.56
335.227	5224.56
335.455	5187.56
335.684	5023.56
335.912	5009.56
336.14	5000.56
336.369	4913.56
336.597	4995.56
336.825	4947.56
337.053	4841.56
337.281	4790.56
337.51	4732.56
337.738	4693.56
337.966	4669.56
338.194	4671.56
338.422	4627.56
338.65	4507.56
338.878	4509.56
339.106	4476.56
339.334	4467.56
339.562	4504.56
339.79	4367.56
340.018	4368.56
340.246	4374.56
340.474	4425.56
340.702	4401.56
340.93	4369.56
341.158	4411.56
341.386	4392.56
341.614	4409.56
341.842	4316.56
342.07	4296.56
342.298	4263.56
342.526	4294.56
342.754	4254.56
342.981	4325.56
343.209	4437.56
343.437	4576.56
343.665	4863.56
343.893	5107.56
344.12	5155.56
344.348	4940.56
344.576	4690.56
344.804	4639.56
345.031	4664.56
345.259	4603.56
345.487	4447.56
345.714	4353.56
345.942	4286.56
346.17	4199.56
346.397	4160.56
346.625	4181.56
346.853	4155.56
347.08	4172.56
347.308	4217.56
347.535	4327.56
347.763	4306.56
347.99	4213.56
348.218	4280.56
348.445	4322.56
348.673	4265.56
348.9	4196.56
349.128	4127.56
349.355	4065.56
349.583	4038.56
349.81	4074.56
350.037	3988.56
350.265	4008.56
350.492	3975.56
350.72	4046.56
350.947	4110.56
351.174	4246.56
351.402	4255.56
351.629	4151.56
351.856	4126.56
352.083	4236.56
352.311	4265.56
352.538	4277.56
352.765	4227.56
352.992	4165.56
353.22	4096.56
353.447	4097.56
353.674	4014.56
353.901	3955.56
354.128	3946.56
354.355	4000.56
354.583	3995.56
354.81	3935.56
355.037	3898.56
355.264	3975.56
355.491	3953.56
355.718	3944.56
355.945	3902.56
356.172	3985.56
356.399	3904.56
356.626	3995.56
356.853	3832.56
357.08	3855.56
357.307	3916.56
357.534	3933.56
357.761	3977.56
357.988	3962.56
358.215	3991.56
358.441	3978.56
358.668	4011.56
358.895	4010.56
359.122	4036.56
359.349	4136.56
359.576	4275.56
359.802	4459.56
360.029	4639.56
360.256	4646.56
360.483	4369.56
360.709	4217.56
360.936	4252.56
361.163	4237.56
361.39	4302.56
361.616	4190.56
361.843	4123.56
362.07	4200.56
362.296	4239.56
362.523	4196.56
362.749	4157.56
362.976	4099.56
363.203	4047.56
363.429	4061.56
363.656	4038.56
363.882	4104.56
364.109	4055.56
364.335	4033.56
364.562	4053.56
364.788	4021.56
365.015	4032.56
365.241	4016.56
365.468	4079.56
365.694	4065.56
365.92	4085.56
366.147	4099.56
366.373	4021.56
366.599	4066.56
366.826	4029.56
367.052	3973.56
367.278	4047.56
367.505	4041.56
367.731	4043.56
367.957	4068.56
368.184	4115.56
368.41	4174.56
368.636	4270.56
368.862	4235.56
369.089	4113.56
369.315	4131.56
369.541	4131.56
369.767	4159.56
369.993	4153.56
370.219	4131.56
370.445	4224.56
370.672	4151.56
370.898	4211.56
371.124	4246.56
371.35	4296.56
371.576	4284.56
371.802	4226.56
372.028	4145.56
372.254	4279.56
372.48	4300.56
372.706	4422.56
372.932	4399.56
373.158	4375.56
373.384	4350.56
373.61	4276.56
373.835	4369.56
374.061	4304.56
374.287	4439.56
374.513	4547.56
374.739	4619.56
374.965	4685.56
375.191	4663.56
375.416	4651.56
375.642	4535.56
375.868	4453.56
376.094	4398.56
376.319	4370.56
376.545	4343.56
376.771	4297.56
376.997	4317.56
377.222	4316.56
377.448	4240.56
377.674	4303.56
377.899	4218.56
378.125	4303.56
378.35	4259.56
378.576	4167.56
378.802	4262.56
379.027	4239.56
379.253	4229.56
379.478	4249.56
379.704	4249.56
379.929	4253.56
380.155	4288.56
380.38	4277.56
380.606	4263.56
380.831	4308.56
381.057	4333.56
381.282	4355.56
381.507	4351.56
381.733	4347.56
381.958	4355.56
382.184	4487.56
382.409	4509.56
382.634	4557.56
382.86	4518.56
383.085	4614.56
383.31	4639.56
383.535	4831.56
383.761	4764.56
383.986	4801.56
384.211	4927.56
384.436	5009.56
384.662	5075.56
384.887	5140.56
385.112	5104.56
385.337	5199.56
385.562	5152.56
385.787	5166.56
386.013	5257.56
386.238	5299.56
386.463	5230.56
386.688	5247.56
386.913	5165.56
387.138	5106.56
387.363	5135.56
387.588	5046.56
387.813	5103.56
388.038	5034.56
388.263	5121.56
388.488	5127.56
388.713	5132.56
388.938	5128.56
389.163	5130.56
389.387	5089.56
389.612	5048.56
389.837	4974.56
390.062	5091.56
390.287	5084.56
390.512	5045.56
390.736	5052.56
390.961	5207.56
391.186	5287.56
391.411	5456.56
391.636	5602.56
391.86	5722.56
392.085	5782.56
392.31	5668.56
392.534	5492.56
392.759	5390.56
392.984	5339.56
393.208	5344.56
393.433	5367.56
393.658	5311.56
393.882	5357.56
394.107	5380.56
394.331	5475.56
394.556	5348.56
394.78	5477.56
395.005	5431.56
395.229	5502.56
395.454	5623.56
395.678	5747.56
395.903	5793.56
396.127	5818.56
396.352	5680.56
396.576	5438.56
396.801	5398.56
397.025	5512.56
397.249	5621.56
397.474	5768.56
397.698	5778.56
397.922	5929.56
398.147	6025.56
398.371	6114.56
398.595	6217.56
398.82	6566.56
399.044	7097.56
399.268	7855.56
399.492	8917.56
399.717	9651.56
399.941	9269.56
400.165	8612.56
400.389	7995.56
400.613	7197.56
400.837	6784.56
401.062	6542.56
401.286	6441.56
401.51	6484.56
401.734	6452.56
401.958	6614.56
402.182	6737.56
402.406	6846.56
402.63	6921.56
402.854	7013.56
403.078	6940.56
403.302	7203.56
403.526	7286.56
403.75	7318.56
403.974	7371.56
404.198	7344.56
404.422	7559.56
404.645	7466.56
404.869	7423.56
405.093	7640.56
405.317	7811.56
405.541	7798.56
405.765	7244.56
405.988	7163.56
406.212	7446.56
406.436	7695.56
406.66	7853.56
406.883	7688.56
407.107	8406.56
407.331	8896.56
407.555	9297.56
407.778	8983.56
408.002	8359.56
408.226	7825.56
408.449	7700.56
408.673	7719.56
408.896	7823.56
409.12	7894.56
409.344	7427.56
409.567	7152.56
409.791	7115.56
410.014	6931.56
410.238	6915.56
410.461	7013.56
410.685	7033.56
410.908	7098.56
411.132	7222.56
411.355	7253.56
411.578	6956.56
411.802	6719.56
412.025	6794.56
412.249	7002.56
412.472	7011.56
412.695	7079.56
412.919	6792.56
413.142	6564.56
413.365	6510.56
413.589	6467.56
413.812	6347.56
414.035	6293.56
414.258	6227.56
414.482	6348.56
414.705	6424.56
414.928	6389.56
415.151	6380.56
415.374	6371.56
415.597	6319.56
415.821	6199.56
416.044	6305.56
416.267	6212.56
416.49	6190.56
416.713	6095.56
416.936	6259.56
417.159	6228.56
417.382	6314.56
417.605	6314.56
417.828	6465.56
418.051	6618.56
418.274	6479.56
418.497	6316.56
418.72	6531.56
418.943	6447.56
419.166	6919.56
419.389	7230.56
419.611	7068.56
419.834	6882.56
420.057	6787.56
420.28	6647.56
420.503	6446.56
420.726	6560.56
420.948	6634.56
421.171	7047.56
421.394	7045.56
421.617	6498.56
421.839	6505.56
422.062	6583.56
422.285	6767.56
422.507	7430.56
422.73	7894.56
422.953	7412.56
423.175	7033.56
423.398	6998.56
423.621	6978.56
423.843	7240.56
424.066	7114.56
424.288	7081.56
424.511	7313.56
424.733	7796.56
424.956	8219.56
425.178	7740.56
425.401	7823.56
425.623	7721.56
425.846	6852.56
426.068	6639.56
426.291	6465.56
426.513	6478.56
426.735	6583.56
426.958	7041.56
427.18	7889.56
427.402	8980.56
427.625	9180.56
427.847	7823.56
428.069	7008.56
428.292	6439.56
428.514	6163.56
428.736	5897.56
428.958	5902.56
429.181	5736.56
429.403	5749.56
429.625	6024.56
429.847	6327.56
430.069	6698.56
430.292	6367.56
430.514	5789.56
430.736	5756.56
430.958	5667.56
431.18	5536.56
431.402	5669.56
431.624	5622.56
431.846	5790.56
432.068	5703.56
432.29	5883.56
432.512	5699.56
432.734	5805.56
432.956	5703.56
433.178	5846.56
433.4	5754.56
433.622	5687.56
433.844	5804.56
434.066	5673.56
434.287	5808.56
434.509	6091.56
434.731	6299.56
434.953	6388.56
435.175	6564.56
435.397	6687.56
435.618	6583.56
435.84	6990.56
436.062	7775.56
436.284	7699.56
436.505	6566.56
436.727	6262.56
436.949	5947.56
437.17	5814.56
437.392	5762.56
437.614	5939.56
437.835	6356.56
438.057	7288.56
438.278	7932.56
438.5	7911.56
438.721	8651.56
438.943	7532.56
439.165	6405.56
439.386	6117.56
439.608	6235.56
439.829	6353.56
440.05	6767.56
440.272	7069.56
440.493	6418.56
440.715	6156.56
440.936	6101.56
441.158	6147.56
441.379	6208.56
441.6	6551.56
441.822	6809.56
442.043	7240.56
442.264	7971.56
442.486	7776.56
442.707	6821.56
442.928	6723.56
443.149	7031.56
443.371	7233.56
443.592	7719.56
443.813	8659.56
444.034	8715.56
444.255	7504.56
444.476	7371.56
444.698	7490.56
444.919	7619.56
445.14	7357.56
445.361	7284.56
445.582	7364.56
445.803	8074.56
446.024	8567.56
446.245	8311.56
446.466	7407.56
446.687	6375.56
446.908	6112.56
447.129	5833.56
447.35	5730.56
447.571	5599.56
447.792	5476.56
448.013	5617.56
448.234	5785.56
448.455	6524.56
448.675	7693.56
448.896	8152.56
449.117	6715.56
449.338	6993.56
449.559	8137.56
449.779	8400.56
450	6371.56
450.221	5763.56
450.442	5486.56
450.662	5474.56
450.883	5536.56
451.104	5708.56
451.324	5491.56
451.545	5357.56
451.766	5203.56
451.986	5143.56
452.207	5108.56
452.428	5062.56
452.648	5121.56
452.869	5087.56
453.089	5244.56
453.31	5289.56
453.53	5059.56
453.751	5059.56
453.971	5050.56
454.192	5186.56
454.412	4997.56
454.633	4888.56
454.853	4844.56
455.073	4931.56
455.294	5281.56
455.514	5748.56
455.734	5308.56
455.955	4775.56
456.175	4708.56
456.395	4634.56
456.616	4637.56
456.836	4649.56
457.056	4577.56
457.276	4523.56
457.497	4716.56
457.717	4726.56
457.937	4699.56
458.157	4821.56
458.377	4968.56
458.598	5346.56
458.818	6050.56
459.038	6879.56
459.258	6612.56
459.478	5962.56
459.698	5802.56
459.918	5837.56
460.138	5987.56
460.358	6298.56
460.578	6236.56
460.798	6332.56
461.018	6307.56
461.238	6192.56
461.458	6205.56
461.678	6165.56
461.898	6278.56
462.118	6401.56
462.338	6739.56
462.558	6787.56
462.777	7140.56
462.997	7683.56
463.217	8115.56
463.437	7875.56
463.657	7350.56
463.876	7089.56
464.096	7092.56
464.316	7206.56
464.536	7221.56
464.755	6965.56
464.975	6931.56
465.195	7233.56
465.414	7191.56
465.634	6293.56
465.854	5880.56
466.073	5621.56
466.293	5374.56
466.512	5284.56
466.732	5279.56
466.951	5197.56
467.171	5177.56
467.391	5304.56
467.61	5332.56
467.829	5252.56
468.049	5175.56
468.268	5094.56
468.488	4951.56
468.707	4967.56
468.927	4960.56
469.146	4944.56
469.365	5033.56
469.585	5027.56
469.804	5285.56
470.023	5427.56
470.243	5433.56
470.462	5438.56
470.681	5606.56
470.901	5461.56
471.12	5303.56
471.339	5278.56
471.558	5270.56
471.777	5206.56
471.997	5062.56
472.216	5175.56
472.435	5374.56
472.654	5127.56
472.873	4950.56
473.092	4969.56
473.311	4980.56
473.53	4985.56
473.749	5109.56
473.968	5526.56
474.187	6678.56
474.406	6158.56
474.625	5221.56
474.844	5029.56
475.063	4916.56
475.282	4977.56
475.501	5102.56
475.72	5056.56
475.939	5069.56
476.158	5156.56
476.377	5190.56
476.596	5201.56
476.814	5357.56
477.033	5419.56
477.252	5438.56
477.471	5486.56
477.69	5699.56
477.908	5776.56
478.127	5887.56
478.346	5935.56
478.564	6081.56
478.783	6125.56
479.002	6306.56
479.22	6224.56
479.439	6369.56
479.658	6439.56
479.876	6605.56
480.095	6758.56
480.313	7159.56
480.532	6974.56
480.751	6933.56
480.969	6824.56
481.188	7094.56
481.406	6947.56
481.624	6395.56
481.843	6240.56
482.061	6101.56
482.28	5958.56
482.498	5948.56
482.717	5844.56
482.935	5787.56
483.153	5781.56
483.372	5777.56
483.59	5860.56
483.808	5782.56
484.027	5842.56
484.245	5841.56
484.463	5982.56
484.681	5923.56
484.9	6013.56
485.118	5971.56
485.336	6094.56
485.554	6190.56
485.772	6261.56
485.99	6256.56
486.209	6253.56
486.427	6343.56
486.645	6307.56
486.863	6430.56
487.081	6349.56
487.299	6303.56
487.517	6278.56
487.735	6248.56
487.953	6225.56
