Data from Circ_2012_H10_HRD10591_00017.txt Node
Date: Wed Jan 03 10:05:53 EST 2024
User: Yrep
Spectrometer: HR+D1059
Trigger mode: 1
Integration Time (sec): 1.000000E-1
Scans to average: 1
Electric dark correction enabled: true
Nonlinearity correction enabled: false
Boxcar width: 0
XAxis mode: Wavelengths
Number of Pixels in Spectrum: 2048
>>>>>Begin Spectral Data<<<<<
223.165	-22.56
223.4	-22.56
223.635	-22.56
223.869	-8.56
224.104	-20.56
224.338	-21.56
224.573	-20.56
224.808	5.44
225.042	-11.56
225.277	-20.56
225.511	9.44
225.746	-0.56
225.98	6.44
226.215	15.44
226.449	17.44
226.683	18.44
226.918	27.44
227.152	26.44
227.387	28.44
227.621	20.44
227.856	47.44
228.09	42.44
228.324	39.44
228.559	42.44
228.793	56.44
229.027	51.44
229.262	52.44
229.496	60.44
229.73	82.44
229.964	84.44
230.199	85.44
230.433	63.44
230.667	62.44
230.901	61.44
231.136	88.44
231.37	85.44
231.604	79.44
231.838	76.44
232.072	69.44
232.306	72.44
232.541	79.44
232.775	81.44
233.009	71.44
233.243	75.44
233.477	83.44
233.711	73.44
233.945	77.44
234.179	77.44
234.413	57.44
234.647	77.44
234.881	72.44
235.115	82.44
235.349	78.44
235.583	70.44
235.817	64.44
236.051	72.44
236.285	76.44
236.519	73.44
236.753	89.44
236.987	72.44
237.221	81.44
237.455	79.44
237.689	73.44
237.922	68.44
238.156	70.44
238.39	76.44
238.624	70.44
238.858	66.44
239.091	64.44
239.325	85.44
239.559	71.44
239.793	85.44
240.027	85.44
240.26	79.44
240.494	72.44
240.728	81.44
240.961	67.44
241.195	87.44
241.429	75.44
241.662	78.44
241.896	79.44
242.13	76.44
242.363	63.44
242.597	81.44
242.83	72.44
243.064	71.44
243.298	93.44
243.531	77.44
243.765	68.44
243.998	83.44
244.232	71.44
244.465	74.44
244.699	80.44
244.932	93.44
245.166	71.44
245.399	73.44
245.633	85.44
245.866	79.44
246.099	73.44
246.333	76.44
246.566	80.44
246.8	75.44
247.033	68.44
247.266	79.44
247.5	68.44
247.733	67.44
247.966	69.44
248.2	76.44
248.433	82.44
248.666	87.44
248.899	78.44
249.133	83.44
249.366	97.44
249.599	103.44
249.832	83.44
250.066	89.44
250.299	85.44
250.532	76.44
250.765	75.44
250.998	72.44
251.231	79.44
251.465	81.44
251.698	79.44
251.931	75.44
252.164	71.44
252.397	71.44
252.63	68.44
252.863	66.44
253.096	75.44
253.329	80.44
253.562	81.44
253.795	80.44
254.028	68.44
254.261	78.44
254.494	83.44
254.727	80.44
254.96	86.44
255.193	75.44
255.426	81.44
255.659	69.44
255.892	76.44
256.124	67.44
256.357	75.44
256.59	87.44
256.823	81.44
257.056	79.44
257.289	81.44
257.521	77.44
257.754	85.44
257.987	84.44
258.22	89.44
258.452	70.44
258.685	73.44
258.918	76.44
259.151	87.44
259.383	80.44
259.616	81.44
259.849	88.44
260.081	82.44
260.314	89.44
260.547	83.44
260.779	75.44
261.012	74.44
261.244	71.44
261.477	93.44
261.71	98.44
261.942	123.44
262.175	115.44
262.407	78.44
262.64	77.44
262.872	82.44
263.105	85.44
263.337	76.44
263.57	74.44
263.802	85.44
264.035	77.44
264.267	72.44
264.499	75.44
264.732	87.44
264.964	73.44
265.197	67.44
265.429	73.44
265.661	94.44
265.894	73.44
266.126	84.44
266.358	74.44
266.591	79.44
266.823	71.44
267.055	88.44
267.287	88.44
267.52	96.44
267.752	78.44
267.984	73.44
268.216	80.44
268.448	76.44
268.681	74.44
268.913	96.44
269.145	87.44
269.377	80.44
269.609	70.44
269.841	105.44
270.073	67.44
270.306	92.44
270.538	79.44
270.77	81.44
271.002	79.44
271.234	80.44
271.466	76.44
271.698	65.44
271.93	82.44
272.162	90.44
272.394	78.44
272.626	75.44
272.858	81.44
273.09	84.44
273.322	77.44
273.553	87.44
273.785	76.44
274.017	95.44
274.249	72.44
274.481	73.44
274.713	88.44
274.945	96.44
275.176	79.44
275.408	88.44
275.64	95.44
275.872	89.44
276.104	82.44
276.335	92.44
276.567	100.44
276.799	111.44
277.031	113.44
277.262	83.44
277.494	86.44
277.726	84.44
277.957	75.44
278.189	66.44
278.421	77.44
278.652	79.44
278.884	80.44
279.115	76.44
279.347	94.44
279.579	80.44
279.81	84.44
280.042	76.44
280.273	80.44
280.505	75.44
280.736	85.44
280.968	91.44
281.199	79.44
281.431	77.44
281.662	68.44
281.894	89.44
282.125	89.44
282.356	131.44
282.588	162.44
282.819	129.44
283.051	82.44
283.282	75.44
283.513	86.44
283.745	73.44
283.976	76.44
284.207	83.44
284.439	84.44
284.67	62.44
284.901	102.44
285.132	76.44
285.364	81.44
285.595	80.44
285.826	77.44
286.057	84.44
286.288	89.44
286.52	92.44
286.751	82.44
286.982	89.44
287.213	73.44
287.444	91.44
287.675	103.44
287.906	94.44
288.138	93.44
288.369	107.44
288.6	87.44
288.831	75.44
289.062	87.44
289.293	90.44
289.524	84.44
289.755	93.44
289.986	96.44
290.217	71.44
290.448	85.44
290.679	84.44
290.91	79.44
291.141	77.44
291.371	79.44
291.602	81.44
291.833	88.44
292.064	81.44
292.295	88.44
292.526	76.44
292.757	94.44
292.987	83.44
293.218	80.44
293.449	77.44
293.68	90.44
293.91	95.44
294.141	83.44
294.372	88.44
294.603	85.44
294.833	85.44
295.064	93.44
295.295	86.44
295.525	100.44
295.756	104.44
295.987	113.44
296.217	151.44
296.448	141.44
296.679	84.44
296.909	67.44
297.14	93.44
297.37	94.44
297.601	86.44
297.831	82.44
298.062	83.44
298.292	96.44
298.523	79.44
298.753	87.44
298.984	88.44
299.214	97.44
299.445	89.44
299.675	83.44
299.905	97.44
300.136	93.44
300.366	92.44
300.597	88.44
300.827	77.44
301.057	93.44
301.288	94.44
301.518	92.44
301.748	84.44
301.979	96.44
302.209	78.44
302.439	78.44
302.669	92.44
302.9	88.44
303.13	89.44
303.36	97.44
303.59	109.44
303.82	96.44
304.051	99.44
304.281	89.44
304.511	73.44
304.741	81.44
304.971	100.44
305.201	80.44
305.431	88.44
305.661	91.44
305.891	90.44
306.121	93.44
306.352	103.44
306.582	106.44
306.812	91.44
307.042	97.44
307.272	90.44
307.502	84.44
307.731	81.44
307.961	85.44
308.191	93.44
308.421	91.44
308.651	91.44
308.881	93.44
309.111	91.44
309.341	97.44
309.571	97.44
309.8	99.44
310.03	102.44
310.26	93.44
310.49	90.44
310.72	83.44
310.949	97.44
311.179	124.44
311.409	87.44
311.639	89.44
311.868	89.44
312.098	73.44
312.328	81.44
312.557	107.44
312.787	103.44
313.017	96.44
313.246	83.44
313.476	74.44
313.706	94.44
313.935	90.44
314.165	86.44
314.394	97.44
314.624	93.44
314.853	94.44
315.083	92.44
315.312	92.44
315.542	82.44
315.771	77.44
316.001	79.44
316.23	80.44
316.46	71.44
316.689	91.44
316.919	81.44
317.148	90.44
317.377	95.44
317.607	96.44
317.836	107.44
318.065	88.44
318.295	81.44
318.524	89.44
318.753	91.44
318.983	94.44
319.212	111.44
319.441	111.44
319.67	109.44
319.9	91.44
320.129	102.44
320.358	97.44
320.587	89.44
320.816	102.44
321.046	109.44
321.275	93.44
321.504	78.44
321.733	96.44
321.962	90.44
322.191	101.44
322.42	111.44
322.649	100.44
322.878	131.44
323.108	116.44
323.337	131.44
323.566	136.44
323.795	162.44
324.024	206.44
324.253	452.44
324.482	981.44
324.71	1976.44
324.939	2553.44
325.168	967.44
325.397	269.44
325.626	159.44
325.855	127.44
326.084	132.44
326.313	136.44
326.542	172.44
326.77	242.44
326.999	515.44
327.228	1076.44
327.457	1969.44
327.686	1524.44
327.914	412.44
328.143	207.44
328.372	162.44
328.6	141.44
328.829	115.44
329.058	137.44
329.287	149.44
329.515	100.44
329.744	94.44
329.972	93.44
330.201	105.44
330.43	121.44
330.658	129.44
330.887	146.44
331.115	135.44
331.344	105.44
331.572	101.44
331.801	80.44
332.03	94.44
332.258	94.44
332.486	91.44
332.715	86.44
332.943	93.44
333.172	85.44
333.4	99.44
333.629	102.44
333.857	107.44
334.085	95.44
334.314	115.44
334.542	115.44
334.771	106.44
334.999	106.44
335.227	98.44
335.455	99.44
335.684	102.44
335.912	114.44
336.14	97.44
336.369	95.44
336.597	98.44
336.825	92.44
337.053	84.44
337.281	84.44
337.51	82.44
337.738	83.44
337.966	86.44
338.194	90.44
338.422	87.44
338.65	96.44
338.878	95.44
339.106	97.44
339.334	87.44
339.562	85.44
339.79	88.44
340.018	85.44
340.246	98.44
340.474	92.44
340.702	96.44
340.93	83.44
341.158	84.44
341.386	96.44
341.614	92.44
341.842	78.44
342.07	83.44
342.298	101.44
342.526	89.44
342.754	90.44
342.981	74.44
343.209	89.44
343.437	83.44
343.665	88.44
343.893	84.44
344.12	92.44
344.348	84.44
344.576	90.44
344.804	93.44
345.031	85.44
345.259	87.44
345.487	81.44
345.714	94.44
345.942	81.44
346.17	95.44
346.397	85.44
346.625	91.44
346.853	98.44
347.08	92.44
347.308	99.44
347.535	79.44
347.763	86.44
347.99	91.44
348.218	102.44
348.445	100.44
348.673	101.44
348.9	91.44
349.128	80.44
349.355	70.44
349.583	109.44
349.81	92.44
350.037	80.44
350.265	81.44
350.492	109.44
350.72	83.44
350.947	75.44
351.174	101.44
351.402	111.44
351.629	93.44
351.856	103.44
352.083	93.44
352.311	89.44
352.538	111.44
352.765	104.44
352.992	127.44
353.22	109.44
353.447	113.44
353.674	98.44
353.901	78.44
354.128	86.44
354.355	89.44
354.583	97.44
354.81	90.44
355.037	88.44
355.264	101.44
355.491	92.44
355.718	77.44
355.945	92.44
356.172	97.44
356.399	83.44
356.626	85.44
356.853	92.44
357.08	92.44
357.307	77.44
357.534	87.44
357.761	89.44
357.988	85.44
358.215	87.44
358.441	83.44
358.668	98.44
358.895	73.44
359.122	83.44
359.349	93.44
359.576	79.44
359.802	106.44
360.029	111.44
360.256	109.44
360.483	108.44
360.709	98.44
360.936	95.44
361.163	82.44
361.39	88.44
361.616	91.44
361.843	86.44
362.07	106.44
362.296	88.44
362.523	95.44
362.749	98.44
362.976	107.44
363.203	88.44
363.429	93.44
363.656	93.44
363.882	87.44
364.109	92.44
364.335	108.44
364.562	85.44
364.788	73.44
365.015	103.44
365.241	91.44
365.468	107.44
365.694	116.44
365.92	103.44
366.147	91.44
366.373	88.44
366.599	100.44
366.826	94.44
367.052	84.44
367.278	85.44
367.505	77.44
367.731	76.44
367.957	75.44
368.184	92.44
368.41	100.44
368.636	115.44
368.862	118.44
369.089	99.44
369.315	96.44
369.541	98.44
369.767	77.44
369.993	87.44
370.219	86.44
370.445	90.44
370.672	81.44
370.898	88.44
371.124	90.44
371.35	85.44
371.576	83.44
371.802	85.44
372.028	87.44
372.254	81.44
372.48	98.44
372.706	85.44
372.932	89.44
373.158	83.44
373.384	84.44
373.61	100.44
373.835	85.44
374.061	87.44
374.287	89.44
374.513	86.44
374.739	84.44
374.965	77.44
375.191	92.44
375.416	90.44
375.642	90.44
375.868	98.44
376.094	95.44
376.319	87.44
376.545	83.44
376.771	85.44
376.997	89.44
377.222	91.44
377.448	85.44
377.674	84.44
377.899	84.44
378.125	94.44
378.35	79.44
378.576	92.44
378.802	98.44
379.027	88.44
379.253	92.44
379.478	92.44
379.704	85.44
379.929	98.44
380.155	90.44
380.38	91.44
380.606	93.44
380.831	91.44
381.057	82.44
381.282	87.44
381.507	100.44
381.733	92.44
381.958	93.44
382.184	85.44
382.409	94.44
382.634	100.44
382.86	99.44
383.085	92.44
383.31	100.44
383.535	94.44
383.761	105.44
383.986	102.44
384.211	96.44
384.436	90.44
384.662	99.44
384.887	108.44
385.112	110.44
385.337	92.44
385.562	101.44
385.787	99.44
386.013	90.44
386.238	108.44
386.463	106.44
386.688	101.44
386.913	108.44
387.138	97.44
387.363	102.44
387.588	92.44
387.813	99.44
388.038	100.44
388.263	114.44
388.488	110.44
388.713	94.44
388.938	90.44
389.163	89.44
389.387	74.44
389.612	91.44
389.837	101.44
390.062	80.44
390.287	88.44
390.512	84.44
390.736	74.44
390.961	88.44
391.186	87.44
391.411	80.44
391.636	84.44
391.86	80.44
392.085	80.44
392.31	82.44
392.534	75.44
392.759	92.44
392.984	115.44
393.208	86.44
393.433	92.44
393.658	98.44
393.882	74.44
394.107	83.44
394.331	87.44
394.556	89.44
394.78	88.44
395.005	75.44
395.229	70.44
395.454	80.44
395.678	82.44
395.903	77.44
396.127	90.44
396.352	90.44
396.576	88.44
396.801	92.44
397.025	106.44
397.249	83.44
397.474	89.44
397.698	94.44
397.922	77.44
398.147	81.44
398.371	77.44
398.595	70.44
398.82	80.44
399.044	77.44
399.268	77.44
399.492	96.44
399.717	85.44
399.941	85.44
400.165	90.44
400.389	86.44
400.613	73.44
400.837	85.44
401.062	74.44
401.286	82.44
401.51	75.44
401.734	83.44
401.958	110.44
402.182	136.44
402.406	178.44
402.63	134.44
402.854	81.44
403.078	73.44
403.302	65.44
403.526	84.44
403.75	96.44
403.974	76.44
404.198	90.44
404.422	88.44
404.645	88.44
404.869	82.44
405.093	102.44
405.317	102.44
405.541	98.44
405.765	99.44
405.988	127.44
406.212	195.44
406.436	273.44
406.66	176.44
406.883	111.44
407.107	100.44
407.331	108.44
407.555	93.44
407.778	96.44
408.002	71.44
408.226	60.44
408.449	90.44
408.673	100.44
408.896	80.44
409.12	82.44
409.344	83.44
409.567	87.44
409.791	83.44
410.014	88.44
410.238	88.44
410.461	93.44
410.685	102.44
410.908	92.44
411.132	98.44
411.355	91.44
411.578	96.44
411.802	88.44
412.025	92.44
412.249	75.44
412.472	85.44
412.695	78.44
412.919	76.44
413.142	76.44
413.365	87.44
413.589	90.44
413.812	96.44
414.035	97.44
414.258	65.44
414.482	106.44
414.705	99.44
414.928	84.44
415.151	85.44
415.374	75.44
415.597	91.44
415.821	88.44
416.044	76.44
416.267	85.44
416.49	96.44
416.713	81.44
416.936	83.44
417.159	90.44
417.382	80.44
417.605	93.44
417.828	89.44
418.051	85.44
418.274	90.44
418.497	83.44
418.72	68.44
418.943	90.44
419.166	95.44
419.389	78.44
419.611	92.44
419.834	85.44
420.057	78.44
420.28	89.44
420.503	86.44
420.726	75.44
420.948	80.44
421.171	86.44
421.394	105.44
421.617	103.44
421.839	80.44
422.062	94.44
422.285	86.44
422.507	81.44
422.73	101.44
422.953	97.44
423.175	94.44
423.398	75.44
423.621	83.44
423.843	96.44
424.066	79.44
424.288	90.44
424.511	111.44
424.733	89.44
424.956	106.44
425.178	96.44
425.401	96.44
425.623	102.44
425.846	96.44
426.068	91.44
426.291	94.44
426.513	90.44
426.735	84.44
426.958	106.44
427.18	110.44
427.402	129.44
427.625	177.44
427.847	132.44
428.069	97.44
428.292	88.44
428.514	85.44
428.736	77.44
428.958	84.44
429.181	76.44
429.403	91.44
429.625	81.44
429.847	87.44
430.069	100.44
430.292	111.44
430.514	81.44
430.736	82.44
430.958	94.44
431.18	91.44
431.402	82.44
431.624	93.44
431.846	95.44
432.068	86.44
432.29	87.44
432.512	92.44
432.734	102.44
432.956	83.44
433.178	91.44
433.4	104.44
433.622	87.44
433.844	97.44
434.066	86.44
434.287	83.44
434.509	84.44
434.731	94.44
434.953	88.44
435.175	80.44
435.397	99.44
435.618	88.44
435.84	114.44
436.062	133.44
436.284	123.44
436.505	106.44
436.727	104.44
436.949	99.44
437.17	77.44
437.392	87.44
437.614	87.44
437.835	116.44
438.057	112.44
438.278	104.44
438.5	97.44
438.721	108.44
438.943	105.44
439.165	89.44
439.386	75.44
439.608	95.44
439.829	102.44
440.05	122.44
440.272	147.44
440.493	102.44
440.715	75.44
440.936	91.44
441.158	80.44
441.379	77.44
441.6	89.44
441.822	104.44
442.043	96.44
442.264	102.44
442.486	107.44
442.707	93.44
442.928	103.44
443.149	143.44
443.371	145.44
443.592	112.44
443.813	88.44
444.034	100.44
444.255	75.44
444.476	77.44
444.698	89.44
444.919	91.44
445.14	130.44
445.361	122.44
445.582	107.44
445.803	146.44
446.024	144.44
446.245	142.44
446.466	116.44
446.687	81.44
446.908	83.44
447.129	102.44
447.35	87.44
447.571	93.44
447.792	77.44
448.013	98.44
448.234	102.44
448.455	117.44
448.675	107.44
448.896	120.44
449.117	107.44
449.338	116.44
449.559	112.44
449.779	135.44
450	103.44
450.221	77.44
450.442	85.44
450.662	92.44
450.883	103.44
451.104	105.44
451.324	96.44
451.545	83.44
451.766	87.44
451.986	85.44
452.207	80.44
452.428	95.44
452.648	92.44
452.869	107.44
453.089	131.44
453.31	129.44
453.53	101.44
453.751	91.44
453.971	86.44
454.192	120.44
454.412	80.44
454.633	78.44
454.853	71.44
455.073	81.44
455.294	86.44
455.514	89.44
455.734	76.44
455.955	74.44
456.175	82.44
456.395	89.44
456.616	83.44
456.836	82.44
457.056	85.44
457.276	75.44
457.497	76.44
457.717	88.44
457.937	87.44
458.157	84.44
458.377	97.44
458.598	105.44
458.818	160.44
459.038	186.44
459.258	133.44
459.478	91.44
459.698	87.44
459.918	85.44
460.138	84.44
460.358	86.44
460.578	88.44
460.798	84.44
461.018	96.44
461.238	84.44
461.458	81.44
461.678	89.44
461.898	88.44
462.118	85.44
462.338	85.44
462.558	64.44
462.777	89.44
462.997	98.44
463.217	82.44
463.437	74.44
463.657	94.44
463.876	80.44
464.096	89.44
464.316	98.44
464.536	86.44
464.755	98.44
464.975	111.44
465.195	183.44
465.414	168.44
465.634	92.44
465.854	91.44
466.073	77.44
466.293	85.44
466.512	109.44
466.732	84.44
466.951	83.44
467.171	91.44
467.391	94.44
467.61	111.44
467.829	89.44
468.049	88.44
468.268	92.44
468.488	84.44
468.707	92.44
468.927	92.44
469.146	81.44
469.365	93.44
469.585	76.44
469.804	99.44
470.023	99.44
470.243	103.44
470.462	100.44
470.681	117.44
470.901	92.44
471.12	73.44
471.339	90.44
471.558	87.44
471.777	88.44
471.997	91.44
472.216	98.44
472.435	115.44
472.654	96.44
472.873	85.44
473.092	79.44
473.311	85.44
473.53	95.44
473.749	74.44
473.968	103.44
474.187	111.44
474.406	100.44
474.625	83.44
474.844	93.44
475.063	76.44
475.282	81.44
475.501	87.44
475.72	96.44
475.939	104.44
476.158	92.44
476.377	98.44
476.596	84.44
476.814	96.44
477.033	87.44
477.252	92.44
477.471	90.44
477.69	85.44
477.908	87.44
478.127	93.44
478.346	69.44
478.564	78.44
478.783	95.44
479.002	89.44
479.22	97.44
479.439	97.44
479.658	120.44
479.876	104.44
480.095	92.44
480.313	84.44
480.532	95.44
480.751	94.44
480.969	109.44
481.188	152.44
481.406	122.44
481.624	85.44
481.843	95.44
482.061	97.44
482.28	69.44
482.498	87.44
482.717	79.44
482.935	80.44
483.153	96.44
483.372	78.44
483.59	96.44
483.808	84.44
484.027	92.44
484.245	83.44
484.463	82.44
484.681	97.44
484.9	87.44
485.118	89.44
485.336	92.44
485.554	109.44
485.772	99.44
485.99	108.44
486.209	104.44
486.427	125.44
486.645	113.44
486.863	108.44
487.081	103.44
487.299	87.44
487.517	96.44
487.735	75.44
487.953	93.44
488.171	83.44
488.389	89.44
488.607	106.44
488.825	89.44
489.043	82.44
489.261	75.44
489.479	102.44
489.696	91.44
489.914	80.44
490.132	93.44
490.35	90.44
490.568	84.44
490.786	82.44
491.003	85.44
491.221	99.44
491.439	100.44
491.657	87.44
491.874	84.44
492.092	85.44
492.31	89.44
492.527	89.44
492.745	92.44
492.963	84.44
493.18	77.44
493.398	82.44
493.615	91.44
493.833	86.44
494.05	92.44
494.268	92.44
494.485	89.44
494.703	75.44
494.92	89.44
495.138	89.44
495.355	99.44
495.573	85.44
495.79	81.44
496.008	85.44
496.225	83.44
496.442	76.44
496.66	78.44
496.877	85.44
497.094	89.44
497.312	82.44
497.529	79.44
497.746	85.44
497.963	91.44
498.181	88.44
498.398	85.44
498.615	115.44
498.832	96.44
499.049	84.44
499.267	95.44
499.484	96.44
499.701	92.44
499.918	81.44
500.135	88.44
500.352	88.44
500.569	88.44
500.786	84.44
501.003	87.44
501.22	83.44
501.437	101.44
501.654	94.44
501.871	113.44
502.088	93.44
502.305	97.44
502.522	76.44
502.739	80.44
502.956	83.44
503.172	84.44
503.389	78.44
503.606	114.44
503.823	99.44
504.04	85.44
504.256	88.44
504.473	92.44
504.69	92.44
504.907	87.44
505.123	83.44
505.34	82.44
505.557	84.44
505.773	92.44
505.99	73.44
506.207	93.44
506.423	77.44
506.64	88.44
506.856	76.44
507.073	75.44
507.289	95.44
507.506	97.44
507.722	113.44
507.939	106.44
508.155	94.44
508.372	89.44
508.588	80.44
508.805	102.44
509.021	104.44
509.238	108.44
509.454	94.44
509.67	98.44
509.887	119.44
510.103	129.44
510.319	231.44
510.536	886.44
510.752	3103.44
510.968	815.44
511.184	159.44
511.401	108.44
511.617	106.44
511.833	100.44
512.049	106.44
512.265	94.44
512.481	84.44
512.698	88.44
512.914	93.44
513.13	107.44
513.346	88.44
513.562	100.44
513.778	80.44
513.994	90.44
514.21	103.44
514.426	136.44
514.642	143.44
514.858	143.44
515.074	188.44
515.29	536.44
515.506	1933.44
515.721	703.44
515.937	179.44
516.153	104.44
