Data from Circ_2012_H10_HRD10591_00050.txt Node
Date: Wed Jan 03 10:06:00 EST 2024
User: Yrep
Spectrometer: HR+D1059
Trigger mode: 1
Integration Time (sec): 1.000000E-1
Scans to average: 1
Electric dark correction enabled: true
Nonlinearity correction enabled: false
Boxcar width: 0
XAxis mode: Wavelengths
Number of Pixels in Spectrum: 2048
>>>>>Begin Spectral Data<<<<<
223.165	-9.94
223.4	-9.94
223.635	-9.94
223.869	-26.94
224.104	-18.94
224.338	-13.94
224.573	-25.94
224.808	-16.94
225.042	-12.94
225.277	-5.94
225.511	5.06
225.746	8.06
225.98	6.06
226.215	13.06
226.449	9.06
226.683	24.06
226.918	17.06
227.152	49.06
227.387	45.06
227.621	32.06
227.856	30.06
228.09	46.06
228.324	50.06
228.559	49.06
228.793	62.06
229.027	63.06
229.262	65.06
229.496	70.06
229.73	84.06
229.964	92.06
230.199	77.06
230.433	71.06
230.667	81.06
230.901	78.06
231.136	78.06
231.37	76.06
231.604	82.06
231.838	73.06
232.072	75.06
232.306	86.06
232.541	82.06
232.775	76.06
233.009	89.06
233.243	89.06
233.477	73.06
233.711	79.06
233.945	68.06
234.179	86.06
234.413	71.06
234.647	77.06
234.881	66.06
235.115	84.06
235.349	67.06
235.583	75.06
235.817	78.06
236.051	72.06
236.285	78.06
236.519	64.06
236.753	68.06
236.987	82.06
237.221	67.06
237.455	89.06
237.689	75.06
237.922	94.06
238.156	88.06
238.39	60.06
238.624	67.06
238.858	75.06
239.091	73.06
239.325	80.06
239.559	76.06
239.793	78.06
240.027	76.06
240.26	70.06
240.494	78.06
240.728	67.06
240.961	75.06
241.195	77.06
241.429	81.06
241.662	79.06
241.896	79.06
242.13	70.06
242.363	63.06
242.597	82.06
242.83	72.06
243.064	81.06
243.298	77.06
243.531	68.06
243.765	78.06
243.998	89.06
244.232	79.06
244.465	69.06
244.699	87.06
244.932	70.06
245.166	82.06
245.399	74.06
245.633	81.06
245.866	65.06
246.099	79.06
246.333	74.06
246.566	76.06
246.8	69.06
247.033	71.06
247.266	81.06
247.5	76.06
247.733	75.06
247.966	73.06
248.2	85.06
248.433	91.06
248.666	79.06
248.899	79.06
249.133	95.06
249.366	94.06
249.599	107.06
249.832	85.06
250.066	71.06
250.299	82.06
250.532	94.06
250.765	92.06
250.998	74.06
251.231	77.06
251.465	83.06
251.698	81.06
251.931	68.06
252.164	71.06
252.397	68.06
252.63	85.06
252.863	81.06
253.096	78.06
253.329	84.06
253.562	88.06
253.795	79.06
254.028	83.06
254.261	81.06
254.494	83.06
254.727	79.06
254.96	79.06
255.193	77.06
255.426	75.06
255.659	69.06
255.892	78.06
256.124	87.06
256.357	81.06
256.59	82.06
256.823	83.06
257.056	95.06
257.289	78.06
257.521	72.06
257.754	83.06
257.987	78.06
258.22	86.06
258.452	97.06
258.685	72.06
258.918	80.06
259.151	77.06
259.383	78.06
259.616	62.06
259.849	77.06
260.081	86.06
260.314	86.06
260.547	80.06
260.779	82.06
261.012	82.06
261.244	91.06
261.477	93.06
261.71	91.06
261.942	95.06
262.175	116.06
262.407	80.06
262.64	75.06
262.872	87.06
263.105	89.06
263.337	81.06
263.57	86.06
263.802	67.06
264.035	70.06
264.267	79.06
264.499	91.06
264.732	86.06
264.964	87.06
265.197	79.06
265.429	90.06
265.661	91.06
265.894	85.06
266.126	84.06
266.358	82.06
266.591	77.06
266.823	78.06
267.055	69.06
267.287	89.06
267.52	79.06
267.752	94.06
267.984	82.06
268.216	95.06
268.448	82.06
268.681	96.06
268.913	73.06
269.145	85.06
269.377	75.06
269.609	63.06
269.841	81.06
270.073	82.06
270.306	64.06
270.538	68.06
270.77	102.06
271.002	82.06
271.234	88.06
271.466	83.06
271.698	71.06
271.93	89.06
272.162	93.06
272.394	97.06
272.626	84.06
272.858	82.06
273.09	91.06
273.322	81.06
273.553	83.06
273.785	84.06
274.017	96.06
274.249	82.06
274.481	91.06
274.713	77.06
274.945	88.06
275.176	94.06
275.408	82.06
275.64	84.06
275.872	79.06
276.104	96.06
276.335	98.06
276.567	103.06
276.799	116.06
277.031	106.06
277.262	83.06
277.494	76.06
277.726	85.06
277.957	90.06
278.189	81.06
278.421	73.06
278.652	73.06
278.884	82.06
279.115	80.06
279.347	91.06
279.579	86.06
279.81	87.06
280.042	109.06
280.273	90.06
280.505	95.06
280.736	90.06
280.968	85.06
281.199	74.06
281.431	89.06
281.662	84.06
281.894	92.06
282.125	111.06
282.356	121.06
282.588	151.06
282.819	110.06
283.051	83.06
283.282	88.06
283.513	95.06
283.745	79.06
283.976	75.06
284.207	84.06
284.439	92.06
284.67	84.06
284.901	86.06
285.132	86.06
285.364	86.06
285.595	89.06
285.826	83.06
286.057	92.06
286.288	91.06
286.52	95.06
286.751	83.06
286.982	78.06
287.213	77.06
287.444	86.06
287.675	73.06
287.906	87.06
288.138	75.06
288.369	88.06
288.6	87.06
288.831	82.06
289.062	72.06
289.293	83.06
289.524	96.06
289.755	83.06
289.986	95.06
290.217	78.06
290.448	84.06
290.679	85.06
290.91	80.06
291.141	86.06
291.371	89.06
291.602	82.06
291.833	71.06
292.064	84.06
292.295	93.06
292.526	102.06
292.757	106.06
292.987	84.06
293.218	89.06
293.449	79.06
293.68	84.06
293.91	99.06
294.141	100.06
294.372	89.06
294.603	100.06
294.833	83.06
295.064	82.06
295.295	106.06
295.525	97.06
295.756	99.06
295.987	120.06
296.217	156.06
296.448	139.06
296.679	98.06
296.909	78.06
297.14	79.06
297.37	98.06
297.601	78.06
297.831	87.06
298.062	88.06
298.292	97.06
298.523	100.06
298.753	83.06
298.984	90.06
299.214	94.06
299.445	91.06
299.675	94.06
299.905	99.06
300.136	97.06
300.366	96.06
300.597	103.06
300.827	79.06
301.057	98.06
301.288	96.06
301.518	108.06
301.748	95.06
301.979	109.06
302.209	102.06
302.439	94.06
302.669	94.06
302.9	80.06
303.13	88.06
303.36	87.06
303.59	99.06
303.82	110.06
304.051	106.06
304.281	83.06
304.511	103.06
304.741	95.06
304.971	90.06
305.201	77.06
305.431	89.06
305.661	89.06
305.891	81.06
306.121	90.06
306.352	105.06
306.582	109.06
306.812	86.06
307.042	78.06
307.272	89.06
307.502	99.06
307.731	97.06
307.961	103.06
308.191	93.06
308.421	93.06
308.651	92.06
308.881	88.06
309.111	77.06
309.341	119.06
309.571	97.06
309.8	93.06
310.03	87.06
310.26	103.06
310.49	87.06
310.72	113.06
310.949	108.06
311.179	100.06
311.409	101.06
311.639	91.06
311.868	104.06
312.098	106.06
312.328	94.06
312.557	94.06
312.787	96.06
313.017	113.06
313.246	93.06
313.476	97.06
313.706	94.06
313.935	94.06
314.165	111.06
314.394	108.06
314.624	102.06
314.853	101.06
315.083	86.06
315.312	99.06
315.542	105.06
315.771	85.06
316.001	97.06
316.23	97.06
316.46	69.06
316.689	85.06
316.919	101.06
317.148	89.06
317.377	84.06
317.607	99.06
317.836	89.06
318.065	91.06
318.295	90.06
318.524	91.06
318.753	85.06
318.983	98.06
319.212	105.06
319.441	121.06
319.67	112.06
319.9	90.06
320.129	88.06
320.358	95.06
320.587	105.06
320.816	106.06
321.046	105.06
321.275	105.06
321.504	110.06
321.733	83.06
321.962	101.06
322.191	105.06
322.42	95.06
322.649	96.06
322.878	100.06
323.108	118.06
323.337	137.06
323.566	153.06
323.795	170.06
324.024	235.06
324.253	455.06
324.482	985.06
324.71	1932.06
324.939	2595.06
325.168	941.06
325.397	280.06
325.626	174.06
325.855	141.06
326.084	116.06
326.313	143.06
326.542	166.06
326.77	254.06
326.999	514.06
327.228	1104.06
327.457	2006.06
327.686	1552.06
327.914	433.06
328.143	225.06
328.372	173.06
328.6	133.06
328.829	121.06
329.058	121.06
329.287	147.06
329.515	125.06
329.744	121.06
329.972	123.06
330.201	141.06
330.43	143.06
330.658	146.06
330.887	151.06
331.115	125.06
331.344	109.06
331.572	110.06
331.801	95.06
332.03	111.06
332.258	98.06
332.486	96.06
332.715	111.06
332.943	93.06
333.172	114.06
333.4	98.06
333.629	114.06
333.857	110.06
334.085	124.06
334.314	139.06
334.542	164.06
334.771	160.06
334.999	101.06
335.227	90.06
335.455	92.06
335.684	95.06
335.912	103.06
336.14	92.06
336.369	94.06
336.597	102.06
336.825	91.06
337.053	97.06
337.281	92.06
337.51	106.06
337.738	95.06
337.966	84.06
338.194	105.06
338.422	96.06
338.65	92.06
338.878	96.06
339.106	93.06
339.334	97.06
339.562	84.06
339.79	88.06
340.018	103.06
340.246	92.06
340.474	89.06
340.702	82.06
340.93	88.06
341.158	92.06
341.386	102.06
341.614	101.06
341.842	93.06
342.07	93.06
342.298	81.06
342.526	89.06
342.754	88.06
342.981	88.06
343.209	84.06
343.437	107.06
343.665	99.06
343.893	91.06
344.12	89.06
344.348	92.06
344.576	79.06
344.804	96.06
345.031	100.06
345.259	113.06
345.487	102.06
345.714	101.06
345.942	87.06
346.17	91.06
346.397	87.06
346.625	90.06
346.853	91.06
347.08	103.06
347.308	94.06
347.535	96.06
347.763	94.06
347.99	116.06
348.218	95.06
348.445	94.06
348.673	106.06
348.9	87.06
349.128	97.06
349.355	97.06
349.583	91.06
349.81	96.06
350.037	108.06
350.265	113.06
350.492	78.06
350.72	102.06
350.947	92.06
351.174	103.06
351.402	118.06
351.629	105.06
351.856	106.06
352.083	103.06
352.311	99.06
352.538	104.06
352.765	102.06
352.992	106.06
353.22	121.06
353.447	92.06
353.674	102.06
353.901	97.06
354.128	91.06
354.355	95.06
354.583	100.06
354.81	98.06
355.037	101.06
355.264	84.06
355.491	93.06
355.718	89.06
355.945	86.06
356.172	93.06
356.399	85.06
356.626	92.06
356.853	89.06
357.08	96.06
357.307	92.06
357.534	92.06
357.761	84.06
357.988	85.06
358.215	100.06
358.441	95.06
358.668	93.06
358.895	95.06
359.122	91.06
359.349	72.06
359.576	95.06
359.802	108.06
360.029	90.06
360.256	109.06
360.483	95.06
360.709	84.06
360.936	85.06
361.163	84.06
361.39	88.06
361.616	93.06
361.843	78.06
362.07	110.06
362.296	89.06
362.523	94.06
362.749	93.06
362.976	96.06
363.203	104.06
363.429	86.06
363.656	101.06
363.882	90.06
364.109	84.06
364.335	85.06
364.562	87.06
364.788	85.06
365.015	100.06
365.241	105.06
365.468	108.06
365.694	115.06
365.92	92.06
366.147	114.06
366.373	88.06
366.599	103.06
366.826	96.06
367.052	102.06
367.278	74.06
367.505	75.06
367.731	90.06
367.957	87.06
368.184	83.06
368.41	94.06
368.636	112.06
368.862	107.06
369.089	96.06
369.315	96.06
369.541	95.06
369.767	84.06
369.993	83.06
370.219	98.06
370.445	86.06
370.672	96.06
370.898	97.06
371.124	83.06
371.35	78.06
371.576	90.06
371.802	82.06
372.028	82.06
372.254	95.06
372.48	88.06
372.706	92.06
372.932	87.06
373.158	92.06
373.384	96.06
373.61	96.06
373.835	89.06
374.061	89.06
374.287	104.06
374.513	87.06
374.739	89.06
374.965	87.06
375.191	78.06
375.416	99.06
375.642	82.06
375.868	82.06
376.094	85.06
376.319	87.06
376.545	85.06
376.771	98.06
376.997	85.06
377.222	92.06
377.448	85.06
377.674	89.06
377.899	81.06
378.125	85.06
378.35	92.06
378.576	95.06
378.802	101.06
379.027	83.06
379.253	92.06
379.478	90.06
379.704	86.06
379.929	102.06
380.155	86.06
380.38	86.06
380.606	82.06
380.831	100.06
381.057	92.06
381.282	86.06
381.507	102.06
381.733	103.06
381.958	85.06
382.184	108.06
382.409	107.06
382.634	98.06
382.86	106.06
383.085	87.06
383.31	102.06
383.535	88.06
383.761	94.06
383.986	94.06
384.211	100.06
384.436	102.06
384.662	100.06
384.887	94.06
385.112	103.06
385.337	98.06
385.562	120.06
385.787	107.06
386.013	118.06
386.238	110.06
386.463	108.06
386.688	110.06
386.913	107.06
387.138	98.06
387.363	99.06
387.588	98.06
387.813	97.06
388.038	98.06
388.263	110.06
388.488	117.06
388.713	101.06
388.938	91.06
389.163	95.06
389.387	79.06
389.612	96.06
389.837	86.06
390.062	88.06
390.287	88.06
390.512	89.06
390.736	97.06
390.961	97.06
391.186	89.06
391.411	88.06
391.636	86.06
391.86	96.06
392.085	101.06
392.31	100.06
392.534	86.06
392.759	82.06
392.984	93.06
393.208	85.06
393.433	77.06
393.658	100.06
393.882	78.06
394.107	84.06
394.331	94.06
394.556	85.06
394.78	89.06
395.005	97.06
395.229	87.06
395.454	78.06
395.678	90.06
395.903	85.06
396.127	92.06
396.352	85.06
396.576	90.06
396.801	80.06
397.025	90.06
397.249	88.06
397.474	74.06
397.698	87.06
397.922	90.06
398.147	79.06
398.371	87.06
398.595	84.06
398.82	80.06
399.044	83.06
399.268	82.06
399.492	84.06
399.717	92.06
399.941	95.06
400.165	86.06
400.389	85.06
400.613	74.06
400.837	99.06
401.062	95.06
401.286	72.06
401.51	93.06
401.734	96.06
401.958	100.06
402.182	122.06
402.406	165.06
402.63	122.06
402.854	99.06
403.078	90.06
403.302	78.06
403.526	83.06
403.75	81.06
403.974	84.06
404.198	84.06
404.422	86.06
404.645	93.06
404.869	88.06
405.093	89.06
405.317	86.06
405.541	106.06
405.765	94.06
405.988	120.06
406.212	190.06
406.436	256.06
406.66	159.06
406.883	97.06
407.107	102.06
407.331	93.06
407.555	99.06
407.778	92.06
408.002	90.06
408.226	86.06
408.449	85.06
408.673	96.06
408.896	103.06
409.12	100.06
409.344	91.06
409.567	97.06
409.791	88.06
410.014	83.06
410.238	89.06
410.461	90.06
410.685	89.06
410.908	105.06
411.132	99.06
411.355	102.06
411.578	89.06
411.802	76.06
412.025	102.06
412.249	80.06
412.472	95.06
412.695	103.06
412.919	88.06
413.142	87.06
413.365	87.06
413.589	93.06
413.812	92.06
414.035	99.06
414.258	83.06
414.482	102.06
414.705	93.06
414.928	71.06
415.151	93.06
415.374	93.06
415.597	77.06
415.821	81.06
416.044	89.06
416.267	102.06
416.49	84.06
416.713	93.06
416.936	89.06
417.159	72.06
417.382	80.06
417.605	98.06
417.828	90.06
418.051	100.06
418.274	83.06
418.497	83.06
418.72	86.06
418.943	79.06
419.166	80.06
419.389	99.06
419.611	98.06
419.834	69.06
420.057	81.06
420.28	82.06
420.503	79.06
420.726	86.06
420.948	78.06
421.171	83.06
421.394	76.06
421.617	94.06
421.839	83.06
422.062	84.06
422.285	98.06
422.507	103.06
422.73	113.06
422.953	88.06
423.175	81.06
423.398	99.06
423.621	93.06
423.843	91.06
424.066	86.06
424.288	79.06
424.511	90.06
424.733	103.06
424.956	109.06
425.178	97.06
425.401	89.06
425.623	94.06
425.846	100.06
426.068	83.06
426.291	96.06
426.513	95.06
426.735	84.06
426.958	86.06
427.18	106.06
427.402	134.06
427.625	166.06
427.847	136.06
428.069	111.06
428.292	93.06
428.514	100.06
428.736	101.06
428.958	85.06
429.181	75.06
429.403	89.06
429.625	80.06
429.847	84.06
430.069	103.06
430.292	98.06
430.514	84.06
430.736	84.06
430.958	75.06
431.18	78.06
431.402	77.06
431.624	89.06
431.846	84.06
432.068	83.06
432.29	73.06
432.512	88.06
432.734	81.06
432.956	86.06
433.178	99.06
433.4	97.06
433.622	91.06
433.844	85.06
434.066	90.06
434.287	83.06
434.509	91.06
434.731	79.06
434.953	71.06
435.175	78.06
435.397	87.06
435.618	95.06
435.84	86.06
436.062	125.06
436.284	118.06
436.505	103.06
436.727	87.06
436.949	91.06
437.17	89.06
437.392	86.06
437.614	95.06
437.835	108.06
438.057	121.06
438.278	107.06
438.5	106.06
438.721	124.06
438.943	96.06
439.165	85.06
439.386	95.06
439.608	97.06
439.829	96.06
440.05	121.06
440.272	131.06
440.493	104.06
440.715	93.06
440.936	76.06
441.158	88.06
441.379	88.06
441.6	97.06
441.822	92.06
442.043	108.06
442.264	107.06
442.486	100.06
442.707	98.06
442.928	105.06
443.149	135.06
443.371	150.06
443.592	112.06
443.813	100.06
444.034	106.06
444.255	99.06
444.476	77.06
444.698	80.06
444.919	95.06
445.14	120.06
445.361	130.06
445.582	125.06
445.803	134.06
446.024	126.06
446.245	143.06
446.466	109.06
446.687	94.06
446.908	82.06
447.129	78.06
447.35	93.06
447.571	107.06
447.792	93.06
448.013	92.06
448.234	125.06
448.455	90.06
448.675	103.06
448.896	111.06
449.117	101.06
449.338	115.06
449.559	129.06
449.779	136.06
450	93.06
450.221	87.06
450.442	89.06
450.662	95.06
450.883	113.06
451.104	97.06
451.324	106.06
451.545	89.06
451.766	90.06
451.986	102.06
452.207	93.06
452.428	97.06
452.648	79.06
452.869	108.06
453.089	118.06
453.31	117.06
453.53	86.06
453.751	103.06
453.971	104.06
454.192	113.06
454.412	96.06
454.633	87.06
454.853	84.06
455.073	89.06
455.294	93.06
455.514	102.06
455.734	84.06
455.955	74.06
456.175	73.06
456.395	78.06
456.616	85.06
456.836	92.06
457.056	88.06
457.276	91.06
457.497	68.06
457.717	104.06
457.937	86.06
458.157	84.06
458.377	90.06
458.598	109.06
458.818	174.06
459.038	179.06
459.258	119.06
459.478	74.06
459.698	94.06
459.918	92.06
460.138	96.06
460.358	83.06
460.578	92.06
460.798	95.06
461.018	86.06
461.238	84.06
461.458	82.06
461.678	78.06
461.898	77.06
462.118	87.06
462.338	91.06
462.558	87.06
462.777	84.06
462.997	87.06
463.217	83.06
463.437	84.06
463.657	87.06
463.876	94.06
464.096	95.06
464.316	101.06
464.536	87.06
464.755	105.06
464.975	107.06
465.195	192.06
465.414	173.06
465.634	83.06
465.854	92.06
466.073	83.06
466.293	86.06
466.512	82.06
466.732	63.06
466.951	78.06
467.171	83.06
467.391	96.06
467.61	106.06
467.829	101.06
468.049	105.06
468.268	106.06
468.488	102.06
468.707	76.06
468.927	96.06
469.146	85.06
469.365	90.06
469.585	90.06
469.804	93.06
470.023	107.06
470.243	94.06
470.462	100.06
470.681	110.06
470.901	83.06
471.12	89.06
471.339	74.06
471.558	85.06
471.777	91.06
471.997	90.06
472.216	138.06
472.435	175.06
472.654	109.06
472.873	86.06
473.092	83.06
473.311	96.06
473.53	74.06
473.749	85.06
473.968	110.06
474.187	116.06
474.406	100.06
474.625	91.06
474.844	100.06
475.063	90.06
475.282	85.06
475.501	86.06
475.72	97.06
475.939	90.06
476.158	98.06
476.377	91.06
476.596	87.06
476.814	80.06
477.033	100.06
477.252	92.06
477.471	87.06
477.69	84.06
477.908	93.06
478.127	82.06
478.346	68.06
478.564	95.06
478.783	99.06
479.002	102.06
479.22	94.06
479.439	113.06
479.658	101.06
479.876	85.06
480.095	83.06
480.313	85.06
480.532	97.06
480.751	91.06
480.969	134.06
481.188	266.06
481.406	198.06
481.624	91.06
481.843	92.06
482.061	99.06
482.28	93.06
482.498	92.06
482.717	89.06
482.935	77.06
483.153	82.06
483.372	85.06
483.59	84.06
483.808	82.06
484.027	84.06
484.245	87.06
484.463	86.06
484.681	100.06
484.9	100.06
485.118	91.06
485.336	100.06
485.554	101.06
485.772	106.06
485.99	95.06
486.209	89.06
486.427	105.06
486.645	113.06
486.863	118.06
487.081	105.06
487.299	105.06
487.517	98.06
487.735	89.06
487.953	94.06
488.171	82.06
488.389	92.06
488.607	96.06
488.825	97.06
489.043	88.06
489.261	90.06
489.479	88.06
489.696	86.06
489.914	82.06
490.132	99.06
490.35	96.06
490.568	87.06
490.786	90.06
491.003	75.06
491.221	78.06
491.439	88.06
491.657	88.06
491.874	77.06
492.092	90.06
492.31	83.06
492.527	84.06
492.745	90.06
492.963	84.06
493.18	77.06
493.398	89.06
493.615	85.06
493.833	87.06
494.05	99.06
494.268	94.06
494.485	91.06
494.703	93.06
494.92	90.06
495.138	79.06
495.355	94.06
495.573	83.06
495.79	88.06
496.008	89.06
496.225	85.06
496.442	94.06
496.66	90.06
496.877	78.06
497.094	81.06
497.312	91.06
497.529	86.06
497.746	82.06
497.963	85.06
498.181	87.06
498.398	99.06
498.615	96.06
498.832	97.06
499.049	81.06
499.267	91.06
499.484	88.06
499.701	83.06
499.918	88.06
500.135	104.06
500.352	87.06
500.569	91.06
500.786	91.06
501.003	86.06
501.22	77.06
501.437	93.06
501.654	100.06
501.871	101.06
502.088	91.06
502.305	86.06
502.522	82.06
502.739	82.06
502.956	102.06
503.172	92.06
503.389	96.06
503.606	120.06
503.823	103.06
504.04	75.06
504.256	95.06
504.473	78.06
504.69	82.06
504.907	93.06
505.123	83.06
505.34	79.06
505.557	78.06
505.773	87.06
505.99	89.06
506.207	87.06
506.423	79.06
506.64	81.06
506.856	103.06
507.073	97.06
507.289	96.06
507.506	98.06
507.722	107.06
507.939	129.06
508.155	102.06
508.372	83.06
508.588	105.06
508.805	109.06
509.021	92.06
509.238	84.06
509.454	87.06
509.67	111.06
509.887	102.06
510.103	135.06
510.319	217.06
510.536	849.06
510.752	2882.06
510.968	805.06
511.184	162.06
511.401	108.06
511.617	96.06
511.833	88.06
512.049	90.06
512.265	75.06
512.481	97.06
512.698	89.06
512.914	102.06
513.13	92.06
513.346	85.06
513.562	97.06
513.778	96.06
513.994	76.06
514.21	100.06
514.426	113.06
514.642	137.06
514.858	127.06
515.074	183.06
515.29	535.06
515.506	1906.06
