Data from Circ_2012_H10_HRD10591_00029.txt Node
Date: Wed Jan 03 10:05:56 EST 2024
User: Yrep
Spectrometer: HR+D1059
Trigger mode: 1
Integration Time (sec): 1.000000E-1
Scans to average: 1
Electric dark correction enabled: true
Nonlinearity correction enabled: false
Boxcar width: 0
XAxis mode: Wavelengths
Number of Pixels in Spectrum: 2048
>>>>>Begin Spectral Data<<<<<
223.165	-5
223.4	-5
223.635	-5
223.869	-11
224.104	-26
224.338	1
224.573	-7
224.808	-19
225.042	-3
225.277	-24
225.511	-16
225.746	-10
225.98	2
226.215	7
226.449	15
226.683	30
226.918	26
227.152	40
227.387	32
227.621	26
227.856	42
228.09	54
228.324	53
228.559	47
228.793	59
229.027	58
229.262	59
229.496	76
229.73	88
229.964	75
230.199	75
230.433	74
230.667	84
230.901	71
231.136	91
231.37	74
231.604	84
231.838	60
232.072	81
232.306	70
232.541	97
232.775	82
233.009	79
233.243	80
233.477	82
233.711	74
233.945	78
234.179	75
234.413	85
234.647	89
234.881	82
235.115	72
235.349	75
235.583	72
235.817	95
236.051	76
236.285	83
236.519	83
236.753	77
236.987	78
237.221	86
237.455	74
237.689	89
237.922	77
238.156	69
238.39	77
238.624	75
238.858	69
239.091	61
239.325	78
239.559	90
239.793	69
240.027	85
240.26	71
240.494	70
240.728	77
240.961	70
241.195	79
241.429	70
241.662	62
241.896	75
242.13	81
242.363	80
242.597	79
242.83	82
243.064	73
243.298	65
243.531	77
243.765	82
243.998	94
244.232	91
244.465	91
244.699	68
244.932	95
245.166	69
245.399	80
245.633	94
245.866	77
246.099	86
246.333	74
246.566	76
246.8	73
247.033	79
247.266	90
247.5	89
247.733	70
247.966	86
248.2	79
248.433	82
248.666	81
248.899	88
249.133	91
249.366	81
249.599	100
249.832	101
250.066	89
250.299	75
250.532	67
250.765	81
250.998	71
251.231	83
251.465	74
251.698	83
251.931	81
252.164	78
252.397	80
252.63	87
252.863	75
253.096	69
253.329	69
253.562	72
253.795	77
254.028	84
254.261	92
254.494	84
254.727	78
254.96	78
255.193	72
255.426	67
255.659	76
255.892	77
256.124	75
256.357	74
256.59	88
256.823	71
257.056	84
257.289	75
257.521	74
257.754	76
257.987	72
258.22	88
258.452	79
258.685	85
258.918	88
259.151	77
259.383	73
259.616	77
259.849	75
260.081	85
260.314	75
260.547	84
260.779	75
261.012	71
261.244	80
261.477	92
261.71	91
261.942	112
262.175	109
262.407	83
262.64	89
262.872	80
263.105	77
263.337	72
263.57	74
263.802	74
264.035	79
264.267	83
264.499	67
264.732	85
264.964	91
265.197	80
265.429	82
265.661	61
265.894	79
266.126	87
266.358	78
266.591	89
266.823	76
267.055	77
267.287	79
267.52	85
267.752	77
267.984	88
268.216	69
268.448	76
268.681	86
268.913	87
269.145	71
269.377	79
269.609	84
269.841	71
270.073	88
270.306	79
270.538	63
270.77	86
271.002	77
271.234	87
271.466	93
271.698	111
271.93	82
272.162	97
272.394	84
272.626	66
272.858	77
273.09	77
273.322	67
273.553	85
273.785	80
274.017	89
274.249	83
274.481	79
274.713	82
274.945	83
275.176	93
275.408	85
275.64	70
275.872	75
276.104	89
276.335	76
276.567	95
276.799	97
277.031	109
277.262	92
277.494	88
277.726	81
277.957	97
278.189	86
278.421	93
278.652	103
278.884	85
279.115	78
279.347	79
279.579	91
279.81	79
280.042	81
280.273	85
280.505	71
280.736	85
280.968	95
281.199	83
281.431	91
281.662	81
281.894	95
282.125	95
282.356	106
282.588	131
282.819	130
283.051	99
283.282	69
283.513	80
283.745	73
283.976	78
284.207	100
284.439	98
284.67	92
284.901	99
285.132	81
285.364	93
285.595	78
285.826	74
286.057	91
286.288	79
286.52	80
286.751	95
286.982	92
287.213	92
287.444	89
287.675	84
287.906	93
288.138	91
288.369	84
288.6	72
288.831	74
289.062	74
289.293	83
289.524	92
289.755	85
289.986	94
290.217	74
290.448	73
290.679	81
290.91	98
291.141	76
291.371	98
291.602	91
291.833	84
292.064	103
292.295	85
292.526	82
292.757	71
292.987	85
293.218	98
293.449	84
293.68	77
293.91	90
294.141	71
294.372	86
294.603	87
294.833	73
295.064	75
295.295	82
295.525	86
295.756	101
295.987	116
296.217	137
296.448	137
296.679	99
296.909	80
297.14	93
297.37	99
297.601	86
297.831	85
298.062	92
298.292	89
298.523	87
298.753	81
298.984	68
299.214	84
299.445	71
299.675	85
299.905	104
300.136	79
300.366	83
300.597	89
300.827	82
301.057	103
301.288	103
301.518	83
301.748	86
301.979	89
302.209	84
302.439	89
302.669	89
302.9	107
303.13	101
303.36	92
303.59	92
303.82	104
304.051	95
304.281	95
304.511	86
304.741	76
304.971	85
305.201	92
305.431	79
305.661	91
305.891	92
306.121	77
306.352	105
306.582	91
306.812	91
307.042	85
307.272	93
307.502	96
307.731	98
307.961	98
308.191	82
308.421	76
308.651	82
308.881	79
309.111	94
309.341	90
309.571	106
309.8	80
310.03	101
310.26	90
310.49	92
310.72	105
310.949	93
311.179	101
311.409	94
311.639	100
311.868	79
312.098	94
312.328	99
312.557	83
312.787	96
313.017	108
313.246	84
313.476	83
313.706	76
313.935	83
314.165	91
314.394	115
314.624	103
314.853	103
315.083	101
315.312	83
315.542	92
315.771	77
316.001	91
316.23	94
316.46	93
316.689	90
316.919	106
317.148	94
317.377	99
317.607	94
317.836	92
318.065	90
318.295	69
318.524	99
318.753	92
318.983	92
319.212	100
319.441	100
319.67	101
319.9	102
320.129	102
320.358	108
320.587	108
320.816	105
321.046	101
321.275	94
321.504	88
321.733	93
321.962	101
322.191	105
322.42	90
322.649	115
322.878	98
323.108	115
323.337	119
323.566	128
323.795	138
324.024	196
324.253	375
324.482	794
324.71	1602
324.939	2141
325.168	779
325.397	236
325.626	156
325.855	129
326.084	102
326.313	142
326.542	145
326.77	228
326.999	426
327.228	893
327.457	1642
327.686	1312
327.914	372
328.143	192
328.372	154
328.6	124
328.829	125
329.058	119
329.287	122
329.515	99
329.744	103
329.972	101
330.201	121
330.43	131
330.658	114
330.887	141
331.115	126
331.344	108
331.572	101
331.801	92
332.03	106
332.258	102
332.486	92
332.715	97
332.943	86
333.172	89
333.4	90
333.629	105
333.857	121
334.085	103
334.314	109
334.542	122
334.771	115
334.999	93
335.227	93
335.455	93
335.684	94
335.912	89
336.14	105
336.369	92
336.597	102
336.825	94
337.053	90
337.281	90
337.51	91
337.738	87
337.966	87
338.194	94
338.422	99
338.65	98
338.878	91
339.106	86
339.334	89
339.562	102
339.79	97
340.018	84
340.246	113
340.474	87
340.702	87
340.93	94
341.158	90
341.386	89
341.614	105
341.842	86
342.07	86
342.298	83
342.526	95
342.754	91
342.981	93
343.209	104
343.437	92
343.665	95
343.893	91
344.12	94
344.348	79
344.576	86
344.804	102
345.031	99
345.259	100
345.487	92
345.714	87
345.942	96
346.17	98
346.397	86
346.625	97
346.853	98
347.08	89
347.308	96
347.535	94
347.763	92
347.99	92
348.218	96
348.445	97
348.673	78
348.9	95
349.128	97
349.355	84
349.583	84
349.81	101
350.037	89
350.265	93
350.492	93
350.72	104
350.947	103
351.174	103
351.402	108
351.629	98
351.856	108
352.083	109
352.311	97
352.538	100
352.765	109
352.992	103
353.22	110
353.447	112
353.674	101
353.901	79
354.128	99
354.355	101
354.583	102
354.81	93
355.037	101
355.264	85
355.491	104
355.718	86
355.945	94
356.172	99
356.399	105
356.626	91
356.853	81
357.08	94
357.307	93
357.534	86
357.761	86
357.988	97
358.215	94
358.441	102
358.668	89
358.895	86
359.122	83
359.349	93
359.576	83
359.802	90
360.029	106
360.256	109
360.483	107
360.709	90
360.936	92
361.163	101
361.39	65
361.616	92
361.843	83
362.07	108
362.296	101
362.523	93
362.749	95
362.976	83
363.203	85
363.429	95
363.656	70
363.882	85
364.109	84
364.335	79
364.562	89
364.788	97
365.015	93
365.241	91
365.468	120
365.694	106
365.92	89
366.147	84
366.373	86
366.599	85
366.826	88
367.052	77
367.278	86
367.505	83
367.731	76
367.957	96
368.184	99
368.41	99
368.636	115
368.862	107
369.089	102
369.315	90
369.541	96
369.767	86
369.993	90
370.219	91
370.445	80
370.672	95
370.898	90
371.124	77
371.35	76
371.576	95
371.802	84
372.028	82
372.254	96
372.48	81
372.706	98
372.932	92
373.158	95
373.384	68
373.61	79
373.835	74
374.061	84
374.287	71
374.513	87
374.739	86
374.965	89
375.191	93
375.416	85
375.642	82
375.868	88
376.094	82
376.319	72
376.545	87
376.771	86
376.997	94
377.222	90
377.448	81
377.674	96
377.899	88
378.125	98
378.35	95
378.576	89
378.802	76
379.027	83
379.253	93
379.478	88
379.704	92
379.929	83
380.155	94
380.38	101
380.606	101
380.831	106
381.057	99
381.282	92
381.507	89
381.733	95
381.958	88
382.184	94
382.409	86
382.634	89
382.86	86
383.085	78
383.31	87
383.535	100
383.761	106
383.986	112
384.211	115
384.436	88
384.662	94
384.887	111
385.112	91
385.337	110
385.562	110
385.787	99
386.013	107
386.238	120
386.463	91
386.688	97
386.913	117
387.138	110
387.363	97
387.588	96
387.813	106
388.038	100
388.263	107
388.488	98
388.713	97
388.938	93
389.163	88
389.387	89
389.612	91
389.837	77
390.062	102
390.287	84
390.512	72
390.736	92
390.961	94
391.186	96
391.411	82
391.636	81
391.86	87
392.085	90
392.31	84
392.534	81
392.759	69
392.984	83
393.208	75
393.433	83
393.658	82
393.882	92
394.107	77
394.331	100
394.556	88
394.78	98
395.005	83
395.229	85
395.454	78
395.678	83
395.903	83
396.127	83
396.352	91
396.576	81
396.801	78
397.025	91
397.249	79
397.474	91
397.698	102
397.922	92
398.147	80
398.371	105
398.595	90
398.82	79
399.044	95
399.268	87
399.492	83
399.717	83
399.941	88
400.165	89
400.389	92
400.613	94
400.837	94
401.062	97
401.286	92
401.51	86
401.734	96
401.958	92
402.182	127
402.406	153
402.63	120
402.854	108
403.078	86
403.302	84
403.526	96
403.75	89
403.974	93
404.198	88
404.422	81
404.645	79
404.869	97
405.093	88
405.317	92
405.541	103
405.765	82
405.988	108
406.212	163
406.436	241
406.66	127
406.883	111
407.107	94
407.331	92
407.555	95
407.778	81
408.002	83
408.226	86
408.449	76
408.673	80
408.896	95
409.12	86
409.344	79
409.567	88
409.791	97
410.014	73
410.238	85
410.461	87
410.685	100
410.908	86
411.132	111
411.355	91
411.578	101
411.802	94
412.025	87
412.249	95
412.472	79
412.695	93
412.919	86
413.142	88
413.365	70
413.589	77
413.812	85
414.035	81
414.258	77
414.482	85
414.705	78
414.928	81
415.151	108
415.374	86
415.597	78
415.821	89
416.044	82
416.267	91
416.49	87
416.713	96
416.936	91
417.159	93
417.382	80
417.605	91
417.828	88
418.051	84
418.274	90
418.497	81
418.72	81
418.943	90
419.166	102
419.389	79
419.611	95
419.834	91
420.057	91
420.28	92
420.503	82
420.726	88
420.948	85
421.171	90
421.394	89
421.617	88
421.839	93
422.062	91
422.285	79
422.507	91
422.73	96
422.953	89
423.175	94
423.398	75
423.621	97
423.843	76
424.066	78
424.288	89
424.511	86
424.733	99
424.956	107
425.178	109
425.401	102
425.623	104
425.846	96
426.068	90
426.291	90
426.513	86
426.735	88
426.958	99
427.18	92
427.402	122
427.625	147
427.847	121
428.069	110
428.292	107
428.514	101
428.736	81
428.958	79
429.181	84
429.403	79
429.625	88
429.847	93
430.069	97
430.292	98
430.514	90
430.736	80
430.958	76
431.18	79
431.402	93
431.624	90
431.846	96
432.068	85
432.29	87
432.512	79
432.734	82
432.956	91
433.178	85
433.4	90
433.622	86
433.844	93
434.066	84
434.287	90
434.509	92
434.731	92
434.953	105
435.175	86
435.397	84
435.618	102
435.84	105
436.062	107
436.284	98
436.505	102
436.727	99
436.949	85
437.17	92
437.392	99
437.614	108
437.835	109
438.057	108
438.278	96
438.5	78
438.721	123
438.943	114
439.165	97
439.386	88
439.608	74
439.829	91
440.05	119
440.272	146
440.493	92
440.715	96
440.936	86
441.158	93
441.379	90
441.6	96
441.822	96
442.043	90
442.264	100
442.486	105
442.707	78
442.928	107
443.149	121
443.371	136
443.592	113
443.813	107
444.034	100
444.255	103
444.476	86
444.698	87
444.919	100
445.14	144
445.361	115
445.582	97
445.803	132
446.024	134
446.245	138
446.466	104
446.687	74
446.908	86
447.129	89
447.35	101
447.571	102
447.792	78
448.013	92
448.234	93
448.455	100
448.675	118
448.896	111
449.117	96
449.338	107
449.559	130
449.779	118
450	105
450.221	87
450.442	77
450.662	107
450.883	100
451.104	106
451.324	94
451.545	99
451.766	84
451.986	80
452.207	78
452.428	88
452.648	91
452.869	106
453.089	111
453.31	119
453.53	81
453.751	92
453.971	100
454.192	113
454.412	95
454.633	93
454.853	82
455.073	85
455.294	97
455.514	95
455.734	95
455.955	83
456.175	79
456.395	85
456.616	98
456.836	92
457.056	75
457.276	83
457.497	95
457.717	78
457.937	74
458.157	86
458.377	92
458.598	100
458.818	140
459.038	154
459.258	117
459.478	92
459.698	84
459.918	72
460.138	85
460.358	79
460.578	93
460.798	92
461.018	92
461.238	77
461.458	88
461.678	78
461.898	88
462.118	77
462.338	100
462.558	88
462.777	77
462.997	89
463.217	91
463.437	84
463.657	98
463.876	73
464.096	90
464.316	96
464.536	91
464.755	96
464.975	91
465.195	151
465.414	160
465.634	98
465.854	97
466.073	78
466.293	92
466.512	80
466.732	78
466.951	100
467.171	78
467.391	92
467.61	102
467.829	100
468.049	94
468.268	101
468.488	86
468.707	77
468.927	90
469.146	82
469.365	87
469.585	80
469.804	92
470.023	101
470.243	102
470.462	98
470.681	97
470.901	90
471.12	76
471.339	87
471.558	91
471.777	101
471.997	90
472.216	97
472.435	142
472.654	88
472.873	83
473.092	86
473.311	76
473.53	75
473.749	90
473.968	89
474.187	94
474.406	94
474.625	91
474.844	91
475.063	91
475.282	89
475.501	79
475.72	107
475.939	85
476.158	93
476.377	78
476.596	84
476.814	88
477.033	96
477.252	91
477.471	96
477.69	89
477.908	90
478.127	73
478.346	78
478.564	100
478.783	100
479.002	94
479.22	87
479.439	98
479.658	91
479.876	97
480.095	82
480.313	93
480.532	78
480.751	94
480.969	120
481.188	173
481.406	160
481.624	103
481.843	97
482.061	84
482.28	92
482.498	89
482.717	78
482.935	93
483.153	101
483.372	108
483.59	94
483.808	97
484.027	92
484.245	85
484.463	92
484.681	92
484.9	85
485.118	97
485.336	87
485.554	98
485.772	88
485.99	105
486.209	109
486.427	104
486.645	103
486.863	111
487.081	96
487.299	102
487.517	83
487.735	86
487.953	94
488.171	90
488.389	101
488.607	82
488.825	100
489.043	92
489.261	78
489.479	81
489.696	91
489.914	79
490.132	103
490.35	98
490.568	88
490.786	99
491.003	90
491.221	90
491.439	85
491.657	105
491.874	97
492.092	89
492.31	76
492.527	87
492.745	98
492.963	87
493.18	102
493.398	81
493.615	92
493.833	87
494.05	103
494.268	95
494.485	108
494.703	78
494.92	87
495.138	95
495.355	87
495.573	93
495.79	92
496.008	80
496.225	85
496.442	77
496.66	91
496.877	89
497.094	98
497.312	102
497.529	91
497.746	81
497.963	91
498.181	97
498.398	98
498.615	100
498.832	93
499.049	86
499.267	91
499.484	85
499.701	99
499.918	100
500.135	104
500.352	102
500.569	88
500.786	93
501.003	101
501.22	87
501.437	82
501.654	78
501.871	104
502.088	94
502.305	82
502.522	107
502.739	84
502.956	90
503.172	95
503.389	95
503.606	106
503.823	98
504.04	99
504.256	89
504.473	101
504.69	93
504.907	89
505.123	84
505.34	84
505.557	86
505.773	88
505.99	67
506.207	84
506.423	105
506.64	80
506.856	81
507.073	92
507.289	95
507.506	83
507.722	99
507.939	101
508.155	87
508.372	86
508.588	91
508.805	72
509.021	88
509.238	106
509.454	105
509.67	88
509.887	113
510.103	140
510.319	195
510.536	755
510.752	2529
510.968	730
511.184	168
511.401	129
511.617	100
511.833	96
512.049	97
512.265	95
512.481	100
512.698	88
512.914	89
513.13	82
513.346	105
513.562	93
513.778	90
513.994	115
514.21	102
514.426	112
514.642	125
514.858	108
515.074	155
515.29	449
515.506	1570
515.721	558
515.937	156
516.153	111
516.369	115
516.585	91
516.801	98
517.016	106
517.232	84
517.448	100
517.664	99
517.879	87
518.095	103
518.311	93
518.527	80
518.742	106
518.958	96
519.173	92
519.389	86
519.605	88
519.82	94
520.036	97
520.251	132
520.467	124
520.682	103
520.898	118
521.113	106
521.329	133
521.544	195
521.76	557
521.975	2512
522.19	1593
522.406	341
522.621	139
522.836	97
523.052	100
523.267	86
523.482	94
523.698	101
523.913	105
524.128	99
524.343	100
524.559	95
524.774	73
524.989	104
525.204	109
525.419	113
525.634	110
525.849	89
526.064	101
526.28	103
526.495	94
526.71	84
526.925	93
527.14	89
527.355	92
527.57	88
527.785	95
527.999	84
528.214	83
528.429	88
528.644	108
528.859	117
529.074	104
529.289	117
529.503	174
529.718	124
529.933	94
530.148	80
530.363	110
530.577	100
530.792	82
531.007	92
531.221	91
531.436	93
531.651	108
531.865	80
532.08	89
532.295	84
532.509	90
532.724	88
532.938	87
533.153	84
533.367	99
533.582	106
533.796	92
534.011	96
534.225	89
534.44	87
534.654	86
534.868	95
535.083	85
535.297	86
535.511	83
535.726	101
535.94	82
536.154	86
536.369	96
536.583	83
536.797	93
537.011	82
537.225	80
537.44	78
537.654	78
537.868	80
538.082	87
538.296	76
538.51	92
538.724	100
538.938	92
539.153	94
539.367	103
539.581	106
539.795	90
540.009	103
540.222	103
540.436	86
540.65	98
540.864	91
541.078	85
541.292	89
541.506	83
541.72	82
541.934	90
542.147	100
542.361	90
542.575	90
542.789	92
543.002	97
543.216	87
543.43	104
543.644	81
543.857	91
544.071	91
544.285	86
544.498	89
544.712	93
544.925	102
545.139	80
545.352	83
545.566	90
545.779	101
545.993	102
546.206	100
546.42	99
546.633	90
546.847	90
547.06	98
547.274	83
547.487	79
547.7	82
547.914	91
548.127	84
548.34	87
548.554	92
548.767	90
548.98	92
549.193	106
549.407	88
549.62	89
549.833	93
550.046	88
550.259	98
550.473	97
550.686	87
550.899	84
551.112	98
551.325	100
551.538	81
551.751	89
551.964	93
552.177	100
552.39	89
552.603	83
552.816	104
553.029	90
553.242	101
553.455	93
553.667	114
553.88	105
554.093	93
554.306	74
554.519	83
554.732	91
554.944	74
555.157	86
555.37	78
555.583	86
555.795	91
556.008	97
556.221	86
556.433	95
556.646	92
556.859	88
557.071	88
557.284	86
557.496	73
557.709	84
557.921	90
558.134	90
558.346	89
558.559	83
558.771	88
558.984	91
559.196	91
559.409	68
559.621	89
559.833	82
560.046	90
560.258	90
560.47	92
560.683	102
560.895	97
561.107	83
561.32	77
561.532	84
561.744	81
561.956	86
562.168	97
562.381	82
562.593	97
562.805	106
563.017	92
563.229	100
563.441	89
563.653	79
563.865	78
564.077	84
564.289	90
564.501	95
564.713	87
564.925	95
565.137	110
565.349	81
565.561	89
565.773	95
565.985	99
566.197	87
566.408	95
566.62	82
566.832	73
567.044	89
567.255	89
567.467	87
567.679	94
567.891	91
568.102	86
568.314	72
568.526	84
568.737	92
568.949	89
569.161	73
569.372	80
569.584	89
569.795	94
570.007	111
570.218	244
570.43	134
570.641	99
570.853	102
571.064	92
571.276	74
571.487	80
571.698	88
571.91	91
572.121	90
572.333	86
572.544	80
572.755	99
572.966	81
573.178	100
573.389	91
573.6	95
573.811	87
574.023	86
574.234	81
574.445	89
574.656	75
574.867	87
575.078	99
575.289	79
575.501	96
575.712	86
575.923	86
576.134	87
576.345	90
576.556	92
576.767	90
576.978	89
577.188	83
577.399	85
577.61	80
577.821	91
578.032	125
578.243	251
578.454	778
578.665	217
578.875	91
579.086	86
579.297	92
579.508	77
579.718	91
579.929	73
580.14	91
580.35	84
580.561	94
580.772	84
580.982	90
581.193	99
581.403	89
581.614	86
581.825	91
582.035	83
582.246	87
582.456	90
582.667	90
582.877	87
583.087	91
583.298	90
583.508	91
583.719	85
583.929	85
584.139	86
584.35	79
584.56	89
