Data from TenMicroDelayPb_HRD10591_00001.txt Node
Date: Mon Nov 24 14:44:09 EST 2025
User: Yrep
Spectrometer: HR+D1059
Trigger mode: 0
Integration Time (sec): 1.000000E-2
Scans to average: 5
Electric dark correction enabled: true
Nonlinearity correction enabled: false
Boxcar width: 0
XAxis mode: Wavelengths
Number of Pixels in Spectrum: 2048
>>>>>Begin Spectral Data<<<<<
223.165	-16.79
223.4	-16.79
223.635	-16.79
223.869	-18.19
224.104	-17.39
224.338	-16.39
224.573	-12.39
224.808	-8.79
225.042	-17.99
225.277	-0.79
225.511	-0.59
225.746	-1.39
225.98	5.61
226.215	5.21
226.449	18.41
226.683	24.01
226.918	27.21
227.152	30.21
227.387	32.61
227.621	41.61
227.856	42.81
228.09	47.41
228.324	45.61
228.559	56.81
228.793	58.21
229.027	58.21
229.262	64.21
229.496	65.21
229.73	69.01
229.964	67.41
230.199	72.01
230.433	71.21
230.667	74.21
230.901	78.81
231.136	78.81
231.37	80.01
231.604	78.01
231.838	76.01
232.072	79.01
232.306	87.21
232.541	70.41
232.775	80.01
233.009	79.41
233.243	73.81
233.477	82.21
233.711	74.81
233.945	88.81
234.179	76.81
234.413	76.01
234.647	83.01
234.881	81.61
235.115	84.21
235.349	79.81
235.583	80.81
235.817	72.61
236.051	77.01
236.285	75.21
236.519	85.21
236.753	79.61
236.987	80.01
237.221	73.61
237.455	77.41
237.689	74.21
237.922	78.81
238.156	75.81
238.39	68.61
238.624	75.21
238.858	72.81
239.091	76.61
239.325	82.61
239.559	74.21
239.793	70.81
240.027	71.21
240.26	79.01
240.494	71.21
240.728	73.61
240.961	76.81
241.195	76.21
241.429	80.21
241.662	76.61
241.896	80.81
242.13	79.81
242.363	81.41
242.597	77.01
242.83	71.41
243.064	77.01
243.298	79.21
243.531	72.41
243.765	86.01
243.998	73.21
244.232	76.81
244.465	73.81
244.699	75.41
244.932	74.61
245.166	81.41
245.399	78.61
245.633	73.81
245.866	80.81
246.099	82.21
246.333	78.21
246.566	82.61
246.8	75.41
247.033	78.41
247.266	76.81
247.5	78.01
247.733	76.01
247.966	72.21
248.2	80.21
248.433	76.81
248.666	67.81
248.899	77.81
249.133	78.01
249.366	80.41
249.599	82.81
249.832	80.01
250.066	84.81
250.299	77.81
250.532	75.81
250.765	76.81
250.998	75.61
251.231	76.01
251.465	75.41
251.698	79.21
251.931	79.81
252.164	78.41
252.397	80.61
252.63	85.21
252.863	76.41
253.096	86.21
253.329	79.61
253.562	82.21
253.795	81.21
254.028	82.41
254.261	79.61
254.494	78.21
254.727	87.41
254.96	84.61
255.193	78.61
255.426	79.01
255.659	80.81
255.892	81.81
256.124	85.81
256.357	77.61
256.59	76.61
256.823	80.81
257.056	79.01
257.289	80.01
257.521	83.41
257.754	83.41
257.987	81.01
258.22	86.01
258.452	84.01
258.685	83.01
258.918	77.21
259.151	83.61
259.383	83.81
259.616	80.01
259.849	79.41
260.081	84.81
260.314	85.81
260.547	79.21
260.779	83.61
261.012	74.81
261.244	75.01
261.477	81.41
261.71	78.41
261.942	72.61
262.175	82.81
262.407	80.41
262.64	79.41
262.872	81.81
263.105	83.01
263.337	83.81
263.57	81.21
263.802	81.81
264.035	86.01
264.267	81.81
264.499	81.41
264.732	83.01
264.964	84.61
265.197	81.01
265.429	83.41
265.661	76.81
265.894	79.01
266.126	86.81
266.358	88.21
266.591	79.21
266.823	78.81
267.055	82.81
267.287	85.41
267.52	77.61
267.752	86.81
267.984	84.01
268.216	81.01
268.448	81.01
268.681	84.41
268.913	86.61
269.145	90.21
269.377	80.01
269.609	83.01
269.841	82.41
270.073	77.81
270.306	86.01
270.538	81.21
270.77	75.21
271.002	89.81
271.234	83.21
271.466	79.21
271.698	82.21
271.93	82.21
272.162	77.01
272.394	80.81
272.626	77.81
272.858	77.21
273.09	81.81
273.322	78.81
273.553	73.01
273.785	84.01
274.017	83.41
274.249	86.01
274.481	82.81
274.713	78.01
274.945	84.41
275.176	77.21
275.408	76.41
275.64	86.01
275.872	84.21
276.104	79.01
276.335	79.61
276.567	78.61
276.799	85.61
277.031	80.01
277.262	84.01
277.494	81.21
277.726	79.61
277.957	87.61
278.189	86.21
278.421	82.81
278.652	87.21
278.884	87.01
279.115	81.61
279.347	80.21
279.579	80.01
279.81	85.01
280.042	84.61
280.273	80.21
280.505	82.01
280.736	85.01
280.968	82.01
281.199	81.41
281.431	79.81
281.662	83.01
281.894	80.21
282.125	77.41
282.356	73.61
282.588	84.01
282.819	83.41
283.051	88.41
283.282	80.41
283.513	87.41
283.745	87.01
283.976	78.01
284.207	90.81
284.439	84.61
284.67	81.01
284.901	81.61
285.132	79.41
285.364	82.01
285.595	88.01
285.826	80.81
286.057	85.61
286.288	79.21
286.52	87.21
286.751	81.61
286.982	86.41
287.213	77.81
287.444	91.41
287.675	84.41
287.906	83.81
288.138	88.21
288.369	79.81
288.6	89.01
288.831	82.41
289.062	87.01
289.293	88.81
289.524	80.41
289.755	83.21
289.986	84.21
290.217	80.61
290.448	76.01
290.679	82.01
290.91	85.41
291.141	87.41
291.371	81.81
291.602	82.01
291.833	84.01
292.064	79.81
292.295	84.01
292.526	85.01
292.757	87.01
292.987	84.81
293.218	83.01
293.449	85.41
293.68	88.21
293.91	80.01
294.141	85.41
294.372	81.01
294.603	84.41
294.833	83.41
295.064	82.01
295.295	82.61
295.525	83.41
295.756	79.01
295.987	82.01
296.217	83.61
296.448	82.21
296.679	85.01
296.909	84.61
297.14	85.01
297.37	84.61
297.601	84.41
297.831	87.21
298.062	79.21
298.292	87.01
298.523	79.01
298.753	77.81
298.984	84.61
299.214	84.61
299.445	76.61
299.675	81.81
299.905	75.61
300.136	81.41
300.366	86.21
300.597	79.01
300.827	83.01
301.057	88.61
301.288	84.61
301.518	75.21
301.748	84.81
301.979	89.01
302.209	84.41
302.439	81.81
302.669	80.21
302.9	83.21
303.13	89.01
303.36	89.61
303.59	88.21
303.82	82.81
304.051	80.01
304.281	73.81
304.511	87.41
304.741	84.01
304.971	84.41
305.201	86.21
305.431	82.21
305.661	80.21
305.891	85.21
306.121	88.21
306.352	78.01
306.582	81.61
306.812	79.81
307.042	84.61
307.272	88.61
307.502	87.81
307.731	82.61
307.961	89.61
308.191	86.81
308.421	79.41
308.651	87.41
308.881	78.01
309.111	82.21
309.341	82.21
309.571	83.81
309.8	86.41
310.03	81.81
310.26	86.41
310.49	81.41
310.72	85.41
310.949	90.21
311.179	79.61
311.409	78.41
311.639	84.81
311.868	84.01
312.098	93.21
312.328	89.01
312.557	80.61
312.787	78.81
313.017	83.01
313.246	85.01
313.476	89.41
313.706	88.81
313.935	82.61
314.165	86.21
314.394	89.21
314.624	86.01
314.853	86.01
315.083	79.41
315.312	81.61
315.542	81.01
315.771	86.61
316.001	83.41
316.23	82.41
316.46	83.01
316.689	86.81
316.919	86.41
317.148	85.81
317.377	87.41
317.607	86.01
317.836	85.01
318.065	84.81
318.295	77.01
318.524	90.61
318.753	83.21
318.983	84.01
319.212	87.21
319.441	81.41
319.67	81.41
319.9	88.21
320.129	87.01
320.358	88.01
320.587	84.81
320.816	85.01
321.046	86.01
321.275	88.41
321.504	87.01
321.733	89.21
321.962	85.61
322.191	90.61
322.42	86.41
322.649	87.61
322.878	84.21
323.108	84.21
323.337	89.81
323.566	91.01
323.795	91.41
324.024	82.21
324.253	83.81
324.482	86.01
324.71	87.21
324.939	86.41
325.168	88.61
325.397	79.61
325.626	74.81
325.855	83.21
326.084	89.21
326.313	86.21
326.542	82.81
326.77	86.81
326.999	91.61
327.228	86.61
327.457	80.61
327.686	85.21
327.914	84.21
328.143	87.01
328.372	82.01
328.6	87.81
328.829	89.21
329.058	76.81
329.287	83.61
329.515	85.41
329.744	87.61
329.972	85.61
330.201	78.81
330.43	83.21
330.658	83.01
330.887	85.61
331.115	84.21
331.344	82.01
331.572	82.61
331.801	77.61
332.03	90.01
332.258	83.01
332.486	86.01
332.715	81.81
332.943	80.41
333.172	93.01
333.4	81.01
333.629	80.81
333.857	88.21
334.085	90.21
334.314	82.61
334.542	74.81
334.771	78.21
334.999	86.21
335.227	80.61
335.455	79.01
335.684	82.41
335.912	83.01
336.14	77.21
336.369	85.21
336.597	81.41
336.825	85.61
337.053	84.61
337.281	84.61
337.51	82.41
337.738	85.41
337.966	86.01
338.194	88.61
338.422	90.21
338.65	85.21
338.878	87.21
339.106	79.81
339.334	84.61
339.562	81.21
339.79	84.21
340.018	81.61
340.246	79.21
340.474	90.01
340.702	85.81
340.93	83.41
341.158	85.81
341.386	78.61
341.614	78.21
341.842	84.81
342.07	89.21
342.298	82.81
342.526	80.61
342.754	86.21
342.981	81.81
343.209	82.41
343.437	87.01
343.665	85.41
343.893	89.41
344.12	80.21
344.348	84.21
344.576	82.61
344.804	86.81
345.031	81.21
345.259	88.81
345.487	82.61
345.714	80.41
345.942	80.81
346.17	84.21
346.397	88.61
346.625	87.81
346.853	84.61
347.08	79.81
347.308	84.41
347.535	83.21
347.763	81.01
347.99	82.61
348.218	88.81
348.445	83.81
348.673	81.81
348.9	87.41
349.128	84.41
349.355	88.21
349.583	85.21
349.81	81.01
350.037	79.81
350.265	79.21
350.492	80.81
350.72	84.81
350.947	82.21
351.174	80.81
351.402	88.41
351.629	84.01
351.856	83.01
352.083	76.61
352.311	83.21
352.538	78.61
352.765	83.01
352.992	83.61
353.22	84.01
353.447	76.01
353.674	91.01
353.901	81.41
354.128	88.01
354.355	86.21
354.583	78.61
354.81	84.61
355.037	78.61
355.264	84.01
355.491	92.61
355.718	82.01
355.945	85.01
356.172	83.61
356.399	83.81
356.626	76.21
356.853	91.21
357.08	91.81
357.307	86.01
357.534	82.61
357.761	86.81
357.988	78.81
358.215	83.61
358.441	81.41
358.668	81.61
358.895	80.21
359.122	91.21
359.349	82.21
359.576	82.21
359.802	77.61
360.029	83.01
360.256	81.61
360.483	88.61
360.709	87.41
360.936	84.21
361.163	76.81
361.39	81.21
361.616	84.81
361.843	87.81
362.07	81.61
362.296	86.21
362.523	83.01
362.749	87.01
362.976	82.41
363.203	84.21
363.429	84.21
363.656	81.41
363.882	82.01
364.109	82.21
364.335	84.01
364.562	83.41
364.788	81.81
365.015	80.01
365.241	84.81
365.468	79.61
365.694	81.21
365.92	90.61
366.147	84.81
366.373	80.81
366.599	83.61
366.826	82.81
367.052	85.61
367.278	84.21
367.505	83.41
367.731	74.61
367.957	80.21
368.184	82.41
368.41	81.81
368.636	85.01
368.862	83.41
369.089	76.81
369.315	79.81
369.541	82.21
369.767	88.01
369.993	82.01
370.219	83.41
370.445	79.41
370.672	85.41
370.898	88.41
371.124	86.01
371.35	82.21
371.576	83.01
371.802	79.01
372.028	87.01
372.254	87.21
372.48	86.21
372.706	80.81
372.932	84.21
373.158	76.81
373.384	81.41
373.61	74.41
373.835	79.01
374.061	80.61
374.287	79.81
374.513	81.41
374.739	83.81
374.965	81.61
375.191	82.41
375.416	81.41
375.642	85.61
375.868	78.01
376.094	84.21
376.319	90.21
376.545	86.01
376.771	80.21
376.997	86.21
377.222	81.41
377.448	90.21
377.674	85.81
377.899	81.41
378.125	85.41
378.35	81.61
378.576	81.21
378.802	84.01
379.027	83.21
379.253	79.61
379.478	86.41
379.704	86.21
379.929	81.61
380.155	77.61
380.38	75.61
380.606	81.61
380.831	77.61
381.057	79.41
381.282	77.01
381.507	80.21
381.733	78.81
381.958	85.21
382.184	88.21
382.409	83.01
382.634	80.81
382.86	78.01
383.085	81.01
383.31	80.01
383.535	83.81
383.761	87.81
383.986	78.21
384.211	84.61
384.436	81.41
384.662	87.21
384.887	80.01
385.112	80.41
385.337	75.21
385.562	82.01
385.787	87.41
386.013	82.41
386.238	82.01
386.463	84.21
386.688	83.01
386.913	80.01
387.138	79.41
387.363	84.01
387.588	86.01
387.813	84.81
388.038	90.41
388.263	80.81
388.488	79.61
388.713	80.01
388.938	86.21
389.163	82.21
389.387	78.61
389.612	82.41
389.837	84.21
390.062	87.21
390.287	81.41
390.512	77.01
390.736	82.01
390.961	87.81
391.186	86.61
391.411	77.61
391.636	83.81
391.86	83.21
392.085	81.01
392.31	87.81
392.534	88.21
392.759	79.61
392.984	84.81
393.208	82.81
393.433	82.81
393.658	81.81
393.882	82.21
394.107	89.21
394.331	83.61
394.556	82.41
394.78	82.61
395.005	82.21
395.229	89.61
395.454	88.01
395.678	82.21
395.903	80.81
396.127	78.41
396.352	83.21
396.576	80.21
396.801	85.81
397.025	78.41
397.249	85.21
397.474	84.61
397.698	82.61
397.922	78.61
398.147	80.01
398.371	78.81
398.595	86.81
398.82	71.81
399.044	75.01
399.268	83.81
399.492	82.01
399.717	81.21
399.941	83.81
400.165	84.01
400.389	83.41
400.613	82.21
400.837	85.81
401.062	81.21
401.286	85.21
401.51	79.61
401.734	78.21
401.958	81.81
402.182	76.81
402.406	80.41
402.63	82.81
402.854	84.81
403.078	84.81
403.302	85.81
403.526	81.41
403.75	81.81
403.974	80.41
404.198	76.61
404.422	78.61
404.645	77.01
404.869	81.81
405.093	79.61
405.317	82.81
405.541	80.81
405.765	82.81
405.988	79.21
406.212	87.21
406.436	74.21
406.66	83.01
406.883	80.21
407.107	76.61
407.331	84.81
407.555	89.61
407.778	85.21
408.002	83.61
408.226	85.21
408.449	79.61
408.673	86.21
408.896	84.81
409.12	76.41
409.344	79.21
409.567	80.01
409.791	81.41
410.014	85.61
410.238	83.01
410.461	80.81
410.685	81.01
410.908	80.21
411.132	81.61
411.355	79.61
411.578	81.81
411.802	83.61
412.025	86.41
412.249	80.81
412.472	79.81
412.695	84.01
412.919	74.01
413.142	79.21
413.365	87.01
413.589	78.41
413.812	81.21
414.035	77.41
414.258	79.61
414.482	81.21
414.705	78.41
414.928	72.81
415.151	79.21
415.374	83.61
415.597	83.61
415.821	78.21
416.044	81.81
416.267	81.41
416.49	82.41
416.713	78.41
416.936	85.41
417.159	89.21
417.382	82.41
417.605	89.81
417.828	81.41
418.051	80.61
418.274	78.61
418.497	81.21
418.72	81.01
418.943	82.01
419.166	82.61
419.389	80.41
419.611	85.81
419.834	83.21
420.057	80.21
420.28	78.61
420.503	81.01
420.726	79.61
420.948	89.61
421.171	89.01
421.394	78.81
421.617	81.41
421.839	76.21
422.062	81.21
422.285	81.61
422.507	83.81
422.73	84.21
422.953	82.41
423.175	86.01
423.398	79.01
423.621	82.81
423.843	87.81
424.066	86.61
424.288	87.41
424.511	83.01
424.733	80.81
424.956	83.61
425.178	77.81
425.401	83.81
425.623	85.41
425.846	74.21
426.068	84.81
426.291	84.21
426.513	78.81
426.735	83.81
426.958	77.41
427.18	76.81
427.402	85.41
427.625	78.61
427.847	81.21
428.069	87.81
428.292	76.21
428.514	79.61
428.736	84.61
428.958	80.01
429.181	83.41
429.403	82.81
429.625	83.21
429.847	80.61
430.069	86.61
430.292	82.81
430.514	74.41
430.736	84.01
430.958	76.81
431.18	78.61
431.402	78.41
431.624	74.81
431.846	81.01
432.068	82.41
432.29	77.81
432.512	74.81
432.734	84.81
432.956	79.61
433.178	80.61
433.4	83.21
433.622	74.41
433.844	81.81
434.066	82.61
434.287	87.41
434.509	86.21
434.731	88.21
434.953	85.21
435.175	79.01
435.397	79.61
435.618	84.81
435.84	83.81
436.062	86.21
436.284	81.41
436.505	80.01
436.727	81.61
436.949	80.41
437.17	83.41
437.392	79.81
437.614	78.21
437.835	77.41
438.057	78.81
438.278	74.61
438.5	85.41
438.721	83.81
438.943	89.21
439.165	78.61
439.386	83.01
439.608	88.81
439.829	85.81
440.05	82.21
440.272	79.41
440.493	77.41
440.715	77.41
440.936	77.21
441.158	80.01
441.379	85.21
441.6	82.81
441.822	85.21
442.043	79.21
442.264	82.61
442.486	85.01
442.707	78.81
442.928	80.41
443.149	80.81
443.371	77.81
443.592	81.61
443.813	75.81
444.034	76.41
444.255	88.21
444.476	84.41
444.698	82.61
444.919	81.61
445.14	78.41
445.361	83.61
445.582	88.21
445.803	84.01
446.024	86.61
446.245	77.41
446.466	82.01
446.687	79.41
446.908	87.81
447.129	84.41
447.35	81.01
447.571	77.01
447.792	86.81
448.013	80.01
448.234	78.01
448.455	75.41
448.675	78.41
448.896	84.41
449.117	84.61
449.338	77.81
449.559	89.01
449.779	73.41
450	80.61
450.221	84.01
450.442	74.81
450.662	82.81
450.883	81.81
451.104	84.21
451.324	71.41
451.545	79.61
451.766	78.21
451.986	86.21
452.207	84.61
452.428	76.81
452.648	82.81
452.869	91.21
453.089	79.81
453.31	81.61
453.53	86.41
453.751	78.61
453.971	78.01
454.192	82.61
454.412	78.41
454.633	87.81
454.853	81.61
455.073	84.01
455.294	88.21
455.514	84.81
455.734	78.21
455.955	81.01
456.175	76.41
456.395	81.21
456.616	84.61
456.836	86.61
457.056	83.61
457.276	78.81
457.497	85.61
457.717	85.61
457.937	82.81
458.157	83.21
458.377	81.01
458.598	79.21
458.818	81.01
459.038	78.41
459.258	79.21
459.478	90.41
459.698	83.01
459.918	73.81
460.138	81.01
460.358	76.81
460.578	77.41
460.798	83.81
461.018	83.21
461.238	86.01
461.458	83.21
461.678	82.01
461.898	85.81
462.118	83.21
462.338	80.21
462.558	75.01
462.777	81.41
462.997	89.61
463.217	70.61
463.437	85.21
463.657	84.41
463.876	87.81
464.096	85.01
464.316	85.01
464.536	79.21
464.755	78.61
464.975	85.21
465.195	87.61
465.414	82.01
465.634	82.81
465.854	78.21
466.073	80.41
466.293	77.81
466.512	82.61
466.732	80.01
466.951	83.01
467.171	79.61
467.391	75.41
467.61	84.61
467.829	81.21
468.049	89.61
468.268	83.81
468.488	73.41
468.707	82.81
468.927	78.81
469.146	85.21
469.365	83.01
469.585	81.61
469.804	78.21
470.023	80.81
470.243	79.21
470.462	82.61
470.681	86.21
470.901	85.81
471.12	81.41
471.339	81.41
471.558	78.01
471.777	79.81
471.997	79.81
472.216	83.61
472.435	79.01
472.654	79.21
472.873	81.21
473.092	77.21
473.311	83.21
473.53	84.81
473.749	85.01
473.968	87.81
474.187	74.61
474.406	80.81
474.625	83.21
474.844	84.41
475.063	85.21
475.282	79.81
475.501	77.41
475.72	78.41
475.939	90.81
476.158	79.81
476.377	77.21
476.596	76.61
476.814	85.61
477.033	81.81
477.252	88.21
477.471	83.41
477.69	83.41
477.908	83.21
478.127	85.21
478.346	82.61
478.564	80.41
478.783	77.01
479.002	77.21
479.22	81.81
479.439	81.21
479.658	85.61
479.876	82.81
480.095	83.41
480.313	80.81
480.532	87.61
480.751	80.21
480.969	81.81
481.188	84.21
481.406	80.81
481.624	77.01
481.843	76.81
482.061	87.21
482.28	82.01
482.498	80.21
482.717	77.81
482.935	80.61
483.153	81.41
483.372	83.81
483.59	81.81
483.808	82.81
484.027	80.21
484.245	83.41
484.463	78.41
484.681	88.81
484.9	77.61
485.118	88.41
485.336	81.61
485.554	81.61
485.772	83.01
485.99	88.61
486.209	82.81
486.427	84.61
486.645	84.21
486.863	75.41
487.081	80.61
487.299	77.21
487.517	82.81
487.735	83.41
487.953	84.01
488.171	79.81
488.389	84.01
488.607	80.01
488.825	84.21
489.043	83.61
489.261	84.81
489.479	81.81
489.696	79.21
489.914	78.81
490.132	80.21
490.35	83.21
490.568	77.61
490.786	78.81
491.003	78.41
491.221	85.61
491.439	81.61
491.657	80.41
491.874	77.81
492.092	77.21
492.31	69.21
492.527	82.61
492.745	84.41
492.963	84.41
493.18	83.81
493.398	80.61
493.615	79.41
493.833	80.21
494.05	84.01
494.268	87.61
494.485	83.21
494.703	80.41
494.92	86.01
495.138	81.61
495.355	83.41
495.573	93.61
495.79	81.01
496.008	84.01
496.225	80.41
496.442	86.41
496.66	90.01
496.877	84.01
497.094	82.81
497.312	83.61
497.529	81.81
497.746	91.81
497.963	77.21
498.181	83.41
498.398	82.81
498.615	78.81
498.832	80.41
499.049	80.81
499.267	75.21
499.484	84.01
499.701	84.21
499.918	82.41
500.135	79.81
500.352	81.81
500.569	85.41
500.786	82.01
501.003	83.61
501.22	79.61
501.437	81.21
501.654	85.21
501.871	82.01
502.088	80.61
502.305	79.21
502.522	82.41
502.739	80.01
502.956	86.61
503.172	88.01
503.389	85.41
503.606	84.01
503.823	87.81
504.04	81.61
504.256	78.21
504.473	82.61
504.69	79.21
504.907	78.01
505.123	85.61
505.34	79.21
505.557	86.01
505.773	87.21
505.99	84.01
506.207	83.81
506.423	80.01
506.64	83.21
506.856	87.21
507.073	85.21
507.289	78.41
507.506	85.61
507.722	84.01
507.939	79.01
508.155	82.41
508.372	87.61
508.588	86.81
508.805	83.81
509.021	84.01
509.238	78.01
509.454	76.41
509.67	76.81
509.887	83.41
510.103	86.81
510.319	82.01
510.536	80.61
510.752	82.21
510.968	80.61
511.184	81.61
511.401	83.81
511.617	85.41
511.833	80.21
512.049	80.81
512.265	77.41
512.481	84.21
512.698	81.61
512.914	82.21
513.13	80.81
513.346	85.01
513.562	85.61
513.778	81.01
513.994	82.41
514.21	79.81
514.426	81.01
514.642	83.21
514.858	78.21
515.074	80.81
515.29	85.41
515.506	80.21
515.721	76.81
515.937	83.01
516.153	81.41
516.369	81.01
516.585	81.81
516.801	81.41
517.016	84.81
517.232	85.01
517.448	87.21
517.664	82.21
517.879	83.81
518.095	80.61
518.311	84.01
518.527	83.21
518.742	88.61
518.958	85.81
519.173	82.81
519.389	86.41
519.605	80.01
519.82	83.81
520.036	73.61
520.251	86.21
