Data from TenMicroDelayPb_HRD10591_00013.txt Node
Date: Mon Nov 24 14:44:10 EST 2025
User: Yrep
Spectrometer: HR+D1059
Trigger mode: 0
Integration Time (sec): 1.000000E-2
Scans to average: 5
Electric dark correction enabled: true
Nonlinearity correction enabled: false
Boxcar width: 0
XAxis mode: Wavelengths
Number of Pixels in Spectrum: 2048
>>>>>Begin Spectral Data<<<<<
223.165	-14.41
223.4	-14.41
223.635	-14.41
223.869	-13.41
224.104	-20.01
224.338	-6.21
224.573	-13.81
224.808	-15.81
225.042	-10.01
225.277	-5.61
225.511	-0.21
225.746	4.39
225.98	6.39
226.215	5.99
226.449	13.39
226.683	17.19
226.918	18.59
227.152	33.59
227.387	38.19
227.621	32.99
227.856	47.79
228.09	44.99
228.324	47.99
228.559	59.59
228.793	59.59
229.027	62.39
229.262	61.39
229.496	66.99
229.73	72.79
229.964	79.79
230.199	73.99
230.433	70.99
230.667	72.39
230.901	79.39
231.136	81.19
231.37	77.19
231.604	83.19
231.838	74.99
232.072	72.39
232.306	79.39
232.541	72.59
232.775	80.99
233.009	83.39
233.243	82.39
233.477	75.59
233.711	76.39
233.945	72.99
234.179	80.59
234.413	76.79
234.647	85.19
234.881	75.99
235.115	79.39
235.349	77.99
235.583	70.59
235.817	81.19
236.051	76.59
236.285	75.99
236.519	78.19
236.753	70.19
236.987	79.99
237.221	79.39
237.455	74.19
237.689	69.39
237.922	72.79
238.156	75.19
238.39	72.79
238.624	75.39
238.858	77.99
239.091	76.99
239.325	71.59
239.559	77.99
239.793	77.59
240.027	72.79
240.26	75.39
240.494	74.59
240.728	76.99
240.961	70.19
241.195	79.19
241.429	75.59
241.662	76.19
241.896	69.19
242.13	76.59
242.363	79.39
242.597	79.39
242.83	71.99
243.064	71.79
243.298	70.39
243.531	73.59
243.765	76.79
243.998	76.79
244.232	77.59
244.465	76.99
244.699	75.59
244.932	73.19
245.166	74.19
245.399	81.79
245.633	76.99
245.866	75.99
246.099	72.99
246.333	79.19
246.566	77.79
246.8	76.19
247.033	74.59
247.266	80.19
247.5	70.99
247.733	72.59
247.966	71.99
248.2	75.19
248.433	85.39
248.666	77.79
248.899	79.19
249.133	81.59
249.366	82.19
249.599	80.39
249.832	74.99
250.066	77.39
250.299	76.19
250.532	79.79
250.765	78.79
250.998	78.39
251.231	84.79
251.465	77.59
251.698	80.59
251.931	87.99
252.164	73.19
252.397	85.79
252.63	81.79
252.863	82.79
253.096	78.79
253.329	75.39
253.562	77.99
253.795	79.39
254.028	78.79
254.261	83.19
254.494	75.79
254.727	81.39
254.96	73.39
255.193	76.19
255.426	82.79
255.659	75.59
255.892	79.19
256.124	83.99
256.357	81.79
256.59	78.79
256.823	81.19
257.056	77.59
257.289	79.59
257.521	73.59
257.754	77.79
257.987	77.59
258.22	81.59
258.452	78.99
258.685	80.99
258.918	84.19
259.151	78.59
259.383	82.99
259.616	77.19
259.849	80.79
260.081	77.99
260.314	79.79
260.547	84.19
260.779	83.19
261.012	83.59
261.244	76.39
261.477	76.19
261.71	80.39
261.942	81.59
262.175	81.79
262.407	77.99
262.64	81.59
262.872	87.99
263.105	84.19
263.337	81.79
263.57	76.59
263.802	85.19
264.035	76.59
264.267	74.99
264.499	74.79
264.732	77.19
264.964	79.79
265.197	84.79
265.429	88.59
265.661	77.19
265.894	84.39
266.126	79.19
266.358	79.59
266.591	77.99
266.823	77.79
267.055	75.39
267.287	81.79
267.52	78.39
267.752	85.19
267.984	82.39
268.216	82.19
268.448	79.79
268.681	84.19
268.913	80.39
269.145	83.39
269.377	78.59
269.609	85.79
269.841	86.19
270.073	85.19
270.306	81.19
270.538	79.59
270.77	73.19
271.002	85.19
271.234	81.79
271.466	79.19
271.698	77.59
271.93	83.99
272.162	84.99
272.394	81.19
272.626	80.39
272.858	84.39
273.09	84.39
273.322	88.39
273.553	81.79
273.785	80.79
274.017	81.79
274.249	81.79
274.481	83.19
274.713	79.39
274.945	80.99
275.176	85.79
275.408	84.39
275.64	81.79
275.872	86.99
276.104	87.79
276.335	88.99
276.567	84.39
276.799	82.79
277.031	85.59
277.262	82.79
277.494	71.99
277.726	85.39
277.957	77.39
278.189	80.39
278.421	83.79
278.652	82.59
278.884	82.59
279.115	90.79
279.347	84.79
279.579	79.99
279.81	84.19
280.042	84.19
280.273	83.39
280.505	80.59
280.736	87.79
280.968	79.79
281.199	82.99
281.431	86.99
281.662	78.59
281.894	86.39
282.125	83.79
282.356	81.79
282.588	75.59
282.819	81.19
283.051	80.79
283.282	85.79
283.513	89.39
283.745	88.59
283.976	85.39
284.207	81.79
284.439	85.79
284.67	83.39
284.901	87.79
285.132	83.59
285.364	83.79
285.595	79.19
285.826	79.99
286.057	86.99
286.288	83.99
286.52	81.79
286.751	86.99
286.982	80.19
287.213	81.39
287.444	88.59
287.675	86.19
287.906	82.59
288.138	79.79
288.369	85.39
288.6	85.19
288.831	84.39
289.062	82.99
289.293	76.59
289.524	83.99
289.755	86.99
289.986	82.79
290.217	83.79
290.448	82.79
290.679	79.39
290.91	79.39
291.141	85.79
291.371	80.39
291.602	88.59
291.833	84.19
292.064	84.99
292.295	89.59
292.526	93.59
292.757	77.39
292.987	78.99
293.218	81.79
293.449	75.99
293.68	83.19
293.91	84.99
294.141	86.59
294.372	82.39
294.603	91.19
294.833	83.79
295.064	83.19
295.295	81.59
295.525	85.59
295.756	89.19
295.987	84.19
296.217	87.79
296.448	88.79
296.679	82.59
296.909	83.39
297.14	85.59
297.37	92.59
297.601	88.19
297.831	77.99
298.062	88.99
298.292	82.79
298.523	86.39
298.753	85.19
298.984	86.79
299.214	83.79
299.445	89.59
299.675	83.59
299.905	81.39
300.136	84.39
300.366	84.79
300.597	80.59
300.827	83.99
301.057	81.99
301.288	80.39
301.518	85.19
301.748	85.19
301.979	83.19
302.209	80.59
302.439	86.79
302.669	80.99
302.9	80.79
303.13	83.99
303.36	86.59
303.59	86.79
303.82	81.99
304.051	88.39
304.281	82.79
304.511	81.59
304.741	86.39
304.971	82.59
305.201	83.19
305.431	81.59
305.661	80.79
305.891	84.59
306.121	79.79
306.352	91.19
306.582	84.59
306.812	82.79
307.042	83.39
307.272	83.39
307.502	83.19
307.731	82.99
307.961	88.99
308.191	82.99
308.421	84.19
308.651	84.19
308.881	80.19
309.111	84.39
309.341	86.99
309.571	85.79
309.8	81.99
310.03	85.59
310.26	82.19
310.49	77.59
310.72	81.39
310.949	78.39
311.179	82.19
311.409	83.19
311.639	78.39
311.868	84.19
312.098	86.99
312.328	83.59
312.557	86.79
312.787	81.99
313.017	82.59
313.246	81.79
313.476	87.19
313.706	79.99
313.935	92.99
314.165	85.39
314.394	80.99
314.624	86.59
314.853	83.59
315.083	90.59
315.312	82.39
315.542	83.79
315.771	86.99
316.001	88.99
316.23	82.59
316.46	76.99
316.689	80.99
316.919	87.59
317.148	84.19
317.377	84.79
317.607	81.59
317.836	79.79
318.065	82.19
318.295	80.39
318.524	77.79
318.753	85.59
318.983	86.59
319.212	87.99
319.441	79.59
319.67	82.39
319.9	71.39
320.129	81.39
320.358	85.59
320.587	83.99
320.816	81.19
321.046	89.79
321.275	86.19
321.504	88.39
321.733	79.99
321.962	86.19
322.191	81.59
322.42	91.39
322.649	75.59
322.878	84.19
323.108	87.39
323.337	86.39
323.566	81.99
323.795	85.99
324.024	87.19
324.253	82.19
324.482	84.39
324.71	90.59
324.939	85.59
325.168	84.99
325.397	76.59
325.626	79.79
325.855	84.99
326.084	78.79
326.313	86.39
326.542	87.59
326.77	76.79
326.999	87.19
327.228	90.19
327.457	86.79
327.686	85.79
327.914	87.99
328.143	87.59
328.372	86.99
328.6	85.59
328.829	80.99
329.058	80.39
329.287	83.79
329.515	79.79
329.744	85.39
329.972	78.39
330.201	76.39
330.43	81.99
330.658	87.39
330.887	76.39
331.115	81.79
331.344	83.39
331.572	82.99
331.801	90.39
332.03	87.59
332.258	82.79
332.486	85.99
332.715	84.99
332.943	79.19
333.172	80.39
333.4	92.79
333.629	81.19
333.857	87.59
334.085	80.59
334.314	82.79
334.542	83.99
334.771	82.99
334.999	83.79
335.227	82.59
335.455	81.79
335.684	78.99
335.912	82.59
336.14	88.99
336.369	81.39
336.597	80.39
336.825	83.39
337.053	82.99
337.281	83.59
337.51	91.19
337.738	85.39
337.966	78.99
338.194	87.19
338.422	82.39
338.65	77.79
338.878	86.59
339.106	87.39
339.334	80.79
339.562	84.59
339.79	82.59
340.018	81.99
340.246	81.79
340.474	83.39
340.702	80.79
340.93	82.59
341.158	81.39
341.386	85.79
341.614	91.59
341.842	88.99
342.07	86.19
342.298	84.19
342.526	83.99
342.754	78.19
342.981	89.79
343.209	85.19
343.437	83.79
343.665	79.39
343.893	74.79
344.12	82.79
344.348	84.79
344.576	84.19
344.804	79.99
345.031	83.19
345.259	87.39
345.487	82.79
345.714	85.59
345.942	88.79
346.17	88.19
346.397	90.79
346.625	79.39
346.853	88.19
347.08	79.19
347.308	86.59
347.535	88.39
347.763	79.19
347.99	81.79
348.218	87.39
348.445	86.59
348.673	80.19
348.9	78.99
349.128	78.99
349.355	81.19
349.583	87.19
349.81	79.79
350.037	84.59
350.265	82.99
350.492	89.19
350.72	91.19
350.947	88.39
351.174	83.79
351.402	81.59
351.629	83.19
351.856	87.19
352.083	82.99
352.311	80.79
352.538	87.59
352.765	84.79
352.992	81.59
353.22	89.39
353.447	85.79
353.674	76.99
353.901	77.79
354.128	81.79
354.355	79.79
354.583	84.19
354.81	83.39
355.037	79.39
355.264	88.99
355.491	87.19
355.718	85.59
355.945	88.59
356.172	76.99
356.399	76.99
356.626	80.19
356.853	80.39
357.08	81.79
357.307	82.19
357.534	81.59
357.761	83.99
357.988	78.79
358.215	90.19
358.441	79.79
358.668	83.19
358.895	81.39
359.122	86.59
359.349	88.79
359.576	83.99
359.802	80.39
360.029	80.79
360.256	84.39
360.483	79.59
360.709	81.79
360.936	87.59
361.163	75.19
361.39	82.59
361.616	83.19
361.843	84.19
362.07	82.99
362.296	86.19
362.523	74.79
362.749	81.79
362.976	81.79
363.203	80.39
363.429	83.19
363.656	88.79
363.882	82.79
364.109	80.59
364.335	75.59
364.562	73.59
364.788	85.79
365.015	77.99
365.241	84.79
365.468	83.39
365.694	83.79
365.92	77.19
366.147	77.99
366.373	80.79
366.599	81.79
366.826	81.79
367.052	92.19
367.278	86.39
367.505	83.79
367.731	84.99
367.957	85.59
368.184	83.39
368.41	90.39
368.636	81.59
368.862	81.99
369.089	79.39
369.315	82.19
369.541	81.99
369.767	81.39
369.993	83.39
370.219	88.99
370.445	81.19
370.672	79.79
370.898	75.19
371.124	83.99
371.35	79.59
371.576	84.79
371.802	76.39
372.028	78.39
372.254	83.79
372.48	77.59
372.706	74.99
372.932	84.59
373.158	85.59
373.384	81.79
373.61	81.79
373.835	78.19
374.061	79.79
374.287	82.99
374.513	82.79
374.739	77.19
374.965	81.59
375.191	82.19
375.416	82.39
375.642	78.79
375.868	82.19
376.094	79.39
376.319	76.79
376.545	83.59
376.771	75.39
376.997	80.19
377.222	85.59
377.448	77.19
377.674	82.59
377.899	85.19
378.125	82.19
378.35	80.99
378.576	84.59
378.802	75.59
379.027	78.99
379.253	81.19
379.478	83.79
379.704	77.59
379.929	82.99
380.155	80.79
380.38	81.79
380.606	79.99
380.831	79.79
381.057	86.79
381.282	79.19
381.507	78.19
381.733	81.79
381.958	82.39
382.184	80.59
382.409	82.99
382.634	81.79
382.86	86.99
383.085	79.79
383.31	81.99
383.535	75.79
383.761	85.79
383.986	77.59
384.211	78.59
384.436	82.19
384.662	75.79
384.887	83.79
385.112	83.59
385.337	85.59
385.562	88.79
385.787	87.39
386.013	86.99
386.238	82.59
386.463	78.39
386.688	81.99
386.913	80.19
387.138	76.59
387.363	79.59
387.588	84.99
387.813	84.59
388.038	82.99
388.263	81.19
388.488	81.79
388.713	91.59
388.938	78.39
389.163	81.19
389.387	80.79
389.612	79.39
389.837	77.79
390.062	84.39
390.287	84.19
390.512	81.79
390.736	77.59
390.961	81.99
391.186	82.39
391.411	83.99
391.636	79.39
391.86	76.99
392.085	82.39
392.31	86.79
392.534	81.59
392.759	84.79
392.984	79.19
393.208	78.19
393.433	80.99
393.658	83.59
393.882	78.99
394.107	79.19
394.331	79.39
394.556	77.99
394.78	83.79
395.005	79.39
395.229	82.19
395.454	74.99
395.678	73.19
395.903	78.79
396.127	81.79
396.352	80.79
396.576	75.39
396.801	80.99
397.025	81.19
397.249	80.99
397.474	82.19
397.698	80.79
397.922	77.79
398.147	81.79
398.371	73.59
398.595	80.59
398.82	81.99
399.044	80.99
399.268	74.39
399.492	80.59
399.717	84.19
399.941	82.19
400.165	82.99
400.389	77.99
400.613	81.99
400.837	79.99
401.062	80.39
401.286	87.19
401.51	78.19
401.734	80.39
401.958	77.39
402.182	82.79
402.406	84.59
402.63	81.19
402.854	80.99
403.078	74.99
403.302	77.99
403.526	78.19
403.75	75.39
403.974	82.59
404.198	81.79
404.422	86.79
404.645	80.99
404.869	79.19
405.093	80.19
405.317	78.99
405.541	77.39
405.765	77.79
405.988	74.79
406.212	80.79
406.436	74.99
406.66	81.79
406.883	78.39
407.107	76.99
407.331	79.19
407.555	84.79
407.778	83.79
408.002	79.79
408.226	76.99
408.449	83.59
408.673	77.99
408.896	78.79
409.12	86.79
409.344	78.39
409.567	79.19
409.791	80.99
410.014	82.79
410.238	80.59
410.461	81.39
410.685	82.39
410.908	81.39
411.132	81.39
411.355	81.99
411.578	90.39
411.802	81.19
412.025	80.39
412.249	82.99
412.472	77.59
412.695	78.99
412.919	82.39
413.142	84.79
413.365	85.19
413.589	77.19
413.812	78.19
414.035	80.19
414.258	80.59
414.482	82.59
414.705	79.79
414.928	81.19
415.151	81.39
415.374	81.99
415.597	75.19
415.821	78.39
416.044	80.39
416.267	84.19
416.49	88.99
416.713	85.39
416.936	77.79
417.159	76.19
417.382	87.59
417.605	76.99
417.828	79.79
418.051	78.19
418.274	81.19
418.497	75.99
418.72	74.79
418.943	79.79
419.166	74.59
419.389	74.79
419.611	71.19
419.834	79.79
420.057	76.99
420.28	82.79
420.503	83.39
420.726	79.59
420.948	81.39
421.171	73.19
421.394	84.59
421.617	74.19
421.839	79.59
422.062	75.79
422.285	83.39
422.507	82.59
422.73	83.79
422.953	83.39
423.175	76.59
423.398	81.59
423.621	78.19
423.843	77.79
424.066	86.19
424.288	76.39
424.511	80.99
424.733	75.79
424.956	73.19
425.178	80.99
425.401	74.39
425.623	82.59
425.846	89.19
426.068	85.59
426.291	81.79
426.513	82.59
426.735	81.99
426.958	79.99
427.18	83.19
427.402	76.39
427.625	78.99
427.847	78.39
428.069	85.19
428.292	80.79
428.514	75.19
428.736	78.99
428.958	74.59
429.181	81.99
429.403	81.99
429.625	76.99
429.847	81.99
430.069	78.59
430.292	77.19
430.514	79.79
430.736	76.19
430.958	79.39
431.18	89.39
431.402	79.79
431.624	84.19
431.846	85.39
432.068	84.59
432.29	73.99
432.512	79.99
432.734	79.79
432.956	79.19
433.178	76.79
433.4	82.79
433.622	79.39
433.844	82.59
434.066	82.99
434.287	76.39
434.509	76.79
434.731	77.19
434.953	80.59
435.175	87.99
435.397	74.79
435.618	75.39
435.84	77.39
436.062	81.99
436.284	82.39
436.505	78.79
436.727	80.59
436.949	75.19
437.17	80.59
437.392	80.59
437.614	77.59
437.835	83.99
438.057	87.99
438.278	74.59
438.5	78.99
438.721	81.19
438.943	80.19
439.165	81.79
439.386	85.19
439.608	81.19
439.829	77.79
440.05	74.99
440.272	78.19
440.493	74.79
440.715	82.79
440.936	76.39
441.158	82.19
441.379	80.99
441.6	80.79
441.822	80.99
442.043	81.99
442.264	75.19
442.486	81.59
442.707	80.59
442.928	84.99
443.149	87.19
443.371	87.79
443.592	76.59
443.813	85.59
444.034	78.99
444.255	80.99
444.476	87.39
444.698	78.99
444.919	81.39
445.14	91.39
445.361	76.59
445.582	82.79
445.803	80.59
446.024	82.39
446.245	82.99
446.466	81.19
446.687	79.99
446.908	76.59
447.129	82.19
447.35	73.39
447.571	74.59
447.792	83.59
448.013	81.39
448.234	74.59
448.455	82.59
448.675	78.79
448.896	80.19
449.117	79.99
449.338	78.19
449.559	78.79
449.779	85.19
450	82.39
450.221	76.39
450.442	81.79
450.662	80.99
450.883	77.39
451.104	81.39
451.324	78.59
451.545	76.39
451.766	85.79
451.986	75.59
452.207	84.59
452.428	74.19
452.648	73.39
452.869	78.59
453.089	81.59
453.31	81.39
453.53	75.99
453.751	82.79
453.971	78.19
454.192	84.79
454.412	73.99
454.633	82.39
454.853	77.59
455.073	81.39
455.294	79.79
455.514	81.19
455.734	81.39
455.955	74.39
456.175	81.39
456.395	84.59
456.616	83.59
456.836	78.19
457.056	73.99
457.276	82.79
457.497	79.19
457.717	78.19
457.937	77.19
458.157	78.19
458.377	80.39
458.598	79.19
458.818	82.59
459.038	82.79
459.258	82.39
459.478	80.99
459.698	75.19
459.918	82.19
460.138	75.39
460.358	80.99
460.578	81.59
460.798	75.59
461.018	82.59
461.238	85.19
461.458	75.79
461.678	79.99
461.898	82.19
462.118	81.19
462.338	82.39
462.558	78.99
462.777	79.99
462.997	81.59
463.217	81.59
463.437	80.99
463.657	77.99
463.876	79.39
464.096	81.39
464.316	77.59
464.536	78.79
464.755	78.99
464.975	82.39
465.195	81.19
465.414	75.99
465.634	73.99
465.854	80.39
466.073	80.19
466.293	76.59
466.512	80.19
466.732	75.59
466.951	80.19
467.171	83.79
467.391	80.79
467.61	78.19
467.829	82.19
468.049	84.79
468.268	88.59
468.488	80.99
468.707	77.19
468.927	84.19
469.146	80.39
469.365	81.19
469.585	86.79
469.804	80.39
470.023	81.59
470.243	86.19
470.462	78.39
470.681	85.99
470.901	82.99
471.12	84.39
471.339	78.19
471.558	85.39
471.777	80.99
471.997	77.79
472.216	81.19
472.435	80.59
472.654	81.99
472.873	83.19
473.092	85.59
473.311	83.59
473.53	75.39
473.749	82.39
473.968	80.19
474.187	79.59
474.406	86.19
474.625	81.19
474.844	81.99
475.063	82.19
475.282	86.39
475.501	79.19
475.72	84.19
475.939	79.19
476.158	76.99
476.377	77.99
476.596	79.59
476.814	80.99
477.033	76.79
477.252	86.79
477.471	72.79
477.69	79.99
477.908	79.99
478.127	79.39
478.346	76.79
478.564	80.39
478.783	78.19
479.002	81.79
479.22	79.59
479.439	80.19
479.658	77.99
479.876	77.19
480.095	79.59
480.313	81.39
480.532	79.59
480.751	77.19
480.969	84.19
481.188	85.19
481.406	80.39
481.624	81.79
481.843	83.39
482.061	78.19
482.28	83.39
482.498	75.59
482.717	80.79
482.935	78.99
483.153	81.99
483.372	76.99
483.59	77.19
483.808	83.99
484.027	78.99
484.245	83.79
484.463	80.99
484.681	80.99
484.9	76.19
485.118	73.19
485.336	84.79
485.554	84.59
485.772	76.79
485.99	77.39
486.209	79.99
486.427	77.99
486.645	80.99
486.863	85.39
487.081	86.19
487.299	79.99
487.517	83.79
487.735	83.59
487.953	81.19
488.171	82.19
488.389	83.19
488.607	76.59
488.825	87.59
489.043	81.39
489.261	77.39
489.479	82.79
489.696	76.19
489.914	83.19
490.132	78.79
490.35	89.59
490.568	79.79
490.786	81.99
491.003	84.79
491.221	78.99
491.439	84.99
491.657	84.19
491.874	76.59
492.092	77.39
492.31	77.99
492.527	79.39
492.745	81.59
492.963	81.39
493.18	77.79
493.398	77.99
493.615	82.79
493.833	82.99
494.05	80.99
494.268	82.39
494.485	79.39
494.703	77.39
494.92	81.39
495.138	83.79
495.355	77.79
495.573	84.39
495.79	79.99
496.008	79.59
496.225	83.59
496.442	79.99
496.66	82.79
496.877	77.99
497.094	78.79
497.312	89.39
497.529	87.79
497.746	79.39
497.963	83.59
498.181	80.19
498.398	83.79
498.615	79.99
498.832	76.79
499.049	85.39
499.267	80.39
499.484	82.39
499.701	79.79
499.918	88.59
500.135	78.19
500.352	83.79
500.569	89.59
500.786	79.99
501.003	75.99
501.22	86.19
501.437	81.99
501.654	78.39
501.871	77.39
502.088	79.59
502.305	79.79
502.522	82.99
502.739	80.39
502.956	80.19
503.172	81.99
503.389	76.79
503.606	82.39
503.823	83.79
504.04	86.79
504.256	80.59
504.473	78.39
504.69	81.19
504.907	87.59
505.123	81.39
505.34	82.39
505.557	77.59
505.773	81.99
505.99	83.19
506.207	81.19
506.423	82.79
506.64	80.59
506.856	85.79
507.073	78.79
507.289	88.39
507.506	77.39
507.722	80.19
507.939	84.99
508.155	79.39
508.372	81.19
508.588	80.19
508.805	78.59
509.021	81.59
509.238	79.59
509.454	77.39
509.67	91.79
509.887	79.59
510.103	82.19
510.319	84.59
510.536	81.79
510.752	76.79
510.968	77.79
511.184	82.79
511.401	77.99
511.617	80.19
511.833	80.39
512.049	85.99
512.265	80.99
512.481	84.59
512.698	87.39
512.914	85.99
513.13	87.99
513.346	77.39
513.562	80.99
513.778	84.79
513.994	75.19
514.21	80.99
514.426	74.79
514.642	84.39
514.858	78.39
515.074	78.99
515.29	82.59
515.506	81.19
515.721	82.99
515.937	85.39
516.153	81.59
516.369	82.79
516.585	84.19
516.801	84.59
517.016	82.19
517.232	84.79
517.448	81.99
517.664	85.39
517.879	80.59
518.095	83.59
518.311	80.39
518.527	75.99
518.742	84.39
518.958	84.19
519.173	84.19
519.389	82.99
519.605	80.99
519.82	84.79
520.036	80.19
520.251	83.79
