Data from TenMicroDelayPb_HRD10591_00011.txt Node
Date: Mon Nov 24 14:44:10 EST 2025
User: Yrep
Spectrometer: HR+D1059
Trigger mode: 0
Integration Time (sec): 1.000000E-2
Scans to average: 5
Electric dark correction enabled: true
Nonlinearity correction enabled: false
Boxcar width: 0
XAxis mode: Wavelengths
Number of Pixels in Spectrum: 2048
>>>>>Begin Spectral Data<<<<<
223.165	-10.15
223.4	-10.15
223.635	-10.15
223.869	-10.15
224.104	-14.35
224.338	-17.55
224.573	-11.75
224.808	-13.55
225.042	-9.75
225.277	-9.15
225.511	-1.35
225.746	3.85
225.98	1.05
226.215	8.05
226.449	9.65
226.683	17.85
226.918	27.25
227.152	30.05
227.387	34.45
227.621	32.45
227.856	43.45
228.09	42.25
228.324	52.25
228.559	57.65
228.793	53.05
229.027	61.45
229.262	60.05
229.496	70.45
229.73	65.85
229.964	62.25
230.199	72.85
230.433	77.25
230.667	69.25
230.901	76.45
231.136	79.65
231.37	80.05
231.604	77.25
231.838	82.25
232.072	85.85
232.306	76.85
232.541	76.65
232.775	76.05
233.009	80.45
233.243	75.25
233.477	78.85
233.711	78.45
233.945	78.45
234.179	77.85
234.413	79.05
234.647	75.45
234.881	77.45
235.115	78.85
235.349	77.65
235.583	73.05
235.817	77.25
236.051	80.65
236.285	75.45
236.519	69.85
236.753	73.65
236.987	74.85
237.221	73.85
237.455	76.45
237.689	71.25
237.922	71.25
238.156	73.25
238.39	77.45
238.624	75.25
238.858	69.25
239.091	76.05
239.325	77.45
239.559	76.05
239.793	75.85
240.027	73.05
240.26	75.25
240.494	74.05
240.728	68.65
240.961	71.05
241.195	78.05
241.429	76.65
241.662	72.65
241.896	75.85
242.13	76.65
242.363	74.45
242.597	75.45
242.83	80.05
243.064	72.25
243.298	70.65
243.531	73.05
243.765	75.45
243.998	75.65
244.232	82.05
244.465	71.85
244.699	72.05
244.932	75.65
245.166	78.45
245.399	75.65
245.633	78.05
245.866	78.65
246.099	80.65
246.333	78.45
246.566	82.65
246.8	74.25
247.033	74.05
247.266	77.65
247.5	70.05
247.733	77.65
247.966	77.65
248.2	75.65
248.433	75.65
248.666	75.85
248.899	72.25
249.133	73.25
249.366	72.85
249.599	82.05
249.832	75.85
250.066	82.05
250.299	80.45
250.532	78.45
250.765	77.25
250.998	77.25
251.231	73.65
251.465	80.65
251.698	84.65
251.931	74.05
252.164	77.65
252.397	81.45
252.63	71.85
252.863	77.05
253.096	69.25
253.329	84.25
253.562	77.85
253.795	78.25
254.028	81.65
254.261	73.65
254.494	74.05
254.727	79.85
254.96	80.25
255.193	78.05
255.426	83.45
255.659	74.85
255.892	74.05
256.124	76.85
256.357	78.65
256.59	84.25
256.823	77.25
257.056	76.05
257.289	69.25
257.521	73.05
257.754	79.05
257.987	76.05
258.22	77.25
258.452	74.85
258.685	75.85
258.918	75.05
259.151	78.45
259.383	81.65
259.616	86.25
259.849	76.25
260.081	82.45
260.314	76.05
260.547	77.65
260.779	74.05
261.012	79.65
261.244	77.25
261.477	71.45
261.71	83.25
261.942	78.85
262.175	79.05
262.407	76.85
262.64	86.85
262.872	76.65
263.105	80.85
263.337	80.45
263.57	78.25
263.802	79.45
264.035	81.05
264.267	78.05
264.499	74.25
264.732	79.85
264.964	78.05
265.197	87.25
265.429	79.65
265.661	77.85
265.894	81.85
266.126	84.25
266.358	82.65
266.591	79.25
266.823	83.25
267.055	72.85
267.287	77.25
267.52	84.25
267.752	79.05
267.984	81.85
268.216	80.45
268.448	79.25
268.681	74.65
268.913	74.45
269.145	82.45
269.377	77.45
269.609	78.25
269.841	75.45
270.073	84.05
270.306	79.25
270.538	82.45
270.77	89.65
271.002	80.45
271.234	75.25
271.466	77.45
271.698	81.05
271.93	84.45
272.162	82.05
272.394	77.05
272.626	83.25
272.858	82.85
273.09	85.65
273.322	84.65
273.553	82.85
273.785	81.45
274.017	80.25
274.249	80.85
274.481	83.45
274.713	80.25
274.945	80.45
275.176	85.45
275.408	78.25
275.64	78.45
275.872	79.25
276.104	77.25
276.335	78.85
276.567	85.85
276.799	82.85
277.031	77.85
277.262	80.05
277.494	80.65
277.726	81.45
277.957	89.25
278.189	73.65
278.421	86.65
278.652	83.85
278.884	75.25
279.115	86.45
279.347	79.25
279.579	81.25
279.81	84.85
280.042	77.85
280.273	88.05
280.505	85.85
280.736	84.05
280.968	79.85
281.199	81.85
281.431	84.45
281.662	84.65
281.894	82.65
282.125	81.85
282.356	84.25
282.588	89.25
282.819	78.65
283.051	80.45
283.282	83.25
283.513	88.85
283.745	82.25
283.976	85.45
284.207	78.45
284.439	81.65
284.67	78.65
284.901	89.65
285.132	82.05
285.364	82.25
285.595	76.65
285.826	76.65
286.057	85.25
286.288	79.45
286.52	87.05
286.751	83.45
286.982	83.05
287.213	78.45
287.444	77.65
287.675	83.25
287.906	76.65
288.138	84.45
288.369	88.65
288.6	75.45
288.831	82.65
289.062	82.65
289.293	78.65
289.524	76.25
289.755	81.45
289.986	77.45
290.217	82.85
290.448	83.05
290.679	81.25
290.91	81.05
291.141	80.65
291.371	87.65
291.602	80.25
291.833	83.65
292.064	87.85
292.295	79.85
292.526	80.85
292.757	87.25
292.987	80.65
293.218	82.85
293.449	83.85
293.68	83.25
293.91	79.85
294.141	84.65
294.372	85.05
294.603	85.65
294.833	83.45
295.064	84.65
295.295	84.85
295.525	80.65
295.756	81.65
295.987	86.45
296.217	82.65
296.448	80.85
296.679	87.05
296.909	81.65
297.14	81.45
297.37	86.05
297.601	86.85
297.831	84.65
298.062	79.85
298.292	86.05
298.523	83.25
298.753	87.25
298.984	74.65
299.214	83.45
299.445	81.65
299.675	87.65
299.905	79.05
300.136	88.65
300.366	82.25
300.597	81.85
300.827	82.65
301.057	79.25
301.288	81.45
301.518	77.05
301.748	84.05
301.979	80.85
302.209	79.85
302.439	80.45
302.669	79.45
302.9	81.25
303.13	77.85
303.36	83.05
303.59	87.25
303.82	79.85
304.051	84.25
304.281	82.65
304.511	84.85
304.741	84.25
304.971	82.05
305.201	80.05
305.431	80.85
305.661	82.25
305.891	85.65
306.121	84.05
306.352	89.05
306.582	88.65
306.812	76.65
307.042	87.05
307.272	80.25
307.502	83.45
307.731	83.05
307.961	82.45
308.191	80.05
308.421	85.65
308.651	83.05
308.881	78.45
309.111	79.85
309.341	83.05
309.571	90.45
309.8	88.05
310.03	80.45
310.26	81.65
310.49	81.05
310.72	83.45
310.949	90.65
311.179	79.65
311.409	75.05
311.639	73.85
311.868	86.25
312.098	84.65
312.328	86.85
312.557	87.45
312.787	84.65
313.017	88.85
313.246	87.05
313.476	80.85
313.706	79.45
313.935	79.05
314.165	82.85
314.394	83.45
314.624	83.45
314.853	76.05
315.083	88.45
315.312	84.45
315.542	80.25
315.771	79.25
316.001	84.25
316.23	86.45
316.46	86.65
316.689	85.05
316.919	83.45
317.148	79.25
317.377	83.45
317.607	84.65
317.836	81.85
318.065	85.45
318.295	80.65
318.524	85.45
318.753	85.85
318.983	82.05
319.212	87.45
319.441	85.45
319.67	82.05
319.9	88.25
320.129	81.05
320.358	84.45
320.587	86.65
320.816	84.05
321.046	81.45
321.275	86.65
321.504	81.05
321.733	86.65
321.962	75.25
322.191	81.25
322.42	79.25
322.649	79.65
322.878	81.45
323.108	84.05
323.337	81.05
323.566	83.05
323.795	79.65
324.024	75.65
324.253	80.05
324.482	78.25
324.71	77.65
324.939	79.25
325.168	84.45
325.397	84.05
325.626	79.85
325.855	82.45
326.084	73.05
326.313	81.05
326.542	78.85
326.77	83.85
326.999	86.25
327.228	89.65
327.457	87.85
327.686	79.85
327.914	85.25
328.143	80.65
328.372	83.85
328.6	85.45
328.829	88.05
329.058	83.05
329.287	82.25
329.515	77.65
329.744	80.05
329.972	85.25
330.201	78.25
330.43	72.65
330.658	86.65
330.887	87.65
331.115	92.65
331.344	83.25
331.572	88.45
331.801	82.45
332.03	84.65
332.258	80.45
332.486	84.85
332.715	81.85
332.943	81.25
333.172	85.65
333.4	85.45
333.629	82.85
333.857	87.45
334.085	88.25
334.314	86.85
334.542	83.85
334.771	87.65
334.999	79.25
335.227	78.85
335.455	76.85
335.684	81.45
335.912	84.25
336.14	79.65
336.369	82.25
336.597	86.05
336.825	79.05
337.053	78.65
337.281	86.25
337.51	87.25
337.738	86.65
337.966	88.05
338.194	83.45
338.422	83.25
338.65	80.65
338.878	83.65
339.106	79.25
339.334	84.85
339.562	84.65
339.79	82.05
340.018	86.45
340.246	84.05
340.474	83.65
340.702	74.65
340.93	77.25
341.158	84.45
341.386	81.65
341.614	75.85
341.842	84.25
342.07	79.05
342.298	86.25
342.526	84.65
342.754	84.85
342.981	80.25
343.209	85.05
343.437	81.45
343.665	83.85
343.893	85.85
344.12	87.45
344.348	85.25
344.576	86.65
344.804	81.05
345.031	81.85
345.259	83.05
345.487	83.25
345.714	83.45
345.942	78.65
346.17	83.25
346.397	80.85
346.625	81.65
346.853	74.85
347.08	83.25
347.308	76.85
347.535	75.45
347.763	70.05
347.99	82.45
348.218	79.05
348.445	83.85
348.673	79.05
348.9	76.85
349.128	83.85
349.355	80.45
349.583	77.45
349.81	80.05
350.037	80.25
350.265	78.85
350.492	76.45
350.72	78.45
350.947	80.25
351.174	82.65
351.402	79.05
351.629	82.65
351.856	78.65
352.083	82.65
352.311	82.25
352.538	78.65
352.765	81.45
352.992	79.25
353.22	80.65
353.447	77.85
353.674	85.65
353.901	84.45
354.128	80.25
354.355	81.65
354.583	79.65
354.81	78.05
355.037	82.65
355.264	83.05
355.491	77.45
355.718	79.65
355.945	83.25
356.172	81.45
356.399	77.45
356.626	81.25
356.853	78.05
357.08	82.25
357.307	83.85
357.534	83.65
357.761	80.45
357.988	79.85
358.215	85.65
358.441	84.25
358.668	81.25
358.895	94.25
359.122	83.45
359.349	75.25
359.576	76.65
359.802	84.05
360.029	87.45
360.256	81.05
360.483	80.65
360.709	77.65
360.936	75.85
361.163	82.65
361.39	86.25
361.616	84.05
361.843	80.65
362.07	84.85
362.296	88.45
362.523	74.65
362.749	79.05
362.976	80.45
363.203	80.25
363.429	81.45
363.656	79.05
363.882	75.85
364.109	81.85
364.335	84.45
364.562	76.65
364.788	76.05
365.015	78.65
365.241	82.05
365.468	79.65
365.694	83.65
365.92	79.05
366.147	85.05
366.373	74.45
366.599	80.65
366.826	86.25
367.052	78.45
367.278	85.45
367.505	84.85
367.731	87.05
367.957	76.45
368.184	79.45
368.41	83.85
368.636	83.25
368.862	82.05
369.089	82.65
369.315	83.85
369.541	81.05
369.767	79.45
369.993	79.25
370.219	75.65
370.445	75.05
370.672	76.45
370.898	79.45
371.124	83.85
371.35	82.05
371.576	85.45
371.802	78.85
372.028	83.45
372.254	77.45
372.48	72.85
372.706	83.05
372.932	83.65
373.158	83.65
373.384	84.45
373.61	80.05
373.835	78.25
374.061	79.85
374.287	84.45
374.513	80.45
374.739	84.65
374.965	79.25
375.191	74.25
375.416	78.85
375.642	82.65
375.868	82.85
376.094	76.65
376.319	81.85
376.545	78.25
376.771	80.65
376.997	83.05
377.222	79.25
377.448	79.85
377.674	74.65
377.899	77.65
378.125	81.45
378.35	85.05
378.576	87.45
378.802	77.65
379.027	81.25
379.253	77.05
379.478	82.65
379.704	85.05
379.929	82.45
380.155	85.45
380.38	80.25
380.606	85.45
380.831	81.65
381.057	84.45
381.282	78.45
381.507	76.65
381.733	76.65
381.958	80.05
382.184	83.65
382.409	80.65
382.634	77.45
382.86	79.65
383.085	87.45
383.31	77.05
383.535	76.05
383.761	85.45
383.986	82.25
384.211	86.05
384.436	81.85
384.662	88.85
384.887	89.85
385.112	80.85
385.337	81.45
385.562	83.65
385.787	76.25
386.013	81.25
386.238	78.05
386.463	77.45
386.688	79.85
386.913	79.85
387.138	82.85
387.363	79.05
387.588	85.85
387.813	79.85
388.038	79.25
388.263	80.45
388.488	81.85
388.713	79.85
388.938	79.45
389.163	84.05
389.387	76.25
389.612	81.05
389.837	87.45
390.062	80.65
390.287	81.05
390.512	79.25
390.736	80.65
390.961	81.85
391.186	74.05
391.411	77.45
391.636	81.05
391.86	76.45
392.085	72.45
392.31	82.65
392.534	80.65
392.759	80.25
392.984	74.65
393.208	84.85
393.433	81.45
393.658	79.05
393.882	80.85
394.107	83.05
394.331	84.05
394.556	79.45
394.78	86.25
395.005	82.45
395.229	80.45
395.454	76.45
395.678	82.85
395.903	75.85
396.127	81.25
396.352	81.05
396.576	78.05
396.801	80.65
397.025	81.85
397.249	77.85
397.474	68.65
397.698	74.45
397.922	84.05
398.147	77.25
398.371	79.65
398.595	80.25
398.82	82.25
399.044	76.65
399.268	78.65
399.492	79.65
399.717	79.05
399.941	81.65
400.165	83.65
400.389	77.85
400.613	76.65
400.837	81.45
401.062	83.25
401.286	81.65
401.51	79.25
401.734	80.45
401.958	82.05
402.182	87.85
402.406	82.45
402.63	74.25
402.854	71.25
403.078	77.85
403.302	79.05
403.526	79.25
403.75	76.05
403.974	87.65
404.198	84.45
404.422	78.25
404.645	79.05
404.869	77.45
405.093	77.65
405.317	74.65
405.541	81.85
405.765	80.25
405.988	84.25
406.212	81.85
406.436	87.25
406.66	81.45
406.883	75.25
407.107	78.85
407.331	79.65
407.555	82.85
407.778	75.45
408.002	81.05
408.226	79.05
408.449	75.85
408.673	77.45
408.896	79.05
409.12	77.65
409.344	80.65
409.567	82.85
409.791	76.65
410.014	77.65
410.238	80.45
410.461	80.25
410.685	77.25
410.908	83.05
411.132	74.45
411.355	79.05
411.578	75.85
411.802	77.85
412.025	72.45
412.249	76.85
412.472	84.25
412.695	81.85
412.919	79.65
413.142	72.85
413.365	72.05
413.589	79.65
413.812	84.45
414.035	76.05
414.258	75.85
414.482	80.05
414.705	75.85
414.928	76.45
415.151	73.25
415.374	82.85
415.597	75.25
415.821	82.45
416.044	79.85
416.267	77.05
416.49	80.45
416.713	76.45
416.936	83.05
417.159	81.25
417.382	75.25
417.605	80.85
417.828	86.45
418.051	75.85
418.274	84.45
418.497	75.85
418.72	81.25
418.943	75.85
419.166	75.45
419.389	81.45
419.611	80.25
419.834	75.25
420.057	81.65
420.28	83.85
420.503	78.25
420.726	82.45
420.948	77.45
421.171	75.85
421.394	78.45
421.617	79.65
421.839	79.65
422.062	77.05
422.285	79.65
422.507	88.25
422.73	80.65
422.953	78.45
423.175	81.65
423.398	77.25
423.621	80.25
423.843	80.65
424.066	85.65
424.288	78.05
424.511	78.05
424.733	77.45
424.956	80.45
425.178	76.05
425.401	78.05
425.623	79.25
425.846	74.05
426.068	76.85
426.291	75.85
426.513	81.85
426.735	80.85
426.958	80.05
427.18	83.45
427.402	73.05
427.625	75.65
427.847	80.45
428.069	75.45
428.292	75.25
428.514	79.05
428.736	83.05
428.958	74.05
429.181	76.65
429.403	83.65
429.625	80.45
429.847	81.65
430.069	82.25
430.292	85.05
430.514	82.05
430.736	79.85
430.958	82.45
431.18	77.05
431.402	76.65
431.624	76.25
431.846	80.85
432.068	80.05
432.29	88.65
432.512	87.05
432.734	78.05
432.956	81.85
433.178	77.85
433.4	76.25
433.622	86.05
433.844	77.65
434.066	79.85
434.287	78.45
434.509	76.85
434.731	77.45
434.953	78.25
435.175	78.85
435.397	80.85
435.618	78.45
435.84	80.25
436.062	79.65
436.284	77.85
436.505	83.85
436.727	78.05
436.949	82.05
437.17	79.85
437.392	79.85
437.614	78.25
437.835	77.25
438.057	74.85
438.278	79.45
438.5	75.65
438.721	84.05
438.943	78.45
439.165	79.05
439.386	79.25
439.608	79.85
439.829	76.45
440.05	69.45
440.272	79.85
440.493	79.05
440.715	75.45
440.936	74.45
441.158	81.05
441.379	78.85
441.6	77.65
441.822	81.45
442.043	79.05
442.264	83.25
442.486	83.25
442.707	80.85
442.928	82.85
443.149	79.25
443.371	79.45
443.592	78.85
443.813	80.85
444.034	78.45
444.255	81.05
444.476	77.45
444.698	79.65
444.919	72.25
445.14	89.25
445.361	77.45
445.582	79.25
445.803	85.65
446.024	81.45
446.245	75.45
446.466	79.05
446.687	81.85
446.908	85.45
447.129	83.45
447.35	74.85
447.571	82.65
447.792	77.85
448.013	85.45
448.234	78.65
448.455	78.05
448.675	73.45
448.896	79.45
449.117	75.65
449.338	83.05
449.559	84.45
449.779	74.05
450	70.85
450.221	70.45
450.442	82.25
450.662	77.05
450.883	79.85
451.104	79.85
451.324	75.05
451.545	79.25
451.766	80.85
451.986	78.65
452.207	76.45
452.428	78.85
452.648	74.65
452.869	68.45
453.089	76.65
453.31	77.25
453.53	76.45
453.751	77.85
453.971	86.85
454.192	80.25
454.412	73.85
454.633	78.45
454.853	81.85
455.073	77.85
455.294	71.65
455.514	74.65
455.734	81.85
455.955	74.85
456.175	79.25
456.395	74.05
456.616	75.85
456.836	77.85
457.056	76.85
457.276	81.65
457.497	82.05
457.717	76.45
457.937	83.45
458.157	81.65
458.377	79.25
458.598	71.25
458.818	80.05
459.038	80.25
459.258	81.85
459.478	84.85
459.698	75.85
459.918	84.45
460.138	79.05
460.358	76.85
460.578	82.85
460.798	80.05
461.018	78.65
461.238	83.85
461.458	88.85
461.678	77.65
461.898	84.25
462.118	80.05
462.338	81.25
462.558	84.25
462.777	79.65
462.997	82.25
463.217	78.45
463.437	80.85
463.657	76.25
463.876	82.45
464.096	78.65
464.316	78.85
464.536	81.45
464.755	87.65
464.975	84.85
465.195	79.65
465.414	82.25
465.634	77.65
465.854	76.25
466.073	79.85
466.293	76.05
466.512	77.85
466.732	80.05
466.951	78.45
467.171	75.65
467.391	77.05
467.61	78.65
467.829	75.05
468.049	76.65
468.268	77.45
468.488	77.65
468.707	82.65
468.927	81.45
469.146	82.25
469.365	76.05
469.585	79.45
469.804	74.45
470.023	80.45
470.243	79.65
470.462	83.25
470.681	76.85
470.901	85.05
471.12	81.65
471.339	81.05
471.558	81.25
471.777	72.65
471.997	77.85
472.216	80.65
472.435	77.25
472.654	76.25
472.873	80.25
473.092	79.05
473.311	77.85
473.53	80.65
473.749	83.05
473.968	83.65
474.187	77.25
474.406	85.85
474.625	84.05
474.844	80.85
475.063	79.25
475.282	77.65
475.501	77.85
475.72	75.05
475.939	79.65
476.158	80.65
476.377	80.45
476.596	75.65
476.814	76.25
477.033	75.25
477.252	83.85
477.471	84.45
477.69	83.05
477.908	80.25
478.127	82.65
478.346	81.65
478.564	78.05
478.783	78.25
479.002	82.45
479.22	78.05
479.439	79.65
479.658	78.65
479.876	82.65
480.095	80.05
480.313	80.45
480.532	78.05
480.751	80.45
480.969	75.65
481.188	75.65
481.406	86.25
481.624	81.65
481.843	82.65
482.061	78.85
482.28	79.45
482.498	82.25
482.717	78.65
482.935	83.45
483.153	84.25
483.372	83.25
483.59	85.05
483.808	74.85
484.027	80.05
484.245	74.45
484.463	81.65
484.681	87.85
484.9	82.65
485.118	78.45
485.336	77.85
485.554	77.45
485.772	82.45
485.99	77.25
486.209	79.65
486.427	78.45
486.645	75.05
486.863	82.45
487.081	79.25
487.299	80.25
487.517	75.05
487.735	83.45
487.953	83.05
488.171	79.85
488.389	79.25
488.607	80.65
488.825	86.25
489.043	81.05
489.261	84.65
489.479	84.85
489.696	81.65
489.914	77.85
490.132	80.25
490.35	76.65
490.568	85.05
490.786	80.85
491.003	77.85
491.221	74.05
491.439	79.85
491.657	77.45
491.874	84.85
492.092	86.25
492.31	84.85
492.527	81.05
492.745	73.65
492.963	89.25
493.18	73.45
493.398	80.85
493.615	80.05
493.833	76.65
494.05	81.65
494.268	81.05
494.485	77.65
494.703	84.45
494.92	88.25
495.138	81.05
495.355	82.85
495.573	80.65
495.79	80.65
496.008	77.65
496.225	77.65
496.442	79.65
496.66	87.85
496.877	78.65
497.094	77.25
497.312	81.85
497.529	78.05
497.746	80.25
497.963	84.65
498.181	85.65
498.398	82.05
498.615	80.85
498.832	85.45
499.049	72.85
499.267	83.65
499.484	82.65
499.701	80.05
499.918	86.45
500.135	83.05
500.352	81.05
500.569	87.05
500.786	82.65
501.003	79.25
501.22	84.05
501.437	82.45
501.654	82.25
501.871	76.85
502.088	80.65
502.305	77.65
502.522	84.25
502.739	85.05
502.956	84.05
503.172	80.45
503.389	83.85
503.606	84.65
503.823	73.85
504.04	83.85
504.256	83.65
504.473	78.05
504.69	88.45
504.907	77.85
505.123	81.65
505.34	82.45
505.557	85.25
505.773	86.05
505.99	81.85
506.207	83.45
506.423	79.25
506.64	73.25
506.856	85.25
507.073	83.65
507.289	85.05
507.506	73.85
507.722	86.05
507.939	82.25
508.155	79.85
508.372	77.45
508.588	82.25
508.805	80.45
509.021	74.85
509.238	77.85
509.454	78.25
509.67	81.85
509.887	83.05
510.103	81.05
510.319	76.25
510.536	92.45
510.752	82.85
510.968	80.25
511.184	83.25
511.401	78.45
511.617	83.65
511.833	85.25
512.049	77.85
512.265	84.05
512.481	81.05
512.698	85.45
512.914	82.85
513.13	74.45
513.346	81.25
513.562	87.65
513.778	82.45
513.994	81.25
514.21	82.45
514.426	80.85
514.642	81.65
514.858	77.05
515.074	79.05
515.29	82.65
515.506	80.65
515.721	85.25
515.937	83.85
516.153	84.85
516.369	78.45
516.585	80.05
516.801	81.65
517.016	84.65
517.232	84.05
517.448	87.05
517.664	76.25
517.879	81.25
518.095	87.85
518.311	82.25
518.527	77.05
518.742	81.25
518.958	77.85
519.173	88.05
519.389	80.25
519.605	82.45
519.82	80.65
520.036	84.25
520.251	78.85
