Data from TenMicroDelayPb_HRD10591_00002.txt Node
Date: Mon Nov 24 14:44:09 EST 2025
User: Yrep
Spectrometer: HR+D1059
Trigger mode: 0
Integration Time (sec): 1.000000E-2
Scans to average: 5
Electric dark correction enabled: true
Nonlinearity correction enabled: false
Boxcar width: 0
XAxis mode: Wavelengths
Number of Pixels in Spectrum: 2048
>>>>>Begin Spectral Data<<<<<
223.165	-14.25
223.4	-14.25
223.635	-14.25
223.869	-18.45
224.104	-17.65
224.338	-11.25
224.573	-22.25
224.808	-15.25
225.042	-6.65
225.277	-8.05
225.511	-7.25
225.746	2.35
225.98	10.95
226.215	7.15
226.449	17.35
226.683	20.55
226.918	27.35
227.152	35.35
227.387	30.75
227.621	46.35
227.856	46.95
228.09	44.75
228.324	48.55
228.559	57.35
228.793	56.55
229.027	60.95
229.262	62.15
229.496	66.95
229.73	62.95
229.964	63.75
230.199	67.35
230.433	72.55
230.667	68.15
230.901	82.15
231.136	76.95
231.37	81.35
231.604	82.35
231.838	72.95
232.072	77.75
232.306	82.55
232.541	84.55
232.775	81.55
233.009	77.55
233.243	79.55
233.477	83.35
233.711	85.55
233.945	87.55
234.179	79.55
234.413	80.15
234.647	75.15
234.881	79.15
235.115	69.15
235.349	83.75
235.583	79.35
235.817	77.15
236.051	69.95
236.285	75.35
236.519	71.75
236.753	80.35
236.987	71.15
237.221	76.55
237.455	68.15
237.689	68.95
237.922	75.75
238.156	79.35
238.39	76.35
238.624	75.15
238.858	75.35
239.091	66.95
239.325	81.35
239.559	78.75
239.793	70.55
240.027	74.15
240.26	73.95
240.494	75.95
240.728	73.95
240.961	70.35
241.195	75.95
241.429	78.75
241.662	80.35
241.896	70.75
242.13	72.75
242.363	73.75
242.597	80.15
242.83	79.55
243.064	74.55
243.298	75.35
243.531	80.55
243.765	76.35
243.998	78.55
244.232	73.35
244.465	76.35
244.699	72.95
244.932	75.15
245.166	79.55
245.399	76.35
245.633	77.55
245.866	72.35
246.099	68.75
246.333	72.95
246.566	73.75
246.8	80.95
247.033	75.35
247.266	78.75
247.5	75.55
247.733	73.95
247.966	73.35
248.2	75.95
248.433	76.35
248.666	75.35
248.899	78.55
249.133	74.55
249.366	83.15
249.599	85.35
249.832	75.75
250.066	76.35
250.299	76.35
250.532	74.55
250.765	80.95
250.998	78.95
251.231	78.75
251.465	80.95
251.698	74.35
251.931	74.35
252.164	78.35
252.397	76.95
252.63	73.55
252.863	78.75
253.096	76.15
253.329	75.95
253.562	81.35
253.795	80.55
254.028	80.55
254.261	72.55
254.494	80.75
254.727	79.75
254.96	77.95
255.193	75.95
255.426	75.35
255.659	81.75
255.892	77.35
256.124	81.35
256.357	73.75
256.59	73.15
256.823	78.75
257.056	83.55
257.289	76.55
257.521	77.75
257.754	78.35
257.987	78.95
258.22	81.15
258.452	79.95
258.685	73.35
258.918	77.75
259.151	76.15
259.383	79.15
259.616	80.75
259.849	80.55
260.081	81.15
260.314	74.75
260.547	81.15
260.779	74.55
261.012	77.75
261.244	74.55
261.477	73.35
261.71	81.55
261.942	82.75
262.175	78.55
262.407	80.35
262.64	71.95
262.872	80.35
263.105	79.95
263.337	80.75
263.57	78.75
263.802	73.15
264.035	77.95
264.267	77.35
264.499	74.15
264.732	80.35
264.964	78.15
265.197	75.55
265.429	78.55
265.661	84.75
265.894	79.75
266.126	79.35
266.358	75.15
266.591	85.95
266.823	79.95
267.055	81.35
267.287	77.75
267.52	76.35
267.752	78.75
267.984	78.55
268.216	80.15
268.448	79.95
268.681	79.35
268.913	71.95
269.145	80.55
269.377	88.15
269.609	82.55
269.841	76.35
270.073	86.35
270.306	79.75
270.538	78.75
270.77	76.35
271.002	84.15
271.234	78.15
271.466	79.55
271.698	82.15
271.93	81.35
272.162	83.55
272.394	77.95
272.626	80.15
272.858	82.55
273.09	76.55
273.322	80.75
273.553	77.15
273.785	89.35
274.017	87.15
274.249	81.15
274.481	82.75
274.713	81.95
274.945	81.75
275.176	74.95
275.408	87.55
275.64	81.55
275.872	77.75
276.104	78.95
276.335	84.15
276.567	72.35
276.799	80.15
277.031	80.35
277.262	81.95
277.494	79.15
277.726	80.15
277.957	85.95
278.189	90.95
278.421	85.75
278.652	86.95
278.884	82.35
279.115	77.75
279.347	78.95
279.579	87.15
279.81	82.35
280.042	82.15
280.273	77.95
280.505	83.35
280.736	89.75
280.968	80.35
281.199	82.55
281.431	78.75
281.662	82.55
281.894	86.55
282.125	77.75
282.356	78.55
282.588	89.55
282.819	83.95
283.051	80.15
283.282	76.75
283.513	87.15
283.745	90.35
283.976	83.55
284.207	83.35
284.439	76.75
284.67	82.15
284.901	81.55
285.132	78.95
285.364	75.55
285.595	81.55
285.826	89.55
286.057	87.35
286.288	78.35
286.52	79.75
286.751	81.75
286.982	83.75
287.213	84.15
287.444	82.95
287.675	80.95
287.906	83.75
288.138	81.35
288.369	79.95
288.6	80.35
288.831	81.75
289.062	81.95
289.293	86.15
289.524	81.55
289.755	82.75
289.986	84.55
290.217	84.55
290.448	79.35
290.679	81.55
290.91	74.95
291.141	83.95
291.371	86.35
291.602	83.35
291.833	87.55
292.064	80.35
292.295	77.75
292.526	84.55
292.757	81.95
292.987	81.95
293.218	83.95
293.449	81.35
293.68	83.95
293.91	77.55
294.141	81.35
294.372	86.95
294.603	85.15
294.833	84.75
295.064	78.95
295.295	79.95
295.525	83.95
295.756	84.75
295.987	82.55
296.217	85.55
296.448	77.75
296.679	82.15
296.909	78.35
297.14	84.15
297.37	79.95
297.601	80.15
297.831	82.35
298.062	91.15
298.292	84.35
298.523	76.95
298.753	84.35
298.984	82.15
299.214	83.35
299.445	83.35
299.675	82.95
299.905	86.75
300.136	82.35
300.366	85.35
300.597	77.95
300.827	90.15
301.057	85.55
301.288	85.55
301.518	83.95
301.748	76.35
301.979	84.15
302.209	78.95
302.439	87.35
302.669	82.55
302.9	79.75
303.13	77.75
303.36	81.35
303.59	87.75
303.82	81.95
304.051	80.35
304.281	77.55
304.511	88.35
304.741	80.75
304.971	84.15
305.201	82.55
305.431	79.55
305.661	77.95
305.891	87.35
306.121	80.55
306.352	73.95
306.582	85.35
306.812	83.95
307.042	82.35
307.272	86.75
307.502	85.55
307.731	82.35
307.961	80.95
308.191	81.95
308.421	79.75
308.651	83.55
308.881	75.35
309.111	82.95
309.341	82.75
309.571	76.15
309.8	83.15
310.03	79.35
310.26	83.35
310.49	80.15
310.72	84.15
310.949	83.75
311.179	81.95
311.409	84.15
311.639	83.75
311.868	82.55
312.098	82.15
312.328	83.15
312.557	86.75
312.787	84.75
313.017	85.35
313.246	81.95
313.476	88.15
313.706	84.15
313.935	83.15
314.165	83.15
314.394	88.55
314.624	72.95
314.853	85.95
315.083	86.75
315.312	83.75
315.542	87.15
315.771	80.75
316.001	79.35
316.23	82.55
316.46	79.95
316.689	83.35
316.919	78.95
317.148	84.75
317.377	81.75
317.607	85.55
317.836	80.35
318.065	81.35
318.295	86.95
318.524	80.55
318.753	88.35
318.983	83.55
319.212	89.75
319.441	80.75
319.67	78.55
319.9	81.55
320.129	84.95
320.358	87.55
320.587	82.75
320.816	78.15
321.046	86.95
321.275	85.95
321.504	81.15
321.733	77.95
321.962	81.55
322.191	81.75
322.42	81.95
322.649	85.95
322.878	86.55
323.108	82.75
323.337	81.15
323.566	84.35
323.795	86.95
324.024	86.55
324.253	79.15
324.482	82.75
324.71	78.95
324.939	83.35
325.168	80.35
325.397	81.35
325.626	86.35
325.855	80.75
326.084	78.35
326.313	85.15
326.542	78.95
326.77	82.95
326.999	79.95
327.228	83.75
327.457	79.55
327.686	80.55
327.914	83.35
328.143	75.55
328.372	80.95
328.6	80.95
328.829	80.55
329.058	83.75
329.287	76.75
329.515	90.15
329.744	77.55
329.972	81.55
330.201	84.55
330.43	88.15
330.658	84.95
330.887	84.35
331.115	80.55
331.344	89.35
331.572	79.95
331.801	84.55
332.03	84.35
332.258	87.35
332.486	78.35
332.715	81.55
332.943	82.95
333.172	82.55
333.4	82.15
333.629	85.15
333.857	83.15
334.085	83.75
334.314	82.15
334.542	85.35
334.771	78.95
334.999	79.35
335.227	80.75
335.455	84.15
335.684	83.95
335.912	80.55
336.14	82.15
336.369	87.35
336.597	84.15
336.825	85.95
337.053	80.35
337.281	86.35
337.51	79.95
337.738	75.95
337.966	87.75
338.194	81.15
338.422	78.55
338.65	80.55
338.878	80.95
339.106	87.75
339.334	80.15
339.562	79.35
339.79	87.75
340.018	87.35
340.246	84.15
340.474	77.75
340.702	81.35
340.93	87.95
341.158	86.55
341.386	85.35
341.614	82.95
341.842	83.55
342.07	87.95
342.298	78.75
342.526	83.55
342.754	82.75
342.981	75.95
343.209	82.55
343.437	80.55
343.665	86.55
343.893	81.15
344.12	81.35
344.348	84.35
344.576	86.15
344.804	81.15
345.031	82.55
345.259	87.75
345.487	85.55
345.714	85.95
345.942	86.15
346.17	79.95
346.397	82.35
346.625	80.35
346.853	85.75
347.08	80.95
347.308	82.75
347.535	89.15
347.763	81.55
347.99	85.75
348.218	75.35
348.445	75.95
348.673	83.95
348.9	83.35
349.128	82.75
349.355	79.35
349.583	78.95
349.81	78.35
350.037	86.15
350.265	83.95
350.492	82.15
350.72	80.75
350.947	84.75
351.174	84.35
351.402	84.95
351.629	75.75
351.856	81.95
352.083	83.75
352.311	83.15
352.538	81.35
352.765	83.35
352.992	81.55
353.22	74.55
353.447	84.95
353.674	87.15
353.901	87.95
354.128	84.75
354.355	76.75
354.583	81.75
354.81	79.75
355.037	82.95
355.264	89.55
355.491	81.55
355.718	79.95
355.945	83.15
356.172	77.75
356.399	85.95
356.626	75.15
356.853	77.55
357.08	80.75
357.307	79.15
357.534	76.55
357.761	81.35
357.988	79.55
358.215	87.95
358.441	84.75
358.668	77.35
358.895	82.95
359.122	80.75
359.349	81.55
359.576	81.35
359.802	87.35
360.029	85.35
360.256	81.75
360.483	79.95
360.709	82.75
360.936	82.75
361.163	81.55
361.39	86.35
361.616	86.35
361.843	81.95
362.07	77.95
362.296	82.35
362.523	82.35
362.749	78.95
362.976	76.15
363.203	78.15
363.429	85.55
363.656	83.35
363.882	76.75
364.109	84.95
364.335	88.75
364.562	84.35
364.788	77.75
365.015	78.55
365.241	83.75
365.468	79.35
365.694	80.95
365.92	83.75
366.147	85.95
366.373	83.15
366.599	83.15
366.826	83.15
367.052	78.55
367.278	79.75
367.505	79.35
367.731	84.55
367.957	89.55
368.184	82.35
368.41	78.15
368.636	87.95
368.862	78.75
369.089	76.75
369.315	82.55
369.541	77.35
369.767	78.15
369.993	84.75
370.219	83.15
370.445	84.35
370.672	81.75
370.898	77.15
371.124	77.95
371.35	80.35
371.576	78.55
371.802	79.55
372.028	82.75
372.254	76.95
372.48	78.95
372.706	77.35
372.932	79.75
373.158	76.15
373.384	81.35
373.61	78.95
373.835	81.35
374.061	79.95
374.287	79.15
374.513	80.35
374.739	82.75
374.965	81.35
375.191	73.75
375.416	84.55
375.642	82.55
375.868	78.75
376.094	81.35
376.319	81.15
376.545	80.15
376.771	80.75
376.997	73.55
377.222	76.15
377.448	84.95
377.674	78.95
377.899	78.55
378.125	81.75
378.35	80.35
378.576	83.35
378.802	81.95
379.027	78.95
379.253	83.95
379.478	82.75
379.704	80.75
379.929	82.55
380.155	85.75
380.38	83.55
380.606	78.35
380.831	77.35
381.057	81.35
381.282	81.15
381.507	74.75
381.733	75.55
381.958	85.75
382.184	73.75
382.409	81.55
382.634	82.95
382.86	80.55
383.085	83.55
383.31	78.55
383.535	83.95
383.761	76.15
383.986	75.75
384.211	83.95
384.436	77.95
384.662	71.55
384.887	77.55
385.112	84.55
385.337	76.15
385.562	79.35
385.787	77.55
386.013	85.55
386.238	82.15
386.463	82.35
386.688	70.75
386.913	86.75
387.138	81.15
387.363	83.55
387.588	78.15
387.813	82.35
388.038	79.75
388.263	74.95
388.488	81.75
388.713	78.55
388.938	68.35
389.163	78.75
389.387	83.15
389.612	87.55
389.837	79.95
390.062	83.95
390.287	81.95
390.512	82.75
390.736	79.75
390.961	84.15
391.186	73.15
391.411	82.35
391.636	78.15
391.86	77.35
392.085	76.15
392.31	76.55
392.534	83.35
392.759	77.75
392.984	77.95
393.208	78.75
393.433	75.35
393.658	79.75
393.882	79.95
394.107	75.75
394.331	74.55
394.556	82.75
394.78	81.35
395.005	82.95
395.229	80.95
395.454	84.75
395.678	74.35
395.903	78.35
396.127	81.35
396.352	79.95
396.576	78.35
396.801	74.95
397.025	78.75
397.249	86.95
397.474	83.15
397.698	80.15
397.922	78.35
398.147	78.35
398.371	81.35
398.595	85.15
398.82	80.95
399.044	81.95
399.268	82.55
399.492	77.35
399.717	83.35
399.941	79.75
400.165	84.15
400.389	81.95
400.613	79.15
400.837	75.35
401.062	76.55
401.286	73.95
401.51	82.35
401.734	82.95
401.958	75.75
402.182	77.95
402.406	81.35
402.63	82.15
402.854	81.55
403.078	81.95
403.302	80.75
403.526	74.35
403.75	79.35
403.974	79.15
404.198	82.75
404.422	82.55
404.645	76.55
404.869	80.75
405.093	75.55
405.317	87.35
405.541	84.95
405.765	79.95
405.988	74.55
406.212	80.75
406.436	83.55
406.66	76.75
406.883	77.15
407.107	85.55
407.331	81.75
407.555	77.35
407.778	81.15
408.002	81.15
408.226	82.75
408.449	71.55
408.673	83.55
408.896	71.95
409.12	74.35
409.344	83.55
409.567	76.75
409.791	78.95
410.014	76.75
410.238	78.15
410.461	75.55
410.685	84.15
410.908	82.15
411.132	80.15
411.355	81.15
411.578	81.35
411.802	80.75
412.025	74.35
412.249	82.75
412.472	81.95
412.695	77.75
412.919	77.95
413.142	73.15
413.365	73.75
413.589	77.15
413.812	80.95
414.035	88.15
414.258	78.55
414.482	82.75
414.705	82.35
414.928	74.75
415.151	79.95
415.374	79.75
415.597	76.35
415.821	77.35
416.044	76.15
416.267	80.55
416.49	78.95
416.713	78.35
416.936	75.55
417.159	75.15
417.382	79.55
417.605	81.95
417.828	80.95
418.051	80.15
418.274	80.35
418.497	74.15
418.72	81.35
418.943	81.15
419.166	81.15
419.389	79.15
419.611	73.15
419.834	82.15
420.057	79.95
420.28	86.15
420.503	76.35
420.726	81.15
420.948	77.55
421.171	84.15
421.394	79.55
421.617	88.75
421.839	82.95
422.062	78.75
422.285	79.75
422.507	77.75
422.73	75.75
422.953	76.95
423.175	81.15
423.398	73.95
423.621	82.15
423.843	77.55
424.066	85.35
424.288	76.15
424.511	75.75
424.733	83.55
424.956	76.95
425.178	79.55
425.401	79.55
425.623	77.55
425.846	79.15
426.068	85.75
426.291	77.15
426.513	76.55
426.735	78.15
426.958	76.35
427.18	80.35
427.402	89.55
427.625	78.15
427.847	80.75
428.069	79.35
428.292	79.75
428.514	82.55
428.736	72.35
428.958	75.15
429.181	78.75
429.403	77.35
429.625	77.95
429.847	77.35
430.069	80.75
430.292	73.55
430.514	82.55
430.736	74.15
430.958	86.35
431.18	77.15
431.402	75.55
431.624	77.35
431.846	81.15
432.068	81.15
432.29	77.35
432.512	78.55
432.734	77.15
432.956	77.35
433.178	75.95
433.4	76.55
433.622	79.75
433.844	76.75
434.066	84.35
434.287	75.15
434.509	80.95
434.731	80.15
434.953	76.95
435.175	78.95
435.397	83.15
435.618	80.35
435.84	78.75
436.062	72.15
436.284	76.95
436.505	80.15
436.727	76.15
436.949	76.35
437.17	79.15
437.392	83.15
437.614	80.75
437.835	77.35
438.057	81.55
438.278	77.75
438.5	73.95
438.721	77.35
438.943	81.35
439.165	80.35
439.386	72.55
439.608	83.35
439.829	78.15
440.05	81.55
440.272	77.95
440.493	81.55
440.715	76.55
440.936	77.75
441.158	84.15
441.379	78.55
441.6	79.15
441.822	80.15
442.043	79.75
442.264	80.75
442.486	79.35
442.707	76.15
442.928	78.35
443.149	79.75
443.371	85.55
443.592	81.35
443.813	77.15
444.034	83.35
444.255	78.35
444.476	79.95
444.698	79.35
444.919	83.35
445.14	87.15
445.361	95.15
445.582	87.55
445.803	82.15
446.024	83.15
446.245	83.15
446.466	81.75
446.687	80.95
446.908	80.15
447.129	79.75
447.35	76.55
447.571	78.35
447.792	76.35
448.013	79.15
448.234	83.55
448.455	75.75
448.675	79.95
448.896	76.75
449.117	75.95
449.338	84.15
449.559	85.15
449.779	74.55
450	72.75
450.221	73.55
450.442	77.35
450.662	75.95
450.883	73.95
451.104	76.35
451.324	84.35
451.545	85.15
451.766	82.35
451.986	80.95
452.207	77.35
452.428	73.75
452.648	74.75
452.869	84.15
453.089	76.55
453.31	79.55
453.53	77.15
453.751	76.95
453.971	81.55
454.192	82.35
454.412	75.15
454.633	76.15
454.853	76.75
455.073	80.95
455.294	81.35
455.514	77.55
455.734	72.55
455.955	83.55
456.175	71.75
456.395	80.55
456.616	76.15
456.836	82.75
457.056	82.95
457.276	80.95
457.497	81.95
457.717	76.95
457.937	75.75
458.157	77.55
458.377	75.95
458.598	75.95
458.818	84.15
459.038	81.15
459.258	78.35
459.478	82.35
459.698	80.35
459.918	78.55
460.138	82.95
460.358	78.75
460.578	76.15
460.798	83.35
461.018	70.75
461.238	78.35
461.458	83.75
461.678	79.75
461.898	76.15
462.118	79.35
462.338	74.95
462.558	76.55
462.777	75.55
462.997	85.95
463.217	81.15
463.437	82.95
463.657	81.75
463.876	79.35
464.096	80.95
464.316	84.35
464.536	81.95
464.755	81.15
464.975	83.55
465.195	80.55
465.414	79.15
465.634	81.15
465.854	81.75
466.073	76.35
466.293	77.15
466.512	81.75
466.732	81.15
466.951	74.75
467.171	82.95
467.391	79.55
467.61	79.95
467.829	79.15
468.049	73.55
468.268	76.75
468.488	78.35
468.707	77.75
468.927	83.15
469.146	84.35
469.365	78.75
469.585	79.95
469.804	76.75
470.023	75.95
470.243	79.95
470.462	81.15
470.681	74.55
470.901	79.35
471.12	87.35
471.339	82.75
471.558	83.15
471.777	80.55
471.997	77.75
472.216	84.15
472.435	85.15
472.654	82.95
472.873	88.35
473.092	84.55
473.311	78.55
473.53	83.15
473.749	74.95
473.968	81.55
474.187	78.55
474.406	84.35
474.625	83.55
474.844	81.95
475.063	86.55
475.282	76.95
475.501	74.15
475.72	69.75
475.939	80.55
476.158	80.35
476.377	76.35
476.596	85.35
476.814	81.15
477.033	88.75
477.252	84.15
477.471	83.95
477.69	82.95
477.908	77.15
478.127	84.15
478.346	86.35
478.564	82.75
478.783	80.35
479.002	82.35
479.22	82.75
479.439	79.75
479.658	78.15
479.876	79.35
480.095	83.35
480.313	79.15
480.532	86.75
480.751	87.15
480.969	83.35
481.188	78.95
481.406	71.75
481.624	76.55
481.843	73.55
482.061	76.75
482.28	80.75
482.498	81.15
482.717	78.75
482.935	87.35
483.153	81.75
483.372	79.35
483.59	84.95
483.808	79.95
484.027	79.55
484.245	83.15
484.463	78.15
484.681	78.75
484.9	78.95
485.118	80.15
485.336	81.15
485.554	77.55
485.772	84.35
485.99	78.15
486.209	84.95
486.427	80.35
486.645	80.95
486.863	78.95
487.081	71.95
487.299	83.75
487.517	78.35
487.735	83.35
487.953	83.15
488.171	81.35
488.389	76.55
488.607	88.15
488.825	85.35
489.043	81.35
489.261	80.55
489.479	79.75
489.696	78.35
489.914	82.95
490.132	75.95
490.35	81.55
490.568	84.55
490.786	80.35
491.003	78.15
491.221	83.35
491.439	78.15
491.657	77.75
491.874	80.35
492.092	77.35
492.31	82.15
492.527	73.55
492.745	78.55
492.963	77.55
493.18	76.15
493.398	81.35
493.615	76.75
493.833	79.75
494.05	82.75
494.268	80.35
494.485	81.35
494.703	81.35
494.92	83.95
495.138	79.15
495.355	78.75
495.573	79.75
495.79	83.15
496.008	82.35
496.225	81.15
496.442	80.55
496.66	75.55
496.877	80.95
497.094	86.95
497.312	80.55
497.529	82.15
497.746	74.55
497.963	79.95
498.181	81.75
498.398	83.55
498.615	84.55
498.832	78.15
499.049	84.15
499.267	80.35
499.484	78.35
499.701	82.75
499.918	80.95
500.135	75.35
500.352	76.15
500.569	78.35
500.786	82.15
501.003	77.35
501.22	80.75
501.437	80.75
501.654	78.35
501.871	81.75
502.088	81.55
502.305	76.15
502.522	79.15
502.739	86.95
502.956	87.35
503.172	73.15
503.389	83.75
503.606	84.55
503.823	81.75
504.04	74.15
504.256	80.35
504.473	81.55
504.69	78.15
504.907	78.95
505.123	82.75
505.34	74.35
505.557	81.15
505.773	80.75
505.99	75.75
506.207	79.95
506.423	83.15
506.64	79.15
506.856	74.95
507.073	83.15
507.289	80.15
507.506	82.75
507.722	81.75
507.939	78.35
508.155	87.95
508.372	78.75
508.588	80.15
508.805	79.75
509.021	79.15
509.238	78.95
509.454	78.55
509.67	82.35
509.887	81.35
510.103	83.75
510.319	81.55
510.536	78.95
510.752	79.35
510.968	85.55
511.184	80.55
511.401	83.95
511.617	82.15
511.833	81.35
512.049	82.15
512.265	82.15
512.481	79.75
512.698	80.95
512.914	81.15
513.13	84.55
513.346	77.35
513.562	87.95
513.778	86.75
513.994	82.55
514.21	79.15
514.426	78.35
514.642	79.35
514.858	80.95
515.074	76.95
515.29	78.35
515.506	80.35
515.721	79.95
515.937	87.15
516.153	78.75
516.369	81.75
516.585	81.55
516.801	79.55
517.016	79.55
517.232	81.95
517.448	83.15
517.664	76.15
517.879	82.35
518.095	80.75
518.311	79.95
518.527	79.55
518.742	82.55
518.958	77.95
519.173	83.15
519.389	80.95
519.605	80.75
519.82	74.15
520.036	78.95
520.251	81.55
