Data from TenMicroDelayPb_HRD10591_00010.txt Node
Date: Mon Nov 24 14:44:10 EST 2025
User: Yrep
Spectrometer: HR+D1059
Trigger mode: 0
Integration Time (sec): 1.000000E-2
Scans to average: 5
Electric dark correction enabled: true
Nonlinearity correction enabled: false
Boxcar width: 0
XAxis mode: Wavelengths
Number of Pixels in Spectrum: 2048
>>>>>Begin Spectral Data<<<<<
223.165	-14.88
223.4	-14.88
223.635	-14.88
223.869	-22.27
224.104	-19.88
224.338	-13.88
224.573	-13.27
224.808	-9.07
225.042	-7.27
225.277	-0.47
225.511	-6.27
225.746	-3.67
225.98	4.33
226.215	10.33
226.449	16.93
226.683	20.73
226.918	29.53
227.152	29.12
227.387	30.53
227.621	36.12
227.856	37.33
228.09	49.53
228.324	56.93
228.559	49.93
228.793	55.33
229.027	64.53
229.262	66.93
229.496	66.93
229.73	69.73
229.964	69.93
230.199	72.73
230.433	70.53
230.667	77.33
230.901	76.53
231.136	71.33
231.37	79.12
231.604	81.73
231.838	83.53
232.072	81.93
232.306	81.12
232.541	84.12
232.775	79.53
233.009	85.12
233.243	78.93
233.477	77.33
233.711	80.73
233.945	81.12
234.179	73.93
234.413	88.73
234.647	85.73
234.881	83.12
235.115	77.53
235.349	79.93
235.583	78.73
235.817	79.33
236.051	76.12
236.285	75.93
236.519	81.12
236.753	78.73
236.987	80.73
237.221	72.53
237.455	76.73
237.689	75.93
237.922	76.93
238.156	76.12
238.39	78.93
238.624	76.73
238.858	77.33
239.091	77.33
239.325	77.73
239.559	75.53
239.793	78.12
240.027	87.93
240.26	73.12
240.494	76.33
240.728	77.53
240.961	81.93
241.195	72.73
241.429	69.73
241.662	74.33
241.896	83.12
242.13	77.93
242.363	83.33
242.597	82.33
242.83	74.12
243.064	69.53
243.298	79.73
243.531	75.12
243.765	80.73
243.998	82.12
244.232	83.12
244.465	74.12
244.699	90.73
244.932	79.53
245.166	84.53
245.399	75.33
245.633	81.12
245.866	81.73
246.099	78.12
246.333	80.12
246.566	83.12
246.8	78.53
247.033	69.12
247.266	78.73
247.5	84.12
247.733	78.33
247.966	86.73
248.2	80.53
248.433	77.93
248.666	83.93
248.899	82.93
249.133	82.12
249.366	94.33
249.599	82.12
249.832	79.12
250.066	79.53
250.299	85.53
250.532	86.93
250.765	79.12
250.998	84.53
251.231	78.73
251.465	81.93
251.698	78.12
251.931	81.33
252.164	77.12
252.397	85.53
252.63	88.93
252.863	81.53
253.096	85.93
253.329	89.53
253.562	86.53
253.795	84.93
254.028	83.12
254.261	82.93
254.494	82.73
254.727	81.12
254.96	83.93
255.193	95.93
255.426	84.53
255.659	85.33
255.892	78.73
256.124	93.12
256.357	88.93
256.59	83.93
256.823	91.33
257.056	91.53
257.289	89.93
257.521	90.53
257.754	86.93
257.987	89.33
258.22	85.73
258.452	86.12
258.685	84.33
258.918	80.53
259.151	86.33
259.383	88.53
259.616	86.53
259.849	87.12
260.081	88.53
260.314	87.33
260.547	96.73
260.779	96.33
261.012	96.93
261.244	95.12
261.477	99.73
261.71	99.12
261.942	93.12
262.175	89.33
262.407	87.33
262.64	91.93
262.872	91.33
263.105	91.93
263.337	84.73
263.57	87.33
263.802	84.93
264.035	88.12
264.267	85.33
264.499	91.12
264.732	92.33
264.964	89.93
265.197	91.12
265.429	92.93
265.661	89.12
265.894	92.53
266.126	92.33
266.358	98.33
266.591	99.93
266.823	89.33
267.055	92.33
267.287	89.73
267.52	93.93
267.752	90.73
267.984	91.33
268.216	90.93
268.448	86.93
268.681	90.33
268.913	90.12
269.145	94.33
269.377	87.33
269.609	88.93
269.841	94.53
270.073	89.33
270.306	89.33
270.538	84.53
270.77	87.33
271.002	85.73
271.234	83.53
271.466	94.93
271.698	91.12
271.93	90.33
272.162	92.12
272.394	88.33
272.626	91.93
272.858	87.53
273.09	90.53
273.322	87.53
273.553	86.33
273.785	85.53
274.017	93.53
274.249	96.12
274.481	90.33
274.713	90.53
274.945	90.12
275.176	87.53
275.408	87.73
275.64	88.53
275.872	92.53
276.104	92.12
276.335	92.53
276.567	91.12
276.799	91.53
277.031	99.33
277.262	90.93
277.494	94.12
277.726	91.73
277.957	91.12
278.189	92.12
278.421	89.73
278.652	98.12
278.884	92.73
279.115	92.12
279.347	96.93
279.579	101.33
279.81	107.12
280.042	117.12
280.273	120.53
280.505	115.53
280.736	108.53
280.968	102.73
281.199	97.73
281.431	93.12
281.662	95.73
281.894	93.53
282.125	98.93
282.356	100.53
282.588	102.53
282.819	98.53
283.051	99.33
283.282	104.53
283.513	110.93
283.745	107.33
283.976	104.33
284.207	104.12
284.439	107.53
284.67	95.12
284.901	86.12
285.132	98.73
285.364	90.93
285.595	96.53
285.826	93.53
286.057	96.12
286.288	88.73
286.52	96.53
286.751	98.53
286.982	106.12
287.213	101.53
287.444	105.53
287.675	103.93
287.906	100.12
288.138	96.33
288.369	98.73
288.6	94.53
288.831	87.33
289.062	93.73
289.293	89.93
289.524	90.12
289.755	91.93
289.986	87.33
290.217	91.93
290.448	89.93
290.679	94.33
290.91	91.33
291.141	94.93
291.371	87.93
291.602	94.73
291.833	88.73
292.064	87.93
292.295	90.53
292.526	96.33
292.757	92.93
292.987	91.93
293.218	100.33
293.449	102.12
293.68	98.12
293.91	88.53
294.141	95.93
294.372	94.33
294.603	93.53
294.833	103.33
295.064	95.93
295.295	89.53
295.525	94.53
295.756	93.33
295.987	90.53
296.217	86.93
296.448	94.93
296.679	90.53
296.909	90.53
297.14	94.33
297.37	93.73
297.601	92.93
297.831	99.33
298.062	89.33
298.292	94.53
298.523	94.73
298.753	94.12
298.984	93.93
299.214	99.93
299.445	95.73
299.675	94.93
299.905	92.33
300.136	89.53
300.366	90.93
300.597	96.12
300.827	96.73
301.057	95.33
301.288	93.73
301.518	90.53
301.748	99.73
301.979	96.12
302.209	94.73
302.439	97.53
302.669	94.12
302.9	92.53
303.13	94.93
303.36	95.93
303.59	92.73
303.82	91.73
304.051	94.33
304.281	95.33
304.511	98.53
304.741	96.33
304.971	94.12
305.201	94.12
305.431	93.53
305.661	95.93
305.891	96.33
306.121	89.73
306.352	96.93
306.582	95.33
306.812	92.53
307.042	96.73
307.272	95.93
307.502	99.53
307.731	99.53
307.961	92.73
308.191	93.73
308.421	88.73
308.651	95.93
308.881	96.53
309.111	95.93
309.341	91.73
309.571	93.53
309.8	87.53
310.03	92.73
310.26	94.93
310.49	95.12
310.72	92.93
310.949	96.33
311.179	99.73
311.409	95.73
311.639	100.73
311.868	101.73
312.098	93.12
312.328	97.12
312.557	93.93
312.787	96.73
313.017	99.73
313.246	93.33
313.476	101.33
313.706	105.33
313.935	99.93
314.165	99.33
314.394	103.73
314.624	104.53
314.853	99.73
315.083	101.33
315.312	102.12
315.542	99.33
315.771	100.73
316.001	93.53
316.23	101.33
316.46	96.93
316.689	91.93
316.919	100.93
317.148	106.33
317.377	100.12
317.607	97.53
317.836	94.73
318.065	97.12
318.295	101.12
318.524	99.33
318.753	102.12
318.983	92.93
319.212	96.93
319.441	94.33
319.67	100.93
319.9	101.53
320.129	95.12
320.358	95.12
320.587	101.53
320.816	97.93
321.046	95.53
321.275	99.33
321.504	93.93
321.733	99.33
321.962	102.53
322.191	94.12
322.42	96.73
322.649	98.93
322.878	98.53
323.108	98.53
323.337	98.33
323.566	98.12
323.795	94.53
324.024	89.33
324.253	99.33
324.482	101.93
324.71	99.53
324.939	96.12
325.168	100.53
325.397	91.12
325.626	102.53
325.855	98.93
326.084	96.53
326.313	95.93
326.542	98.73
326.77	97.93
326.999	95.73
327.228	101.53
327.457	92.53
327.686	99.93
327.914	90.12
328.143	96.73
328.372	101.12
328.6	98.33
328.829	90.73
329.058	91.73
329.287	102.12
329.515	94.12
329.744	96.33
329.972	96.73
330.201	96.53
330.43	96.93
330.658	96.73
330.887	101.93
331.115	96.33
331.344	97.93
331.572	93.33
331.801	96.33
332.03	97.73
332.258	109.12
332.486	100.73
332.715	109.93
332.943	94.12
333.172	100.12
333.4	99.93
333.629	102.33
333.857	92.33
334.085	93.93
334.314	94.93
334.542	95.93
334.771	98.53
334.999	103.53
335.227	100.53
335.455	98.93
335.684	99.33
335.912	97.73
336.14	95.73
336.369	96.53
336.597	97.73
336.825	97.93
337.053	96.93
337.281	100.53
337.51	97.33
337.738	94.53
337.966	96.53
338.194	99.33
338.422	91.93
338.65	102.53
338.878	93.33
339.106	95.73
339.334	100.53
339.562	98.53
339.79	92.33
340.018	95.12
340.246	103.73
340.474	88.73
340.702	101.33
340.93	97.73
341.158	94.93
341.386	92.93
341.614	94.73
341.842	96.33
342.07	99.73
342.298	91.93
342.526	99.12
342.754	94.53
342.981	100.93
343.209	99.93
343.437	97.93
343.665	93.33
343.893	94.93
344.12	94.93
344.348	96.33
344.576	95.73
344.804	97.33
345.031	97.93
345.259	101.53
345.487	96.33
345.714	91.12
345.942	97.73
346.17	97.53
346.397	96.93
346.625	98.53
346.853	97.93
347.08	97.73
347.308	97.93
347.535	103.53
347.763	102.33
347.99	98.12
348.218	101.73
348.445	98.53
348.673	99.53
348.9	94.12
349.128	94.33
349.355	96.53
349.583	97.12
349.81	88.73
350.037	102.53
350.265	99.33
350.492	97.53
350.72	102.53
350.947	93.53
351.174	89.93
351.402	100.93
351.629	94.53
351.856	94.33
352.083	99.33
352.311	103.73
352.538	95.73
352.765	96.53
352.992	93.53
353.22	93.93
353.447	96.33
353.674	96.53
353.901	98.93
354.128	95.33
354.355	96.12
354.583	94.53
354.81	96.73
355.037	95.33
355.264	96.53
355.491	95.73
355.718	99.53
355.945	96.93
356.172	99.53
356.399	98.12
356.626	101.73
356.853	107.33
357.08	117.93
357.307	126.12
357.534	120.73
357.761	118.93
357.988	117.33
358.215	103.73
358.441	104.33
358.668	110.33
358.895	94.33
359.122	102.53
359.349	98.33
359.576	95.53
359.802	101.12
360.029	96.12
360.256	92.93
360.483	101.53
360.709	98.33
360.936	103.53
361.163	93.53
361.39	97.12
361.616	94.53
361.843	97.73
362.07	100.93
362.296	97.73
362.523	105.33
362.749	99.12
362.976	97.93
363.203	107.53
363.429	111.93
363.656	120.93
363.882	138.33
364.109	143.12
364.335	130.53
364.562	118.33
364.788	108.33
365.015	109.93
365.241	103.73
365.468	95.93
365.694	108.33
365.92	97.33
366.147	104.33
366.373	98.33
366.599	102.33
366.826	107.53
367.052	112.73
367.278	115.33
367.505	113.53
367.731	116.33
367.957	123.53
368.184	134.93
368.41	156.53
368.636	155.12
368.862	130.33
369.089	119.73
369.315	116.33
369.541	109.53
369.767	109.12
369.993	105.73
370.219	99.93
370.445	96.73
370.672	105.53
370.898	100.53
371.124	104.93
371.35	103.33
371.576	102.33
371.802	100.12
372.028	96.93
372.254	102.12
372.48	101.12
372.706	105.33
372.932	99.33
373.158	96.73
373.384	106.33
373.61	114.12
373.835	120.93
374.061	132.12
374.287	130.53
374.513	109.33
374.739	105.53
374.965	100.33
375.191	104.33
375.416	102.93
375.642	91.53
375.868	94.12
376.094	98.33
376.319	96.33
376.545	93.12
376.771	96.53
376.997	99.33
377.222	96.93
377.448	98.93
377.674	99.53
377.899	100.73
378.125	94.53
378.35	94.73
378.576	97.33
378.802	93.12
379.027	98.33
379.253	104.73
379.478	102.53
379.704	98.53
379.929	102.12
380.155	99.12
380.38	100.12
380.606	91.93
380.831	100.93
381.057	97.73
381.282	103.33
381.507	98.93
381.733	101.73
381.958	97.33
382.184	100.33
382.409	101.12
382.634	97.12
382.86	103.12
383.085	95.12
383.31	90.33
383.535	99.12
383.761	93.12
383.986	90.33
384.211	95.12
384.436	97.53
384.662	93.33
384.887	100.93
385.112	93.53
385.337	103.73
385.562	99.12
385.787	96.93
386.013	94.53
386.238	100.12
386.463	96.53
386.688	102.93
386.913	94.53
387.138	96.53
387.363	97.12
387.588	98.53
387.813	99.93
388.038	94.53
388.263	89.12
388.488	90.73
388.713	96.33
388.938	97.12
389.163	98.12
389.387	95.33
389.612	90.12
389.837	99.93
390.062	97.12
390.287	101.53
390.512	99.93
390.736	96.93
390.961	100.12
391.186	93.73
391.411	104.33
391.636	93.33
391.86	97.12
392.085	97.53
392.31	98.12
392.534	94.53
392.759	95.73
392.984	97.73
393.208	90.93
393.433	93.53
393.658	98.33
393.882	96.12
394.107	92.73
394.331	94.93
394.556	98.53
394.78	93.73
395.005	99.33
395.229	97.73
395.454	101.73
395.678	98.73
395.903	102.33
396.127	97.12
396.352	99.33
396.576	90.12
396.801	91.73
397.025	97.12
397.249	103.53
397.474	93.12
397.698	97.12
397.922	94.33
398.147	98.12
398.371	95.73
398.595	98.73
398.82	95.73
399.044	106.12
399.268	96.12
399.492	100.12
399.717	104.12
399.941	98.12
400.165	99.73
400.389	100.93
400.613	99.93
400.837	102.12
401.062	100.12
401.286	99.93
401.51	97.53
401.734	106.33
401.958	107.93
402.182	111.12
402.406	104.93
402.63	104.53
402.854	99.73
403.078	99.73
403.302	104.53
403.526	103.33
403.75	105.12
403.974	103.93
404.198	103.33
404.422	101.12
404.645	107.53
404.869	113.53
405.093	114.73
405.317	128.53
405.541	150.12
405.765	193.33
405.988	205.33
406.212	164.73
406.436	142.53
406.66	132.12
406.883	120.93
407.107	120.93
407.331	118.12
407.555	111.53
407.778	112.12
408.002	111.12
408.226	111.73
408.449	103.73
408.673	102.33
408.896	104.73
409.12	104.33
409.344	106.33
409.567	104.12
409.791	97.93
410.014	100.53
410.238	106.33
410.461	103.93
410.685	97.93
410.908	95.93
411.132	98.33
411.355	99.53
411.578	95.93
411.802	98.93
412.025	106.53
412.249	109.12
412.472	102.53
412.695	102.33
412.919	95.93
413.142	102.12
413.365	106.73
413.589	102.12
413.812	100.53
414.035	97.12
414.258	91.93
414.482	101.93
414.705	98.73
414.928	100.93
415.151	97.12
415.374	107.93
415.597	103.93
415.821	99.53
416.044	100.93
416.267	101.73
416.49	98.33
416.713	107.33
416.936	104.93
417.159	106.93
417.382	101.33
417.605	100.33
417.828	93.93
418.051	104.33
418.274	102.12
418.497	93.33
418.72	100.73
418.943	96.53
419.166	103.93
419.389	99.93
419.611	102.33
419.834	98.12
420.057	101.33
420.28	95.73
420.503	97.93
420.726	99.93
420.948	95.93
421.171	104.33
421.394	103.33
421.617	105.73
421.839	100.12
422.062	109.12
422.285	100.93
422.507	113.33
422.73	108.93
422.953	107.73
423.175	102.53
423.398	110.33
423.621	109.73
423.843	109.33
424.066	116.33
424.288	126.33
424.511	125.53
424.733	137.73
424.956	133.33
425.178	131.73
425.401	115.93
425.623	123.73
425.846	111.33
426.068	111.73
426.291	110.93
426.513	109.33
426.735	108.33
426.958	109.93
427.18	105.53
427.402	104.93
427.625	109.73
427.847	102.73
428.069	103.53
428.292	100.73
428.514	100.12
428.736	102.33
428.958	100.93
429.181	104.12
429.403	106.12
429.625	103.33
429.847	100.53
430.069	101.93
430.292	96.12
430.514	100.53
430.736	105.93
430.958	106.33
431.18	96.93
431.402	107.12
431.624	105.53
431.846	101.33
432.068	98.53
432.29	94.93
432.512	98.12
432.734	98.73
432.956	96.93
433.178	107.93
433.4	103.33
433.622	102.12
433.844	99.12
434.066	107.33
434.287	100.93
434.509	101.33
434.731	95.93
434.953	102.73
435.175	101.93
435.397	105.93
435.618	101.93
435.84	106.33
436.062	109.93
436.284	109.33
436.505	108.33
436.727	108.73
436.949	105.53
437.17	112.53
437.392	103.73
437.614	111.53
437.835	107.33
438.057	112.12
438.278	112.93
438.5	118.73
438.721	134.33
438.943	135.33
439.165	127.53
439.386	119.33
439.608	118.53
439.829	126.73
440.05	122.53
440.272	117.33
440.493	116.73
440.715	115.93
440.936	114.12
441.158	123.12
441.379	117.33
441.6	114.33
441.822	109.53
442.043	109.73
442.264	113.33
442.486	113.33
442.707	107.12
442.928	107.53
443.149	104.33
443.371	105.93
443.592	106.93
443.813	106.73
444.034	106.33
444.255	108.93
444.476	103.53
444.698	109.53
444.919	111.93
445.14	115.73
445.361	113.12
445.582	107.53
445.803	103.73
446.024	104.93
446.245	106.33
446.466	104.33
446.687	111.53
446.908	110.53
447.129	102.53
447.35	97.53
447.571	113.73
447.792	107.53
448.013	100.53
448.234	111.93
448.455	97.73
448.675	101.33
448.896	100.93
449.117	96.73
449.338	101.12
449.559	107.53
449.779	100.93
450	101.93
450.221	101.73
450.442	101.53
450.662	100.12
450.883	103.53
451.104	100.53
451.324	104.73
451.545	96.12
451.766	96.93
451.986	97.93
452.207	102.53
452.428	101.33
452.648	98.93
452.869	99.33
453.089	98.73
453.31	92.12
453.53	94.53
453.751	95.33
453.971	95.93
454.192	96.73
454.412	100.53
454.633	95.12
454.853	108.53
455.073	101.93
455.294	96.53
455.514	99.12
455.734	94.53
455.955	100.53
456.175	103.12
456.395	99.93
456.616	92.12
456.836	99.33
457.056	101.12
457.276	99.53
457.497	100.73
457.717	94.93
457.937	91.33
458.157	94.12
458.377	98.53
458.598	101.12
458.818	94.33
459.038	94.93
459.258	98.12
459.478	94.73
459.698	100.12
459.918	101.93
460.138	97.93
460.358	97.12
460.578	102.33
460.798	100.93
461.018	92.93
461.238	101.53
461.458	101.12
461.678	94.73
461.898	100.73
462.118	101.12
462.338	98.12
462.558	101.12
462.777	100.93
462.997	96.73
463.217	104.93
463.437	104.73
463.657	96.33
463.876	94.53
464.096	101.73
464.316	96.12
464.536	96.53
464.755	100.93
464.975	99.53
465.195	104.12
465.414	101.53
465.634	103.33
465.854	96.73
466.073	97.12
466.293	92.53
466.512	104.53
466.732	100.33
466.951	99.12
467.171	100.33
467.391	92.53
467.61	103.12
467.829	94.73
468.049	99.93
468.268	97.93
468.488	94.73
468.707	98.33
468.927	96.93
469.146	99.12
469.365	105.73
469.585	108.73
469.804	96.12
470.023	101.12
470.243	101.93
470.462	106.73
470.681	101.53
470.901	96.33
471.12	100.73
471.339	102.93
471.558	98.93
471.777	102.33
471.997	98.53
472.216	96.33
472.435	99.12
472.654	102.53
472.873	103.33
473.092	94.93
473.311	100.12
473.53	105.12
473.749	94.33
473.968	101.53
474.187	101.93
474.406	101.73
474.625	98.93
474.844	99.73
475.063	101.53
475.282	103.93
475.501	101.33
475.72	102.93
475.939	97.53
476.158	100.12
476.377	101.53
476.596	95.53
476.814	95.53
477.033	102.33
477.252	103.33
477.471	105.33
477.69	108.53
477.908	106.12
478.127	100.93
478.346	102.33
478.564	105.12
478.783	105.33
479.002	107.93
479.22	106.73
479.439	106.93
479.658	102.12
479.876	103.93
480.095	98.93
480.313	106.93
480.532	100.33
480.751	101.53
480.969	104.12
481.188	104.33
481.406	102.12
481.624	99.93
481.843	101.53
482.061	98.93
482.28	98.53
482.498	104.93
482.717	97.73
482.935	101.53
483.153	99.12
483.372	102.73
483.59	110.73
483.808	104.12
484.027	103.73
484.245	102.33
484.463	99.33
484.681	107.53
484.9	99.53
485.118	110.53
485.336	97.93
485.554	101.53
485.772	101.33
485.99	100.93
486.209	103.12
486.427	106.12
486.645	104.53
486.863	100.12
487.081	108.53
487.299	109.53
487.517	100.73
487.735	109.12
487.953	106.12
488.171	106.73
488.389	105.73
488.607	105.53
488.825	102.73
489.043	113.93
489.261	115.53
489.479	105.53
489.696	106.12
489.914	106.33
490.132	102.93
490.35	106.73
490.568	107.73
490.786	109.53
491.003	112.73
491.221	110.53
491.439	107.73
491.657	112.33
491.874	111.93
492.092	118.53
492.31	105.33
492.527	110.33
492.745	108.33
492.963	108.53
493.18	112.93
493.398	108.53
493.615	111.53
493.833	111.33
494.05	111.53
494.268	113.12
494.485	108.73
494.703	116.53
494.92	103.93
495.138	102.53
495.355	109.93
495.573	108.33
495.79	103.53
496.008	105.73
496.225	104.12
496.442	107.73
496.66	114.12
496.877	106.12
497.094	115.12
497.312	113.12
497.529	110.53
497.746	105.93
497.963	106.93
498.181	101.93
498.398	111.33
498.615	107.33
498.832	101.53
499.049	104.53
499.267	111.73
499.484	115.53
499.701	117.33
499.918	119.33
500.135	110.73
500.352	120.33
500.569	119.33
500.786	134.53
501.003	131.93
501.22	121.73
501.437	118.73
501.654	114.93
501.871	113.73
502.088	113.93
502.305	115.93
502.522	110.33
502.739	107.33
502.956	106.53
503.172	116.33
503.389	106.73
503.606	111.12
503.823	106.53
504.04	102.73
504.256	109.33
504.473	112.53
504.69	111.33
504.907	106.53
505.123	104.33
505.34	114.53
505.557	111.53
505.773	112.53
505.99	107.33
506.207	108.53
506.423	105.33
506.64	115.73
506.856	113.53
507.073	102.93
507.289	106.73
507.506	105.93
507.722	108.93
507.939	107.33
508.155	101.53
508.372	101.93
508.588	104.33
508.805	102.73
509.021	98.73
509.238	104.73
509.454	105.33
509.67	95.53
509.887	105.53
510.103	102.33
510.319	102.73
510.536	102.53
510.752	102.33
510.968	106.53
511.184	104.73
511.401	103.33
511.617	104.12
511.833	99.33
512.049	98.53
512.265	98.53
