Data from TenMicroDelayPb_HRD10591_00009.txt Node
Date: Mon Nov 24 14:44:10 EST 2025
User: Yrep
Spectrometer: HR+D1059
Trigger mode: 0
Integration Time (sec): 1.000000E-2
Scans to average: 5
Electric dark correction enabled: true
Nonlinearity correction enabled: false
Boxcar width: 0
XAxis mode: Wavelengths
Number of Pixels in Spectrum: 2048
>>>>>Begin Spectral Data<<<<<
223.165	-13.01
223.4	-13.01
223.635	-13.01
223.869	-14.81
224.104	-18.21
224.338	-15.81
224.573	-11.81
224.808	-12.21
225.042	-15.01
225.277	-7.01
225.511	-2.61
225.746	3.79
225.98	6.39
226.215	11.19
226.449	16.79
226.683	26.19
226.918	23.19
227.152	22.99
227.387	34.99
227.621	36.99
227.856	44.39
228.09	42.59
228.324	51.79
228.559	60.19
228.793	55.19
229.027	62.59
229.262	67.79
229.496	69.19
229.73	67.39
229.964	74.99
230.199	73.59
230.433	74.99
230.667	74.99
230.901	76.59
231.136	78.39
231.37	74.79
231.604	81.79
231.838	85.99
232.072	80.19
232.306	78.99
232.541	78.19
232.775	83.59
233.009	82.59
233.243	89.59
233.477	82.39
233.711	74.59
233.945	79.79
234.179	81.99
234.413	81.99
234.647	78.79
234.881	80.99
235.115	80.79
235.349	81.19
235.583	83.79
235.817	77.39
236.051	83.59
236.285	80.19
236.519	80.39
236.753	71.59
236.987	78.79
237.221	77.39
237.455	73.79
237.689	75.59
237.922	75.59
238.156	73.19
238.39	82.99
238.624	71.59
238.858	73.59
239.091	78.79
239.325	75.19
239.559	73.39
239.793	76.59
240.027	80.99
240.26	77.99
240.494	76.79
240.728	78.79
240.961	77.99
241.195	79.39
241.429	80.79
241.662	74.99
241.896	79.59
242.13	73.79
242.363	73.79
242.597	78.19
242.83	76.79
243.064	75.79
243.298	75.59
243.531	77.19
243.765	79.79
243.998	72.19
244.232	65.99
244.465	82.99
244.699	82.99
244.932	74.39
245.166	75.59
245.399	72.59
245.633	78.79
245.866	78.19
246.099	82.39
246.333	73.59
246.566	79.79
246.8	77.59
247.033	73.79
247.266	78.39
247.5	84.39
247.733	78.99
247.966	78.79
248.2	74.99
248.433	79.59
248.666	76.39
248.899	77.39
249.133	79.79
249.366	79.59
249.599	83.19
249.832	73.19
250.066	78.59
250.299	79.99
250.532	79.19
250.765	80.79
250.998	79.79
251.231	75.79
251.465	84.59
251.698	74.39
251.931	81.59
252.164	75.79
252.397	79.39
252.63	78.79
252.863	83.59
253.096	76.59
253.329	77.79
253.562	79.79
253.795	80.59
254.028	80.79
254.261	82.39
254.494	80.39
254.727	81.79
254.96	74.99
255.193	77.39
255.426	76.39
255.659	80.59
255.892	79.39
256.124	88.39
256.357	79.39
256.59	85.19
256.823	84.99
257.056	81.99
257.289	81.79
257.521	78.59
257.754	79.19
257.987	83.79
258.22	81.59
258.452	85.19
258.685	80.19
258.918	70.19
259.151	79.59
259.383	78.79
259.616	80.79
259.849	74.19
260.081	78.99
260.314	83.19
260.547	80.59
260.779	80.79
261.012	82.99
261.244	76.79
261.477	80.19
261.71	83.99
261.942	84.19
262.175	82.99
262.407	85.59
262.64	78.59
262.872	85.19
263.105	80.19
263.337	76.79
263.57	74.99
263.802	80.99
264.035	81.19
264.267	86.59
264.499	80.99
264.732	80.19
264.964	82.99
265.197	81.59
265.429	83.99
265.661	82.79
265.894	84.99
266.126	84.99
266.358	77.99
266.591	82.39
266.823	81.19
267.055	79.99
267.287	78.99
267.52	90.79
267.752	78.59
267.984	83.59
268.216	81.39
268.448	89.19
268.681	85.79
268.913	81.79
269.145	78.99
269.377	86.99
269.609	84.59
269.841	85.79
270.073	83.59
270.306	86.19
270.538	79.19
270.77	83.79
271.002	81.59
271.234	79.39
271.466	82.99
271.698	80.59
271.93	82.19
272.162	84.59
272.394	85.79
272.626	82.59
272.858	76.99
273.09	76.19
273.322	78.39
273.553	84.79
273.785	86.39
274.017	84.39
274.249	79.59
274.481	86.99
274.713	85.39
274.945	84.79
275.176	79.99
275.408	80.59
275.64	86.59
275.872	81.99
276.104	84.79
276.335	84.19
276.567	86.19
276.799	80.39
277.031	86.99
277.262	78.19
277.494	84.19
277.726	79.59
277.957	81.79
278.189	84.79
278.421	88.19
278.652	85.99
278.884	83.19
279.115	89.99
279.347	85.39
279.579	78.99
279.81	83.19
280.042	83.39
280.273	81.99
280.505	77.19
280.736	78.79
280.968	93.39
281.199	88.59
281.431	79.79
281.662	79.39
281.894	83.59
282.125	85.19
282.356	81.59
282.588	90.59
282.819	83.59
283.051	80.59
283.282	75.59
283.513	82.59
283.745	84.99
283.976	88.39
284.207	80.19
284.439	78.39
284.67	82.39
284.901	88.59
285.132	80.79
285.364	83.39
285.595	83.19
285.826	80.39
286.057	82.39
286.288	85.39
286.52	87.99
286.751	79.59
286.982	84.99
287.213	89.39
287.444	86.79
287.675	89.79
287.906	88.99
288.138	83.59
288.369	80.19
288.6	77.39
288.831	85.59
289.062	83.79
289.293	83.59
289.524	88.39
289.755	84.99
289.986	83.99
290.217	82.79
290.448	85.59
290.679	88.39
290.91	84.79
291.141	77.99
291.371	86.79
291.602	78.39
291.833	83.99
292.064	82.19
292.295	87.19
292.526	85.19
292.757	85.19
292.987	90.99
293.218	83.59
293.449	86.99
293.68	85.79
293.91	87.59
294.141	83.99
294.372	83.99
294.603	87.19
294.833	82.79
295.064	88.39
295.295	86.99
295.525	86.99
295.756	89.59
295.987	88.19
296.217	85.79
296.448	80.99
296.679	81.79
296.909	87.19
297.14	85.19
297.37	93.19
297.601	89.79
297.831	88.79
298.062	89.79
298.292	86.19
298.523	84.59
298.753	90.39
298.984	90.99
299.214	96.39
299.445	85.99
299.675	83.19
299.905	85.39
300.136	83.39
300.366	83.19
300.597	86.99
300.827	84.99
301.057	87.59
301.288	89.39
301.518	86.59
301.748	83.79
301.979	86.99
302.209	90.39
302.439	79.79
302.669	85.39
302.9	92.39
303.13	81.19
303.36	90.59
303.59	91.99
303.82	86.19
304.051	88.59
304.281	84.79
304.511	84.79
304.741	80.99
304.971	87.79
305.201	85.19
305.431	83.79
305.661	84.19
305.891	86.79
306.121	92.99
306.352	83.19
306.582	84.19
306.812	90.59
307.042	91.19
307.272	83.79
307.502	82.59
307.731	88.19
307.961	82.19
308.191	82.99
308.421	86.79
308.651	81.99
308.881	84.99
309.111	84.79
309.341	82.39
309.571	86.99
309.8	84.99
310.03	87.39
310.26	82.99
310.49	81.59
310.72	83.79
310.949	89.79
311.179	81.39
311.409	79.99
311.639	82.39
311.868	85.99
312.098	85.19
312.328	88.39
312.557	83.19
312.787	83.39
313.017	85.79
313.246	85.99
313.476	83.19
313.706	80.59
313.935	84.39
314.165	88.79
314.394	89.39
314.624	85.59
314.853	82.59
315.083	86.99
315.312	76.39
315.542	81.99
315.771	86.59
316.001	82.79
316.23	83.79
316.46	86.99
316.689	89.39
316.919	79.39
317.148	87.59
317.377	85.39
317.607	88.59
317.836	90.99
318.065	82.99
318.295	87.39
318.524	84.79
318.753	84.59
318.983	86.39
319.212	77.59
319.441	91.39
319.67	86.59
319.9	85.79
320.129	86.39
320.358	79.79
320.587	76.99
320.816	86.39
321.046	83.19
321.275	82.39
321.504	92.19
321.733	87.99
321.962	83.19
322.191	86.99
322.42	87.59
322.649	84.99
322.878	90.59
323.108	83.59
323.337	78.79
323.566	82.39
323.795	85.39
324.024	89.19
324.253	84.79
324.482	82.19
324.71	77.99
324.939	86.39
325.168	87.79
325.397	79.39
325.626	87.19
325.855	84.39
326.084	89.19
326.313	90.59
326.542	91.79
326.77	82.39
326.999	79.59
327.228	75.99
327.457	79.19
327.686	86.79
327.914	84.39
328.143	85.99
328.372	81.79
328.6	85.59
328.829	92.79
329.058	87.39
329.287	90.79
329.515	89.59
329.744	81.39
329.972	90.19
330.201	86.19
330.43	83.19
330.658	80.79
330.887	84.99
331.115	84.59
331.344	86.59
331.572	84.99
331.801	84.39
332.03	79.79
332.258	85.59
332.486	85.39
332.715	84.19
332.943	81.59
333.172	80.59
333.4	82.79
333.629	88.99
333.857	85.99
334.085	85.19
334.314	86.59
334.542	87.39
334.771	82.39
334.999	83.99
335.227	85.19
335.455	81.19
335.684	88.59
335.912	87.79
336.14	86.59
336.369	85.19
336.597	87.59
336.825	86.39
337.053	82.79
337.281	83.59
337.51	83.79
337.738	87.99
337.966	86.59
338.194	87.99
338.422	81.99
338.65	88.59
338.878	81.39
339.106	89.79
339.334	86.99
339.562	85.39
339.79	84.19
340.018	88.59
340.246	83.39
340.474	81.19
340.702	83.79
340.93	78.79
341.158	88.79
341.386	86.79
341.614	77.39
341.842	90.79
342.07	87.19
342.298	79.79
342.526	87.39
342.754	81.39
342.981	82.99
343.209	82.79
343.437	82.59
343.665	83.79
343.893	81.59
344.12	83.59
344.348	83.99
344.576	83.99
344.804	85.19
345.031	78.19
345.259	73.39
345.487	84.19
345.714	86.19
345.942	83.19
346.17	86.79
346.397	80.59
346.625	80.79
346.853	78.79
347.08	84.99
347.308	86.59
347.535	82.19
347.763	90.59
347.99	82.99
348.218	82.59
348.445	82.59
348.673	79.19
348.9	82.59
349.128	84.39
349.355	93.19
349.583	77.19
349.81	82.99
350.037	89.19
350.265	82.79
350.492	81.19
350.72	81.79
350.947	80.39
351.174	87.39
351.402	87.59
351.629	86.79
351.856	85.79
352.083	89.19
352.311	83.99
352.538	87.39
352.765	87.59
352.992	87.39
353.22	85.39
353.447	85.99
353.674	88.59
353.901	80.79
354.128	82.39
354.355	88.79
354.583	83.79
354.81	82.99
355.037	89.99
355.264	84.99
355.491	90.39
355.718	80.59
355.945	84.59
356.172	84.19
356.399	82.59
356.626	86.59
356.853	89.19
357.08	85.19
357.307	88.39
357.534	81.39
357.761	83.59
357.988	77.99
358.215	83.39
358.441	88.19
358.668	89.99
358.895	87.79
359.122	87.39
359.349	88.99
359.576	80.19
359.802	84.39
360.029	87.39
360.256	84.39
360.483	80.79
360.709	82.79
360.936	80.19
361.163	84.79
361.39	85.39
361.616	81.19
361.843	77.59
362.07	82.99
362.296	86.39
362.523	86.59
362.749	89.39
362.976	80.99
363.203	81.79
363.429	87.99
363.656	81.39
363.882	85.39
364.109	74.59
364.335	84.59
364.562	89.79
364.788	81.99
365.015	81.19
365.241	88.59
365.468	81.79
365.694	73.19
365.92	81.79
366.147	87.19
366.373	81.59
366.599	86.39
366.826	86.39
367.052	82.99
367.278	83.19
367.505	82.59
367.731	88.59
367.957	83.59
368.184	81.59
368.41	87.59
368.636	83.99
368.862	80.99
369.089	88.59
369.315	82.39
369.541	83.59
369.767	80.39
369.993	77.59
370.219	75.19
370.445	86.99
370.672	86.99
370.898	88.79
371.124	78.79
371.35	85.59
371.576	81.79
371.802	81.19
372.028	84.79
372.254	90.99
372.48	83.99
372.706	83.19
372.932	80.59
373.158	78.39
373.384	81.79
373.61	86.19
373.835	74.59
374.061	84.39
374.287	87.39
374.513	90.19
374.739	85.79
374.965	80.59
375.191	78.19
375.416	81.79
375.642	83.59
375.868	80.39
376.094	87.39
376.319	80.39
376.545	83.19
376.771	82.79
376.997	81.59
377.222	81.39
377.448	84.59
377.674	87.59
377.899	77.99
378.125	82.79
378.35	82.99
378.576	83.39
378.802	78.79
379.027	83.79
379.253	81.79
379.478	78.39
379.704	80.79
379.929	83.19
380.155	87.19
380.38	80.99
380.606	84.59
380.831	79.19
381.057	82.19
381.282	85.59
381.507	79.19
381.733	85.39
381.958	86.99
382.184	78.39
382.409	84.39
382.634	79.99
382.86	79.79
383.085	88.39
383.31	79.79
383.535	80.99
383.761	87.19
383.986	80.19
384.211	74.39
384.436	84.59
384.662	81.19
384.887	82.39
385.112	84.99
385.337	83.39
385.562	85.59
385.787	85.59
386.013	77.59
386.238	84.39
386.463	77.39
386.688	84.79
386.913	79.19
387.138	86.79
387.363	84.59
387.588	75.79
387.813	78.79
388.038	86.19
388.263	84.39
388.488	74.99
388.713	81.19
388.938	79.39
389.163	83.19
389.387	80.99
389.612	77.19
389.837	80.59
390.062	84.59
390.287	82.59
390.512	85.99
390.736	84.59
390.961	83.79
391.186	83.59
391.411	80.39
391.636	82.39
391.86	76.39
392.085	85.99
392.31	83.99
392.534	80.99
392.759	88.99
392.984	77.99
393.208	80.79
393.433	84.79
393.658	83.59
393.882	82.99
394.107	84.59
394.331	82.99
394.556	83.99
394.78	83.59
395.005	81.79
395.229	87.39
395.454	83.99
395.678	82.59
395.903	80.59
396.127	76.39
396.352	84.39
396.576	89.79
396.801	80.59
397.025	85.19
397.249	81.79
397.474	80.79
397.698	78.59
397.922	81.79
398.147	78.79
398.371	79.19
398.595	83.59
398.82	81.19
399.044	85.19
399.268	82.79
399.492	82.59
399.717	84.39
399.941	78.79
400.165	82.39
400.389	82.19
400.613	81.59
400.837	78.99
401.062	85.59
401.286	76.99
401.51	84.59
401.734	78.99
401.958	78.99
402.182	78.19
402.406	77.39
402.63	79.39
402.854	82.59
403.078	86.79
403.302	81.39
403.526	84.99
403.75	82.79
403.974	75.39
404.198	80.39
404.422	80.99
404.645	76.39
404.869	83.99
405.093	82.59
405.317	77.59
405.541	77.99
405.765	82.99
405.988	80.99
406.212	84.39
406.436	81.59
406.66	80.79
406.883	78.99
407.107	81.59
407.331	87.59
407.555	82.79
407.778	77.79
408.002	80.99
408.226	80.39
408.449	84.39
408.673	83.59
408.896	82.79
409.12	74.59
409.344	77.59
409.567	75.59
409.791	84.79
410.014	84.19
410.238	83.39
410.461	78.99
410.685	81.79
410.908	81.19
411.132	79.79
411.355	85.19
411.578	82.79
411.802	85.59
412.025	83.59
412.249	74.79
412.472	80.59
412.695	88.19
412.919	80.99
413.142	76.39
413.365	82.99
413.589	72.59
413.812	77.99
414.035	81.19
414.258	74.79
414.482	81.39
414.705	80.99
414.928	78.59
415.151	84.39
415.374	84.99
415.597	83.99
415.821	77.19
416.044	84.19
416.267	84.99
416.49	82.79
416.713	87.79
416.936	86.99
417.159	84.79
417.382	76.79
417.605	79.79
417.828	77.19
418.051	79.79
418.274	81.39
418.497	78.19
418.72	79.79
418.943	90.79
419.166	78.79
419.389	83.39
419.611	84.99
419.834	82.59
420.057	84.19
420.28	79.79
420.503	82.19
420.726	81.39
420.948	81.99
421.171	81.59
421.394	77.19
421.617	81.99
421.839	77.19
422.062	74.59
422.285	83.99
422.507	90.19
422.73	84.79
422.953	82.39
423.175	86.59
423.398	84.39
423.621	82.99
423.843	76.59
424.066	84.99
424.288	85.79
424.511	80.19
424.733	80.39
424.956	79.99
425.178	84.39
425.401	80.19
425.623	76.99
425.846	80.39
426.068	82.79
426.291	83.99
426.513	79.19
426.735	88.99
426.958	77.79
427.18	79.79
427.402	84.39
427.625	82.39
427.847	78.39
428.069	83.99
428.292	76.99
428.514	78.79
428.736	90.79
428.958	83.59
429.181	78.39
429.403	83.19
429.625	76.99
429.847	82.79
430.069	83.59
430.292	87.39
430.514	80.79
430.736	87.99
430.958	77.99
431.18	79.59
431.402	80.99
431.624	86.99
431.846	72.99
432.068	76.99
432.29	84.59
432.512	83.99
432.734	81.59
432.956	85.79
433.178	88.99
433.4	82.39
433.622	85.79
433.844	79.99
434.066	81.79
434.287	87.99
434.509	84.99
434.731	80.39
434.953	83.39
435.175	81.59
435.397	83.59
435.618	79.19
435.84	84.99
436.062	77.99
436.284	83.39
436.505	78.39
436.727	82.99
436.949	77.59
437.17	80.19
437.392	82.19
437.614	80.39
437.835	80.19
438.057	80.79
438.278	80.99
438.5	80.59
438.721	75.19
438.943	80.59
439.165	83.59
439.386	81.79
439.608	79.79
439.829	79.79
440.05	77.39
440.272	85.19
440.493	82.79
440.715	78.19
440.936	79.59
441.158	78.39
441.379	78.99
441.6	73.19
441.822	77.59
442.043	83.19
442.264	81.59
442.486	75.59
442.707	79.19
442.928	74.19
443.149	84.19
443.371	81.39
443.592	76.99
443.813	74.79
444.034	76.79
444.255	79.79
444.476	79.19
444.698	86.19
444.919	81.59
445.14	90.59
445.361	81.59
445.582	82.59
445.803	80.99
446.024	84.79
446.245	76.99
446.466	77.79
446.687	79.39
446.908	74.79
447.129	84.99
447.35	87.99
447.571	72.39
447.792	86.39
448.013	79.59
448.234	83.79
448.455	82.99
448.675	79.39
448.896	79.59
449.117	81.59
449.338	82.79
449.559	80.59
449.779	79.19
450	81.99
450.221	79.99
450.442	89.39
450.662	83.59
450.883	79.99
451.104	84.59
451.324	77.59
451.545	78.19
451.766	82.59
451.986	87.39
452.207	82.79
452.428	81.39
452.648	82.59
452.869	78.79
453.089	81.59
453.31	81.19
453.53	78.99
453.751	80.39
453.971	81.19
454.192	85.39
454.412	81.99
454.633	85.59
454.853	86.39
455.073	75.19
455.294	81.99
455.514	84.99
455.734	87.19
455.955	82.59
456.175	81.19
456.395	80.39
456.616	78.79
456.836	85.59
457.056	86.79
457.276	78.79
457.497	78.79
457.717	83.59
457.937	78.99
458.157	80.99
458.377	84.99
458.598	84.59
458.818	79.39
459.038	80.79
459.258	78.79
459.478	78.59
459.698	82.99
459.918	82.79
460.138	84.79
460.358	81.39
460.578	85.19
460.798	91.39
461.018	87.99
461.238	72.39
461.458	85.19
461.678	84.39
461.898	76.79
462.118	87.59
462.338	87.19
462.558	85.79
462.777	75.99
462.997	80.79
463.217	80.19
463.437	80.59
463.657	82.59
463.876	81.59
464.096	82.99
464.316	89.39
464.536	88.39
464.755	78.79
464.975	82.99
465.195	80.79
465.414	83.59
465.634	79.79
465.854	80.99
466.073	83.39
466.293	82.39
466.512	83.19
466.732	81.79
466.951	77.59
467.171	76.59
467.391	85.39
467.61	82.39
467.829	79.79
468.049	84.19
468.268	80.19
468.488	77.19
468.707	88.39
468.927	81.19
469.146	83.79
469.365	82.59
469.585	84.39
469.804	78.59
470.023	80.59
470.243	82.99
470.462	83.79
470.681	79.19
470.901	82.39
471.12	79.19
471.339	80.99
471.558	85.79
471.777	80.99
471.997	82.99
472.216	86.39
472.435	81.39
472.654	87.59
472.873	77.79
473.092	84.79
473.311	74.99
473.53	79.39
473.749	84.39
473.968	81.39
474.187	78.79
474.406	88.39
474.625	75.39
474.844	79.79
475.063	75.59
475.282	77.99
475.501	88.39
475.72	85.99
475.939	82.19
476.158	83.79
476.377	86.59
476.596	84.19
476.814	82.99
477.033	81.99
477.252	83.99
477.471	78.39
477.69	77.79
477.908	82.99
478.127	82.79
478.346	82.99
478.564	83.39
478.783	81.39
479.002	81.19
479.22	80.59
479.439	91.39
479.658	85.19
479.876	82.99
480.095	78.59
480.313	77.19
480.532	79.19
480.751	77.79
480.969	79.39
481.188	83.99
481.406	80.59
481.624	82.99
481.843	86.99
482.061	81.79
482.28	87.79
482.498	79.19
482.717	81.59
482.935	80.79
483.153	77.19
483.372	86.99
483.59	77.99
483.808	80.79
484.027	75.59
484.245	80.59
484.463	82.79
484.681	90.79
484.9	82.19
485.118	82.59
485.336	78.99
485.554	87.79
485.772	83.19
485.99	83.39
486.209	80.99
486.427	81.79
486.645	78.59
486.863	78.19
487.081	82.79
487.299	81.59
487.517	84.59
487.735	85.19
487.953	82.59
488.171	85.79
488.389	80.59
488.607	84.79
488.825	85.19
489.043	83.79
489.261	80.59
489.479	86.79
489.696	90.99
489.914	82.99
490.132	75.19
490.35	75.79
490.568	77.39
490.786	84.99
491.003	83.79
491.221	83.79
491.439	84.99
491.657	81.19
491.874	84.19
492.092	81.79
492.31	80.59
492.527	81.59
492.745	82.99
492.963	84.39
493.18	82.39
493.398	82.19
493.615	84.79
493.833	85.19
494.05	80.79
494.268	81.99
494.485	81.39
494.703	83.79
494.92	77.39
495.138	80.99
495.355	82.99
495.573	81.39
495.79	83.79
496.008	86.99
496.225	80.99
496.442	82.79
496.66	84.39
496.877	77.19
497.094	83.79
497.312	84.19
497.529	81.39
497.746	86.19
497.963	88.39
498.181	82.59
498.398	76.99
498.615	83.39
498.832	80.19
499.049	85.79
499.267	89.99
499.484	83.39
499.701	77.59
499.918	80.79
500.135	80.99
500.352	84.19
500.569	85.99
500.786	80.79
501.003	78.99
501.22	84.59
501.437	81.99
501.654	82.19
501.871	81.19
502.088	85.99
502.305	84.59
502.522	79.59
502.739	84.39
502.956	85.99
503.172	83.39
503.389	76.59
503.606	84.99
503.823	78.19
504.04	86.99
504.256	84.39
504.473	82.79
504.69	85.59
504.907	81.79
505.123	79.19
505.34	81.79
505.557	86.79
505.773	84.19
505.99	83.59
506.207	81.19
506.423	92.39
506.64	87.59
506.856	87.19
507.073	83.59
507.289	83.39
507.506	82.59
507.722	83.19
507.939	78.19
508.155	87.99
508.372	80.59
508.588	77.99
508.805	83.39
509.021	88.19
509.238	88.59
509.454	86.79
509.67	82.19
509.887	83.39
510.103	86.59
510.319	78.59
510.536	88.39
510.752	85.19
510.968	91.59
511.184	86.59
511.401	80.19
511.617	80.19
511.833	81.79
512.049	80.59
512.265	88.19
512.481	86.19
512.698	88.39
512.914	87.19
513.13	85.79
513.346	82.59
513.562	78.39
513.778	80.59
513.994	80.79
514.21	80.79
514.426	85.39
514.642	78.99
514.858	83.39
515.074	87.19
515.29	90.19
515.506	81.59
515.721	85.59
515.937	78.39
516.153	84.79
516.369	88.19
516.585	83.39
516.801	82.59
517.016	76.99
517.232	85.99
517.448	89.19
517.664	86.39
517.879	90.39
518.095	80.19
518.311	86.59
518.527	84.39
518.742	85.79
518.958	85.79
519.173	81.59
519.389	86.19
519.605	80.39
519.82	84.19
520.036	82.39
520.251	85.19
