Data from TenMicroDelayPb_HRD10591_00003.txt Node
Date: Mon Nov 24 14:44:09 EST 2025
User: Yrep
Spectrometer: HR+D1059
Trigger mode: 0
Integration Time (sec): 1.000000E-2
Scans to average: 5
Electric dark correction enabled: true
Nonlinearity correction enabled: false
Boxcar width: 0
XAxis mode: Wavelengths
Number of Pixels in Spectrum: 2048
>>>>>Begin Spectral Data<<<<<
223.165	-10.28
223.4	-10.28
223.635	-10.28
223.869	-21.88
224.104	-20.48
224.338	-15.88
224.573	-13.88
224.808	-11.88
225.042	-9.48
225.277	-5.28
225.511	-4.28
225.746	0.72
225.98	5.72
226.215	11.52
226.449	18.72
226.683	22.72
226.918	20.72
227.152	33.12
227.387	34.52
227.621	35.92
227.856	38.72
228.09	42.72
228.324	47.52
228.559	52.12
228.793	58.32
229.027	60.92
229.262	61.72
229.496	69.92
229.73	65.12
229.964	69.12
230.199	71.12
230.433	72.32
230.667	78.12
230.901	79.12
231.136	75.52
231.37	76.32
231.604	75.32
231.838	82.72
232.072	85.12
232.306	78.12
232.541	81.92
232.775	74.32
233.009	71.72
233.243	79.32
233.477	78.92
233.711	80.52
233.945	77.72
234.179	82.12
234.413	77.12
234.647	79.12
234.881	78.32
235.115	72.52
235.349	73.12
235.583	76.52
235.817	79.72
236.051	76.32
236.285	77.92
236.519	73.32
236.753	77.52
236.987	81.32
237.221	78.92
237.455	75.52
237.689	72.72
237.922	77.12
238.156	77.72
238.39	78.92
238.624	78.12
238.858	73.72
239.091	75.12
239.325	76.12
239.559	68.72
239.793	74.52
240.027	74.72
240.26	68.52
240.494	70.32
240.728	73.72
240.961	70.52
241.195	73.32
241.429	80.52
241.662	76.72
241.896	72.12
242.13	75.32
242.363	76.52
242.597	80.72
242.83	74.52
243.064	72.52
243.298	77.12
243.531	75.52
243.765	70.12
243.998	83.52
244.232	70.32
244.465	79.92
244.699	78.12
244.932	82.52
245.166	74.32
245.399	79.52
245.633	83.52
245.866	77.12
246.099	76.32
246.333	73.92
246.566	77.52
246.8	78.12
247.033	76.52
247.266	79.72
247.5	74.72
247.733	74.72
247.966	78.12
248.2	79.32
248.433	77.72
248.666	74.52
248.899	76.32
249.133	75.12
249.366	78.32
249.599	84.12
249.832	80.92
250.066	79.72
250.299	74.52
250.532	80.72
250.765	72.92
250.998	80.52
251.231	83.32
251.465	76.32
251.698	80.12
251.931	81.92
252.164	75.72
252.397	79.32
252.63	80.52
252.863	71.52
253.096	75.32
253.329	72.12
253.562	76.52
253.795	74.52
254.028	75.52
254.261	84.32
254.494	81.32
254.727	76.92
254.96	81.32
255.193	85.52
255.426	84.32
255.659	85.32
255.892	81.92
256.124	80.32
256.357	79.32
256.59	83.52
256.823	81.92
257.056	80.92
257.289	79.32
257.521	80.32
257.754	78.72
257.987	80.92
258.22	81.12
258.452	82.32
258.685	80.72
258.918	78.52
259.151	79.12
259.383	75.72
259.616	81.72
259.849	83.12
260.081	72.92
260.314	85.12
260.547	76.92
260.779	79.72
261.012	83.92
261.244	82.72
261.477	85.52
261.71	78.52
261.942	80.32
262.175	79.92
262.407	81.12
262.64	79.92
262.872	82.12
263.105	83.92
263.337	84.12
263.57	80.72
263.802	86.12
264.035	83.92
264.267	82.72
264.499	76.32
264.732	83.72
264.964	87.12
265.197	81.92
265.429	80.12
265.661	79.72
265.894	80.52
266.126	81.12
266.358	78.52
266.591	78.32
266.823	81.32
267.055	83.52
267.287	79.92
267.52	83.92
267.752	81.92
267.984	83.32
268.216	89.72
268.448	86.72
268.681	87.72
268.913	82.32
269.145	83.92
269.377	85.12
269.609	82.12
269.841	82.12
270.073	83.32
270.306	84.12
270.538	87.52
270.77	77.32
271.002	83.32
271.234	84.92
271.466	82.72
271.698	77.92
271.93	82.12
272.162	86.92
272.394	80.32
272.626	82.92
272.858	81.92
273.09	87.32
273.322	82.12
273.553	85.52
273.785	84.92
274.017	78.72
274.249	82.52
274.481	85.92
274.713	82.12
274.945	78.12
275.176	68.32
275.408	84.12
275.64	81.32
275.872	82.52
276.104	79.52
276.335	80.12
276.567	87.92
276.799	82.32
277.031	84.32
277.262	86.72
277.494	83.72
277.726	82.32
277.957	84.32
278.189	77.52
278.421	83.52
278.652	82.12
278.884	84.92
279.115	81.32
279.347	86.32
279.579	79.12
279.81	79.72
280.042	77.52
280.273	81.52
280.505	80.72
280.736	87.52
280.968	78.92
281.199	83.12
281.431	84.12
281.662	81.12
281.894	86.92
282.125	83.92
282.356	84.12
282.588	83.52
282.819	80.52
283.051	75.72
283.282	82.52
283.513	80.12
283.745	79.72
283.976	83.52
284.207	80.72
284.439	80.92
284.67	82.32
284.901	79.32
285.132	78.52
285.364	79.52
285.595	85.92
285.826	81.32
286.057	83.72
286.288	81.32
286.52	87.12
286.751	82.92
286.982	80.52
287.213	79.92
287.444	80.12
287.675	81.32
287.906	87.32
288.138	82.12
288.369	83.92
288.6	80.72
288.831	86.12
289.062	87.72
289.293	82.52
289.524	80.92
289.755	86.92
289.986	88.52
290.217	88.12
290.448	89.72
290.679	86.12
290.91	82.92
291.141	79.32
291.371	85.52
291.602	83.12
291.833	84.72
292.064	83.52
292.295	80.72
292.526	83.32
292.757	86.12
292.987	83.92
293.218	83.92
293.449	86.52
293.68	79.92
293.91	83.52
294.141	85.52
294.372	90.12
294.603	84.72
294.833	83.92
295.064	80.32
295.295	80.72
295.525	78.12
295.756	79.72
295.987	83.52
296.217	85.92
296.448	88.52
296.679	83.92
296.909	85.72
297.14	81.32
297.37	86.32
297.601	79.12
297.831	79.32
298.062	84.52
298.292	79.72
298.523	82.72
298.753	93.32
298.984	84.92
299.214	82.72
299.445	83.32
299.675	83.32
299.905	86.32
300.136	84.32
300.366	85.52
300.597	87.72
300.827	86.12
301.057	85.92
301.288	82.32
301.518	83.52
301.748	84.72
301.979	83.32
302.209	83.52
302.439	86.32
302.669	78.72
302.9	79.32
303.13	80.72
303.36	90.12
303.59	84.12
303.82	78.72
304.051	85.32
304.281	84.52
304.511	86.92
304.741	89.32
304.971	89.52
305.201	76.72
305.431	78.12
305.661	87.52
305.891	88.12
306.121	89.72
306.352	82.72
306.582	84.32
306.812	82.72
307.042	81.52
307.272	83.52
307.502	88.92
307.731	83.92
307.961	83.52
308.191	85.72
308.421	85.92
308.651	83.52
308.881	79.92
309.111	85.12
309.341	79.72
309.571	89.12
309.8	88.52
310.03	89.12
310.26	80.92
310.49	84.72
310.72	84.32
310.949	79.72
311.179	88.92
311.409	84.52
311.639	78.52
311.868	82.12
312.098	76.12
312.328	85.32
312.557	86.32
312.787	86.52
313.017	84.12
313.246	84.32
313.476	84.32
313.706	75.72
313.935	82.52
314.165	85.52
314.394	85.92
314.624	84.92
314.853	82.12
315.083	83.12
315.312	87.92
315.542	82.32
315.771	82.72
316.001	87.12
316.23	86.12
316.46	90.12
316.689	84.72
316.919	81.72
317.148	89.12
317.377	84.32
317.607	87.72
317.836	87.12
318.065	85.32
318.295	76.12
318.524	78.72
318.753	82.32
318.983	85.92
319.212	84.52
319.441	81.32
319.67	86.52
319.9	83.12
320.129	82.12
320.358	83.12
320.587	80.72
320.816	83.52
321.046	77.52
321.275	84.12
321.504	86.12
321.733	86.32
321.962	79.92
322.191	86.32
322.42	82.72
322.649	88.52
322.878	83.92
323.108	82.12
323.337	82.12
323.566	80.52
323.795	84.92
324.024	85.12
324.253	81.12
324.482	76.72
324.71	82.32
324.939	85.32
325.168	88.12
325.397	85.72
325.626	87.32
325.855	87.52
326.084	81.32
326.313	87.72
326.542	85.52
326.77	81.72
326.999	88.72
327.228	87.92
327.457	85.32
327.686	81.52
327.914	81.52
328.143	85.72
328.372	87.92
328.6	82.12
328.829	83.12
329.058	88.72
329.287	88.12
329.515	89.72
329.744	83.52
329.972	81.12
330.201	70.52
330.43	84.32
330.658	86.72
330.887	80.32
331.115	81.52
331.344	81.12
331.572	75.12
331.801	82.92
332.03	85.92
332.258	81.72
332.486	80.72
332.715	78.92
332.943	80.92
333.172	81.32
333.4	86.32
333.629	82.32
333.857	83.32
334.085	80.72
334.314	74.72
334.542	83.12
334.771	84.12
334.999	78.32
335.227	84.12
335.455	77.92
335.684	81.72
335.912	82.12
336.14	89.32
336.369	91.72
336.597	92.32
336.825	85.52
337.053	89.32
337.281	88.72
337.51	88.92
337.738	86.52
337.966	82.12
338.194	82.92
338.422	80.12
338.65	80.92
338.878	89.12
339.106	86.12
339.334	83.12
339.562	81.72
339.79	76.52
340.018	82.32
340.246	85.12
340.474	87.52
340.702	83.12
340.93	82.92
341.158	79.72
341.386	83.52
341.614	81.52
341.842	79.92
342.07	78.32
342.298	96.12
342.526	78.52
342.754	79.12
342.981	85.92
343.209	83.52
343.437	90.32
343.665	88.52
343.893	83.32
344.12	78.92
344.348	88.32
344.576	83.52
344.804	83.72
345.031	81.72
345.259	81.92
345.487	80.92
345.714	82.12
345.942	84.52
346.17	82.32
346.397	88.52
346.625	81.52
346.853	76.32
347.08	77.72
347.308	84.72
347.535	83.32
347.763	81.72
347.99	79.92
348.218	85.72
348.445	87.72
348.673	84.12
348.9	79.12
349.128	81.72
349.355	82.92
349.583	84.12
349.81	86.12
350.037	86.52
350.265	86.32
350.492	87.72
350.72	82.92
350.947	81.52
351.174	84.72
351.402	83.52
351.629	82.92
351.856	82.32
352.083	81.32
352.311	81.52
352.538	82.32
352.765	82.32
352.992	87.92
353.22	81.92
353.447	84.52
353.674	81.72
353.901	77.52
354.128	79.52
354.355	77.72
354.583	81.12
354.81	84.12
355.037	76.72
355.264	80.12
355.491	86.92
355.718	76.92
355.945	83.52
356.172	81.12
356.399	82.12
356.626	83.12
356.853	85.32
357.08	83.12
357.307	83.52
357.534	84.72
357.761	82.92
357.988	87.92
358.215	84.52
358.441	81.52
358.668	79.12
358.895	77.92
359.122	84.92
359.349	83.12
359.576	79.72
359.802	86.12
360.029	81.52
360.256	81.72
360.483	78.12
360.709	75.52
360.936	79.72
361.163	86.92
361.39	83.12
361.616	83.92
361.843	87.32
362.07	84.32
362.296	88.52
362.523	79.12
362.749	76.72
362.976	87.32
363.203	83.32
363.429	80.92
363.656	84.12
363.882	84.12
364.109	86.92
364.335	77.32
364.562	83.12
364.788	74.72
365.015	86.52
365.241	78.92
365.468	82.32
365.694	76.92
365.92	82.72
366.147	80.32
366.373	81.92
366.599	82.92
366.826	81.52
367.052	76.52
367.278	76.92
367.505	79.12
367.731	80.12
367.957	79.92
368.184	86.92
368.41	88.52
368.636	82.32
368.862	86.92
369.089	81.52
369.315	76.52
369.541	83.92
369.767	76.32
369.993	80.12
370.219	79.52
370.445	78.92
370.672	74.52
370.898	78.52
371.124	85.52
371.35	79.12
371.576	86.72
371.802	77.12
372.028	82.92
372.254	85.32
372.48	90.32
372.706	81.12
372.932	84.72
373.158	81.72
373.384	86.92
373.61	84.12
373.835	82.32
374.061	79.72
374.287	79.92
374.513	85.52
374.739	83.92
374.965	83.12
375.191	83.72
375.416	77.12
375.642	80.32
375.868	83.92
376.094	83.72
376.319	80.92
376.545	83.12
376.771	79.12
376.997	76.12
377.222	82.92
377.448	88.32
377.674	81.92
377.899	82.32
378.125	86.72
378.35	80.12
378.576	81.52
378.802	80.12
379.027	76.72
379.253	83.12
379.478	79.52
379.704	82.72
379.929	83.12
380.155	76.92
380.38	77.72
380.606	78.52
380.831	83.12
381.057	84.72
381.282	79.12
381.507	85.12
381.733	76.72
381.958	77.32
382.184	76.72
382.409	77.72
382.634	84.72
382.86	81.52
383.085	76.92
383.31	80.92
383.535	78.92
383.761	82.92
383.986	82.92
384.211	80.32
384.436	80.52
384.662	79.32
384.887	81.92
385.112	78.52
385.337	74.92
385.562	86.92
385.787	82.12
386.013	78.12
386.238	82.72
386.463	78.92
386.688	85.32
386.913	86.12
387.138	77.92
387.363	77.32
387.588	82.52
387.813	79.92
388.038	78.72
388.263	83.32
388.488	82.12
388.713	77.12
388.938	82.52
389.163	75.72
389.387	85.32
389.612	79.92
389.837	83.12
390.062	80.72
390.287	76.32
390.512	78.52
390.736	77.92
390.961	86.52
391.186	81.92
391.411	82.52
391.636	82.92
391.86	75.92
392.085	86.92
392.31	82.12
392.534	80.92
392.759	80.52
392.984	84.92
393.208	77.12
393.433	78.32
393.658	84.52
393.882	86.72
394.107	86.92
394.331	83.92
394.556	83.12
394.78	83.32
395.005	86.52
395.229	80.72
395.454	79.32
395.678	74.72
395.903	76.92
396.127	84.32
396.352	87.32
396.576	81.52
396.801	81.32
397.025	82.92
397.249	79.12
397.474	79.72
397.698	80.52
397.922	81.72
398.147	82.92
398.371	78.72
398.595	84.72
398.82	86.72
399.044	78.32
399.268	79.92
399.492	84.92
399.717	81.92
399.941	82.12
400.165	81.92
400.389	73.72
400.613	77.92
400.837	80.92
401.062	82.92
401.286	83.32
401.51	81.52
401.734	85.92
401.958	82.32
402.182	81.12
402.406	76.72
402.63	75.12
402.854	82.92
403.078	72.92
403.302	84.72
403.526	78.92
403.75	79.52
403.974	83.52
404.198	87.52
404.422	78.32
404.645	81.52
404.869	79.92
405.093	81.92
405.317	79.72
405.541	81.12
405.765	86.32
405.988	80.12
406.212	77.32
406.436	79.72
406.66	84.72
406.883	85.72
407.107	83.92
407.331	77.32
407.555	73.32
407.778	79.12
408.002	82.12
408.226	80.32
408.449	79.12
408.673	77.72
408.896	78.92
409.12	82.92
409.344	74.12
409.567	77.52
409.791	81.32
410.014	82.92
410.238	79.12
410.461	85.72
410.685	75.52
410.908	80.32
411.132	83.72
411.355	81.92
411.578	83.12
411.802	76.32
412.025	80.52
412.249	84.52
412.472	85.12
412.695	76.12
412.919	84.52
413.142	81.72
413.365	79.52
413.589	78.32
413.812	81.72
414.035	79.52
414.258	79.32
414.482	82.52
414.705	79.52
414.928	81.72
415.151	83.72
415.374	73.32
415.597	77.32
415.821	78.12
416.044	79.32
416.267	86.92
416.49	82.12
416.713	80.12
416.936	85.32
417.159	77.92
417.382	85.12
417.605	73.92
417.828	84.92
418.051	81.52
418.274	82.52
418.497	76.32
418.72	81.12
418.943	76.72
419.166	80.12
419.389	80.72
419.611	75.92
419.834	86.72
420.057	80.52
420.28	80.12
420.503	86.12
420.726	83.12
420.948	74.92
421.171	76.72
421.394	82.52
421.617	84.32
421.839	77.72
422.062	84.72
422.285	77.32
422.507	78.52
422.73	79.32
422.953	77.52
423.175	79.92
423.398	82.52
423.621	79.72
423.843	83.52
424.066	83.72
424.288	84.72
424.511	82.32
424.733	80.12
424.956	83.12
425.178	77.52
425.401	79.32
425.623	74.12
425.846	80.12
426.068	83.32
426.291	79.72
426.513	76.52
426.735	83.92
426.958	85.12
427.18	78.32
427.402	76.52
427.625	80.72
427.847	71.92
428.069	73.72
428.292	78.52
428.514	86.32
428.736	78.72
428.958	83.12
429.181	76.52
429.403	79.72
429.625	76.12
429.847	80.52
430.069	84.72
430.292	81.32
430.514	78.32
430.736	78.32
430.958	82.32
431.18	82.92
431.402	75.52
431.624	78.92
431.846	77.12
432.068	79.12
432.29	77.12
432.512	78.12
432.734	73.92
432.956	78.52
433.178	81.72
433.4	83.52
433.622	82.12
433.844	88.32
434.066	79.52
434.287	86.52
434.509	82.92
434.731	75.32
434.953	80.52
435.175	75.72
435.397	80.92
435.618	76.92
435.84	78.52
436.062	77.72
436.284	82.92
436.505	78.12
436.727	81.52
436.949	76.72
437.17	80.12
437.392	85.92
437.614	76.52
437.835	77.92
438.057	77.32
438.278	82.12
438.5	76.92
438.721	77.92
438.943	80.52
439.165	84.72
439.386	78.52
439.608	81.52
439.829	83.52
440.05	81.92
440.272	76.72
440.493	81.32
440.715	78.12
440.936	77.72
441.158	77.52
441.379	74.32
441.6	80.32
441.822	85.32
442.043	87.32
442.264	82.92
442.486	75.32
442.707	82.32
442.928	71.52
443.149	83.72
443.371	81.72
443.592	78.72
443.813	82.72
444.034	81.92
444.255	78.72
444.476	77.72
444.698	71.52
444.919	74.32
445.14	88.72
445.361	85.52
445.582	79.12
445.803	81.12
446.024	83.72
446.245	82.52
446.466	84.52
446.687	81.92
446.908	78.52
447.129	76.12
447.35	76.12
447.571	77.92
447.792	81.52
448.013	79.32
448.234	77.92
448.455	82.92
448.675	79.12
448.896	75.32
449.117	84.92
449.338	80.12
449.559	83.52
449.779	75.12
450	78.32
450.221	79.72
450.442	76.52
450.662	84.12
450.883	77.12
451.104	80.72
451.324	80.32
451.545	79.72
451.766	80.12
451.986	81.32
452.207	79.92
452.428	79.12
452.648	82.92
452.869	78.12
453.089	79.32
453.31	82.52
453.53	80.92
453.751	75.52
453.971	86.32
454.192	75.12
454.412	82.32
454.633	76.32
454.853	77.92
455.073	84.72
455.294	82.92
455.514	79.72
455.734	80.72
455.955	84.12
456.175	74.72
456.395	75.72
456.616	80.32
456.836	81.12
457.056	77.32
457.276	79.72
457.497	82.52
457.717	78.12
457.937	79.92
458.157	81.32
458.377	80.52
458.598	87.12
458.818	81.32
459.038	80.52
459.258	75.92
459.478	82.52
459.698	79.32
459.918	83.12
460.138	73.52
460.358	76.12
460.578	79.32
460.798	77.52
461.018	75.92
461.238	78.12
461.458	76.32
461.678	81.12
461.898	81.12
462.118	83.32
462.338	81.92
462.558	78.92
462.777	83.92
462.997	79.12
463.217	80.92
463.437	79.52
463.657	76.12
463.876	81.72
464.096	78.72
464.316	86.52
464.536	78.12
464.755	83.72
464.975	81.72
465.195	79.32
465.414	84.52
465.634	83.52
465.854	76.32
466.073	79.52
466.293	81.92
466.512	72.52
466.732	81.32
466.951	82.92
467.171	85.12
467.391	77.72
467.61	79.12
467.829	75.92
468.049	77.12
468.268	81.52
468.488	78.52
468.707	80.92
468.927	83.32
469.146	82.92
469.365	80.12
469.585	80.92
469.804	84.92
470.023	80.12
470.243	83.72
470.462	78.32
470.681	83.12
470.901	73.72
471.12	84.12
471.339	82.32
471.558	81.92
471.777	75.52
471.997	77.92
472.216	81.12
472.435	84.92
472.654	81.72
472.873	80.32
473.092	83.72
473.311	76.12
473.53	84.12
473.749	77.92
473.968	81.12
474.187	82.92
474.406	85.52
474.625	87.52
474.844	87.72
475.063	88.72
475.282	88.92
475.501	86.72
475.72	81.52
475.939	76.92
476.158	80.72
476.377	80.32
476.596	81.12
476.814	83.72
477.033	82.92
477.252	81.72
477.471	75.32
477.69	80.32
477.908	80.52
478.127	87.12
478.346	78.52
478.564	84.32
478.783	85.72
479.002	81.92
479.22	83.32
479.439	88.32
479.658	81.92
479.876	81.52
480.095	81.52
480.313	78.12
480.532	79.32
480.751	85.92
480.969	82.52
481.188	82.12
481.406	79.72
481.624	85.32
481.843	81.72
482.061	76.52
482.28	79.72
482.498	79.92
482.717	86.72
482.935	77.92
483.153	76.12
483.372	80.92
483.59	79.92
483.808	85.72
484.027	80.92
484.245	80.32
484.463	80.12
484.681	81.72
484.9	82.72
485.118	80.92
485.336	79.92
485.554	85.72
485.772	86.52
485.99	77.12
486.209	79.92
486.427	80.92
486.645	79.12
486.863	84.52
487.081	75.12
487.299	81.92
487.517	79.92
487.735	82.72
487.953	78.32
488.171	77.92
488.389	85.32
488.607	78.52
488.825	82.32
489.043	83.72
489.261	77.72
489.479	87.32
489.696	80.72
489.914	81.52
490.132	75.92
490.35	83.92
490.568	85.52
490.786	89.12
491.003	78.92
491.221	82.72
491.439	78.12
491.657	83.72
491.874	80.12
492.092	79.32
492.31	78.92
492.527	87.32
492.745	83.52
492.963	77.92
493.18	83.72
493.398	88.52
493.615	81.92
493.833	80.12
494.05	80.12
494.268	80.92
494.485	82.32
494.703	84.12
494.92	86.52
495.138	83.32
495.355	90.52
495.573	81.72
495.79	81.52
496.008	82.12
496.225	77.92
496.442	80.92
496.66	87.52
496.877	83.72
497.094	79.32
497.312	79.12
497.529	80.92
497.746	79.32
497.963	80.72
498.181	76.32
498.398	84.72
498.615	81.32
498.832	76.12
499.049	83.72
499.267	86.52
499.484	82.12
499.701	81.92
499.918	81.72
500.135	81.72
500.352	77.12
500.569	77.12
500.786	82.32
501.003	81.92
501.22	84.92
501.437	82.72
501.654	81.52
501.871	77.12
502.088	82.12
502.305	86.32
502.522	83.92
502.739	84.92
502.956	79.52
503.172	83.12
503.389	83.92
503.606	76.72
503.823	82.72
504.04	85.72
504.256	85.92
504.473	82.52
504.69	78.32
504.907	77.12
505.123	80.12
505.34	81.92
505.557	79.32
505.773	79.32
505.99	77.72
506.207	82.72
506.423	81.72
506.64	76.32
506.856	82.32
507.073	80.52
507.289	84.92
507.506	79.52
507.722	84.12
507.939	78.12
508.155	83.72
508.372	83.92
508.588	82.92
508.805	79.52
509.021	82.72
509.238	77.72
509.454	88.32
509.67	76.32
509.887	79.52
510.103	80.72
510.319	79.12
510.536	80.12
510.752	81.92
510.968	81.12
511.184	85.12
511.401	79.72
511.617	87.12
511.833	76.72
512.049	80.12
512.265	83.12
512.481	80.12
512.698	84.32
512.914	81.92
513.13	79.92
513.346	76.72
513.562	85.72
513.778	80.12
513.994	81.52
514.21	73.12
514.426	74.12
514.642	79.52
514.858	84.12
515.074	81.12
515.29	82.52
515.506	83.92
515.721	85.12
515.937	80.12
516.153	89.12
516.369	82.52
516.585	83.12
516.801	83.12
517.016	78.92
517.232	83.72
517.448	83.92
517.664	78.72
517.879	82.32
518.095	82.32
518.311	86.32
518.527	79.12
518.742	77.12
518.958	89.92
519.173	84.72
519.389	81.12
519.605	86.32
519.82	83.92
520.036	84.92
520.251	79.52
