Data from TenMicroDelayPb_HRD10591_00008.txt Node
Date: Mon Nov 24 14:44:10 EST 2025
User: Yrep
Spectrometer: HR+D1059
Trigger mode: 0
Integration Time (sec): 1.000000E-2
Scans to average: 5
Electric dark correction enabled: true
Nonlinearity correction enabled: false
Boxcar width: 0
XAxis mode: Wavelengths
Number of Pixels in Spectrum: 2048
>>>>>Begin Spectral Data<<<<<
223.165	-16.11
223.4	-16.11
223.635	-16.11
223.869	-14.11
224.104	-20.11
224.338	-18.91
224.573	-12.11
224.808	-14.91
225.042	-14.71
225.277	-3.91
225.511	-5.71
225.746	1.09
225.98	7.89
226.215	9.89
226.449	15.69
226.683	22.69
226.918	27.29
227.152	36.09
227.387	42.09
227.621	41.29
227.856	44.69
228.09	41.49
228.324	46.69
228.559	53.89
228.793	58.29
229.027	60.89
229.262	61.69
229.496	64.89
229.73	67.89
229.964	69.09
230.199	71.89
230.433	66.89
230.667	70.89
230.901	76.49
231.136	79.49
231.37	82.09
231.604	80.09
231.838	76.89
232.072	75.49
232.306	78.69
232.541	79.89
232.775	77.09
233.009	77.89
233.243	77.89
233.477	77.69
233.711	76.89
233.945	83.89
234.179	83.89
234.413	82.89
234.647	77.49
234.881	74.09
235.115	77.09
235.349	84.49
235.583	80.29
235.817	79.29
236.051	68.29
236.285	73.49
236.519	76.49
236.753	82.29
236.987	79.49
237.221	75.89
237.455	74.69
237.689	77.09
237.922	76.89
238.156	77.49
238.39	69.89
238.624	76.29
238.858	76.89
239.091	74.29
239.325	75.09
239.559	74.89
239.793	79.69
240.027	75.09
240.26	74.69
240.494	72.89
240.728	75.09
240.961	70.09
241.195	73.89
241.429	73.49
241.662	81.69
241.896	73.89
242.13	71.89
242.363	69.49
242.597	76.09
242.83	74.49
243.064	76.89
243.298	78.49
243.531	76.69
243.765	68.29
243.998	77.09
244.232	74.89
244.465	78.09
244.699	73.69
244.932	69.09
245.166	74.89
245.399	78.09
245.633	80.49
245.866	77.69
246.099	75.09
246.333	78.29
246.566	75.49
246.8	75.89
247.033	78.09
247.266	72.69
247.5	74.09
247.733	74.29
247.966	75.09
248.2	76.29
248.433	78.09
248.666	76.29
248.899	73.69
249.133	78.89
249.366	83.09
249.599	72.29
249.832	78.49
250.066	82.09
250.299	74.29
250.532	82.69
250.765	82.89
250.998	77.69
251.231	77.89
251.465	76.69
251.698	78.69
251.931	71.29
252.164	79.89
252.397	79.49
252.63	74.09
252.863	71.69
253.096	80.29
253.329	73.69
253.562	79.29
253.795	73.49
254.028	83.89
254.261	85.69
254.494	80.89
254.727	81.29
254.96	77.09
255.193	75.29
255.426	81.49
255.659	79.89
255.892	82.09
256.124	76.09
256.357	79.49
256.59	78.29
256.823	78.49
257.056	74.69
257.289	78.69
257.521	81.29
257.754	80.29
257.987	73.09
258.22	83.09
258.452	81.29
258.685	72.89
258.918	73.89
259.151	81.09
259.383	81.09
259.616	81.89
259.849	85.09
260.081	79.69
260.314	85.69
260.547	86.49
260.779	80.89
261.012	85.89
261.244	82.69
261.477	77.49
261.71	79.89
261.942	84.49
262.175	81.69
262.407	78.49
262.64	76.29
262.872	82.89
263.105	76.49
263.337	87.49
263.57	79.09
263.802	86.09
264.035	88.69
264.267	86.09
264.499	82.09
264.732	82.49
264.964	74.09
265.197	83.89
265.429	80.49
265.661	83.09
265.894	81.49
266.126	82.09
266.358	84.29
266.591	81.69
266.823	82.09
267.055	80.49
267.287	77.69
267.52	78.49
267.752	83.89
267.984	81.69
268.216	79.09
268.448	81.69
268.681	76.09
268.913	80.09
269.145	77.09
269.377	81.69
269.609	81.69
269.841	83.09
270.073	81.49
270.306	86.69
270.538	78.69
270.77	84.89
271.002	82.29
271.234	85.89
271.466	78.69
271.698	79.29
271.93	79.69
272.162	84.29
272.394	81.69
272.626	78.69
272.858	83.89
273.09	84.09
273.322	77.29
273.553	85.49
273.785	82.89
274.017	87.89
274.249	80.69
274.481	84.29
274.713	80.09
274.945	78.49
275.176	83.09
275.408	83.29
275.64	79.29
275.872	85.89
276.104	84.09
276.335	83.29
276.567	84.29
276.799	79.49
277.031	75.89
277.262	83.89
277.494	83.89
277.726	76.29
277.957	85.89
278.189	76.89
278.421	90.29
278.652	83.49
278.884	75.09
279.115	78.89
279.347	80.09
279.579	86.69
279.81	78.89
280.042	82.49
280.273	80.49
280.505	86.69
280.736	84.69
280.968	85.09
281.199	81.89
281.431	75.09
281.662	78.49
281.894	83.09
282.125	83.29
282.356	79.29
282.588	85.09
282.819	79.89
283.051	86.29
283.282	81.49
283.513	83.29
283.745	86.49
283.976	85.49
284.207	86.49
284.439	84.69
284.67	79.29
284.901	82.69
285.132	83.29
285.364	85.29
285.595	85.69
285.826	86.69
286.057	84.89
286.288	81.49
286.52	81.29
286.751	83.29
286.982	78.09
287.213	81.89
287.444	81.09
287.675	89.09
287.906	81.89
288.138	80.09
288.369	78.69
288.6	82.49
288.831	87.09
289.062	83.69
289.293	82.49
289.524	77.69
289.755	84.69
289.986	85.69
290.217	80.29
290.448	85.69
290.679	82.89
290.91	83.09
291.141	83.49
291.371	85.09
291.602	77.89
291.833	80.29
292.064	78.09
292.295	86.49
292.526	87.09
292.757	79.09
292.987	82.89
293.218	82.09
293.449	83.29
293.68	80.69
293.91	83.49
294.141	84.69
294.372	83.49
294.603	88.49
294.833	77.29
295.064	79.29
295.295	78.09
295.525	85.89
295.756	85.89
295.987	83.89
296.217	78.49
296.448	84.89
296.679	84.49
296.909	85.69
297.14	89.69
297.37	84.69
297.601	84.29
297.831	86.29
298.062	84.29
298.292	84.69
298.523	83.89
298.753	90.69
298.984	82.49
299.214	75.69
299.445	84.49
299.675	85.69
299.905	88.29
300.136	79.89
300.366	83.29
300.597	84.49
300.827	78.29
301.057	77.49
301.288	82.69
301.518	90.89
301.748	86.29
301.979	82.69
302.209	92.29
302.439	88.29
302.669	79.69
302.9	82.09
303.13	85.89
303.36	82.69
303.59	87.09
303.82	90.09
304.051	87.09
304.281	80.29
304.511	87.09
304.741	77.69
304.971	85.09
305.201	82.89
305.431	79.29
305.661	91.29
305.891	80.49
306.121	81.29
306.352	84.49
306.582	85.69
306.812	87.69
307.042	83.09
307.272	85.89
307.502	78.89
307.731	85.69
307.961	84.69
308.191	79.49
308.421	86.89
308.651	79.29
308.881	79.49
309.111	86.69
309.341	82.09
309.571	85.69
309.8	88.69
310.03	86.09
310.26	76.69
310.49	81.89
310.72	85.49
310.949	83.29
311.179	82.69
311.409	81.69
311.639	82.09
311.868	83.29
312.098	86.09
312.328	84.09
312.557	89.69
312.787	85.89
313.017	86.69
313.246	84.69
313.476	79.69
313.706	78.89
313.935	84.49
314.165	83.69
314.394	81.69
314.624	83.89
314.853	86.09
315.083	85.49
315.312	84.89
315.542	85.69
315.771	81.29
316.001	80.49
316.23	87.09
316.46	84.49
316.689	84.69
316.919	88.69
317.148	85.49
317.377	82.09
317.607	80.69
317.836	89.29
318.065	86.89
318.295	87.89
318.524	83.09
318.753	77.29
318.983	86.89
319.212	80.09
319.441	77.09
319.67	83.09
319.9	80.09
320.129	85.49
320.358	85.49
320.587	85.29
320.816	83.89
321.046	84.69
321.275	88.09
321.504	81.69
321.733	80.49
321.962	81.49
322.191	82.09
322.42	89.69
322.649	80.29
322.878	81.09
323.108	81.69
323.337	83.89
323.566	81.49
323.795	82.09
324.024	84.89
324.253	84.09
324.482	91.49
324.71	76.89
324.939	81.69
325.168	86.29
325.397	87.09
325.626	83.89
325.855	82.89
326.084	82.29
326.313	81.09
326.542	83.69
326.77	82.29
326.999	79.29
327.228	82.49
327.457	81.49
327.686	78.89
327.914	82.89
328.143	83.09
328.372	82.69
328.6	83.09
328.829	83.29
329.058	85.29
329.287	83.49
329.515	78.69
329.744	84.89
329.972	92.09
330.201	83.49
330.43	82.69
330.658	74.09
330.887	76.89
331.115	81.89
331.344	78.29
331.572	80.89
331.801	76.69
332.03	83.69
332.258	76.49
332.486	84.49
332.715	85.09
332.943	84.29
333.172	82.29
333.4	83.89
333.629	83.29
333.857	82.89
334.085	82.69
334.314	88.89
334.542	91.89
334.771	94.49
334.999	78.09
335.227	76.29
335.455	82.89
335.684	88.49
335.912	79.69
336.14	84.09
336.369	80.49
336.597	82.89
336.825	85.09
337.053	79.09
337.281	83.09
337.51	82.29
337.738	79.29
337.966	80.69
338.194	83.89
338.422	79.49
338.65	86.29
338.878	85.89
339.106	75.49
339.334	84.89
339.562	86.09
339.79	85.89
340.018	87.29
340.246	81.89
340.474	83.49
340.702	85.29
340.93	87.09
341.158	82.89
341.386	81.49
341.614	80.29
341.842	82.29
342.07	77.89
342.298	83.89
342.526	82.49
342.754	84.09
342.981	84.29
343.209	81.49
343.437	87.29
343.665	88.89
343.893	79.69
344.12	82.49
344.348	85.89
344.576	74.09
344.804	80.09
345.031	81.69
345.259	89.09
345.487	83.89
345.714	87.69
345.942	87.89
346.17	78.29
346.397	81.29
346.625	81.49
346.853	87.09
347.08	83.69
347.308	89.49
347.535	86.09
347.763	80.49
347.99	83.49
348.218	82.89
348.445	83.89
348.673	84.29
348.9	81.49
349.128	81.09
349.355	84.89
349.583	85.09
349.81	77.49
350.037	80.29
350.265	81.89
350.492	79.09
350.72	85.29
350.947	89.69
351.174	86.69
351.402	81.29
351.629	83.49
351.856	75.89
352.083	75.29
352.311	79.89
352.538	81.09
352.765	83.29
352.992	82.89
353.22	80.49
353.447	87.09
353.674	80.89
353.901	78.69
354.128	84.69
354.355	75.69
354.583	84.09
354.81	80.29
355.037	84.29
355.264	85.09
355.491	83.89
355.718	84.69
355.945	86.69
356.172	80.69
356.399	83.29
356.626	79.49
356.853	83.29
357.08	81.89
357.307	79.09
357.534	82.09
357.761	76.89
357.988	80.49
358.215	82.49
358.441	83.29
358.668	82.09
358.895	77.09
359.122	86.89
359.349	86.29
359.576	81.09
359.802	85.69
360.029	88.69
360.256	78.29
360.483	79.49
360.709	81.89
360.936	83.49
361.163	77.29
361.39	82.49
361.616	80.49
361.843	81.29
362.07	84.69
362.296	79.09
362.523	76.89
362.749	72.69
362.976	77.69
363.203	83.09
363.429	82.49
363.656	78.49
363.882	85.09
364.109	81.49
364.335	85.09
364.562	83.49
364.788	85.09
365.015	88.49
365.241	75.29
365.468	85.09
365.694	78.49
365.92	88.29
366.147	81.49
366.373	77.89
366.599	82.29
366.826	81.49
367.052	81.09
367.278	88.09
367.505	83.09
367.731	86.29
367.957	80.69
368.184	85.09
368.41	79.49
368.636	81.49
368.862	79.29
369.089	79.09
369.315	85.09
369.541	84.89
369.767	81.29
369.993	84.89
370.219	85.29
370.445	75.49
370.672	78.29
370.898	81.29
371.124	79.49
371.35	83.69
371.576	77.29
371.802	83.69
372.028	86.49
372.254	81.09
372.48	78.69
372.706	85.69
372.932	76.49
373.158	84.29
373.384	81.29
373.61	79.49
373.835	81.29
374.061	81.29
374.287	79.89
374.513	82.89
374.739	79.29
374.965	80.09
375.191	79.09
375.416	79.49
375.642	81.89
375.868	83.69
376.094	85.69
376.319	84.49
376.545	77.89
376.771	78.69
376.997	78.89
377.222	80.49
377.448	84.89
377.674	80.89
377.899	82.09
378.125	80.89
378.35	82.09
378.576	83.09
378.802	81.29
379.027	83.69
379.253	87.09
379.478	76.69
379.704	80.69
379.929	80.69
380.155	83.49
380.38	78.69
380.606	87.49
380.831	79.49
381.057	77.49
381.282	79.49
381.507	79.89
381.733	76.69
381.958	76.09
382.184	82.29
382.409	73.69
382.634	81.09
382.86	80.09
383.085	82.29
383.31	83.49
383.535	81.89
383.761	81.09
383.986	82.69
384.211	84.49
384.436	86.29
384.662	84.89
384.887	84.09
385.112	82.09
385.337	82.29
385.562	82.69
385.787	79.29
386.013	81.49
386.238	79.29
386.463	77.89
386.688	77.69
386.913	80.69
387.138	82.69
387.363	85.29
387.588	77.69
387.813	86.49
388.038	84.89
388.263	84.69
388.488	77.29
388.713	83.89
388.938	79.69
389.163	82.89
389.387	77.89
389.612	79.69
389.837	81.49
390.062	79.89
390.287	78.69
390.512	76.29
390.736	82.09
390.961	82.09
391.186	80.09
391.411	87.09
391.636	87.69
391.86	83.69
392.085	88.49
392.31	83.29
392.534	76.09
392.759	75.49
392.984	77.09
393.208	84.29
393.433	75.69
393.658	85.69
393.882	82.29
394.107	78.29
394.331	77.09
394.556	80.29
394.78	80.09
395.005	84.89
395.229	77.69
395.454	77.29
395.678	85.09
395.903	86.89
396.127	80.29
396.352	82.29
396.576	73.09
396.801	74.49
397.025	77.89
397.249	82.69
397.474	79.09
397.698	83.89
397.922	82.49
398.147	80.49
398.371	80.09
398.595	81.49
398.82	77.29
399.044	84.89
399.268	82.49
399.492	80.09
399.717	79.69
399.941	84.69
400.165	78.69
400.389	82.89
400.613	78.49
400.837	83.09
401.062	78.09
401.286	77.29
401.51	84.09
401.734	83.09
401.958	78.09
402.182	78.29
402.406	77.29
402.63	79.09
402.854	76.89
403.078	74.89
403.302	77.29
403.526	74.09
403.75	81.69
403.974	76.89
404.198	79.69
404.422	80.89
404.645	78.89
404.869	81.69
405.093	79.49
405.317	79.49
405.541	83.09
405.765	82.49
405.988	79.09
406.212	77.69
406.436	77.09
406.66	85.49
406.883	76.09
407.107	81.49
407.331	80.29
407.555	79.69
407.778	75.09
408.002	78.09
408.226	79.89
408.449	80.09
408.673	84.69
408.896	86.29
409.12	79.89
409.344	79.89
409.567	77.09
409.791	81.89
410.014	78.29
410.238	74.09
410.461	75.69
410.685	80.89
410.908	87.29
411.132	82.29
411.355	68.29
411.578	82.29
411.802	80.09
412.025	77.09
412.249	77.69
412.472	81.69
412.695	78.29
412.919	75.29
413.142	78.29
413.365	80.69
413.589	77.49
413.812	81.89
414.035	78.89
414.258	81.49
414.482	85.09
414.705	81.89
414.928	80.49
415.151	83.89
415.374	74.09
415.597	82.49
415.821	78.29
416.044	78.29
416.267	81.49
416.49	78.29
416.713	81.09
416.936	79.29
417.159	76.69
417.382	81.29
417.605	78.69
417.828	82.29
418.051	81.29
418.274	80.09
418.497	73.09
418.72	83.49
418.943	81.09
419.166	79.49
419.389	82.09
419.611	77.09
419.834	74.29
420.057	84.89
420.28	77.09
420.503	79.09
420.726	78.49
420.948	78.89
421.171	87.09
421.394	76.09
421.617	79.09
421.839	84.89
422.062	80.89
422.285	82.89
422.507	82.29
422.73	79.09
422.953	80.69
423.175	81.09
423.398	76.69
423.621	83.49
423.843	82.89
424.066	82.49
424.288	75.69
424.511	79.89
424.733	84.69
424.956	77.69
425.178	81.69
425.401	74.49
425.623	76.89
425.846	82.89
426.068	81.89
426.291	77.49
426.513	81.89
426.735	77.29
426.958	85.09
427.18	79.69
427.402	78.69
427.625	73.89
427.847	78.69
428.069	74.49
428.292	74.69
428.514	75.89
428.736	77.29
428.958	78.49
429.181	84.09
429.403	79.89
429.625	82.89
429.847	84.29
430.069	83.89
430.292	78.49
430.514	77.69
430.736	80.09
430.958	79.89
431.18	83.89
431.402	79.29
431.624	74.29
431.846	77.49
432.068	82.49
432.29	81.29
432.512	82.89
432.734	80.49
432.956	77.69
433.178	83.49
433.4	75.29
433.622	80.29
433.844	83.09
434.066	83.49
434.287	76.49
434.509	79.49
434.731	76.29
434.953	79.29
435.175	81.29
435.397	84.69
435.618	72.89
435.84	78.29
436.062	84.89
436.284	83.69
436.505	82.49
436.727	79.49
436.949	78.29
437.17	79.69
437.392	78.09
437.614	77.09
437.835	86.69
438.057	85.49
438.278	80.49
438.5	79.49
438.721	79.69
438.943	82.89
439.165	79.29
439.386	79.49
439.608	83.89
439.829	77.49
440.05	76.89
440.272	79.49
440.493	78.49
440.715	78.49
440.936	78.49
441.158	79.89
441.379	81.49
441.6	82.69
441.822	81.89
442.043	82.49
442.264	75.29
442.486	79.09
442.707	76.49
442.928	80.49
443.149	84.09
443.371	84.09
443.592	74.09
443.813	78.69
444.034	83.09
444.255	80.29
444.476	82.29
444.698	85.09
444.919	86.09
445.14	86.09
445.361	86.09
445.582	80.49
445.803	79.89
446.024	87.29
446.245	82.89
446.466	88.29
446.687	83.69
446.908	77.49
447.129	83.29
447.35	73.49
447.571	81.09
447.792	78.69
448.013	79.69
448.234	76.89
448.455	76.69
448.675	80.89
448.896	78.69
449.117	81.69
449.338	80.29
449.559	75.69
449.779	82.89
450	78.49
450.221	79.09
450.442	78.09
450.662	76.69
450.883	74.29
451.104	85.49
451.324	85.29
451.545	75.69
451.766	80.89
451.986	78.89
452.207	82.49
452.428	82.69
452.648	82.69
452.869	80.49
453.089	83.49
453.31	81.49
453.53	78.89
453.751	77.49
453.971	77.69
454.192	82.69
454.412	77.09
454.633	84.29
454.853	82.09
455.073	83.89
455.294	79.89
455.514	77.89
455.734	86.29
455.955	76.29
456.175	80.49
456.395	80.09
456.616	81.89
456.836	73.49
457.056	74.09
457.276	76.69
457.497	76.69
457.717	77.69
457.937	78.29
458.157	86.09
458.377	84.69
458.598	75.69
458.818	85.49
459.038	77.49
459.258	80.69
459.478	81.09
459.698	78.29
459.918	83.49
460.138	79.29
460.358	83.49
460.578	80.49
460.798	69.69
461.018	76.89
461.238	81.49
461.458	78.29
461.678	77.49
461.898	81.89
462.118	86.89
462.338	78.29
462.558	85.29
462.777	87.29
462.997	83.89
463.217	82.89
463.437	85.29
463.657	75.69
463.876	83.49
464.096	86.49
464.316	84.89
464.536	83.09
464.755	81.69
464.975	77.69
465.195	73.89
465.414	79.09
465.634	75.49
465.854	84.49
466.073	71.49
466.293	81.09
466.512	85.69
466.732	84.29
466.951	75.49
467.171	75.49
467.391	84.69
467.61	76.89
467.829	78.09
468.049	79.49
468.268	81.09
468.488	80.89
468.707	82.29
468.927	76.29
469.146	71.69
469.365	82.69
469.585	77.69
469.804	78.89
470.023	79.09
470.243	75.49
470.462	77.89
470.681	80.69
470.901	79.09
471.12	80.69
471.339	83.69
471.558	79.89
471.777	80.29
471.997	83.89
472.216	86.49
472.435	75.69
472.654	80.69
472.873	76.09
473.092	80.49
473.311	79.89
473.53	81.09
473.749	80.49
473.968	82.09
474.187	82.09
474.406	79.69
474.625	80.29
474.844	73.29
475.063	86.29
475.282	84.89
475.501	78.29
475.72	82.89
475.939	78.89
476.158	80.29
476.377	81.69
476.596	73.69
476.814	77.29
477.033	82.69
477.252	81.09
477.471	78.89
477.69	79.69
477.908	82.69
478.127	83.69
478.346	86.69
478.564	82.69
478.783	82.09
479.002	80.49
479.22	82.09
479.439	77.89
479.658	75.69
479.876	81.69
480.095	82.69
480.313	82.09
480.532	81.09
480.751	80.49
480.969	77.69
481.188	80.49
481.406	84.49
481.624	86.29
481.843	80.49
482.061	84.49
482.28	71.49
482.498	84.69
482.717	75.89
482.935	84.69
483.153	76.89
483.372	79.89
483.59	84.69
483.808	85.69
484.027	84.49
484.245	79.09
484.463	84.49
484.681	78.49
484.9	81.69
485.118	81.89
485.336	79.89
485.554	82.49
485.772	82.89
485.99	81.29
486.209	85.89
486.427	78.89
486.645	80.29
486.863	77.09
487.081	74.69
487.299	78.49
487.517	81.89
487.735	82.49
487.953	83.09
488.171	83.89
488.389	79.89
488.607	80.09
488.825	79.89
489.043	79.09
489.261	80.89
489.479	84.89
489.696	89.69
489.914	85.49
490.132	81.89
490.35	81.69
490.568	82.89
490.786	80.69
491.003	84.29
491.221	80.89
491.439	79.69
491.657	77.89
491.874	81.09
492.092	76.09
492.31	81.09
492.527	77.49
492.745	82.69
492.963	81.29
493.18	82.49
493.398	75.49
493.615	88.69
493.833	76.89
494.05	81.09
494.268	81.69
494.485	80.09
494.703	81.49
494.92	83.09
495.138	81.89
495.355	83.29
495.573	85.09
495.79	83.29
496.008	85.09
496.225	80.49
496.442	82.49
496.66	83.69
496.877	80.89
497.094	82.49
497.312	74.89
497.529	82.49
497.746	77.89
497.963	78.89
498.181	82.29
498.398	79.89
498.615	78.09
498.832	73.09
499.049	78.09
499.267	83.29
499.484	82.89
499.701	75.89
499.918	82.89
500.135	78.09
500.352	82.89
500.569	82.09
500.786	78.89
501.003	80.09
501.22	81.09
501.437	78.09
501.654	79.89
501.871	82.89
502.088	79.69
502.305	80.89
502.522	79.89
502.739	83.49
502.956	81.29
503.172	83.69
503.389	80.29
503.606	83.09
503.823	78.69
504.04	84.69
504.256	76.49
504.473	76.89
504.69	81.29
504.907	86.09
505.123	75.69
505.34	88.49
505.557	80.09
505.773	78.49
505.99	79.49
506.207	87.49
506.423	75.49
506.64	82.49
506.856	84.49
507.073	84.49
507.289	79.89
507.506	80.09
507.722	81.89
507.939	87.89
508.155	82.49
508.372	90.89
508.588	79.69
508.805	81.69
509.021	83.49
509.238	78.49
509.454	83.69
509.67	82.09
509.887	77.09
510.103	81.69
510.319	78.89
510.536	81.09
510.752	82.29
510.968	78.69
511.184	82.09
511.401	82.49
511.617	81.09
511.833	83.69
512.049	82.49
512.265	74.69
512.481	81.49
512.698	84.29
512.914	78.89
513.13	85.09
513.346	80.09
513.562	79.29
513.778	77.09
513.994	79.89
514.21	80.89
514.426	83.89
514.642	83.69
514.858	88.69
515.074	81.29
515.29	83.29
515.506	82.49
515.721	82.49
515.937	85.69
516.153	79.89
516.369	81.69
516.585	80.89
516.801	85.89
517.016	86.49
517.232	77.29
517.448	80.09
517.664	87.09
517.879	89.69
518.095	78.49
518.311	82.49
518.527	84.89
518.742	84.29
518.958	86.89
519.173	82.29
519.389	76.69
519.605	80.69
519.82	84.69
520.036	85.09
520.251	84.49
