Data from TenMicroDelayPb_HRD10591_00015.txt Node
Date: Mon Nov 24 14:44:10 EST 2025
User: Yrep
Spectrometer: HR+D1059
Trigger mode: 0
Integration Time (sec): 1.000000E-2
Scans to average: 5
Electric dark correction enabled: true
Nonlinearity correction enabled: false
Boxcar width: 0
XAxis mode: Wavelengths
Number of Pixels in Spectrum: 2048
>>>>>Begin Spectral Data<<<<<
223.165	-10.4
223.4	-10.4
223.635	-10.4
223.869	-18.2
224.104	-15.4
224.338	-18.6
224.573	-10.2
224.808	-13
225.042	-10.2
225.277	-6.8
225.511	-2.4
225.746	-3.4
225.98	5.2
226.215	12.8
226.449	11.6
226.683	15.6
226.918	35.8
227.152	27.6
227.387	32.8
227.621	42
227.856	44
228.09	52.8
228.324	47.6
228.559	55.2
228.793	55.4
229.027	59.8
229.262	62.6
229.496	63.4
229.73	70.2
229.964	69.8
230.199	72.6
230.433	80
230.667	77.8
230.901	78.4
231.136	77.8
231.37	83.2
231.604	80.6
231.838	77
232.072	76.6
232.306	81.6
232.541	76
232.775	76.4
233.009	79
233.243	82.6
233.477	76.4
233.711	81.2
233.945	76.2
234.179	77.2
234.413	77.2
234.647	79.2
234.881	82.8
235.115	80
235.349	80
235.583	76.4
235.817	75.4
236.051	70.6
236.285	72.4
236.519	72.4
236.753	76.8
236.987	72.8
237.221	78.2
237.455	73
237.689	76
237.922	70.8
238.156	75.6
238.39	73.2
238.624	79
238.858	71
239.091	75.2
239.325	77.6
239.559	72.8
239.793	80
240.027	75.2
240.26	74.6
240.494	73
240.728	76.4
240.961	79.4
241.195	75.2
241.429	75.4
241.662	74.4
241.896	68.6
242.13	71.8
242.363	73.2
242.597	72.8
242.83	79.6
243.064	75.4
243.298	75.8
243.531	77.4
243.765	72.6
243.998	74
244.232	83.6
244.465	76.8
244.699	75.6
244.932	78.8
245.166	75.2
245.399	76.6
245.633	73.2
245.866	73.6
246.099	77
246.333	83.4
246.566	74.6
246.8	78.2
247.033	82
247.266	77.6
247.5	77.2
247.733	81.4
247.966	84.4
248.2	79
248.433	78.4
248.666	78.8
248.899	74.4
249.133	74.2
249.366	75.2
249.599	77.8
249.832	71.6
250.066	76.8
250.299	78.2
250.532	78.4
250.765	76.6
250.998	77.6
251.231	72
251.465	78.6
251.698	70.8
251.931	77.6
252.164	77
252.397	85.6
252.63	79.2
252.863	76.8
253.096	80.6
253.329	81.2
253.562	75.4
253.795	78.6
254.028	74.8
254.261	75.8
254.494	78.2
254.727	75.2
254.96	79
255.193	76.2
255.426	79.8
255.659	75.4
255.892	75.4
256.124	86
256.357	80.2
256.59	84.2
256.823	76.8
257.056	75
257.289	77.6
257.521	80.6
257.754	74.8
257.987	74.2
258.22	81
258.452	79.6
258.685	72.8
258.918	78.8
259.151	77.6
259.383	83
259.616	83
259.849	76.8
260.081	84.6
260.314	77.4
260.547	83.2
260.779	73.8
261.012	82.6
261.244	79.6
261.477	79.6
261.71	84.6
261.942	77.2
262.175	81.6
262.407	84
262.64	80.6
262.872	84.6
263.105	78
263.337	83.8
263.57	77.4
263.802	75.2
264.035	77.8
264.267	78.2
264.499	78.2
264.732	80.4
264.964	86.8
265.197	80.2
265.429	74.6
265.661	82.6
265.894	77
266.126	74.6
266.358	82.4
266.591	83.2
266.823	83.4
267.055	79.6
267.287	77.4
267.52	80.2
267.752	85
267.984	79.4
268.216	82.2
268.448	81.6
268.681	84.8
268.913	82
269.145	82.8
269.377	75.8
269.609	80.6
269.841	83.6
270.073	86.4
270.306	84.2
270.538	80.6
270.77	83.8
271.002	81.4
271.234	86.6
271.466	80.8
271.698	76.4
271.93	89.2
272.162	82.2
272.394	84.2
272.626	75.2
272.858	83
273.09	80
273.322	84.8
273.553	74.4
273.785	89.4
274.017	81
274.249	81.8
274.481	81.2
274.713	83
274.945	81
275.176	80.2
275.408	78.8
275.64	78.8
275.872	82.6
276.104	78.8
276.335	80.8
276.567	88
276.799	79
277.031	73
277.262	79
277.494	76
277.726	87.4
277.957	81.2
278.189	82.8
278.421	81
278.652	78
278.884	83.6
279.115	83.6
279.347	83.4
279.579	84
279.81	80.8
280.042	83.6
280.273	80.2
280.505	77.4
280.736	82.4
280.968	84.8
281.199	79
281.431	77.6
281.662	83
281.894	82
282.125	85.2
282.356	81.2
282.588	88.8
282.819	83.2
283.051	88.4
283.282	82
283.513	84.6
283.745	82.2
283.976	87.6
284.207	80.4
284.439	82.8
284.67	80.4
284.901	83.2
285.132	84.4
285.364	90.2
285.595	83.4
285.826	86.8
286.057	84.4
286.288	82
286.52	78.2
286.751	82.6
286.982	81.8
287.213	82.6
287.444	84.2
287.675	82.8
287.906	81.6
288.138	74.6
288.369	84.2
288.6	75.4
288.831	85.6
289.062	84
289.293	86.6
289.524	82.4
289.755	83
289.986	85.6
290.217	88.4
290.448	91
290.679	82.4
290.91	84
291.141	81.2
291.371	76.2
291.602	81.4
291.833	77.6
292.064	85
292.295	85
292.526	84
292.757	83
292.987	82.4
293.218	83.8
293.449	82.6
293.68	80.4
293.91	84.6
294.141	79.8
294.372	84
294.603	81
294.833	86
295.064	86.8
295.295	83.8
295.525	84.2
295.756	89.8
295.987	89
296.217	86.2
296.448	88
296.679	88
296.909	85.2
297.14	88
297.37	87.4
297.601	76.2
297.831	85
298.062	82.4
298.292	84.6
298.523	83.2
298.753	77.8
298.984	85.4
299.214	83.2
299.445	76.6
299.675	83
299.905	84.8
300.136	84.4
300.366	84
300.597	85.4
300.827	83.8
301.057	79.4
301.288	77
301.518	86.8
301.748	88.4
301.979	88
302.209	95.8
302.439	80.6
302.669	83.8
302.9	77.6
303.13	85.6
303.36	85.6
303.59	81.2
303.82	80.6
304.051	74.2
304.281	86.4
304.511	86.2
304.741	85.4
304.971	74
305.201	85.4
305.431	81.6
305.661	81.6
305.891	87.8
306.121	85.2
306.352	86.6
306.582	82.6
306.812	84.6
307.042	83
307.272	83.8
307.502	78
307.731	83.4
307.961	85.2
308.191	84.8
308.421	82.4
308.651	83
308.881	84
309.111	87.2
309.341	85
309.571	81.4
309.8	86.6
310.03	87.6
310.26	85
310.49	85.4
310.72	81.4
310.949	80.2
311.179	81.8
311.409	85.2
311.639	82.2
311.868	88.6
312.098	83
312.328	81.2
312.557	86.2
312.787	79.6
313.017	88.8
313.246	79.6
313.476	83
313.706	86.8
313.935	93
314.165	88.4
314.394	86.8
314.624	77.4
314.853	85.4
315.083	86.4
315.312	86.4
315.542	80.4
315.771	81.8
316.001	84.4
316.23	87.4
316.46	82.2
316.689	79.4
316.919	85.8
317.148	87.8
317.377	80.4
317.607	82.6
317.836	86.4
318.065	90.2
318.295	83.6
318.524	84.4
318.753	82.2
318.983	81.6
319.212	77.6
319.441	82.6
319.67	80.6
319.9	81
320.129	85
320.358	83
320.587	83.4
320.816	84.4
321.046	85.4
321.275	81.4
321.504	85.8
321.733	92.6
321.962	87.2
322.191	85.4
322.42	79.8
322.649	89.2
322.878	81.4
323.108	84.6
323.337	88.6
323.566	80
323.795	85
324.024	83.6
324.253	83.2
324.482	88.4
324.71	83.8
324.939	84.6
325.168	83.8
325.397	82.6
325.626	83.8
325.855	86.2
326.084	80.8
326.313	75.8
326.542	88.8
326.77	84.4
326.999	93.4
327.228	84
327.457	80.2
327.686	82.6
327.914	81.2
328.143	83.4
328.372	81.2
328.6	82.4
328.829	77.6
329.058	81.8
329.287	86
329.515	83.2
329.744	83
329.972	83.6
330.201	85.2
330.43	85.2
330.658	84
330.887	88
331.115	86.6
331.344	84.2
331.572	86.8
331.801	87.2
332.03	87.6
332.258	79.6
332.486	79.2
332.715	82.2
332.943	87.2
333.172	83.6
333.4	87.2
333.629	87.4
333.857	89.4
334.085	85.8
334.314	78.2
334.542	84.4
334.771	86.6
334.999	79
335.227	77.8
335.455	86.8
335.684	87.6
335.912	80.8
336.14	80.2
336.369	83.4
336.597	85
336.825	83.8
337.053	84.6
337.281	74.6
337.51	86
337.738	76.4
337.966	82.2
338.194	83.4
338.422	85.2
338.65	85.2
338.878	84.8
339.106	84.6
339.334	88.8
339.562	87
339.79	87.2
340.018	83
340.246	85.8
340.474	81.8
340.702	86.2
340.93	85.2
341.158	84.6
341.386	86.4
341.614	83
341.842	85.2
342.07	86.6
342.298	83.8
342.526	83.8
342.754	81
342.981	88.8
343.209	78.2
343.437	84.4
343.665	84.8
343.893	84.4
344.12	79.4
344.348	77.6
344.576	86.4
344.804	83.8
345.031	83.6
345.259	72.2
345.487	82.4
345.714	80.8
345.942	85.2
346.17	89.2
346.397	83
346.625	77.6
346.853	80.2
347.08	83.2
347.308	86
347.535	82
347.763	80.4
347.99	85.2
348.218	85.2
348.445	79
348.673	81.8
348.9	75.6
349.128	82
349.355	80.6
349.583	86.4
349.81	83
350.037	88.6
350.265	86.4
350.492	82.6
350.72	87.6
350.947	89.8
351.174	86.6
351.402	85.6
351.629	82
351.856	81.6
352.083	76.8
352.311	80
352.538	82.6
352.765	80.4
352.992	77
353.22	82.2
353.447	81.4
353.674	85.4
353.901	80.6
354.128	87.6
354.355	86.2
354.583	74.4
354.81	87.2
355.037	81.8
355.264	80.2
355.491	78.2
355.718	83.4
355.945	82.2
356.172	78.2
356.399	83.6
356.626	85
356.853	82.2
357.08	83.2
357.307	82.6
357.534	86.4
357.761	78.8
357.988	83.8
358.215	82
358.441	86.4
358.668	82.8
358.895	83.6
359.122	77
359.349	85.8
359.576	84.4
359.802	86.4
360.029	84
360.256	78
360.483	91.4
360.709	85.6
360.936	76.8
361.163	83.8
361.39	77
361.616	79
361.843	85.2
362.07	86.8
362.296	77.4
362.523	80.8
362.749	80.4
362.976	88.4
363.203	82.8
363.429	83.4
363.656	81.4
363.882	86
364.109	81
364.335	79.6
364.562	78.6
364.788	82
365.015	79.6
365.241	87
365.468	81
365.694	79.4
365.92	84.6
366.147	74.8
366.373	82.8
366.599	82.4
366.826	79.4
367.052	81.4
367.278	80.8
367.505	84.6
367.731	88
367.957	82.6
368.184	80.8
368.41	83
368.636	82
368.862	80.8
369.089	84.4
369.315	83.6
369.541	78.2
369.767	83.6
369.993	83.6
370.219	82.6
370.445	89.8
370.672	90.6
370.898	75
371.124	83
371.35	85.4
371.576	83.8
371.802	80.4
372.028	87.2
372.254	82
372.48	85.6
372.706	83.8
372.932	81.8
373.158	82.8
373.384	84
373.61	79.8
373.835	81
374.061	84
374.287	83.4
374.513	81.4
374.739	82.6
374.965	70.4
375.191	83.4
375.416	79.8
375.642	83.8
375.868	80.2
376.094	80
376.319	81.4
376.545	81.6
376.771	84.4
376.997	90.2
377.222	76.8
377.448	82
377.674	82.4
377.899	85.8
378.125	79
378.35	82.4
378.576	79.8
378.802	80.6
379.027	84.8
379.253	79
379.478	81.2
379.704	82.8
379.929	81.8
380.155	82.8
380.38	79.8
380.606	81.6
380.831	76.4
381.057	83
381.282	81.8
381.507	79.2
381.733	82.8
381.958	81.2
382.184	81.6
382.409	80
382.634	82.4
382.86	86
383.085	77.2
383.31	74.4
383.535	82
383.761	88.8
383.986	89
384.211	83.8
384.436	83.4
384.662	83.8
384.887	79.2
385.112	79.6
385.337	79.4
385.562	77.2
385.787	81
386.013	76.2
386.238	77.2
386.463	78.8
386.688	86
386.913	76.4
387.138	82.8
387.363	84
387.588	81.2
387.813	75.4
388.038	82.6
388.263	89.2
388.488	79.2
388.713	75.4
388.938	84.6
389.163	87
389.387	83
389.612	79.4
389.837	79.2
390.062	79.2
390.287	81.6
390.512	78.8
390.736	79.4
390.961	77.8
391.186	78.6
391.411	81
391.636	83.2
391.86	82
392.085	77
392.31	85
392.534	81
392.759	81.2
392.984	77.4
393.208	76.8
393.433	79
393.658	82.8
393.882	86.2
394.107	78.8
394.331	74.6
394.556	82.8
394.78	77.4
395.005	79.2
395.229	78.2
395.454	80.4
395.678	71.6
395.903	84.2
396.127	78
396.352	80.8
396.576	81.6
396.801	86.8
397.025	80.4
397.249	81.6
397.474	79.4
397.698	83.2
397.922	80.4
398.147	81
398.371	83.8
398.595	83.4
398.82	78.8
399.044	79.2
399.268	75.8
399.492	80.6
399.717	79.4
399.941	84.8
400.165	89.4
400.389	81.6
400.613	75.2
400.837	76.2
401.062	77.6
401.286	73.4
401.51	79.4
401.734	81.2
401.958	78.2
402.182	78.4
402.406	82.6
402.63	78.4
402.854	79.8
403.078	79.2
403.302	83.2
403.526	92
403.75	77.2
403.974	80.4
404.198	82.4
404.422	83
404.645	78.6
404.869	85.8
405.093	85.4
405.317	79.6
405.541	76.4
405.765	81.8
405.988	80.2
406.212	74.8
406.436	83.6
406.66	81.4
406.883	80.8
407.107	81
407.331	80.2
407.555	78.4
407.778	80.8
408.002	76.6
408.226	77.6
408.449	78
408.673	80.6
408.896	78.6
409.12	83.4
409.344	78.4
409.567	85.8
409.791	75.6
410.014	80.2
410.238	80.2
410.461	75.6
410.685	80.2
410.908	77.6
411.132	77
411.355	85.8
411.578	82
411.802	77.4
412.025	81
412.249	80.4
412.472	78
412.695	83.6
412.919	82.8
413.142	78.6
413.365	84.8
413.589	84.6
413.812	77
414.035	72.8
414.258	79.4
414.482	75.8
414.705	81.4
414.928	74.4
415.151	81
415.374	78.8
415.597	77.6
415.821	81.8
416.044	82
416.267	76
416.49	82.8
416.713	83.6
416.936	77.4
417.159	83.8
417.382	77.8
417.605	81.2
417.828	76.4
418.051	76
418.274	77.8
418.497	80.8
418.72	80.4
418.943	76.2
419.166	81.8
419.389	81
419.611	77.6
419.834	81
420.057	77
420.28	83.8
420.503	80
420.726	76.2
420.948	81
421.171	78.8
421.394	81.2
421.617	75.8
421.839	76.8
422.062	79
422.285	83.6
422.507	83.8
422.73	81.4
422.953	82
423.175	83.6
423.398	72.6
423.621	80.8
423.843	76
424.066	80.8
424.288	80.6
424.511	78
424.733	78.6
424.956	77.8
425.178	80.6
425.401	77.6
425.623	70.8
425.846	78.2
426.068	83.2
426.291	79.8
426.513	81.2
426.735	84
426.958	84.4
427.18	84.2
427.402	78.6
427.625	80.8
427.847	81.6
428.069	76.2
428.292	76
428.514	81.4
428.736	86.4
428.958	82.4
429.181	76.6
429.403	73
429.625	76.6
429.847	76.4
430.069	79
430.292	80.8
430.514	78.2
430.736	80
430.958	77
431.18	83
431.402	80.6
431.624	77.4
431.846	82.6
432.068	80.8
432.29	80
432.512	76.8
432.734	75.8
432.956	76.6
433.178	75
433.4	76
433.622	83
433.844	81
434.066	82.4
434.287	75.2
434.509	75.6
434.731	80.6
434.953	77.8
435.175	79.6
435.397	81.4
435.618	80.4
435.84	77.2
436.062	80.6
436.284	78.2
436.505	84.8
436.727	77
436.949	78.2
437.17	75.8
437.392	79.8
437.614	80
437.835	86.2
438.057	85
438.278	82
438.5	81.6
438.721	76.8
438.943	80.2
439.165	79
439.386	82.8
439.608	81.6
439.829	81
440.05	81.2
440.272	82.4
440.493	79.2
440.715	77.4
440.936	79
441.158	78.6
441.379	79
441.6	80.6
441.822	78.8
442.043	85
442.264	79.2
442.486	78.4
442.707	81
442.928	79.2
443.149	80
443.371	85.8
443.592	80.4
443.813	82.4
444.034	80.4
444.255	77.2
444.476	78.8
444.698	78.4
444.919	73
445.14	85.4
445.361	89.4
445.582	78
445.803	76
446.024	74.8
446.245	76
446.466	80.4
446.687	78.4
446.908	81.6
447.129	83.6
447.35	77.4
447.571	83.4
447.792	79.2
448.013	82
448.234	81.4
448.455	79.4
448.675	78.8
448.896	77.4
449.117	76.8
449.338	82.6
449.559	81.2
449.779	78.2
450	80.2
450.221	81.4
450.442	79.6
450.662	84
450.883	71.8
451.104	70.4
451.324	76.4
451.545	80.4
451.766	83.2
451.986	82.4
452.207	80.6
452.428	83.8
452.648	81.2
452.869	73
453.089	81.4
453.31	74.4
453.53	79.6
453.751	81.8
453.971	78.4
454.192	73.2
454.412	81.6
454.633	78.4
454.853	78.2
455.073	81.4
455.294	84
455.514	84.4
455.734	80.2
455.955	87.6
456.175	75.8
456.395	76.6
456.616	72.8
456.836	78
457.056	75.8
457.276	79.2
457.497	79.4
457.717	74.2
457.937	79.4
458.157	80
458.377	78
458.598	75.8
458.818	82
459.038	71.2
459.258	79
459.478	84
459.698	81.4
459.918	83.4
460.138	75.8
460.358	81
460.578	82.8
460.798	82.4
461.018	83.8
461.238	81.6
461.458	74.6
461.678	81
461.898	74.6
462.118	75.4
462.338	70.6
462.558	77.8
462.777	79.2
462.997	79.8
463.217	78.8
463.437	80
463.657	82.4
463.876	79.2
464.096	79.4
464.316	85.8
464.536	81.8
464.755	82.8
464.975	78
465.195	82.2
465.414	72.8
465.634	84.2
465.854	79.4
466.073	79
466.293	82
466.512	79
466.732	78
466.951	74.2
467.171	73.8
467.391	80
467.61	75.6
467.829	79.6
468.049	75.2
468.268	79.8
468.488	77.4
468.707	81.8
468.927	86.4
469.146	82.2
469.365	81
469.585	77.2
469.804	81.2
470.023	75.4
470.243	80.6
470.462	81.4
470.681	81
470.901	80.8
471.12	82.4
471.339	79.8
471.558	82.8
471.777	82.4
471.997	83
472.216	89.4
472.435	79
472.654	74.6
472.873	78
473.092	81.2
473.311	77.8
473.53	77.6
473.749	79.6
473.968	79.4
474.187	83.4
474.406	81.8
474.625	85.8
474.844	81.2
475.063	83.2
475.282	78.6
475.501	81.6
475.72	79.8
475.939	79.6
476.158	78.4
476.377	78
476.596	80.4
476.814	78.4
477.033	74.8
477.252	83
477.471	77.8
477.69	81.8
477.908	81.4
478.127	79.6
478.346	81.4
478.564	82.4
478.783	78.2
479.002	80.4
479.22	80.8
479.439	82.6
479.658	78.6
479.876	78.8
480.095	77.6
480.313	82.2
480.532	78.6
480.751	75.2
480.969	81.4
481.188	77.8
481.406	75.2
481.624	74.8
481.843	81
482.061	85.6
482.28	79
482.498	84.2
482.717	80.6
482.935	82
483.153	86.4
483.372	77.4
483.59	82
483.808	81
484.027	80.4
484.245	81.6
484.463	79.8
484.681	83.2
484.9	80
485.118	81.8
485.336	75.4
485.554	78.6
485.772	80.2
485.99	79
486.209	81.6
486.427	81.4
486.645	85.6
486.863	81.4
487.081	77.2
487.299	78.4
487.517	74.2
487.735	76.4
487.953	81.2
488.171	84.4
488.389	82.4
488.607	79.4
488.825	78.4
489.043	84.6
489.261	81.8
489.479	91.8
489.696	76.4
489.914	81.8
490.132	79.4
490.35	79.4
490.568	76.8
490.786	83
491.003	80.8
491.221	84.8
491.439	79
491.657	78.4
491.874	83
492.092	82.4
492.31	89
492.527	79
492.745	86.6
492.963	83.2
493.18	80.6
493.398	80.4
493.615	82.6
493.833	80.6
494.05	75.2
494.268	73.4
494.485	80.2
494.703	76.8
494.92	78
495.138	78.6
495.355	81.2
495.573	77.8
495.79	79.8
496.008	82.8
496.225	86.4
496.442	80
496.66	79
496.877	82.8
497.094	84.6
497.312	81.2
497.529	80.2
497.746	80.2
497.963	84.6
498.181	82.4
498.398	77.6
498.615	79.4
498.832	77.2
499.049	78
499.267	83.6
499.484	84.8
499.701	83.2
499.918	85.8
500.135	82.4
500.352	79.8
500.569	77.4
500.786	84.8
501.003	79.8
501.22	84.6
501.437	85.6
501.654	81.4
501.871	85
502.088	85.8
502.305	77.8
502.522	84
502.739	84.6
502.956	84
503.172	80.6
503.389	85
503.606	79.4
503.823	85
504.04	87.4
504.256	82
504.473	85.2
504.69	82.4
504.907	81.2
505.123	82.6
505.34	79
505.557	81.6
505.773	80.8
505.99	83
506.207	81.2
506.423	79.2
506.64	79.8
506.856	80.6
507.073	75.2
507.289	86.6
507.506	81.4
507.722	81.8
507.939	80.6
508.155	77.6
508.372	86.2
508.588	78.2
508.805	80.6
509.021	83.2
509.238	83.2
509.454	80
509.67	80.2
509.887	75
510.103	83.4
510.319	78.2
510.536	85.2
510.752	80.4
510.968	77
511.184	78
511.401	78.6
511.617	82
511.833	89
512.049	76.8
512.265	83.8
512.481	81.8
512.698	86.2
512.914	82
513.13	84.4
513.346	84.6
513.562	78.4
513.778	81.2
513.994	84.8
514.21	83.2
514.426	87.2
514.642	80
514.858	76.8
515.074	81.4
515.29	80.2
515.506	82.8
515.721	80.6
515.937	82.2
516.153	85
516.369	86.8
516.585	79.8
516.801	82.8
517.016	78.4
517.232	71.4
517.448	83.4
517.664	80
517.879	83
518.095	81.6
518.311	78.4
518.527	82
518.742	85.6
518.958	76
519.173	81.4
519.389	80.4
519.605	80
519.82	81
520.036	81.8
520.251	83.8
520.467	79.4
520.682	80.2
520.898	83.8
521.113	83
521.329	78.4
521.544	81.4
521.76	80.2
521.975	79.8
522.19	77.6
522.406	83.8
522.621	87.2
522.836	84
523.052	84.4
523.267	81.8
523.482	77.4
523.698	81.2
523.913	81
524.128	83.2
524.343	83.2
524.559	80.8
524.774	79.6
524.989	81.4
525.204	80.2
525.419	82.2
525.634	86.8
525.849	87.8
526.064	78.4
526.28	82.2
526.495	82.2
526.71	82.8
526.925	83.6
527.14	73
527.355	81
527.57	85
527.785	84.8
527.999	80
528.214	82.2
528.429	80.2
528.644	83.2
528.859	82.6
529.074	73.6
529.289	83.6
529.503	81
529.718	87
529.933	78.2
530.148	84.2
530.363	83.2
530.577	80.4
530.792	85.2
531.007	81.6
531.221	81
531.436	84.4
531.651	87.2
531.865	83.2
532.08	78.2
532.295	81.2
532.509	81
532.724	79.6
532.938	86.4
533.153	86.2
533.367	76.6
533.582	83.4
533.796	81.4
534.011	76
534.225	85.6
534.44	85.4
534.654	81.6
534.868	83.6
535.083	79.4
535.297	78.6
535.511	85.4
535.726	82
535.94	88.4
536.154	75.8
536.369	81.8
536.583	77.2
536.797	83.2
537.011	77
537.225	85.6
537.44	84.6
537.654	81.8
537.868	82.4
538.082	80.2
538.296	84
538.51	93
538.724	72.6
538.938	84.8
539.153	86.6
539.367	89.6
539.581	90.8
539.795	85.4
540.009	83.6
540.222	79.8
540.436	73.4
540.65	84.8
540.864	81.8
541.078	81
541.292	83.4
541.506	82.6
541.72	83.8
541.934	83.2
542.147	83.6
542.361	90.6
542.575	82.4
542.789	84.6
543.002	80
543.216	79.4
543.43	83.6
543.644	85.6
543.857	83.8
544.071	84.8
544.285	86
544.498	91.6
544.712	83.4
544.925	82.4
545.139	82
545.352	87
545.566	87.6
545.779	79.6
545.993	82
546.206	85.6
546.42	86.6
546.633	83
546.847	80.4
547.06	84
547.274	79.8
547.487	79.2
547.7	82.8
547.914	80
548.127	78.4
548.34	85
548.554	86.6
548.767	85.6
548.98	82
549.193	84
549.407	87.2
549.62	79.8
