Data from TenMicroDelayPb_HRD10591_00006.txt Node
Date: Mon Nov 24 14:44:10 EST 2025
User: Yrep
Spectrometer: HR+D1059
Trigger mode: 0
Integration Time (sec): 1.000000E-2
Scans to average: 5
Electric dark correction enabled: true
Nonlinearity correction enabled: false
Boxcar width: 0
XAxis mode: Wavelengths
Number of Pixels in Spectrum: 2048
>>>>>Begin Spectral Data<<<<<
223.165	-20.45
223.4	-20.45
223.635	-20.45
223.869	-24.25
224.104	-10.25
224.338	-14.65
224.573	-15.85
224.808	-8.45
225.042	-11.25
225.277	-11.85
225.511	-1.05
225.746	4.75
225.98	6.15
226.215	7.55
226.449	13.55
226.683	24.75
226.918	29.35
227.152	31.95
227.387	35.15
227.621	41.15
227.856	40.95
228.09	43.95
228.324	45.75
228.559	55.55
228.793	55.95
229.027	56.75
229.262	61.15
229.496	67.35
229.73	60.95
229.964	65.55
230.199	69.95
230.433	70.95
230.667	80.95
230.901	79.75
231.136	77.35
231.37	78.95
231.604	81.55
231.838	76.75
232.072	80.95
232.306	81.35
232.541	82.35
232.775	84.15
233.009	78.15
233.243	78.75
233.477	81.15
233.711	78.55
233.945	81.75
234.179	77.95
234.413	84.95
234.647	74.95
234.881	80.15
235.115	84.75
235.349	76.55
235.583	81.35
235.817	74.75
236.051	85.15
236.285	77.15
236.519	73.35
236.753	74.55
236.987	78.35
237.221	69.35
237.455	80.15
237.689	74.55
237.922	75.75
238.156	77.75
238.39	70.35
238.624	73.95
238.858	75.55
239.091	74.35
239.325	73.35
239.559	71.75
239.793	76.55
240.027	75.75
240.26	76.35
240.494	77.55
240.728	75.75
240.961	78.55
241.195	73.35
241.429	72.55
241.662	76.75
241.896	78.75
242.13	77.15
242.363	75.95
242.597	74.35
242.83	74.55
243.064	77.75
243.298	76.35
243.531	76.15
243.765	86.95
243.998	71.95
244.232	78.75
244.465	78.15
244.699	78.15
244.932	80.75
245.166	83.95
245.399	79.15
245.633	79.75
245.866	79.55
246.099	74.55
246.333	74.75
246.566	78.15
246.8	74.95
247.033	82.75
247.266	78.55
247.5	73.75
247.733	79.35
247.966	88.35
248.2	81.95
248.433	78.75
248.666	84.35
248.899	80.75
249.133	80.95
249.366	74.55
249.599	83.15
249.832	76.75
250.066	79.95
250.299	80.35
250.532	78.15
250.765	81.35
250.998	75.75
251.231	78.95
251.465	75.75
251.698	73.55
251.931	80.55
252.164	74.95
252.397	81.55
252.63	77.95
252.863	77.75
253.096	77.15
253.329	82.55
253.562	78.55
253.795	75.15
254.028	78.55
254.261	74.55
254.494	81.35
254.727	72.55
254.96	79.15
255.193	80.35
255.426	78.75
255.659	78.15
255.892	80.55
256.124	80.95
256.357	78.55
256.59	81.75
256.823	81.55
257.056	81.35
257.289	82.55
257.521	79.75
257.754	78.55
257.987	76.95
258.22	79.55
258.452	80.15
258.685	79.15
258.918	78.15
259.151	82.75
259.383	81.95
259.616	75.55
259.849	82.75
260.081	84.15
260.314	77.55
260.547	76.95
260.779	80.55
261.012	79.75
261.244	80.95
261.477	88.35
261.71	86.15
261.942	81.15
262.175	81.75
262.407	79.95
262.64	83.55
262.872	77.75
263.105	76.75
263.337	74.95
263.57	81.55
263.802	84.95
264.035	86.55
264.267	82.75
264.499	75.55
264.732	85.95
264.964	82.15
265.197	83.15
265.429	73.95
265.661	84.35
265.894	82.15
266.126	77.35
266.358	75.75
266.591	76.75
266.823	83.95
267.055	84.35
267.287	81.35
267.52	82.95
267.752	86.75
267.984	82.15
268.216	84.35
268.448	84.95
268.681	74.95
268.913	83.95
269.145	81.15
269.377	80.15
269.609	86.95
269.841	85.75
270.073	86.35
270.306	84.55
270.538	80.15
270.77	77.95
271.002	84.35
271.234	85.95
271.466	82.35
271.698	84.55
271.93	83.95
272.162	74.15
272.394	84.35
272.626	84.15
272.858	84.75
273.09	83.75
273.322	79.75
273.553	86.35
273.785	84.15
274.017	80.75
274.249	76.95
274.481	83.15
274.713	83.15
274.945	86.75
275.176	85.55
275.408	80.75
275.64	82.15
275.872	81.55
276.104	80.35
276.335	82.55
276.567	88.15
276.799	79.75
277.031	82.95
277.262	86.35
277.494	83.35
277.726	81.75
277.957	82.35
278.189	83.15
278.421	77.55
278.652	84.15
278.884	85.95
279.115	81.55
279.347	89.75
279.579	80.75
279.81	86.15
280.042	80.75
280.273	83.35
280.505	78.55
280.736	80.35
280.968	89.95
281.199	85.15
281.431	85.35
281.662	83.55
281.894	88.95
282.125	88.35
282.356	84.95
282.588	83.35
282.819	89.55
283.051	83.35
283.282	77.95
283.513	81.95
283.745	87.55
283.976	81.75
284.207	85.55
284.439	88.35
284.67	83.95
284.901	80.75
285.132	84.15
285.364	88.95
285.595	81.55
285.826	84.95
286.057	83.95
286.288	89.15
286.52	84.75
286.751	87.35
286.982	79.75
287.213	87.35
287.444	89.35
287.675	92.35
287.906	76.15
288.138	80.95
288.369	82.35
288.6	85.55
288.831	84.95
289.062	80.75
289.293	76.95
289.524	85.35
289.755	78.55
289.986	85.75
290.217	88.95
290.448	85.35
290.679	80.35
290.91	89.15
291.141	80.95
291.371	80.95
291.602	83.95
291.833	83.15
292.064	85.15
292.295	84.75
292.526	80.95
292.757	82.35
292.987	83.75
293.218	83.15
293.449	84.95
293.68	82.35
293.91	83.55
294.141	86.95
294.372	74.95
294.603	80.75
294.833	80.95
295.064	84.15
295.295	88.15
295.525	86.15
295.756	92.95
295.987	81.15
296.217	86.55
296.448	84.55
296.679	83.55
296.909	82.75
297.14	86.15
297.37	85.75
297.601	87.95
297.831	85.95
298.062	81.95
298.292	86.35
298.523	83.15
298.753	83.35
298.984	85.15
299.214	87.35
299.445	89.75
299.675	83.15
299.905	85.95
300.136	82.75
300.366	86.95
300.597	81.95
300.827	84.95
301.057	87.55
301.288	84.35
301.518	78.55
301.748	79.15
301.979	89.95
302.209	89.55
302.439	86.35
302.669	81.55
302.9	87.55
303.13	84.95
303.36	86.15
303.59	86.95
303.82	84.95
304.051	83.95
304.281	83.35
304.511	86.15
304.741	89.35
304.971	87.15
305.201	82.75
305.431	90.55
305.661	83.35
305.891	81.15
306.121	84.75
306.352	83.55
306.582	86.95
306.812	85.55
307.042	85.75
307.272	84.95
307.502	85.75
307.731	81.75
307.961	83.55
308.191	83.15
308.421	89.35
308.651	81.15
308.881	83.55
309.111	86.75
309.341	85.75
309.571	82.75
309.8	84.75
310.03	82.55
310.26	88.35
310.49	88.75
310.72	85.55
310.949	78.55
311.179	89.15
311.409	89.35
311.639	83.55
311.868	88.75
312.098	83.95
312.328	81.95
312.557	83.15
312.787	81.35
313.017	84.75
313.246	83.55
313.476	84.35
313.706	79.35
313.935	79.35
314.165	88.95
314.394	85.95
314.624	78.55
314.853	88.15
315.083	87.15
315.312	82.95
315.542	90.95
315.771	84.95
316.001	83.95
316.23	88.75
316.46	77.95
316.689	82.35
316.919	88.95
317.148	78.55
317.377	88.55
317.607	88.55
317.836	86.55
318.065	83.55
318.295	80.55
318.524	84.15
318.753	87.35
318.983	80.95
319.212	82.35
319.441	87.15
319.67	82.35
319.9	82.95
320.129	85.35
320.358	89.55
320.587	85.15
320.816	88.35
321.046	87.95
321.275	90.35
321.504	87.35
321.733	88.75
321.962	87.15
322.191	83.55
322.42	86.75
322.649	87.75
322.878	91.95
323.108	86.15
323.337	85.35
323.566	82.15
323.795	91.55
324.024	87.95
324.253	89.55
324.482	85.95
324.71	78.75
324.939	80.95
325.168	88.75
325.397	83.95
325.626	85.75
325.855	81.15
326.084	81.35
326.313	83.15
326.542	85.15
326.77	85.35
326.999	75.35
327.228	82.35
327.457	82.75
327.686	84.95
327.914	85.55
328.143	81.55
328.372	82.95
328.6	87.35
328.829	86.75
329.058	84.15
329.287	86.55
329.515	86.35
329.744	88.35
329.972	86.35
330.201	86.35
330.43	82.95
330.658	79.35
330.887	91.35
331.115	87.55
331.344	81.95
331.572	86.55
331.801	85.95
332.03	81.35
332.258	83.55
332.486	88.35
332.715	91.55
332.943	88.35
333.172	85.15
333.4	80.75
333.629	88.95
333.857	84.35
334.085	91.35
334.314	87.95
334.542	82.75
334.771	86.95
334.999	85.75
335.227	83.75
335.455	84.95
335.684	86.15
335.912	85.55
336.14	81.35
336.369	83.35
336.597	83.55
336.825	84.15
337.053	84.55
337.281	83.15
337.51	83.35
337.738	89.55
337.966	84.15
338.194	82.35
338.422	87.15
338.65	87.15
338.878	90.35
339.106	87.75
339.334	86.55
339.562	82.75
339.79	84.15
340.018	84.95
340.246	83.55
340.474	85.55
340.702	84.75
340.93	86.55
341.158	84.35
341.386	75.75
341.614	83.55
341.842	86.35
342.07	87.15
342.298	86.15
342.526	86.95
342.754	84.55
342.981	83.95
343.209	83.75
343.437	85.35
343.665	82.15
343.893	83.55
344.12	86.15
344.348	80.75
344.576	84.55
344.804	80.55
345.031	81.95
345.259	83.35
345.487	81.15
345.714	82.35
345.942	81.95
346.17	86.95
346.397	82.75
346.625	88.75
346.853	83.75
347.08	78.55
347.308	82.15
347.535	82.35
347.763	89.95
347.99	84.35
348.218	87.55
348.445	92.35
348.673	85.75
348.9	88.55
349.128	84.95
349.355	83.35
349.583	85.35
349.81	77.95
350.037	86.75
350.265	89.55
350.492	87.15
350.72	88.15
350.947	79.15
351.174	77.95
351.402	84.75
351.629	90.35
351.856	88.95
352.083	83.35
352.311	85.35
352.538	81.75
352.765	87.35
352.992	84.75
353.22	81.95
353.447	82.95
353.674	82.15
353.901	82.55
354.128	85.95
354.355	84.95
354.583	90.35
354.81	82.55
355.037	84.95
355.264	79.75
355.491	86.15
355.718	81.55
355.945	88.75
356.172	82.15
356.399	87.95
356.626	83.35
356.853	81.55
357.08	89.55
357.307	83.35
357.534	78.35
357.761	81.35
357.988	81.95
358.215	85.75
358.441	81.15
358.668	83.15
358.895	89.35
359.122	85.75
359.349	86.75
359.576	76.95
359.802	86.15
360.029	83.95
360.256	81.75
360.483	83.95
360.709	84.15
360.936	84.75
361.163	79.35
361.39	80.35
361.616	86.75
361.843	88.55
362.07	87.95
362.296	86.55
362.523	82.15
362.749	86.55
362.976	78.95
363.203	83.15
363.429	90.35
363.656	91.75
363.882	84.95
364.109	80.95
364.335	80.75
364.562	88.75
364.788	87.55
365.015	81.15
365.241	84.95
365.468	76.95
365.694	85.35
365.92	91.55
366.147	88.35
366.373	87.15
366.599	82.15
366.826	79.75
367.052	79.95
367.278	83.35
367.505	84.15
367.731	83.55
367.957	79.15
368.184	81.95
368.41	81.35
368.636	85.95
368.862	79.35
369.089	85.95
369.315	85.55
369.541	81.55
369.767	79.55
369.993	87.55
370.219	85.35
370.445	81.75
370.672	80.15
370.898	87.15
371.124	86.35
371.35	91.95
371.576	86.35
371.802	90.75
372.028	89.35
372.254	86.15
372.48	82.95
372.706	79.15
372.932	81.15
373.158	80.75
373.384	84.75
373.61	85.15
373.835	84.75
374.061	85.15
374.287	83.55
374.513	83.55
374.739	93.15
374.965	83.35
375.191	83.95
375.416	80.95
375.642	84.35
375.868	83.75
376.094	84.35
376.319	78.75
376.545	83.35
376.771	86.55
376.997	84.35
377.222	84.55
377.448	82.75
377.674	83.75
377.899	83.35
378.125	85.15
378.35	82.55
378.576	80.35
378.802	86.95
379.027	85.95
379.253	80.15
379.478	88.15
379.704	82.15
379.929	85.55
380.155	80.95
380.38	81.35
380.606	80.95
380.831	83.15
381.057	86.35
381.282	87.55
381.507	81.15
381.733	79.55
381.958	83.55
382.184	79.15
382.409	86.95
382.634	80.95
382.86	86.55
383.085	78.55
383.31	84.75
383.535	82.35
383.761	79.35
383.986	79.95
384.211	81.95
384.436	84.75
384.662	93.35
384.887	89.55
385.112	90.75
385.337	81.15
385.562	83.95
385.787	83.55
386.013	83.55
386.238	83.75
386.463	89.15
386.688	79.55
386.913	83.75
387.138	78.75
387.363	84.55
387.588	84.55
387.813	81.15
388.038	82.35
388.263	83.95
388.488	82.55
388.713	81.75
388.938	88.15
389.163	82.35
389.387	79.35
389.612	79.35
389.837	83.15
390.062	82.95
390.287	87.35
390.512	85.95
390.736	84.15
390.961	81.15
391.186	87.95
391.411	81.75
391.636	80.95
391.86	83.55
392.085	76.95
392.31	80.55
392.534	78.35
392.759	81.95
392.984	89.15
393.208	82.15
393.433	87.15
393.658	81.35
393.882	82.15
394.107	82.35
394.331	83.95
394.556	81.35
394.78	80.15
395.005	80.55
395.229	83.35
395.454	84.55
395.678	82.55
395.903	81.15
396.127	77.75
396.352	77.75
396.576	78.55
396.801	79.35
397.025	76.75
397.249	79.55
397.474	83.35
397.698	71.55
397.922	81.95
398.147	85.35
398.371	79.35
398.595	77.15
398.82	75.15
399.044	78.75
399.268	82.95
399.492	82.35
399.717	78.75
399.941	81.75
400.165	85.35
400.389	79.75
400.613	83.35
400.837	78.35
401.062	86.55
401.286	82.75
401.51	78.95
401.734	74.95
401.958	82.55
402.182	80.95
402.406	86.55
402.63	86.35
402.854	80.15
403.078	87.55
403.302	79.35
403.526	83.95
403.75	79.55
403.974	83.15
404.198	80.15
404.422	82.75
404.645	88.15
404.869	73.55
405.093	78.35
405.317	84.75
405.541	79.75
405.765	79.95
405.988	83.15
406.212	78.15
406.436	79.75
406.66	83.55
406.883	80.55
407.107	78.35
407.331	76.55
407.555	77.35
407.778	77.95
408.002	74.75
408.226	81.15
408.449	81.75
408.673	81.95
408.896	79.75
409.12	81.55
409.344	88.75
409.567	78.35
409.791	78.55
410.014	77.95
410.238	79.35
410.461	73.15
410.685	80.35
410.908	85.95
411.132	83.95
411.355	86.75
411.578	81.15
411.802	76.95
412.025	80.15
412.249	78.75
412.472	82.35
412.695	84.95
412.919	81.35
413.142	77.95
413.365	75.35
413.589	77.95
413.812	83.55
414.035	87.75
414.258	78.55
414.482	79.55
414.705	76.55
414.928	86.35
415.151	85.75
415.374	83.75
415.597	79.95
415.821	85.75
416.044	84.35
416.267	80.55
416.49	83.55
416.713	80.35
416.936	82.15
417.159	74.55
417.382	74.75
417.605	77.35
417.828	79.35
418.051	80.35
418.274	86.35
418.497	85.15
418.72	83.15
418.943	84.15
419.166	79.55
419.389	80.75
419.611	78.75
419.834	80.55
420.057	82.15
420.28	79.95
420.503	89.55
420.726	84.75
420.948	80.55
421.171	82.55
421.394	81.75
421.617	75.95
421.839	81.95
422.062	78.55
422.285	80.95
422.507	79.35
422.73	71.75
422.953	81.55
423.175	88.75
423.398	82.95
423.621	83.15
423.843	82.15
424.066	87.35
424.288	79.95
424.511	82.35
424.733	75.35
424.956	78.75
425.178	79.75
425.401	80.95
425.623	78.55
425.846	82.15
426.068	77.95
426.291	81.15
426.513	84.35
426.735	85.35
426.958	85.55
427.18	83.75
427.402	84.35
427.625	75.15
427.847	83.95
428.069	80.95
428.292	80.55
428.514	87.35
428.736	81.95
428.958	80.95
429.181	77.55
429.403	81.55
429.625	77.15
429.847	83.35
430.069	80.35
430.292	79.15
430.514	82.35
430.736	82.55
430.958	84.35
431.18	82.35
431.402	78.55
431.624	79.75
431.846	82.35
432.068	83.35
432.29	82.15
432.512	79.95
432.734	82.95
432.956	81.95
433.178	87.55
433.4	87.15
433.622	79.55
433.844	76.35
434.066	78.35
434.287	84.95
434.509	83.55
434.731	79.35
434.953	81.55
435.175	80.55
435.397	81.55
435.618	77.75
435.84	83.95
436.062	79.95
436.284	85.75
436.505	80.75
436.727	80.55
436.949	79.95
437.17	79.55
437.392	76.55
437.614	81.15
437.835	84.55
438.057	80.15
438.278	81.15
438.5	78.55
438.721	80.35
438.943	81.35
439.165	81.35
439.386	84.15
439.608	82.75
439.829	86.55
440.05	77.75
440.272	90.55
440.493	77.75
440.715	79.75
440.936	79.35
441.158	85.35
441.379	84.95
441.6	79.35
441.822	80.55
442.043	87.35
442.264	82.15
442.486	81.55
442.707	83.75
442.928	78.95
443.149	82.55
443.371	78.35
443.592	79.15
443.813	83.95
444.034	80.75
444.255	84.75
444.476	80.35
444.698	81.95
444.919	81.55
445.14	84.55
445.361	78.55
445.582	86.15
445.803	80.15
446.024	83.55
446.245	77.15
446.466	80.15
446.687	83.75
446.908	82.75
447.129	82.15
447.35	80.55
447.571	76.95
447.792	83.95
448.013	80.75
448.234	82.55
448.455	81.35
448.675	82.55
448.896	86.95
449.117	85.95
449.338	80.95
449.559	81.75
449.779	89.55
450	85.75
450.221	84.35
450.442	77.55
450.662	79.55
450.883	70.75
451.104	79.15
451.324	83.75
451.545	76.55
451.766	80.15
451.986	81.75
452.207	74.95
452.428	84.35
452.648	78.95
452.869	80.95
453.089	77.95
453.31	86.75
453.53	83.55
453.751	81.95
453.971	80.55
454.192	83.15
454.412	83.75
454.633	81.55
454.853	81.55
455.073	81.15
455.294	85.75
455.514	78.55
455.734	80.55
455.955	80.55
456.175	77.95
456.395	81.95
456.616	76.95
456.836	84.55
457.056	80.55
457.276	81.15
457.497	83.35
457.717	78.15
457.937	83.75
458.157	79.75
458.377	78.95
458.598	85.35
458.818	84.75
459.038	81.75
459.258	83.55
459.478	81.35
459.698	84.15
459.918	76.35
460.138	78.15
460.358	80.55
460.578	84.95
460.798	80.15
461.018	81.95
461.238	81.15
461.458	78.35
461.678	80.55
461.898	83.75
462.118	81.75
462.338	82.95
462.558	84.35
462.777	87.15
462.997	80.55
463.217	85.55
463.437	77.75
463.657	80.95
463.876	77.15
464.096	82.35
464.316	80.55
464.536	78.95
464.755	84.35
464.975	77.95
465.195	79.15
465.414	78.95
465.634	79.75
465.854	83.95
466.073	82.35
466.293	74.35
466.512	81.35
466.732	84.15
466.951	80.55
467.171	81.55
467.391	82.15
467.61	80.15
467.829	85.55
468.049	83.75
468.268	80.95
468.488	83.95
468.707	85.55
468.927	80.35
469.146	74.35
469.365	81.55
469.585	85.75
469.804	87.75
470.023	82.95
470.243	84.15
470.462	81.95
470.681	87.75
470.901	81.15
471.12	84.55
471.339	77.95
471.558	82.75
471.777	77.75
471.997	72.95
472.216	79.75
472.435	79.75
472.654	84.15
472.873	81.95
473.092	87.35
473.311	83.35
473.53	80.15
473.749	81.35
473.968	84.95
474.187	88.35
474.406	88.75
474.625	82.75
474.844	86.75
475.063	80.15
475.282	80.15
475.501	83.95
475.72	85.75
475.939	90.75
476.158	82.75
476.377	82.95
476.596	82.75
476.814	83.35
477.033	78.95
477.252	82.35
477.471	82.75
477.69	74.15
477.908	86.15
478.127	83.15
478.346	85.55
478.564	81.55
478.783	78.75
479.002	85.15
479.22	89.75
479.439	87.15
479.658	82.15
479.876	78.35
480.095	80.15
480.313	77.55
480.532	82.95
480.751	81.95
480.969	77.15
481.188	86.55
481.406	78.55
481.624	77.35
481.843	82.55
482.061	83.35
482.28	85.15
482.498	82.75
482.717	81.95
482.935	87.75
483.153	81.35
483.372	83.95
483.59	90.95
483.808	87.55
484.027	87.55
484.245	79.95
484.463	81.95
484.681	83.35
484.9	76.95
485.118	84.15
485.336	85.35
485.554	81.55
485.772	81.15
485.99	83.55
486.209	81.95
486.427	86.55
486.645	77.15
486.863	88.75
487.081	83.95
487.299	77.55
487.517	85.75
487.735	81.35
487.953	76.75
488.171	77.15
488.389	84.95
488.607	82.35
488.825	81.55
489.043	81.55
489.261	77.75
489.479	80.95
489.696	82.75
489.914	78.35
490.132	79.35
490.35	84.95
490.568	93.15
490.786	84.35
491.003	78.35
491.221	80.15
491.439	79.55
491.657	83.15
491.874	76.75
492.092	78.35
492.31	82.95
492.527	84.35
492.745	77.95
492.963	85.75
493.18	85.55
493.398	83.35
493.615	73.75
493.833	85.15
494.05	76.95
494.268	80.55
494.485	81.55
494.703	84.15
494.92	91.55
495.138	79.35
495.355	76.15
495.573	81.15
495.79	85.35
496.008	80.95
496.225	84.15
496.442	81.35
496.66	81.95
496.877	76.95
497.094	84.75
497.312	84.55
497.529	77.75
497.746	88.75
497.963	78.75
498.181	82.55
498.398	89.55
498.615	90.15
498.832	89.55
499.049	79.75
499.267	80.75
499.484	80.95
499.701	84.55
499.918	84.15
500.135	83.95
500.352	85.35
500.569	81.95
500.786	85.55
501.003	77.95
501.22	79.75
501.437	86.15
501.654	82.95
501.871	83.15
502.088	80.35
502.305	82.75
502.522	82.95
502.739	78.75
502.956	76.35
503.172	78.75
503.389	85.95
503.606	82.15
503.823	79.35
504.04	82.15
504.256	83.55
504.473	75.55
504.69	80.35
504.907	84.55
505.123	82.55
505.34	78.75
505.557	80.15
505.773	78.15
505.99	80.75
506.207	81.15
506.423	81.95
506.64	81.75
506.856	82.15
507.073	86.55
507.289	86.75
507.506	79.55
507.722	78.95
507.939	86.15
508.155	83.55
508.372	88.35
508.588	87.55
508.805	83.95
509.021	81.35
509.238	89.75
509.454	89.15
509.67	80.55
509.887	80.95
510.103	83.35
510.319	79.35
510.536	83.75
510.752	85.15
510.968	86.75
511.184	85.35
511.401	82.75
511.617	79.35
511.833	83.55
512.049	81.15
512.265	83.15
512.481	78.55
512.698	80.75
512.914	86.95
513.13	88.55
513.346	86.95
513.562	81.75
513.778	85.55
513.994	80.35
514.21	80.15
514.426	83.75
514.642	80.95
514.858	82.35
515.074	80.35
515.29	81.75
515.506	86.15
515.721	85.75
515.937	80.95
516.153	86.15
516.369	82.75
516.585	79.35
516.801	83.95
517.016	88.55
517.232	84.15
517.448	82.75
517.664	85.35
517.879	79.55
518.095	78.95
518.311	81.75
518.527	81.35
518.742	80.15
518.958	83.15
519.173	80.55
519.389	80.35
519.605	86.75
519.82	82.75
520.036	86.95
520.251	79.35
