Data from TenMicroDelayPb_HRD10591_00014.txt Node
Date: Mon Nov 24 14:44:10 EST 2025
User: Yrep
Spectrometer: HR+D1059
Trigger mode: 0
Integration Time (sec): 1.000000E-2
Scans to average: 5
Electric dark correction enabled: true
Nonlinearity correction enabled: false
Boxcar width: 0
XAxis mode: Wavelengths
Number of Pixels in Spectrum: 2048
>>>>>Begin Spectral Data<<<<<
223.165	-11.81
223.4	-11.81
223.635	-11.81
223.869	-17.01
224.104	-18.61
224.338	-20.41
224.573	-14.41
224.808	-15.21
225.042	-12.41
225.277	-10.21
225.511	-1.41
225.746	2.99
225.98	11.99
226.215	11.79
226.449	18.79
226.683	18.39
226.918	27.99
227.152	29.59
227.387	42.79
227.621	37.99
227.856	40.99
228.09	52.39
228.324	53.79
228.559	50.39
228.793	54.39
229.027	66.99
229.262	68.39
229.496	68.99
229.73	65.19
229.964	66.79
230.199	69.79
230.433	79.79
230.667	69.79
230.901	77.19
231.136	80.79
231.37	78.59
231.604	80.79
231.838	77.99
232.072	74.39
232.306	80.39
232.541	81.79
232.775	78.59
233.009	83.39
233.243	84.59
233.477	80.79
233.711	84.99
233.945	76.19
234.179	82.79
234.413	79.59
234.647	81.19
234.881	74.99
235.115	78.99
235.349	79.19
235.583	74.39
235.817	79.39
236.051	79.59
236.285	78.19
236.519	77.79
236.753	77.99
236.987	71.59
237.221	77.59
237.455	80.19
237.689	74.99
237.922	72.59
238.156	69.99
238.39	77.39
238.624	74.79
238.858	73.59
239.091	72.99
239.325	73.39
239.559	78.19
239.793	75.79
240.027	76.79
240.26	77.59
240.494	68.39
240.728	76.79
240.961	72.19
241.195	73.79
241.429	77.19
241.662	79.59
241.896	77.19
242.13	75.39
242.363	76.99
242.597	80.79
242.83	75.79
243.064	77.19
243.298	73.59
243.531	72.19
243.765	76.39
243.998	81.59
244.232	76.99
244.465	76.99
244.699	82.99
244.932	78.79
245.166	77.39
245.399	80.59
245.633	72.59
245.866	71.19
246.099	72.59
246.333	76.79
246.566	78.59
246.8	73.99
247.033	81.39
247.266	77.39
247.5	80.39
247.733	78.19
247.966	73.39
248.2	81.39
248.433	74.59
248.666	78.59
248.899	78.39
249.133	81.39
249.366	76.39
249.599	75.19
249.832	75.19
250.066	84.39
250.299	79.39
250.532	76.39
250.765	85.99
250.998	80.79
251.231	82.79
251.465	80.19
251.698	81.99
251.931	81.79
252.164	75.99
252.397	78.79
252.63	77.39
252.863	84.19
253.096	74.39
253.329	80.59
253.562	78.59
253.795	84.19
254.028	80.39
254.261	84.39
254.494	80.79
254.727	80.59
254.96	79.19
255.193	79.59
255.426	75.39
255.659	82.99
255.892	80.19
256.124	73.39
256.357	78.39
256.59	79.59
256.823	80.99
257.056	73.79
257.289	78.39
257.521	80.39
257.754	79.79
257.987	78.39
258.22	70.39
258.452	79.99
258.685	76.79
258.918	84.99
259.151	77.39
259.383	77.59
259.616	79.39
259.849	84.59
260.081	84.59
260.314	83.99
260.547	76.59
260.779	83.59
261.012	87.99
261.244	81.99
261.477	84.79
261.71	78.59
261.942	72.59
262.175	77.19
262.407	77.19
262.64	80.39
262.872	79.99
263.105	78.19
263.337	77.59
263.57	78.59
263.802	87.19
264.035	76.79
264.267	80.39
264.499	83.19
264.732	81.99
264.964	85.39
265.197	81.19
265.429	81.19
265.661	81.59
265.894	78.39
266.126	81.39
266.358	77.39
266.591	84.99
266.823	85.19
267.055	82.39
267.287	82.59
267.52	84.99
267.752	81.59
267.984	78.59
268.216	82.79
268.448	83.19
268.681	82.59
268.913	80.79
269.145	82.19
269.377	79.79
269.609	81.39
269.841	82.19
270.073	83.59
270.306	84.19
270.538	82.59
270.77	78.39
271.002	80.99
271.234	80.99
271.466	86.79
271.698	82.39
271.93	85.19
272.162	85.39
272.394	81.59
272.626	82.99
272.858	82.59
273.09	86.59
273.322	80.99
273.553	84.99
273.785	81.39
274.017	82.59
274.249	87.59
274.481	76.79
274.713	81.39
274.945	80.39
275.176	76.99
275.408	82.79
275.64	79.19
275.872	76.59
276.104	83.99
276.335	83.19
276.567	77.99
276.799	77.79
277.031	84.39
277.262	82.59
277.494	73.39
277.726	82.39
277.957	88.39
278.189	81.79
278.421	79.99
278.652	78.39
278.884	80.19
279.115	80.39
279.347	83.79
279.579	82.99
279.81	78.19
280.042	80.99
280.273	87.19
280.505	81.99
280.736	83.19
280.968	88.59
281.199	85.19
281.431	78.19
281.662	79.39
281.894	84.19
282.125	83.99
282.356	78.79
282.588	76.39
282.819	79.99
283.051	82.59
283.282	80.79
283.513	84.99
283.745	86.39
283.976	78.39
284.207	89.39
284.439	83.19
284.67	87.79
284.901	84.59
285.132	80.79
285.364	82.19
285.595	83.19
285.826	83.39
286.057	84.99
286.288	82.79
286.52	87.59
286.751	83.59
286.982	79.99
287.213	84.59
287.444	81.99
287.675	85.79
287.906	87.79
288.138	86.19
288.369	85.79
288.6	84.79
288.831	84.19
289.062	80.59
289.293	82.19
289.524	84.99
289.755	87.19
289.986	89.99
290.217	80.39
290.448	84.19
290.679	86.99
290.91	78.59
291.141	80.59
291.371	88.79
291.602	93.19
291.833	90.79
292.064	86.99
292.295	81.59
292.526	79.99
292.757	82.99
292.987	91.19
293.218	81.79
293.449	77.99
293.68	81.19
293.91	83.59
294.141	80.59
294.372	86.99
294.603	82.59
294.833	82.59
295.064	86.79
295.295	87.39
295.525	80.79
295.756	88.59
295.987	86.59
296.217	88.79
296.448	83.39
296.679	82.99
296.909	82.39
297.14	87.39
297.37	77.99
297.601	82.39
297.831	89.59
298.062	84.99
298.292	81.99
298.523	81.99
298.753	82.99
298.984	78.19
299.214	86.79
299.445	86.39
299.675	85.79
299.905	81.19
300.136	82.79
300.366	82.79
300.597	89.39
300.827	82.79
301.057	73.59
301.288	85.39
301.518	83.79
301.748	83.79
301.979	89.19
302.209	79.19
302.439	83.79
302.669	88.39
302.9	84.79
303.13	78.59
303.36	83.19
303.59	92.39
303.82	86.99
304.051	88.79
304.281	85.19
304.511	82.19
304.741	84.79
304.971	83.39
305.201	82.59
305.431	82.19
305.661	83.79
305.891	82.59
306.121	90.39
306.352	83.99
306.582	85.59
306.812	86.39
307.042	81.79
307.272	81.79
307.502	88.99
307.731	84.19
307.961	83.79
308.191	83.79
308.421	82.79
308.651	90.59
308.881	87.39
309.111	80.99
309.341	82.19
309.571	88.79
309.8	79.19
310.03	80.99
310.26	84.39
310.49	83.99
310.72	85.99
310.949	78.39
311.179	84.39
311.409	86.39
311.639	85.79
311.868	80.19
312.098	83.99
312.328	79.39
312.557	87.19
312.787	87.99
313.017	94.39
313.246	87.39
313.476	85.39
313.706	80.59
313.935	84.99
314.165	80.19
314.394	85.39
314.624	81.99
314.853	82.99
315.083	85.99
315.312	89.39
315.542	79.79
315.771	79.59
316.001	89.19
316.23	87.39
316.46	85.59
316.689	85.99
316.919	81.19
317.148	81.79
317.377	79.99
317.607	80.59
317.836	83.59
318.065	89.19
318.295	80.39
318.524	84.39
318.753	84.19
318.983	85.19
319.212	84.79
319.441	83.39
319.67	83.39
319.9	89.99
320.129	86.79
320.358	89.79
320.587	82.19
320.816	80.99
321.046	85.79
321.275	88.19
321.504	77.39
321.733	87.19
321.962	79.39
322.191	85.39
322.42	86.79
322.649	85.19
322.878	90.19
323.108	82.39
323.337	86.99
323.566	78.39
323.795	85.59
324.024	91.39
324.253	82.99
324.482	79.59
324.71	84.59
324.939	79.99
325.168	92.39
325.397	87.39
325.626	86.59
325.855	83.39
326.084	84.19
326.313	83.39
326.542	91.59
326.77	82.79
326.999	84.59
327.228	79.79
327.457	82.59
327.686	85.99
327.914	83.39
328.143	85.99
328.372	80.79
328.6	80.19
328.829	86.39
329.058	86.19
329.287	84.39
329.515	81.99
329.744	77.19
329.972	81.39
330.201	86.59
330.43	81.99
330.658	87.39
330.887	86.79
331.115	81.79
331.344	84.79
331.572	76.79
331.801	79.79
332.03	81.99
332.258	85.19
332.486	84.99
332.715	85.79
332.943	86.99
333.172	92.99
333.4	89.99
333.629	88.79
333.857	83.79
334.085	81.39
334.314	89.39
334.542	89.39
334.771	85.19
334.999	88.99
335.227	85.99
335.455	79.39
335.684	81.59
335.912	75.99
336.14	77.99
336.369	83.39
336.597	84.39
336.825	82.99
337.053	87.39
337.281	85.39
337.51	81.59
337.738	87.99
337.966	82.99
338.194	86.59
338.422	82.19
338.65	80.99
338.878	84.59
339.106	78.99
339.334	81.19
339.562	81.99
339.79	91.19
340.018	84.59
340.246	86.99
340.474	83.39
340.702	75.39
340.93	84.19
341.158	79.79
341.386	88.99
341.614	83.39
341.842	82.59
342.07	81.79
342.298	82.99
342.526	92.39
342.754	89.39
342.981	85.79
343.209	88.19
343.437	78.99
343.665	78.79
343.893	82.59
344.12	79.59
344.348	81.79
344.576	85.39
344.804	86.79
345.031	86.59
345.259	84.99
345.487	86.39
345.714	78.39
345.942	80.59
346.17	80.79
346.397	82.79
346.625	80.39
346.853	83.59
347.08	83.59
347.308	82.59
347.535	88.39
347.763	79.59
347.99	82.39
348.218	82.59
348.445	84.39
348.673	85.59
348.9	80.39
349.128	85.99
349.355	89.19
349.583	88.79
349.81	83.79
350.037	80.99
350.265	80.79
350.492	88.59
350.72	82.39
350.947	88.39
351.174	81.39
351.402	90.59
351.629	81.99
351.856	88.39
352.083	85.39
352.311	84.39
352.538	82.99
352.765	79.59
352.992	81.59
353.22	83.79
353.447	83.79
353.674	86.39
353.901	80.99
354.128	81.99
354.355	83.59
354.583	82.39
354.81	75.19
355.037	81.19
355.264	81.39
355.491	87.79
355.718	79.19
355.945	81.19
356.172	89.59
356.399	82.79
356.626	81.79
356.853	79.99
357.08	78.99
357.307	84.59
357.534	86.39
357.761	79.79
357.988	87.99
358.215	86.79
358.441	85.19
358.668	84.79
358.895	85.39
359.122	81.79
359.349	82.19
359.576	83.19
359.802	84.19
360.029	76.99
360.256	80.99
360.483	82.59
360.709	79.39
360.936	82.19
361.163	80.99
361.39	86.39
361.616	84.79
361.843	86.19
362.07	82.59
362.296	87.59
362.523	83.19
362.749	81.39
362.976	83.79
363.203	82.39
363.429	77.39
363.656	79.99
363.882	89.79
364.109	85.19
364.335	77.39
364.562	81.39
364.788	76.79
365.015	91.19
365.241	82.19
365.468	78.39
365.694	84.39
365.92	82.39
366.147	90.79
366.373	79.99
366.599	82.99
366.826	84.99
367.052	82.59
367.278	84.19
367.505	78.79
367.731	82.39
367.957	80.59
368.184	81.79
368.41	75.79
368.636	83.99
368.862	80.39
369.089	82.39
369.315	82.19
369.541	78.79
369.767	79.79
369.993	83.59
370.219	73.79
370.445	82.99
370.672	77.59
370.898	81.59
371.124	81.19
371.35	86.59
371.576	84.79
371.802	80.39
372.028	82.59
372.254	84.79
372.48	82.99
372.706	79.59
372.932	84.19
373.158	86.19
373.384	80.39
373.61	76.39
373.835	80.19
374.061	77.79
374.287	86.19
374.513	80.79
374.739	81.39
374.965	75.39
375.191	87.79
375.416	85.19
375.642	84.59
375.868	76.99
376.094	80.79
376.319	79.99
376.545	86.39
376.771	79.19
376.997	81.59
377.222	86.19
377.448	81.99
377.674	78.79
377.899	80.99
378.125	87.19
378.35	83.99
378.576	79.79
378.802	77.99
379.027	82.59
379.253	87.79
379.478	82.39
379.704	88.79
379.929	81.59
380.155	91.59
380.38	83.79
380.606	82.19
380.831	85.79
381.057	85.79
381.282	83.39
381.507	83.59
381.733	83.79
381.958	85.39
382.184	82.99
382.409	86.59
382.634	78.79
382.86	88.59
383.085	78.39
383.31	81.79
383.535	80.59
383.761	82.79
383.986	80.99
384.211	87.59
384.436	80.59
384.662	81.79
384.887	83.59
385.112	88.19
385.337	80.19
385.562	86.59
385.787	87.79
386.013	80.99
386.238	82.79
386.463	79.39
386.688	79.19
386.913	87.79
387.138	82.79
387.363	77.19
387.588	90.99
387.813	81.39
388.038	80.99
388.263	78.59
388.488	81.39
388.713	83.39
388.938	81.39
389.163	75.99
389.387	85.59
389.612	85.59
389.837	79.99
390.062	78.39
390.287	88.99
390.512	83.19
390.736	82.59
390.961	84.99
391.186	79.79
391.411	82.59
391.636	79.99
391.86	87.79
392.085	77.99
392.31	86.79
392.534	80.99
392.759	83.39
392.984	82.79
393.208	80.59
393.433	82.39
393.658	80.59
393.882	76.79
394.107	82.99
394.331	80.19
394.556	78.79
394.78	84.79
395.005	80.99
395.229	79.19
395.454	83.39
395.678	84.39
395.903	85.99
396.127	82.39
396.352	80.99
396.576	82.99
396.801	73.79
397.025	81.99
397.249	84.39
397.474	78.59
397.698	76.59
397.922	83.79
398.147	79.19
398.371	81.19
398.595	76.99
398.82	81.99
399.044	83.99
399.268	77.99
399.492	80.39
399.717	80.19
399.941	83.39
400.165	79.39
400.389	84.79
400.613	78.39
400.837	83.79
401.062	82.39
401.286	80.79
401.51	81.39
401.734	81.99
401.958	76.79
402.182	81.99
402.406	83.19
402.63	84.99
402.854	79.19
403.078	79.19
403.302	82.79
403.526	78.99
403.75	75.19
403.974	78.59
404.198	82.19
404.422	77.99
404.645	72.79
404.869	76.79
405.093	83.99
405.317	80.39
405.541	85.19
405.765	83.79
405.988	81.39
406.212	78.59
406.436	83.99
406.66	82.99
406.883	72.39
407.107	84.59
407.331	86.99
407.555	80.39
407.778	79.39
408.002	81.19
408.226	81.99
408.449	75.39
408.673	78.19
408.896	78.59
409.12	82.59
409.344	78.99
409.567	83.99
409.791	79.39
410.014	85.39
410.238	79.19
410.461	77.19
410.685	81.19
410.908	80.99
411.132	85.59
411.355	77.19
411.578	78.79
411.802	81.99
412.025	79.59
412.249	85.19
412.472	85.39
412.695	79.79
412.919	82.79
413.142	85.59
413.365	79.79
413.589	83.79
413.812	83.39
414.035	77.79
414.258	76.59
414.482	75.19
414.705	77.79
414.928	82.39
415.151	83.39
415.374	83.79
415.597	82.19
415.821	83.59
416.044	77.59
416.267	78.39
416.49	77.79
416.713	84.59
416.936	76.59
417.159	83.19
417.382	78.59
417.605	85.79
417.828	78.59
418.051	76.99
418.274	82.39
418.497	80.39
418.72	79.39
418.943	86.59
419.166	80.79
419.389	80.79
419.611	86.39
419.834	84.39
420.057	75.39
420.28	81.59
420.503	79.79
420.726	88.79
420.948	76.99
421.171	76.19
421.394	79.59
421.617	84.19
421.839	86.39
422.062	78.79
422.285	84.59
422.507	75.19
422.73	80.79
422.953	75.39
423.175	90.59
423.398	73.39
423.621	82.99
423.843	79.99
424.066	73.99
424.288	77.99
424.511	79.99
424.733	81.19
424.956	71.79
425.178	82.99
425.401	82.59
425.623	86.19
425.846	83.19
426.068	79.59
426.291	80.39
426.513	77.79
426.735	79.39
426.958	81.39
427.18	77.59
427.402	79.79
427.625	77.79
427.847	86.59
428.069	78.39
428.292	80.79
428.514	79.59
428.736	78.39
428.958	79.79
429.181	81.39
429.403	85.99
429.625	83.39
429.847	80.19
430.069	92.59
430.292	74.59
430.514	85.19
430.736	77.39
430.958	77.19
431.18	79.39
431.402	83.79
431.624	84.99
431.846	78.79
432.068	78.39
432.29	78.19
432.512	83.99
432.734	87.79
432.956	81.59
433.178	78.99
433.4	85.99
433.622	82.99
433.844	80.79
434.066	82.19
434.287	82.19
434.509	82.59
434.731	76.99
434.953	77.79
435.175	82.59
435.397	91.19
435.618	79.39
435.84	77.99
436.062	80.39
436.284	76.79
436.505	82.39
436.727	81.79
436.949	78.39
437.17	76.19
437.392	80.99
437.614	81.59
437.835	81.59
438.057	81.39
438.278	82.39
438.5	85.79
438.721	84.99
438.943	78.59
439.165	85.19
439.386	82.39
439.608	82.39
439.829	86.39
440.05	78.59
440.272	85.99
440.493	75.99
440.715	76.59
440.936	83.59
441.158	85.59
441.379	81.79
441.6	86.99
441.822	85.79
442.043	80.99
442.264	84.39
442.486	77.59
442.707	77.79
442.928	81.19
443.149	79.39
443.371	80.39
443.592	83.19
443.813	80.19
444.034	76.99
444.255	80.19
444.476	77.39
444.698	82.99
444.919	82.39
445.14	87.99
445.361	85.59
445.582	83.19
445.803	75.39
446.024	80.59
446.245	77.59
446.466	82.19
446.687	82.99
446.908	85.59
447.129	80.99
447.35	75.19
447.571	83.19
447.792	81.59
448.013	83.79
448.234	79.99
448.455	77.99
448.675	76.99
448.896	81.19
449.117	85.99
449.338	79.19
449.559	79.79
449.779	81.39
450	82.39
450.221	81.59
450.442	84.19
450.662	81.59
450.883	83.59
451.104	80.19
451.324	82.79
451.545	77.39
451.766	81.59
451.986	79.19
452.207	83.39
452.428	76.99
452.648	81.99
452.869	76.79
453.089	85.79
453.31	82.79
453.53	83.19
453.751	77.59
453.971	77.19
454.192	79.79
454.412	76.39
454.633	84.19
454.853	86.79
455.073	85.79
455.294	78.19
455.514	80.79
455.734	83.99
455.955	83.79
456.175	79.59
456.395	80.99
456.616	78.19
456.836	77.39
457.056	89.79
457.276	79.79
457.497	80.39
457.717	82.39
457.937	79.59
458.157	79.39
458.377	77.59
458.598	79.19
458.818	83.59
459.038	78.39
459.258	77.99
459.478	81.19
459.698	82.99
459.918	73.39
460.138	80.59
460.358	84.19
460.578	79.99
460.798	82.59
461.018	80.99
461.238	76.79
461.458	83.99
461.678	80.59
461.898	78.99
462.118	77.19
462.338	81.59
462.558	86.99
462.777	84.79
462.997	83.59
463.217	77.79
463.437	83.59
463.657	72.79
463.876	78.39
464.096	80.19
464.316	85.79
464.536	82.19
464.755	82.59
464.975	77.19
465.195	84.79
465.414	77.39
465.634	80.19
465.854	81.99
466.073	82.39
466.293	75.39
466.512	82.79
466.732	81.59
466.951	76.19
467.171	81.79
467.391	80.59
467.61	76.99
467.829	82.79
468.049	84.59
468.268	81.19
468.488	81.59
468.707	82.19
468.927	86.19
469.146	76.39
469.365	85.39
469.585	78.59
469.804	75.19
470.023	79.99
470.243	82.99
470.462	88.39
470.681	81.59
470.901	76.99
471.12	86.59
471.339	82.59
471.558	83.79
471.777	85.19
471.997	77.99
472.216	85.99
472.435	82.59
472.654	82.99
472.873	84.19
473.092	80.59
473.311	77.79
473.53	80.99
473.749	84.59
473.968	81.99
474.187	82.99
474.406	81.79
474.625	80.39
474.844	80.19
475.063	76.39
475.282	81.99
475.501	80.79
475.72	81.79
475.939	78.39
476.158	80.19
476.377	86.39
476.596	80.59
476.814	79.99
477.033	86.39
477.252	77.59
477.471	76.19
477.69	84.19
477.908	75.99
478.127	79.19
478.346	82.59
478.564	85.79
478.783	87.99
479.002	86.79
479.22	82.99
479.439	82.39
479.658	79.79
479.876	83.19
480.095	80.99
480.313	86.19
480.532	78.19
480.751	82.59
480.969	83.19
481.188	81.59
481.406	79.39
481.624	77.59
481.843	77.79
482.061	83.59
482.28	73.79
482.498	85.39
482.717	82.59
482.935	81.59
483.153	78.99
483.372	84.79
483.59	79.39
483.808	81.79
484.027	78.39
484.245	80.79
484.463	81.39
484.681	80.99
484.9	79.99
485.118	74.39
485.336	84.99
485.554	84.39
485.772	83.19
485.99	78.59
486.209	82.59
486.427	81.39
486.645	80.19
486.863	80.39
487.081	79.39
487.299	78.79
487.517	77.79
487.735	85.59
487.953	80.19
488.171	90.19
488.389	83.39
488.607	81.19
488.825	87.39
489.043	79.19
489.261	87.19
489.479	76.59
489.696	83.79
489.914	88.39
490.132	88.59
490.35	83.79
490.568	83.39
490.786	83.19
491.003	81.59
491.221	80.79
491.439	80.59
491.657	73.59
491.874	79.39
492.092	84.59
492.31	84.39
492.527	84.39
492.745	80.39
492.963	80.99
493.18	79.59
493.398	83.39
493.615	75.79
493.833	80.39
494.05	88.79
494.268	81.19
494.485	83.99
494.703	83.39
494.92	81.59
495.138	85.19
495.355	86.19
495.573	77.19
495.79	78.19
496.008	81.59
496.225	83.59
496.442	80.79
496.66	80.19
496.877	79.99
497.094	71.59
497.312	76.39
497.529	86.79
497.746	80.99
497.963	81.39
498.181	81.39
498.398	79.99
498.615	84.99
498.832	81.39
499.049	81.19
499.267	76.59
499.484	80.99
499.701	89.39
499.918	83.99
500.135	84.39
500.352	79.99
500.569	84.59
500.786	78.99
501.003	82.99
501.22	83.79
501.437	88.59
501.654	90.59
501.871	84.19
502.088	82.99
502.305	82.19
502.522	77.79
502.739	77.39
502.956	83.99
503.172	86.99
503.389	83.59
503.606	86.99
503.823	83.79
504.04	81.39
504.256	77.59
504.473	81.39
504.69	77.59
504.907	81.59
505.123	76.79
505.34	79.19
505.557	77.39
505.773	74.59
505.99	76.59
506.207	75.99
506.423	76.79
506.64	76.99
506.856	83.99
507.073	83.59
507.289	86.79
507.506	80.59
507.722	88.19
507.939	83.99
508.155	77.79
508.372	86.19
508.588	77.39
508.805	81.59
509.021	88.59
509.238	81.99
509.454	84.39
509.67	78.39
509.887	89.39
510.103	78.99
510.319	90.59
510.536	84.19
510.752	82.99
510.968	81.99
511.184	77.79
511.401	83.39
511.617	79.79
511.833	86.59
512.049	85.19
512.265	79.99
512.481	86.19
512.698	86.39
512.914	81.79
513.13	81.39
513.346	84.99
513.562	77.19
513.778	81.39
513.994	88.59
514.21	82.79
514.426	82.39
514.642	82.39
514.858	85.39
515.074	85.79
515.29	85.39
515.506	80.19
515.721	82.59
515.937	85.39
516.153	87.39
516.369	84.99
516.585	83.99
516.801	81.79
517.016	81.39
517.232	78.59
517.448	77.59
517.664	84.79
517.879	79.99
518.095	78.39
518.311	77.79
518.527	80.99
518.742	80.19
518.958	81.99
519.173	83.79
519.389	87.59
519.605	84.79
519.82	83.79
520.036	80.39
520.251	78.59
