Data from StdB_HRD10591_010.txt Node
Date: Fri May 16 15:24:51 EDT 2025
User: Yrep
Spectrometer: HR+D1059
Trigger mode: 1
Integration Time (sec): 1.000000E-1
Scans to average: 1
Electric dark correction enabled: true
Nonlinearity correction enabled: false
Boxcar width: 0
XAxis mode: Wavelengths
Number of Pixels in Spectrum: 2048
>>>>>Begin Spectral Data<<<<<
223.165	-26.94
223.4	-26.94
223.635	-26.94
223.869	-24.94
224.104	-20.94
224.338	-35.94
224.573	-4.94
224.808	-8.94
225.042	5.06
225.277	-13.94
225.511	-0.94
225.746	6.06
225.98	19.06
226.215	15.06
226.449	5.06
226.683	17.06
226.918	31.06
227.152	39.06
227.387	40.06
227.621	32.06
227.856	42.06
228.09	46.06
228.324	61.06
228.559	63.06
228.793	63.06
229.027	70.06
229.262	83.06
229.496	80.06
229.73	78.06
229.964	84.06
230.199	85.06
230.433	75.06
230.667	92.06
230.901	86.06
231.136	90.06
231.37	101.06
231.604	82.06
231.838	91.06
232.072	91.06
232.306	91.06
232.541	97.06
232.775	98.06
233.009	85.06
233.243	95.06
233.477	87.06
233.711	89.06
233.945	85.06
234.179	100.06
234.413	87.06
234.647	93.06
234.881	84.06
235.115	93.06
235.349	97.06
235.583	89.06
235.817	90.06
236.051	83.06
236.285	85.06
236.519	101.06
236.753	93.06
236.987	93.06
237.221	95.06
237.455	99.06
237.689	91.06
237.922	96.06
238.156	105.06
238.39	91.06
238.624	88.06
238.858	88.06
239.091	94.06
239.325	91.06
239.559	88.06
239.793	111.06
240.027	101.06
240.26	105.06
240.494	107.06
240.728	124.06
240.961	110.06
241.195	87.06
241.429	95.06
241.662	104.06
241.896	94.06
242.13	97.06
242.363	92.06
242.597	104.06
242.83	110.06
243.064	96.06
243.298	109.06
243.531	110.06
243.765	97.06
243.998	100.06
244.232	109.06
244.465	108.06
244.699	118.06
244.932	108.06
245.166	115.06
245.399	122.06
245.633	101.06
245.866	99.06
246.099	107.06
246.333	104.06
246.566	103.06
246.8	104.06
247.033	105.06
247.266	108.06
247.5	118.06
247.733	126.06
247.966	133.06
248.2	131.06
248.433	97.06
248.666	103.06
248.899	103.06
249.133	104.06
249.366	110.06
249.599	113.06
249.832	112.06
250.066	125.06
250.299	121.06
250.532	120.06
250.765	108.06
250.998	127.06
251.231	108.06
251.465	112.06
251.698	119.06
251.931	124.06
252.164	135.06
252.397	117.06
252.63	121.06
252.863	150.06
253.096	128.06
253.329	150.06
253.562	148.06
253.795	127.06
254.028	131.06
254.261	133.06
254.494	132.06
254.727	128.06
254.96	145.06
255.193	126.06
255.426	144.06
255.659	143.06
255.892	148.06
256.124	132.06
256.357	137.06
256.59	127.06
256.823	150.06
257.056	139.06
257.289	143.06
257.521	146.06
257.754	158.06
257.987	191.06
258.22	165.06
258.452	152.06
258.685	139.06
258.918	142.06
259.151	147.06
259.383	140.06
259.616	126.06
259.849	150.06
260.081	153.06
260.314	157.06
260.547	164.06
260.779	176.06
261.012	204.06
261.244	247.06
261.477	333.06
261.71	319.06
261.942	249.06
262.175	179.06
262.407	171.06
262.64	169.06
262.872	163.06
263.105	165.06
263.337	157.06
263.57	162.06
263.802	148.06
264.035	148.06
264.267	133.06
264.499	169.06
264.732	166.06
264.964	177.06
265.197	179.06
265.429	180.06
265.661	162.06
265.894	144.06
266.126	187.06
266.358	219.06
266.591	251.06
266.823	195.06
267.055	163.06
267.287	166.06
267.52	136.06
267.752	125.06
267.984	140.06
268.216	140.06
268.448	134.06
268.681	148.06
268.913	127.06
269.145	139.06
269.377	139.06
269.609	133.06
269.841	149.06
270.073	148.06
270.306	148.06
270.538	137.06
270.77	137.06
271.002	135.06
271.234	124.06
271.466	127.06
271.698	131.06
271.93	151.06
272.162	144.06
272.394	155.06
272.626	136.06
272.858	137.06
273.09	149.06
273.322	152.06
273.553	138.06
273.785	149.06
274.017	143.06
274.249	130.06
274.481	140.06
274.713	138.06
274.945	146.06
275.176	147.06
275.408	163.06
275.64	128.06
275.872	149.06
276.104	144.06
276.335	165.06
276.567	159.06
276.799	140.06
277.031	155.06
277.262	149.06
277.494	167.06
277.726	157.06
277.957	153.06
278.189	138.06
278.421	166.06
278.652	192.06
278.884	188.06
279.115	199.06
279.347	227.06
279.579	263.06
279.81	333.06
280.042	455.06
280.273	517.06
280.505	471.06
280.736	320.06
280.968	231.06
281.199	213.06
281.431	206.06
281.662	192.06
281.894	219.06
282.125	250.06
282.356	278.06
282.588	286.06
282.819	250.06
283.051	275.06
283.282	366.06
283.513	410.06
283.745	318.06
283.976	241.06
284.207	197.06
284.439	187.06
284.67	192.06
284.901	183.06
285.132	173.06
285.364	157.06
285.595	169.06
285.826	179.06
286.057	177.06
286.288	188.06
286.52	185.06
286.751	207.06
286.982	227.06
287.213	285.06
287.444	323.06
287.675	251.06
287.906	205.06
288.138	191.06
288.369	197.06
288.6	164.06
288.831	176.06
289.062	158.06
289.293	159.06
289.524	146.06
289.755	142.06
289.986	167.06
290.217	136.06
290.448	169.06
290.679	158.06
290.91	151.06
291.141	168.06
291.371	160.06
291.602	153.06
291.833	159.06
292.064	145.06
292.295	146.06
292.526	162.06
292.757	148.06
292.987	163.06
293.218	143.06
293.449	151.06
293.68	164.06
293.91	139.06
294.141	181.06
294.372	152.06
294.603	172.06
294.833	178.06
295.064	164.06
295.295	174.06
295.525	151.06
295.756	163.06
295.987	161.06
296.217	169.06
296.448	175.06
296.679	178.06
296.909	167.06
297.14	165.06
297.37	172.06
297.601	176.06
297.831	154.06
298.062	179.06
298.292	160.06
298.523	170.06
298.753	159.06
298.984	177.06
299.214	161.06
299.445	147.06
299.675	185.06
299.905	163.06
300.136	176.06
300.366	170.06
300.597	177.06
300.827	182.06
301.057	167.06
301.288	172.06
301.518	173.06
301.748	173.06
301.979	185.06
302.209	188.06
302.439	185.06
302.669	182.06
302.9	189.06
303.13	177.06
303.36	179.06
303.59	190.06
303.82	185.06
304.051	174.06
304.281	161.06
304.511	193.06
304.741	171.06
304.971	180.06
305.201	179.06
305.431	185.06
305.661	168.06
305.891	190.06
306.121	184.06
306.352	163.06
306.582	187.06
306.812	159.06
307.042	179.06
307.272	171.06
307.502	179.06
307.731	179.06
307.961	176.06
308.191	173.06
308.421	185.06
308.651	165.06
308.881	176.06
309.111	169.06
309.341	179.06
309.571	179.06
309.8	186.06
310.03	179.06
310.26	171.06
310.49	181.06
310.72	167.06
310.949	189.06
311.179	182.06
311.409	179.06
311.639	198.06
311.868	173.06
312.098	184.06
312.328	172.06
312.557	168.06
312.787	208.06
313.017	201.06
313.246	191.06
313.476	199.06
313.706	205.06
313.935	200.06
314.165	209.06
314.394	201.06
314.624	213.06
314.853	210.06
315.083	220.06
315.312	217.06
315.542	229.06
315.771	211.06
316.001	224.06
316.23	210.06
316.46	220.06
316.689	209.06
316.919	193.06
317.148	211.06
317.377	215.06
317.607	214.06
317.836	231.06
318.065	209.06
318.295	197.06
318.524	189.06
318.753	206.06
318.983	188.06
319.212	186.06
319.441	196.06
319.67	180.06
319.9	167.06
320.129	183.06
320.358	180.06
320.587	173.06
320.816	189.06
321.046	181.06
321.275	179.06
321.504	188.06
321.733	193.06
321.962	203.06
322.191	195.06
322.42	188.06
322.649	186.06
322.878	179.06
323.108	194.06
323.337	189.06
323.566	172.06
323.795	201.06
324.024	183.06
324.253	190.06
324.482	189.06
324.71	188.06
324.939	180.06
325.168	188.06
325.397	176.06
325.626	192.06
325.855	205.06
326.084	185.06
326.313	199.06
326.542	191.06
326.77	191.06
326.999	202.06
327.228	182.06
327.457	194.06
327.686	191.06
327.914	202.06
328.143	184.06
328.372	189.06
328.6	185.06
328.829	171.06
329.058	182.06
329.287	195.06
329.515	191.06
329.744	182.06
329.972	190.06
330.201	192.06
330.43	171.06
330.658	194.06
330.887	190.06
331.115	173.06
331.344	197.06
331.572	199.06
331.801	200.06
332.03	192.06
332.258	201.06
332.486	203.06
332.715	195.06
332.943	183.06
333.172	196.06
333.4	194.06
333.629	192.06
333.857	186.06
334.085	211.06
334.314	205.06
334.542	207.06
334.771	203.06
334.999	195.06
335.227	186.06
335.455	198.06
335.684	192.06
335.912	200.06
336.14	205.06
336.369	197.06
336.597	185.06
336.825	191.06
337.053	206.06
337.281	183.06
337.51	200.06
337.738	181.06
337.966	190.06
338.194	206.06
338.422	190.06
338.65	187.06
338.878	188.06
339.106	186.06
339.334	177.06
339.562	177.06
339.79	193.06
340.018	188.06
340.246	187.06
340.474	192.06
340.702	174.06
340.93	170.06
341.158	187.06
341.386	191.06
341.614	188.06
341.842	180.06
342.07	193.06
342.298	197.06
342.526	179.06
342.754	181.06
342.981	197.06
343.209	190.06
343.437	211.06
343.665	193.06
343.893	203.06
344.12	199.06
344.348	210.06
344.576	220.06
344.804	184.06
345.031	196.06
345.259	201.06
345.487	207.06
345.714	203.06
345.942	187.06
346.17	200.06
346.397	195.06
346.625	197.06
346.853	188.06
347.08	207.06
347.308	204.06
347.535	174.06
347.763	169.06
347.99	183.06
348.218	196.06
348.445	189.06
348.673	190.06
348.9	181.06
349.128	181.06
349.355	168.06
349.583	185.06
349.81	183.06
350.037	192.06
350.265	186.06
350.492	184.06
350.72	192.06
350.947	196.06
351.174	203.06
351.402	185.06
351.629	183.06
351.856	199.06
352.083	200.06
352.311	190.06
352.538	179.06
352.765	187.06
352.992	200.06
353.22	199.06
353.447	187.06
353.674	180.06
353.901	198.06
354.128	192.06
354.355	203.06
354.583	174.06
354.81	191.06
355.037	199.06
355.264	187.06
355.491	206.06
355.718	211.06
355.945	199.06
356.172	225.06
356.399	236.06
356.626	246.06
356.853	305.06
357.08	441.06
357.307	545.06
357.534	547.06
357.761	406.06
357.988	325.06
358.215	293.06
358.441	263.06
358.668	236.06
358.895	237.06
359.122	232.06
359.349	225.06
359.576	221.06
359.802	231.06
360.029	211.06
360.256	221.06
360.483	221.06
360.709	226.06
360.936	215.06
361.163	197.06
361.39	222.06
361.616	203.06
361.843	207.06
362.07	202.06
362.296	224.06
362.523	216.06
362.749	205.06
362.976	230.06
363.203	267.06
363.429	312.06
363.656	439.06
363.882	653.06
364.109	752.06
364.335	541.06
364.562	359.06
364.788	293.06
365.015	256.06
365.241	253.06
365.468	228.06
365.694	222.06
365.92	241.06
366.147	243.06
366.373	231.06
366.599	238.06
366.826	263.06
367.052	321.06
367.278	355.06
367.505	336.06
367.731	365.06
367.957	483.06
368.184	734.06
368.41	1015.06
368.636	875.06
368.862	505.06
369.089	379.06
369.315	315.06
369.541	283.06
369.767	266.06
369.993	249.06
370.219	228.06
370.445	231.06
370.672	231.06
370.898	220.06
371.124	231.06
371.35	238.06
371.576	223.06
371.802	235.06
372.028	221.06
372.254	219.06
372.48	246.06
372.706	233.06
372.932	235.06
373.158	254.06
373.384	273.06
373.61	345.06
373.835	509.06
374.061	654.06
374.287	563.06
374.513	378.06
374.739	296.06
374.965	262.06
375.191	271.06
375.416	226.06
375.642	247.06
375.868	213.06
376.094	217.06
376.319	219.06
376.545	221.06
376.771	213.06
376.997	222.06
377.222	208.06
377.448	203.06
377.674	205.06
377.899	235.06
378.125	212.06
378.35	220.06
378.576	240.06
378.802	234.06
379.027	231.06
379.253	208.06
379.478	216.06
379.704	205.06
379.929	215.06
380.155	218.06
380.38	220.06
380.606	201.06
380.831	198.06
381.057	220.06
381.282	204.06
381.507	204.06
381.733	209.06
381.958	204.06
382.184	186.06
382.409	229.06
382.634	220.06
382.86	215.06
383.085	201.06
383.31	216.06
383.535	218.06
383.761	218.06
383.986	210.06
384.211	224.06
384.436	220.06
384.662	220.06
384.887	227.06
385.112	223.06
385.337	233.06
385.562	217.06
385.787	221.06
386.013	209.06
386.238	226.06
386.463	216.06
386.688	231.06
386.913	229.06
387.138	208.06
387.363	219.06
387.588	216.06
387.813	217.06
388.038	235.06
388.263	232.06
388.488	208.06
388.713	237.06
388.938	214.06
389.163	217.06
389.387	213.06
389.612	209.06
389.837	212.06
390.062	223.06
390.287	216.06
390.512	209.06
390.736	190.06
390.961	211.06
391.186	211.06
391.411	215.06
391.636	215.06
391.86	215.06
392.085	215.06
392.31	214.06
392.534	197.06
392.759	215.06
392.984	216.06
393.208	222.06
393.433	223.06
393.658	214.06
393.882	221.06
394.107	219.06
394.331	232.06
394.556	215.06
394.78	229.06
395.005	214.06
395.229	213.06
395.454	216.06
395.678	221.06
395.903	227.06
396.127	222.06
396.352	223.06
396.576	233.06
396.801	231.06
397.025	228.06
397.249	235.06
397.474	219.06
397.698	223.06
397.922	221.06
398.147	225.06
398.371	228.06
398.595	241.06
398.82	244.06
399.044	246.06
399.268	239.06
399.492	252.06
399.717	260.06
399.941	266.06
400.165	251.06
400.389	243.06
400.613	259.06
400.837	223.06
401.062	252.06
401.286	263.06
401.51	250.06
401.734	277.06
401.958	313.06
402.182	296.06
402.406	262.06
402.63	252.06
402.854	243.06
403.078	238.06
403.302	241.06
403.526	263.06
403.75	263.06
403.974	282.06
404.198	272.06
404.422	307.06
404.645	291.06
404.869	333.06
405.093	390.06
405.317	497.06
405.541	804.06
405.765	1355.06
405.988	1594.06
406.212	1038.06
406.436	691.06
406.66	468.06
406.883	410.06
407.107	393.06
407.331	335.06
407.555	328.06
407.778	312.06
408.002	303.06
408.226	294.06
408.449	283.06
408.673	262.06
408.896	258.06
409.12	250.06
409.344	248.06
409.567	248.06
409.791	243.06
410.014	246.06
410.238	255.06
410.461	256.06
410.685	246.06
410.908	263.06
411.132	247.06
411.355	225.06
411.578	247.06
411.802	247.06
412.025	249.06
412.249	249.06
412.472	230.06
412.695	241.06
412.919	246.06
413.142	243.06
413.365	232.06
413.589	247.06
413.812	246.06
414.035	240.06
414.258	232.06
414.482	255.06
414.705	237.06
414.928	229.06
415.151	241.06
415.374	239.06
415.597	246.06
415.821	243.06
416.044	240.06
416.267	226.06
416.49	228.06
416.713	247.06
416.936	286.06
417.159	250.06
417.382	231.06
417.605	225.06
417.828	255.06
418.051	240.06
418.274	235.06
418.497	245.06
418.72	228.06
418.943	245.06
419.166	250.06
419.389	244.06
419.611	259.06
419.834	251.06
420.057	240.06
420.28	233.06
420.503	235.06
420.726	226.06
420.948	244.06
421.171	247.06
421.394	252.06
421.617	259.06
421.839	268.06
422.062	260.06
422.285	267.06
422.507	269.06
422.73	298.06
422.953	299.06
423.175	305.06
423.398	331.06
423.621	348.06
423.843	387.06
424.066	403.06
424.288	514.06
424.511	654.06
424.733	734.06
424.956	605.06
425.178	500.06
425.401	433.06
425.623	397.06
425.846	388.06
426.068	358.06
426.291	335.06
426.513	317.06
426.735	311.06
426.958	291.06
427.18	297.06
427.402	295.06
427.625	274.06
427.847	269.06
428.069	267.06
428.292	262.06
428.514	254.06
428.736	246.06
428.958	256.06
429.181	243.06
429.403	253.06
429.625	245.06
429.847	254.06
430.069	256.06
430.292	240.06
430.514	235.06
430.736	246.06
430.958	227.06
431.18	247.06
431.402	247.06
431.624	239.06
431.846	235.06
432.068	245.06
432.29	235.06
432.512	232.06
432.734	239.06
432.956	232.06
433.178	233.06
433.4	245.06
433.622	263.06
433.844	262.06
434.066	272.06
434.287	284.06
434.509	278.06
434.731	239.06
434.953	252.06
435.175	260.06
435.397	247.06
435.618	251.06
435.84	254.06
436.062	259.06
436.284	253.06
436.505	251.06
436.727	271.06
436.949	271.06
437.17	278.06
437.392	294.06
437.614	294.06
437.835	319.06
438.057	349.06
438.278	394.06
438.5	477.06
438.721	602.06
438.943	601.06
439.165	555.06
439.386	503.06
439.608	446.06
439.829	404.06
440.05	396.06
440.272	387.06
440.493	386.06
440.715	409.06
440.936	455.06
441.158	444.06
441.379	388.06
441.6	356.06
441.822	334.06
442.043	331.06
442.264	304.06
442.486	270.06
442.707	286.06
442.928	283.06
443.149	266.06
443.371	267.06
443.592	258.06
443.813	264.06
444.034	277.06
444.255	291.06
444.476	253.06
444.698	271.06
444.919	261.06
445.14	299.06
445.361	285.06
445.582	243.06
445.803	241.06
446.024	251.06
446.245	239.06
446.466	260.06
446.687	233.06
446.908	228.06
447.129	240.06
447.35	243.06
447.571	239.06
447.792	228.06
448.013	225.06
448.234	224.06
448.455	225.06
448.675	225.06
448.896	239.06
449.117	233.06
449.338	217.06
449.559	225.06
449.779	230.06
450	231.06
450.221	211.06
450.442	218.06
450.662	204.06
450.883	218.06
451.104	223.06
451.324	211.06
451.545	209.06
451.766	207.06
451.986	215.06
452.207	205.06
452.428	212.06
452.648	213.06
452.869	212.06
453.089	193.06
453.31	194.06
453.53	201.06
453.751	216.06
453.971	224.06
454.192	198.06
454.412	205.06
454.633	209.06
454.853	202.06
455.073	186.06
455.294	195.06
455.514	200.06
455.734	200.06
455.955	212.06
456.175	196.06
456.395	199.06
456.616	199.06
456.836	199.06
457.056	196.06
457.276	198.06
457.497	209.06
457.717	203.06
457.937	205.06
458.157	204.06
458.377	213.06
458.598	197.06
458.818	201.06
459.038	212.06
459.258	202.06
459.478	193.06
459.698	228.06
459.918	218.06
460.138	231.06
460.358	215.06
460.578	218.06
460.798	216.06
461.018	218.06
461.238	237.06
461.458	237.06
461.678	210.06
461.898	239.06
462.118	230.06
462.338	226.06
462.558	224.06
462.777	237.06
462.997	257.06
463.217	246.06
463.437	241.06
463.657	224.06
463.876	239.06
464.096	231.06
464.316	223.06
464.536	240.06
464.755	231.06
464.975	219.06
465.195	227.06
465.414	221.06
465.634	208.06
465.854	210.06
466.073	225.06
466.293	206.06
466.512	211.06
466.732	206.06
466.951	201.06
467.171	214.06
467.391	220.06
467.61	221.06
467.829	224.06
468.049	199.06
468.268	207.06
468.488	197.06
468.707	201.06
468.927	208.06
469.146	204.06
469.365	198.06
469.585	206.06
469.804	220.06
470.023	211.06
470.243	195.06
470.462	213.06
470.681	207.06
470.901	215.06
471.12	213.06
471.339	232.06
471.558	204.06
471.777	201.06
471.997	209.06
472.216	216.06
472.435	214.06
472.654	219.06
472.873	222.06
473.092	227.06
473.311	227.06
473.53	215.06
473.749	213.06
473.968	222.06
474.187	199.06
474.406	215.06
474.625	214.06
474.844	222.06
475.063	215.06
475.282	215.06
475.501	232.06
475.72	227.06
475.939	206.06
476.158	235.06
476.377	218.06
476.596	221.06
476.814	220.06
477.033	215.06
477.252	223.06
477.471	232.06
477.69	245.06
477.908	238.06
478.127	228.06
478.346	245.06
478.564	251.06
478.783	269.06
479.002	254.06
479.22	252.06
479.439	247.06
479.658	259.06
479.876	250.06
480.095	256.06
480.313	261.06
480.532	256.06
480.751	252.06
480.969	266.06
481.188	242.06
481.406	234.06
481.624	239.06
481.843	244.06
482.061	235.06
482.28	251.06
482.498	234.06
482.717	241.06
482.935	254.06
483.153	243.06
483.372	240.06
483.59	258.06
483.808	245.06
484.027	234.06
484.245	243.06
484.463	235.06
484.681	239.06
484.9	243.06
485.118	237.06
485.336	253.06
485.554	245.06
485.772	233.06
485.99	242.06
486.209	233.06
486.427	251.06
486.645	231.06
486.863	247.06
487.081	238.06
487.299	239.06
487.517	237.06
487.735	244.06
487.953	244.06
488.171	239.06
488.389	261.06
488.607	255.06
488.825	258.06
489.043	256.06
489.261	245.06
489.479	270.06
489.696	242.06
489.914	265.06
490.132	267.06
490.35	256.06
490.568	247.06
490.786	240.06
491.003	244.06
491.221	254.06
491.439	251.06
491.657	233.06
491.874	257.06
492.092	248.06
492.31	255.06
492.527	241.06
492.745	250.06
492.963	261.06
493.18	251.06
493.398	268.06
493.615	261.06
493.833	249.06
494.05	264.06
494.268	269.06
494.485	264.06
494.703	261.06
494.92	259.06
495.138	276.06
495.355	264.06
495.573	296.06
495.79	266.06
496.008	253.06
496.225	266.06
496.442	257.06
496.66	294.06
496.877	265.06
497.094	258.06
497.312	269.06
497.529	268.06
497.746	283.06
497.963	270.06
498.181	277.06
498.398	292.06
498.615	299.06
498.832	276.06
499.049	311.06
499.267	301.06
499.484	321.06
499.701	338.06
499.918	349.06
500.135	376.06
500.352	391.06
500.569	461.06
500.786	551.06
501.003	439.06
501.22	389.06
501.437	358.06
501.654	364.06
501.871	326.06
502.088	338.06
502.305	327.06
502.522	337.06
502.739	316.06
502.956	322.06
503.172	318.06
503.389	325.06
