Data from StdB_HRD10591_009.txt Node
Date: Fri May 16 15:24:50 EDT 2025
User: Yrep
Spectrometer: HR+D1059
Trigger mode: 1
Integration Time (sec): 1.000000E-1
Scans to average: 1
Electric dark correction enabled: true
Nonlinearity correction enabled: false
Boxcar width: 0
XAxis mode: Wavelengths
Number of Pixels in Spectrum: 2048
>>>>>Begin Spectral Data<<<<<
223.165	-25.75
223.4	-25.75
223.635	-25.75
223.869	-6.75
224.104	-23.75
224.338	-10.75
224.573	-18.75
224.808	6.25
225.042	-9.75
225.277	-12.75
225.511	-16.75
225.746	-5.75
225.98	0.25
226.215	21.25
226.449	9.25
226.683	29.25
226.918	35.25
227.152	29.25
227.387	37.25
227.621	47.25
227.856	53.25
228.09	53.25
228.324	28.25
228.559	55.25
228.793	70.25
229.027	76.25
229.262	82.25
229.496	82.25
229.73	87.25
229.964	70.25
230.199	72.25
230.433	80.25
230.667	93.25
230.901	73.25
231.136	87.25
231.37	92.25
231.604	92.25
231.838	96.25
232.072	89.25
232.306	83.25
232.541	94.25
232.775	96.25
233.009	91.25
233.243	90.25
233.477	100.25
233.711	83.25
233.945	74.25
234.179	91.25
234.413	76.25
234.647	86.25
234.881	80.25
235.115	76.25
235.349	74.25
235.583	69.25
235.817	91.25
236.051	97.25
236.285	96.25
236.519	83.25
236.753	89.25
236.987	106.25
237.221	108.25
237.455	89.25
237.689	110.25
237.922	103.25
238.156	76.25
238.39	75.25
238.624	94.25
238.858	93.25
239.091	83.25
239.325	80.25
239.559	96.25
239.793	103.25
240.027	109.25
240.26	96.25
240.494	106.25
240.728	75.25
240.961	96.25
241.195	93.25
241.429	95.25
241.662	105.25
241.896	91.25
242.13	116.25
242.363	96.25
242.597	105.25
242.83	92.25
243.064	95.25
243.298	103.25
243.531	99.25
243.765	102.25
243.998	108.25
244.232	104.25
244.465	110.25
244.699	121.25
244.932	122.25
245.166	114.25
245.399	94.25
245.633	99.25
245.866	103.25
246.099	105.25
246.333	114.25
246.566	103.25
246.8	95.25
247.033	106.25
247.266	107.25
247.5	108.25
247.733	124.25
247.966	144.25
248.2	113.25
248.433	110.25
248.666	100.25
248.899	117.25
249.133	107.25
249.366	111.25
249.599	107.25
249.832	106.25
250.066	110.25
250.299	117.25
250.532	119.25
250.765	117.25
250.998	109.25
251.231	115.25
251.465	131.25
251.698	127.25
251.931	124.25
252.164	117.25
252.397	122.25
252.63	122.25
252.863	137.25
253.096	127.25
253.329	129.25
253.562	129.25
253.795	134.25
254.028	144.25
254.261	134.25
254.494	129.25
254.727	143.25
254.96	129.25
255.193	117.25
255.426	120.25
255.659	111.25
255.892	134.25
256.124	140.25
256.357	144.25
256.59	129.25
256.823	150.25
257.056	128.25
257.289	134.25
257.521	149.25
257.754	154.25
257.987	173.25
258.22	183.25
258.452	149.25
258.685	149.25
258.918	151.25
259.151	140.25
259.383	136.25
259.616	131.25
259.849	143.25
260.081	145.25
260.314	157.25
260.547	161.25
260.779	166.25
261.012	189.25
261.244	258.25
261.477	325.25
261.71	333.25
261.942	249.25
262.175	199.25
262.407	176.25
262.64	155.25
262.872	157.25
263.105	149.25
263.337	147.25
263.57	142.25
263.802	143.25
264.035	146.25
264.267	150.25
264.499	160.25
264.732	169.25
264.964	178.25
265.197	181.25
265.429	181.25
265.661	152.25
265.894	146.25
266.126	164.25
266.358	199.25
266.591	249.25
266.823	208.25
267.055	173.25
267.287	138.25
267.52	131.25
267.752	124.25
267.984	139.25
268.216	142.25
268.448	138.25
268.681	130.25
268.913	145.25
269.145	127.25
269.377	139.25
269.609	134.25
269.841	134.25
270.073	147.25
270.306	116.25
270.538	141.25
270.77	145.25
271.002	135.25
271.234	119.25
271.466	126.25
271.698	149.25
271.93	133.25
272.162	140.25
272.394	135.25
272.626	143.25
272.858	140.25
273.09	136.25
273.322	129.25
273.553	129.25
273.785	150.25
274.017	139.25
274.249	142.25
274.481	142.25
274.713	134.25
274.945	144.25
275.176	136.25
275.408	140.25
275.64	150.25
275.872	156.25
276.104	153.25
276.335	148.25
276.567	136.25
276.799	143.25
277.031	147.25
277.262	165.25
277.494	163.25
277.726	160.25
277.957	150.25
278.189	152.25
278.421	164.25
278.652	167.25
278.884	183.25
279.115	193.25
279.347	232.25
279.579	277.25
279.81	333.25
280.042	429.25
280.273	519.25
280.505	443.25
280.736	293.25
280.968	243.25
281.199	200.25
281.431	200.25
281.662	185.25
281.894	209.25
282.125	247.25
282.356	279.25
282.588	264.25
282.819	248.25
283.051	282.25
283.282	364.25
283.513	393.25
283.745	315.25
283.976	244.25
284.207	193.25
284.439	188.25
284.67	183.25
284.901	157.25
285.132	177.25
285.364	175.25
285.595	171.25
285.826	159.25
286.057	171.25
286.288	157.25
286.52	183.25
286.751	183.25
286.982	236.25
287.213	274.25
287.444	307.25
287.675	277.25
287.906	212.25
288.138	182.25
288.369	158.25
288.6	163.25
288.831	156.25
289.062	157.25
289.293	164.25
289.524	176.25
289.755	147.25
289.986	151.25
290.217	149.25
290.448	151.25
290.679	156.25
290.91	165.25
291.141	149.25
291.371	166.25
291.602	145.25
291.833	148.25
292.064	151.25
292.295	183.25
292.526	165.25
292.757	155.25
292.987	143.25
293.218	153.25
293.449	156.25
293.68	153.25
293.91	176.25
294.141	163.25
294.372	151.25
294.603	175.25
294.833	159.25
295.064	179.25
295.295	165.25
295.525	171.25
295.756	163.25
295.987	156.25
296.217	165.25
296.448	159.25
296.679	170.25
296.909	163.25
297.14	183.25
297.37	184.25
297.601	160.25
297.831	177.25
298.062	165.25
298.292	150.25
298.523	161.25
298.753	167.25
298.984	160.25
299.214	154.25
299.445	158.25
299.675	166.25
299.905	158.25
300.136	154.25
300.366	164.25
300.597	164.25
300.827	166.25
301.057	164.25
301.288	165.25
301.518	165.25
301.748	164.25
301.979	187.25
302.209	179.25
302.439	154.25
302.669	156.25
302.9	165.25
303.13	179.25
303.36	172.25
303.59	167.25
303.82	163.25
304.051	182.25
304.281	182.25
304.511	166.25
304.741	191.25
304.971	172.25
305.201	155.25
305.431	171.25
305.661	172.25
305.891	167.25
306.121	177.25
306.352	165.25
306.582	171.25
306.812	148.25
307.042	177.25
307.272	152.25
307.502	173.25
307.731	186.25
307.961	176.25
308.191	174.25
308.421	187.25
308.651	184.25
308.881	169.25
309.111	167.25
309.341	180.25
309.571	179.25
309.8	179.25
310.03	165.25
310.26	177.25
310.49	175.25
310.72	181.25
310.949	170.25
311.179	174.25
311.409	177.25
311.639	180.25
311.868	190.25
312.098	199.25
312.328	171.25
312.557	185.25
312.787	183.25
313.017	184.25
313.246	198.25
313.476	188.25
313.706	208.25
313.935	199.25
314.165	192.25
314.394	203.25
314.624	214.25
314.853	220.25
315.083	208.25
315.312	212.25
315.542	213.25
315.771	214.25
316.001	207.25
316.23	205.25
316.46	202.25
316.689	221.25
316.919	217.25
317.148	204.25
317.377	200.25
317.607	200.25
317.836	218.25
318.065	186.25
318.295	203.25
318.524	210.25
318.753	187.25
318.983	181.25
319.212	196.25
319.441	185.25
319.67	179.25
319.9	196.25
320.129	186.25
320.358	171.25
320.587	188.25
320.816	181.25
321.046	172.25
321.275	170.25
321.504	171.25
321.733	185.25
321.962	189.25
322.191	200.25
322.42	193.25
322.649	188.25
322.878	179.25
323.108	185.25
323.337	187.25
323.566	187.25
323.795	183.25
324.024	182.25
324.253	192.25
324.482	191.25
324.71	204.25
324.939	191.25
325.168	197.25
325.397	190.25
325.626	185.25
325.855	169.25
326.084	184.25
326.313	175.25
326.542	184.25
326.77	197.25
326.999	182.25
327.228	187.25
327.457	189.25
327.686	181.25
327.914	188.25
328.143	175.25
328.372	185.25
328.6	174.25
328.829	183.25
329.058	195.25
329.287	184.25
329.515	173.25
329.744	183.25
329.972	183.25
330.201	180.25
330.43	192.25
330.658	187.25
330.887	213.25
331.115	188.25
331.344	203.25
331.572	175.25
331.801	190.25
332.03	197.25
332.258	183.25
332.486	208.25
332.715	194.25
332.943	183.25
333.172	188.25
333.4	186.25
333.629	188.25
333.857	193.25
334.085	193.25
334.314	206.25
334.542	201.25
334.771	194.25
334.999	195.25
335.227	179.25
335.455	188.25
335.684	197.25
335.912	183.25
336.14	196.25
336.369	203.25
336.597	190.25
336.825	193.25
337.053	198.25
337.281	197.25
337.51	192.25
337.738	188.25
337.966	170.25
338.194	165.25
338.422	175.25
338.65	182.25
338.878	189.25
339.106	177.25
339.334	185.25
339.562	174.25
339.79	199.25
340.018	179.25
340.246	169.25
340.474	189.25
340.702	182.25
340.93	176.25
341.158	191.25
341.386	192.25
341.614	197.25
341.842	167.25
342.07	191.25
342.298	173.25
342.526	193.25
342.754	180.25
342.981	190.25
343.209	197.25
343.437	208.25
343.665	205.25
343.893	199.25
344.12	210.25
344.348	199.25
344.576	194.25
344.804	190.25
345.031	188.25
345.259	185.25
345.487	192.25
345.714	186.25
345.942	185.25
346.17	191.25
346.397	173.25
346.625	164.25
346.853	187.25
347.08	199.25
347.308	183.25
347.535	185.25
347.763	177.25
347.99	179.25
348.218	192.25
348.445	182.25
348.673	167.25
348.9	195.25
349.128	203.25
349.355	170.25
349.583	177.25
349.81	184.25
350.037	187.25
350.265	195.25
350.492	181.25
350.72	188.25
350.947	190.25
351.174	187.25
351.402	196.25
351.629	194.25
351.856	185.25
352.083	210.25
352.311	178.25
352.538	180.25
352.765	172.25
352.992	188.25
353.22	172.25
353.447	183.25
353.674	191.25
353.901	192.25
354.128	195.25
354.355	192.25
354.583	189.25
354.81	193.25
355.037	189.25
355.264	198.25
355.491	187.25
355.718	196.25
355.945	209.25
356.172	206.25
356.399	204.25
356.626	243.25
356.853	308.25
357.08	421.25
357.307	554.25
357.534	555.25
357.761	391.25
357.988	309.25
358.215	262.25
358.441	262.25
358.668	245.25
358.895	249.25
359.122	227.25
359.349	231.25
359.576	209.25
359.802	216.25
360.029	203.25
360.256	234.25
360.483	217.25
360.709	202.25
360.936	208.25
361.163	207.25
361.39	220.25
361.616	205.25
361.843	201.25
362.07	211.25
362.296	207.25
362.523	212.25
362.749	240.25
362.976	233.25
363.203	252.25
363.429	280.25
363.656	449.25
363.882	611.25
364.109	739.25
364.335	523.25
364.562	353.25
364.788	282.25
365.015	260.25
365.241	250.25
365.468	219.25
365.694	243.25
365.92	227.25
366.147	232.25
366.373	234.25
366.599	240.25
366.826	284.25
367.052	322.25
367.278	349.25
367.505	349.25
367.731	353.25
367.957	448.25
368.184	713.25
368.41	979.25
368.636	831.25
368.862	504.25
369.089	353.25
369.315	317.25
369.541	266.25
369.767	247.25
369.993	244.25
370.219	229.25
370.445	245.25
370.672	235.25
370.898	229.25
371.124	210.25
371.35	225.25
371.576	246.25
371.802	229.25
372.028	218.25
372.254	220.25
372.48	233.25
372.706	224.25
372.932	232.25
373.158	233.25
373.384	276.25
373.61	329.25
373.835	497.25
374.061	619.25
374.287	542.25
374.513	377.25
374.739	288.25
374.965	252.25
375.191	237.25
375.416	233.25
375.642	235.25
375.868	214.25
376.094	224.25
376.319	214.25
376.545	214.25
376.771	212.25
376.997	187.25
377.222	197.25
377.448	193.25
377.674	207.25
377.899	204.25
378.125	211.25
378.35	213.25
378.576	240.25
378.802	215.25
379.027	237.25
379.253	223.25
379.478	198.25
379.704	201.25
379.929	221.25
380.155	204.25
380.38	215.25
380.606	199.25
380.831	217.25
381.057	213.25
381.282	209.25
381.507	201.25
381.733	204.25
381.958	210.25
382.184	189.25
382.409	196.25
382.634	234.25
382.86	203.25
383.085	217.25
383.31	207.25
383.535	207.25
383.761	203.25
383.986	221.25
384.211	201.25
384.436	211.25
384.662	228.25
384.887	224.25
385.112	206.25
385.337	208.25
385.562	227.25
385.787	224.25
386.013	227.25
386.238	215.25
386.463	215.25
386.688	235.25
386.913	214.25
387.138	214.25
387.363	211.25
387.588	213.25
387.813	227.25
388.038	205.25
388.263	219.25
388.488	213.25
388.713	209.25
388.938	212.25
389.163	208.25
389.387	194.25
389.612	195.25
389.837	198.25
390.062	215.25
390.287	215.25
390.512	203.25
390.736	215.25
390.961	208.25
391.186	222.25
391.411	206.25
391.636	199.25
391.86	193.25
392.085	211.25
392.31	202.25
392.534	220.25
392.759	215.25
392.984	223.25
393.208	213.25
393.433	233.25
393.658	222.25
393.882	205.25
394.107	205.25
394.331	224.25
394.556	217.25
394.78	208.25
395.005	212.25
395.229	211.25
395.454	235.25
395.678	224.25
395.903	202.25
396.127	212.25
396.352	227.25
396.576	229.25
396.801	233.25
397.025	222.25
397.249	220.25
397.474	218.25
397.698	211.25
397.922	223.25
398.147	212.25
398.371	230.25
398.595	224.25
398.82	221.25
399.044	239.25
399.268	259.25
399.492	268.25
399.717	252.25
399.941	253.25
400.165	244.25
400.389	252.25
400.613	239.25
400.837	239.25
401.062	253.25
401.286	240.25
401.51	254.25
401.734	278.25
401.958	302.25
402.182	276.25
402.406	248.25
402.63	224.25
402.854	248.25
403.078	244.25
403.302	240.25
403.526	255.25
403.75	272.25
403.974	252.25
404.198	271.25
404.422	275.25
404.645	305.25
404.869	323.25
405.093	371.25
405.317	467.25
405.541	779.25
405.765	1300.25
405.988	1518.25
406.212	985.25
406.436	676.25
406.66	477.25
406.883	393.25
407.107	363.25
407.331	328.25
407.555	304.25
407.778	302.25
408.002	298.25
408.226	288.25
408.449	273.25
408.673	272.25
408.896	254.25
409.12	255.25
409.344	260.25
409.567	259.25
409.791	244.25
410.014	245.25
410.238	236.25
410.461	235.25
410.685	216.25
410.908	231.25
411.132	240.25
411.355	253.25
411.578	247.25
411.802	247.25
412.025	236.25
412.249	249.25
412.472	227.25
412.695	259.25
412.919	227.25
413.142	237.25
413.365	223.25
413.589	224.25
413.812	219.25
414.035	249.25
414.258	217.25
414.482	238.25
414.705	218.25
414.928	225.25
415.151	239.25
415.374	224.25
415.597	237.25
415.821	213.25
416.044	243.25
416.267	236.25
416.49	253.25
416.713	251.25
416.936	260.25
417.159	248.25
417.382	222.25
417.605	220.25
417.828	244.25
418.051	254.25
418.274	267.25
418.497	224.25
418.72	239.25
418.943	231.25
419.166	239.25
419.389	267.25
419.611	236.25
419.834	255.25
420.057	235.25
420.28	224.25
420.503	246.25
420.726	219.25
420.948	229.25
421.171	220.25
421.394	257.25
421.617	240.25
421.839	260.25
422.062	243.25
422.285	269.25
422.507	268.25
422.73	257.25
422.953	291.25
423.175	277.25
423.398	319.25
423.621	325.25
423.843	361.25
424.066	419.25
424.288	503.25
424.511	656.25
424.733	692.25
424.956	588.25
425.178	497.25
425.401	409.25
425.623	392.25
425.846	384.25
426.068	332.25
426.291	330.25
426.513	322.25
426.735	299.25
426.958	307.25
427.18	281.25
427.402	280.25
427.625	252.25
427.847	267.25
428.069	259.25
428.292	255.25
428.514	255.25
428.736	244.25
428.958	243.25
429.181	247.25
429.403	223.25
429.625	252.25
429.847	245.25
430.069	250.25
430.292	239.25
430.514	222.25
430.736	239.25
430.958	222.25
431.18	236.25
431.402	237.25
431.624	243.25
431.846	238.25
432.068	228.25
432.29	228.25
432.512	232.25
432.734	222.25
432.956	248.25
433.178	255.25
433.4	254.25
433.622	241.25
433.844	255.25
434.066	252.25
434.287	277.25
434.509	239.25
434.731	224.25
434.953	225.25
435.175	263.25
435.397	256.25
435.618	254.25
435.84	247.25
436.062	261.25
436.284	245.25
436.505	264.25
436.727	257.25
436.949	269.25
437.17	262.25
437.392	266.25
437.614	280.25
437.835	289.25
438.057	325.25
438.278	362.25
438.5	461.25
438.721	580.25
438.943	599.25
439.165	518.25
439.386	464.25
439.608	418.25
439.829	384.25
440.05	395.25
440.272	376.25
440.493	372.25
440.715	414.25
440.936	445.25
441.158	426.25
441.379	379.25
441.6	337.25
441.822	303.25
442.043	291.25
442.264	289.25
442.486	287.25
442.707	276.25
442.928	282.25
443.149	272.25
443.371	266.25
443.592	250.25
443.813	255.25
444.034	264.25
444.255	246.25
444.476	247.25
444.698	250.25
444.919	255.25
445.14	326.25
445.361	307.25
445.582	255.25
445.803	246.25
446.024	236.25
446.245	243.25
446.466	233.25
446.687	237.25
446.908	240.25
447.129	216.25
447.35	213.25
447.571	222.25
447.792	238.25
448.013	223.25
448.234	229.25
448.455	199.25
448.675	223.25
448.896	212.25
449.117	230.25
449.338	216.25
449.559	224.25
449.779	231.25
450	206.25
450.221	216.25
450.442	216.25
450.662	213.25
450.883	207.25
451.104	207.25
451.324	202.25
451.545	196.25
451.766	211.25
451.986	207.25
452.207	211.25
452.428	213.25
452.648	216.25
452.869	191.25
453.089	199.25
453.31	200.25
453.53	188.25
453.751	196.25
453.971	189.25
454.192	210.25
454.412	214.25
454.633	219.25
454.853	208.25
455.073	196.25
455.294	204.25
455.514	202.25
455.734	191.25
455.955	209.25
456.175	234.25
456.395	199.25
456.616	197.25
456.836	187.25
457.056	188.25
457.276	191.25
457.497	187.25
457.717	208.25
457.937	197.25
458.157	191.25
458.377	194.25
458.598	193.25
458.818	207.25
459.038	209.25
459.258	197.25
459.478	197.25
459.698	209.25
459.918	205.25
460.138	215.25
460.358	215.25
460.578	221.25
460.798	221.25
461.018	214.25
461.238	223.25
461.458	203.25
461.678	199.25
461.898	204.25
462.118	217.25
462.338	230.25
462.558	234.25
462.777	220.25
462.997	227.25
463.217	229.25
463.437	242.25
463.657	222.25
463.876	241.25
464.096	220.25
464.316	218.25
464.536	209.25
464.755	236.25
464.975	216.25
465.195	220.25
465.414	216.25
465.634	223.25
465.854	215.25
466.073	214.25
466.293	205.25
466.512	209.25
466.732	218.25
466.951	194.25
467.171	205.25
467.391	206.25
467.61	210.25
467.829	206.25
468.049	210.25
468.268	193.25
468.488	197.25
468.707	206.25
468.927	194.25
469.146	192.25
469.365	190.25
469.585	204.25
469.804	200.25
470.023	201.25
470.243	189.25
470.462	199.25
470.681	221.25
470.901	201.25
471.12	214.25
471.339	211.25
471.558	213.25
471.777	216.25
471.997	211.25
472.216	205.25
472.435	208.25
472.654	205.25
472.873	207.25
473.092	214.25
473.311	200.25
473.53	211.25
473.749	193.25
473.968	210.25
474.187	198.25
474.406	213.25
474.625	218.25
474.844	187.25
475.063	203.25
475.282	191.25
475.501	209.25
475.72	210.25
475.939	215.25
476.158	214.25
476.377	209.25
476.596	218.25
476.814	217.25
477.033	213.25
477.252	216.25
477.471	216.25
477.69	233.25
477.908	235.25
478.127	241.25
478.346	221.25
478.564	257.25
478.783	236.25
479.002	257.25
479.22	245.25
479.439	254.25
479.658	254.25
479.876	235.25
480.095	246.25
480.313	253.25
480.532	253.25
480.751	252.25
480.969	245.25
481.188	215.25
481.406	231.25
481.624	244.25
481.843	224.25
482.061	221.25
482.28	241.25
482.498	236.25
482.717	223.25
482.935	235.25
483.153	233.25
483.372	250.25
483.59	231.25
483.808	227.25
484.027	240.25
484.245	237.25
484.463	238.25
484.681	241.25
484.9	230.25
485.118	229.25
485.336	231.25
485.554	232.25
485.772	253.25
485.99	229.25
486.209	226.25
486.427	233.25
486.645	229.25
486.863	251.25
487.081	238.25
487.299	222.25
487.517	237.25
487.735	238.25
487.953	248.25
488.171	236.25
488.389	251.25
488.607	246.25
488.825	225.25
489.043	248.25
489.261	227.25
489.479	243.25
489.696	262.25
489.914	241.25
490.132	245.25
490.35	243.25
490.568	249.25
490.786	246.25
491.003	252.25
491.221	224.25
491.439	252.25
491.657	240.25
491.874	253.25
492.092	232.25
492.31	255.25
492.527	249.25
492.745	259.25
492.963	241.25
493.18	263.25
493.398	259.25
493.615	259.25
493.833	254.25
494.05	247.25
494.268	252.25
494.485	264.25
494.703	261.25
494.92	240.25
495.138	249.25
495.355	258.25
495.573	296.25
495.79	260.25
496.008	259.25
496.225	250.25
496.442	267.25
496.66	270.25
496.877	262.25
497.094	272.25
497.312	268.25
497.529	272.25
497.746	260.25
497.963	287.25
498.181	265.25
498.398	280.25
498.615	288.25
498.832	298.25
499.049	301.25
499.267	322.25
499.484	343.25
499.701	342.25
499.918	337.25
500.135	359.25
500.352	385.25
500.569	467.25
500.786	512.25
501.003	436.25
501.22	371.25
501.437	375.25
501.654	341.25
501.871	336.25
502.088	322.25
502.305	329.25
502.522	328.25
502.739	328.25
502.956	304.25
503.172	315.25
503.389	306.25
