Data from StdB_HRD10591_043.txt Node
Date: Fri May 16 15:25:07 EDT 2025
User: Yrep
Spectrometer: HR+D1059
Trigger mode: 1
Integration Time (sec): 1.000000E-1
Scans to average: 1
Electric dark correction enabled: true
Nonlinearity correction enabled: false
Boxcar width: 0
XAxis mode: Wavelengths
Number of Pixels in Spectrum: 2048
>>>>>Begin Spectral Data<<<<<
223.165	-9.62
223.4	-9.62
223.635	-9.62
223.869	-12.62
224.104	-13.62
224.338	-24.62
224.573	-10.62
224.808	-35.62
225.042	-6.62
225.277	4.38
225.511	2.38
225.746	8.38
225.98	11.38
226.215	9.38
226.449	22.38
226.683	12.38
226.918	19.38
227.152	23.38
227.387	29.38
227.621	37.38
227.856	51.38
228.09	55.38
228.324	44.38
228.559	57.38
228.793	49.38
229.027	56.38
229.262	82.38
229.496	62.38
229.73	51.38
229.964	73.38
230.199	66.38
230.433	73.38
230.667	71.38
230.901	84.38
231.136	76.38
231.37	88.38
231.604	89.38
231.838	71.38
232.072	75.38
232.306	79.38
232.541	74.38
232.775	87.38
233.009	83.38
233.243	72.38
233.477	84.38
233.711	78.38
233.945	72.38
234.179	63.38
234.413	81.38
234.647	65.38
234.881	76.38
235.115	78.38
235.349	76.38
235.583	93.38
235.817	86.38
236.051	64.38
236.285	84.38
236.519	87.38
236.753	68.38
236.987	82.38
237.221	74.38
237.455	73.38
237.689	63.38
237.922	77.38
238.156	83.38
238.39	71.38
238.624	72.38
238.858	70.38
239.091	62.38
239.325	85.38
239.559	81.38
239.793	74.38
240.027	80.38
240.26	78.38
240.494	70.38
240.728	75.38
240.961	80.38
241.195	75.38
241.429	82.38
241.662	68.38
241.896	59.38
242.13	76.38
242.363	81.38
242.597	59.38
242.83	76.38
243.064	65.38
243.298	69.38
243.531	67.38
243.765	78.38
243.998	86.38
244.232	75.38
244.465	73.38
244.699	64.38
244.932	73.38
245.166	82.38
245.399	71.38
245.633	72.38
245.866	63.38
246.099	64.38
246.333	76.38
246.566	76.38
246.8	78.38
247.033	77.38
247.266	68.38
247.5	77.38
247.733	81.38
247.966	83.38
248.2	93.38
248.433	73.38
248.666	80.38
248.899	79.38
249.133	78.38
249.366	78.38
249.599	82.38
249.832	75.38
250.066	91.38
250.299	77.38
250.532	76.38
250.765	84.38
250.998	92.38
251.231	85.38
251.465	80.38
251.698	79.38
251.931	84.38
252.164	80.38
252.397	81.38
252.63	69.38
252.863	81.38
253.096	73.38
253.329	83.38
253.562	89.38
253.795	90.38
254.028	71.38
254.261	64.38
254.494	80.38
254.727	81.38
254.96	77.38
255.193	70.38
255.426	81.38
255.659	93.38
255.892	95.38
256.124	75.38
256.357	72.38
256.59	74.38
256.823	89.38
257.056	76.38
257.289	79.38
257.521	86.38
257.754	94.38
257.987	88.38
258.22	86.38
258.452	71.38
258.685	84.38
258.918	84.38
259.151	85.38
259.383	71.38
259.616	81.38
259.849	82.38
260.081	81.38
260.314	85.38
260.547	80.38
260.779	88.38
261.012	102.38
261.244	81.38
261.477	101.38
261.71	97.38
261.942	82.38
262.175	72.38
262.407	78.38
262.64	70.38
262.872	86.38
263.105	85.38
263.337	90.38
263.57	65.38
263.802	73.38
264.035	86.38
264.267	77.38
264.499	74.38
264.732	89.38
264.964	78.38
265.197	70.38
265.429	88.38
265.661	81.38
265.894	95.38
266.126	84.38
266.358	83.38
266.591	92.38
266.823	77.38
267.055	80.38
267.287	85.38
267.52	86.38
267.752	79.38
267.984	89.38
268.216	102.38
268.448	81.38
268.681	79.38
268.913	81.38
269.145	83.38
269.377	80.38
269.609	85.38
269.841	72.38
270.073	92.38
270.306	91.38
270.538	78.38
270.77	71.38
271.002	101.38
271.234	75.38
271.466	101.38
271.698	92.38
271.93	83.38
272.162	72.38
272.394	94.38
272.626	69.38
272.858	73.38
273.09	83.38
273.322	89.38
273.553	80.38
273.785	81.38
274.017	84.38
274.249	80.38
274.481	71.38
274.713	80.38
274.945	75.38
275.176	89.38
275.408	66.38
275.64	77.38
275.872	80.38
276.104	72.38
276.335	75.38
276.567	83.38
276.799	84.38
277.031	77.38
277.262	92.38
277.494	88.38
277.726	89.38
277.957	76.38
278.189	72.38
278.421	86.38
278.652	80.38
278.884	79.38
279.115	88.38
279.347	78.38
279.579	92.38
279.81	79.38
280.042	117.38
280.273	113.38
280.505	110.38
280.736	88.38
280.968	83.38
281.199	76.38
281.431	71.38
281.662	93.38
281.894	80.38
282.125	94.38
282.356	97.38
282.588	101.38
282.819	92.38
283.051	88.38
283.282	103.38
283.513	117.38
283.745	95.38
283.976	79.38
284.207	74.38
284.439	95.38
284.67	69.38
284.901	81.38
285.132	74.38
285.364	80.38
285.595	70.38
285.826	71.38
286.057	96.38
286.288	91.38
286.52	75.38
286.751	99.38
286.982	80.38
287.213	95.38
287.444	112.38
287.675	99.38
287.906	79.38
288.138	80.38
288.369	86.38
288.6	80.38
288.831	85.38
289.062	85.38
289.293	83.38
289.524	78.38
289.755	79.38
289.986	80.38
290.217	94.38
290.448	73.38
290.679	79.38
290.91	104.38
291.141	81.38
291.371	72.38
291.602	87.38
291.833	79.38
292.064	84.38
292.295	81.38
292.526	82.38
292.757	85.38
292.987	72.38
293.218	90.38
293.449	78.38
293.68	74.38
293.91	75.38
294.141	81.38
294.372	93.38
294.603	80.38
294.833	69.38
295.064	85.38
295.295	84.38
295.525	89.38
295.756	88.38
295.987	92.38
296.217	79.38
296.448	75.38
296.679	80.38
296.909	87.38
297.14	92.38
297.37	90.38
297.601	85.38
297.831	83.38
298.062	95.38
298.292	79.38
298.523	91.38
298.753	78.38
298.984	73.38
299.214	87.38
299.445	76.38
299.675	83.38
299.905	92.38
300.136	83.38
300.366	91.38
300.597	82.38
300.827	95.38
301.057	94.38
301.288	75.38
301.518	88.38
301.748	93.38
301.979	92.38
302.209	81.38
302.439	74.38
302.669	92.38
302.9	91.38
303.13	63.38
303.36	63.38
303.59	81.38
303.82	88.38
304.051	93.38
304.281	74.38
304.511	91.38
304.741	84.38
304.971	96.38
305.201	77.38
305.431	86.38
305.661	89.38
305.891	92.38
306.121	81.38
306.352	85.38
306.582	82.38
306.812	79.38
307.042	80.38
307.272	98.38
307.502	80.38
307.731	72.38
307.961	92.38
308.191	104.38
308.421	80.38
308.651	69.38
308.881	84.38
309.111	78.38
309.341	79.38
309.571	66.38
309.8	81.38
310.03	80.38
310.26	86.38
310.49	82.38
310.72	88.38
310.949	87.38
311.179	103.38
311.409	86.38
311.639	91.38
311.868	85.38
312.098	86.38
312.328	85.38
312.557	78.38
312.787	83.38
313.017	77.38
313.246	83.38
313.476	86.38
313.706	86.38
313.935	102.38
314.165	84.38
314.394	84.38
314.624	85.38
314.853	91.38
315.083	94.38
315.312	89.38
315.542	95.38
315.771	76.38
316.001	76.38
316.23	74.38
316.46	93.38
316.689	72.38
316.919	79.38
317.148	81.38
317.377	87.38
317.607	85.38
317.836	95.38
318.065	79.38
318.295	89.38
318.524	92.38
318.753	93.38
318.983	88.38
319.212	78.38
319.441	94.38
319.67	85.38
319.9	71.38
320.129	89.38
320.358	84.38
320.587	87.38
320.816	88.38
321.046	86.38
321.275	82.38
321.504	79.38
321.733	87.38
321.962	77.38
322.191	75.38
322.42	85.38
322.649	83.38
322.878	88.38
323.108	92.38
323.337	85.38
323.566	77.38
323.795	95.38
324.024	69.38
324.253	78.38
324.482	70.38
324.71	88.38
324.939	78.38
325.168	83.38
325.397	76.38
325.626	96.38
325.855	87.38
326.084	84.38
326.313	86.38
326.542	85.38
326.77	83.38
326.999	79.38
327.228	75.38
327.457	88.38
327.686	65.38
327.914	87.38
328.143	83.38
328.372	71.38
328.6	76.38
328.829	81.38
329.058	79.38
329.287	88.38
329.515	87.38
329.744	91.38
329.972	82.38
330.201	81.38
330.43	76.38
330.658	65.38
330.887	81.38
331.115	77.38
331.344	101.38
331.572	84.38
331.801	71.38
332.03	82.38
332.258	71.38
332.486	80.38
332.715	89.38
332.943	84.38
333.172	82.38
333.4	86.38
333.629	88.38
333.857	90.38
334.085	82.38
334.314	76.38
334.542	79.38
334.771	89.38
334.999	75.38
335.227	86.38
335.455	82.38
335.684	80.38
335.912	86.38
336.14	85.38
336.369	87.38
336.597	86.38
336.825	78.38
337.053	80.38
337.281	72.38
337.51	92.38
337.738	86.38
337.966	89.38
338.194	75.38
338.422	92.38
338.65	73.38
338.878	83.38
339.106	95.38
339.334	95.38
339.562	88.38
339.79	77.38
340.018	84.38
340.246	73.38
340.474	88.38
340.702	78.38
340.93	86.38
341.158	92.38
341.386	92.38
341.614	79.38
341.842	109.38
342.07	75.38
342.298	83.38
342.526	83.38
342.754	84.38
342.981	75.38
343.209	94.38
343.437	85.38
343.665	76.38
343.893	76.38
344.12	80.38
344.348	79.38
344.576	73.38
344.804	83.38
345.031	71.38
345.259	79.38
345.487	96.38
345.714	101.38
345.942	77.38
346.17	72.38
346.397	89.38
346.625	85.38
346.853	87.38
347.08	74.38
347.308	81.38
347.535	75.38
347.763	86.38
347.99	102.38
348.218	83.38
348.445	79.38
348.673	83.38
348.9	74.38
349.128	101.38
349.355	97.38
349.583	88.38
349.81	91.38
350.037	76.38
350.265	87.38
350.492	83.38
350.72	77.38
350.947	93.38
351.174	85.38
351.402	88.38
351.629	72.38
351.856	76.38
352.083	82.38
352.311	82.38
352.538	76.38
352.765	88.38
352.992	91.38
353.22	85.38
353.447	88.38
353.674	102.38
353.901	93.38
354.128	89.38
354.355	89.38
354.583	88.38
354.81	82.38
355.037	89.38
355.264	87.38
355.491	89.38
355.718	81.38
355.945	93.38
356.172	88.38
356.399	84.38
356.626	79.38
356.853	105.38
357.08	141.38
357.307	164.38
357.534	146.38
357.761	102.38
357.988	91.38
358.215	94.38
358.441	90.38
358.668	78.38
358.895	85.38
359.122	75.38
359.349	96.38
359.576	85.38
359.802	84.38
360.029	73.38
360.256	85.38
360.483	75.38
360.709	92.38
360.936	83.38
361.163	73.38
361.39	93.38
361.616	87.38
361.843	98.38
362.07	97.38
362.296	71.38
362.523	83.38
362.749	100.38
362.976	84.38
363.203	84.38
363.429	109.38
363.656	150.38
363.882	190.38
364.109	200.38
364.335	135.38
364.562	89.38
364.788	85.38
365.015	78.38
365.241	73.38
365.468	88.38
365.694	84.38
365.92	94.38
366.147	90.38
366.373	95.38
366.599	90.38
366.826	93.38
367.052	126.38
367.278	121.38
367.505	104.38
367.731	116.38
367.957	138.38
368.184	217.38
368.41	293.38
368.636	207.38
368.862	113.38
369.089	78.38
369.315	83.38
369.541	92.38
369.767	89.38
369.993	90.38
370.219	81.38
370.445	92.38
370.672	94.38
370.898	93.38
371.124	84.38
371.35	85.38
371.576	69.38
371.802	95.38
372.028	87.38
372.254	91.38
372.48	71.38
372.706	84.38
372.932	84.38
373.158	77.38
373.384	83.38
373.61	94.38
373.835	118.38
374.061	147.38
374.287	128.38
374.513	91.38
374.739	83.38
374.965	90.38
375.191	82.38
375.416	78.38
375.642	96.38
375.868	76.38
376.094	82.38
376.319	71.38
376.545	70.38
376.771	64.38
376.997	64.38
377.222	79.38
377.448	92.38
377.674	77.38
377.899	93.38
378.125	80.38
378.35	75.38
378.576	88.38
378.802	75.38
379.027	78.38
379.253	79.38
379.478	94.38
379.704	80.38
379.929	88.38
380.155	75.38
380.38	67.38
380.606	82.38
380.831	71.38
381.057	93.38
381.282	80.38
381.507	92.38
381.733	87.38
381.958	74.38
382.184	68.38
382.409	67.38
382.634	80.38
382.86	88.38
383.085	76.38
383.31	75.38
383.535	91.38
383.761	81.38
383.986	79.38
384.211	87.38
384.436	74.38
384.662	79.38
384.887	82.38
385.112	87.38
385.337	71.38
385.562	87.38
385.787	79.38
386.013	94.38
386.238	101.38
386.463	87.38
386.688	102.38
386.913	99.38
387.138	85.38
387.363	93.38
387.588	93.38
387.813	73.38
388.038	89.38
388.263	81.38
388.488	92.38
388.713	83.38
388.938	84.38
389.163	86.38
389.387	82.38
389.612	74.38
389.837	87.38
390.062	81.38
390.287	87.38
390.512	80.38
390.736	93.38
390.961	83.38
391.186	86.38
391.411	101.38
391.636	88.38
391.86	86.38
392.085	74.38
392.31	85.38
392.534	72.38
392.759	78.38
392.984	108.38
393.208	93.38
393.433	70.38
393.658	87.38
393.882	86.38
394.107	87.38
394.331	84.38
394.556	73.38
394.78	84.38
395.005	75.38
395.229	80.38
395.454	103.38
395.678	80.38
395.903	83.38
396.127	83.38
396.352	72.38
396.576	72.38
396.801	79.38
397.025	80.38
397.249	88.38
397.474	85.38
397.698	58.38
397.922	82.38
398.147	99.38
398.371	80.38
398.595	77.38
398.82	77.38
399.044	85.38
399.268	82.38
399.492	72.38
399.717	78.38
399.941	89.38
400.165	84.38
400.389	76.38
400.613	70.38
400.837	89.38
401.062	85.38
401.286	93.38
401.51	85.38
401.734	103.38
401.958	99.38
402.182	103.38
402.406	79.38
402.63	66.38
402.854	73.38
403.078	91.38
403.302	85.38
403.526	87.38
403.75	86.38
403.974	91.38
404.198	93.38
404.422	74.38
404.645	71.38
404.869	90.38
405.093	94.38
405.317	137.38
405.541	234.38
405.765	387.38
405.988	413.38
406.212	234.38
406.436	167.38
406.66	93.38
406.883	93.38
407.107	76.38
407.331	86.38
407.555	86.38
407.778	72.38
408.002	92.38
408.226	72.38
408.449	72.38
408.673	66.38
408.896	89.38
409.12	83.38
409.344	90.38
409.567	75.38
409.791	84.38
410.014	92.38
410.238	79.38
410.461	90.38
410.685	66.38
410.908	82.38
411.132	87.38
411.355	72.38
411.578	89.38
411.802	67.38
412.025	70.38
412.249	80.38
412.472	66.38
412.695	72.38
412.919	91.38
413.142	70.38
413.365	81.38
413.589	80.38
413.812	66.38
414.035	79.38
414.258	87.38
414.482	81.38
414.705	80.38
414.928	80.38
415.151	91.38
415.374	66.38
415.597	63.38
415.821	88.38
416.044	65.38
416.267	78.38
416.49	84.38
416.713	96.38
416.936	97.38
417.159	90.38
417.382	79.38
417.605	83.38
417.828	81.38
418.051	77.38
418.274	87.38
418.497	88.38
418.72	74.38
418.943	78.38
419.166	91.38
419.389	75.38
419.611	85.38
419.834	87.38
420.057	81.38
420.28	76.38
420.503	82.38
420.726	77.38
420.948	92.38
421.171	82.38
421.394	80.38
421.617	79.38
421.839	70.38
422.062	69.38
422.285	83.38
422.507	93.38
422.73	81.38
422.953	83.38
423.175	79.38
423.398	88.38
423.621	91.38
423.843	94.38
424.066	80.38
424.288	77.38
424.511	87.38
424.733	94.38
424.956	84.38
425.178	87.38
425.401	83.38
425.623	64.38
425.846	70.38
426.068	71.38
426.291	88.38
426.513	83.38
426.735	69.38
426.958	82.38
427.18	91.38
427.402	84.38
427.625	72.38
427.847	71.38
428.069	87.38
428.292	83.38
428.514	73.38
428.736	83.38
428.958	78.38
429.181	91.38
429.403	92.38
429.625	81.38
429.847	82.38
430.069	80.38
430.292	80.38
430.514	84.38
430.736	84.38
430.958	85.38
431.18	74.38
431.402	76.38
431.624	61.38
431.846	90.38
432.068	83.38
432.29	63.38
432.512	84.38
432.734	79.38
432.956	75.38
433.178	86.38
433.4	84.38
433.622	92.38
433.844	90.38
434.066	70.38
434.287	77.38
434.509	87.38
434.731	73.38
434.953	99.38
435.175	66.38
435.397	82.38
435.618	83.38
435.84	78.38
436.062	62.38
436.284	54.38
436.505	76.38
436.727	71.38
436.949	74.38
437.17	99.38
437.392	66.38
437.614	77.38
437.835	79.38
438.057	78.38
438.278	74.38
438.5	83.38
438.721	80.38
438.943	86.38
439.165	93.38
439.386	73.38
439.608	82.38
439.829	87.38
440.05	76.38
440.272	95.38
440.493	79.38
440.715	78.38
440.936	88.38
441.158	86.38
441.379	77.38
441.6	76.38
441.822	69.38
442.043	90.38
442.264	66.38
442.486	80.38
442.707	64.38
442.928	75.38
443.149	77.38
443.371	89.38
443.592	77.38
443.813	83.38
444.034	74.38
444.255	87.38
444.476	90.38
444.698	73.38
444.919	74.38
445.14	147.38
445.361	106.38
445.582	87.38
445.803	88.38
446.024	79.38
446.245	83.38
446.466	72.38
446.687	84.38
446.908	66.38
447.129	91.38
447.35	81.38
447.571	84.38
447.792	82.38
448.013	100.38
448.234	88.38
448.455	82.38
448.675	93.38
448.896	91.38
449.117	81.38
449.338	90.38
449.559	83.38
449.779	83.38
450	83.38
450.221	78.38
450.442	89.38
450.662	87.38
450.883	82.38
451.104	85.38
451.324	89.38
451.545	75.38
451.766	81.38
451.986	79.38
452.207	68.38
452.428	78.38
452.648	93.38
452.869	85.38
453.089	86.38
453.31	80.38
453.53	69.38
453.751	80.38
453.971	76.38
454.192	85.38
454.412	77.38
454.633	85.38
454.853	94.38
455.073	74.38
455.294	85.38
455.514	80.38
455.734	73.38
455.955	80.38
456.175	84.38
456.395	86.38
456.616	89.38
456.836	86.38
457.056	63.38
457.276	84.38
457.497	92.38
457.717	88.38
457.937	92.38
458.157	84.38
458.377	77.38
458.598	87.38
458.818	75.38
459.038	89.38
459.258	85.38
459.478	82.38
459.698	71.38
459.918	82.38
460.138	68.38
460.358	60.38
460.578	89.38
460.798	76.38
461.018	77.38
461.238	81.38
461.458	68.38
461.678	72.38
461.898	87.38
462.118	76.38
462.338	94.38
462.558	70.38
462.777	69.38
462.997	74.38
463.217	75.38
463.437	68.38
463.657	76.38
463.876	75.38
464.096	77.38
464.316	79.38
464.536	76.38
464.755	73.38
464.975	69.38
465.195	95.38
465.414	85.38
465.634	83.38
465.854	87.38
466.073	100.38
466.293	75.38
466.512	97.38
466.732	87.38
466.951	76.38
467.171	83.38
467.391	85.38
467.61	75.38
467.829	95.38
468.049	86.38
468.268	77.38
468.488	70.38
468.707	75.38
468.927	69.38
469.146	79.38
469.365	92.38
469.585	85.38
469.804	76.38
470.023	78.38
470.243	74.38
470.462	73.38
470.681	80.38
470.901	81.38
471.12	95.38
471.339	80.38
471.558	66.38
471.777	94.38
471.997	86.38
472.216	76.38
472.435	75.38
472.654	82.38
472.873	77.38
473.092	89.38
473.311	84.38
473.53	71.38
473.749	81.38
473.968	82.38
474.187	71.38
474.406	78.38
474.625	72.38
474.844	80.38
475.063	78.38
475.282	67.38
475.501	74.38
475.72	72.38
475.939	83.38
476.158	78.38
476.377	70.38
476.596	79.38
476.814	88.38
477.033	82.38
477.252	89.38
477.471	83.38
477.69	103.38
477.908	92.38
478.127	90.38
478.346	85.38
478.564	79.38
478.783	75.38
479.002	103.38
479.22	85.38
479.439	80.38
479.658	79.38
479.876	94.38
480.095	82.38
480.313	72.38
480.532	83.38
480.751	76.38
480.969	87.38
481.188	89.38
481.406	88.38
481.624	77.38
481.843	92.38
482.061	73.38
482.28	88.38
482.498	79.38
482.717	94.38
482.935	91.38
483.153	66.38
483.372	81.38
483.59	75.38
483.808	81.38
484.027	75.38
484.245	94.38
484.463	80.38
484.681	65.38
484.9	84.38
485.118	70.38
485.336	83.38
485.554	83.38
485.772	84.38
485.99	64.38
486.209	86.38
486.427	80.38
486.645	85.38
486.863	71.38
487.081	68.38
487.299	74.38
487.517	81.38
487.735	84.38
487.953	95.38
488.171	83.38
488.389	79.38
488.607	69.38
488.825	87.38
489.043	80.38
489.261	88.38
489.479	86.38
489.696	84.38
489.914	87.38
490.132	92.38
490.35	85.38
490.568	78.38
490.786	78.38
491.003	86.38
491.221	63.38
491.439	94.38
491.657	73.38
491.874	90.38
492.092	79.38
492.31	74.38
492.527	74.38
492.745	75.38
492.963	89.38
493.18	94.38
493.398	77.38
493.615	86.38
493.833	90.38
494.05	88.38
494.268	85.38
494.485	100.38
494.703	75.38
494.92	69.38
495.138	73.38
495.355	81.38
495.573	89.38
495.79	96.38
496.008	80.38
496.225	91.38
496.442	75.38
496.66	94.38
496.877	75.38
497.094	92.38
497.312	94.38
497.529	80.38
497.746	81.38
497.963	74.38
498.181	86.38
498.398	93.38
498.615	93.38
498.832	70.38
499.049	65.38
499.267	84.38
499.484	74.38
499.701	90.38
499.918	96.38
500.135	77.38
500.352	77.38
500.569	126.38
500.786	146.38
501.003	85.38
501.22	76.38
501.437	89.38
501.654	91.38
501.871	76.38
502.088	86.38
502.305	83.38
502.522	97.38
502.739	69.38
502.956	77.38
503.172	79.38
503.389	72.38
503.606	101.38
503.823	76.38
504.04	81.38
504.256	75.38
504.473	94.38
504.69	92.38
504.907	84.38
505.123	77.38
505.34	84.38
505.557	87.38
505.773	76.38
505.99	86.38
506.207	66.38
506.423	87.38
506.64	92.38
506.856	88.38
507.073	85.38
507.289	75.38
507.506	84.38
507.722	81.38
507.939	79.38
508.155	84.38
508.372	85.38
508.588	75.38
508.805	79.38
509.021	87.38
509.238	96.38
509.454	86.38
509.67	90.38
509.887	73.38
510.103	73.38
510.319	85.38
510.536	93.38
510.752	76.38
510.968	89.38
511.184	74.38
511.401	80.38
511.617	90.38
511.833	81.38
512.049	71.38
512.265	80.38
512.481	74.38
512.698	87.38
512.914	85.38
513.13	96.38
513.346	73.38
513.562	92.38
513.778	83.38
513.994	72.38
514.21	81.38
514.426	91.38
514.642	86.38
514.858	82.38
515.074	85.38
515.29	90.38
515.506	72.38
515.721	87.38
515.937	71.38
516.153	84.38
516.369	79.38
516.585	85.38
516.801	81.38
517.016	74.38
517.232	85.38
517.448	73.38
517.664	81.38
517.879	66.38
518.095	94.38
518.311	77.38
518.527	75.38
518.742	77.38
518.958	75.38
519.173	87.38
519.389	91.38
