Data from StdB_HRD10591_090.txt Node
Date: Fri May 16 15:25:31 EDT 2025
User: Yrep
Spectrometer: HR+D1059
Trigger mode: 1
Integration Time (sec): 1.000000E-1
Scans to average: 1
Electric dark correction enabled: true
Nonlinearity correction enabled: false
Boxcar width: 0
XAxis mode: Wavelengths
Number of Pixels in Spectrum: 2048
>>>>>Begin Spectral Data<<<<<
223.165	-16.5
223.4	-16.5
223.635	-16.5
223.869	-18.5
224.104	-24.5
224.338	-12.5
224.573	-8.5
224.808	-18.5
225.042	-15.5
225.277	2.5
225.511	-7.5
225.746	6.5
225.98	-0.5
226.215	14.5
226.449	16.5
226.683	25.5
226.918	20.5
227.152	36.5
227.387	31.5
227.621	33.5
227.856	44.5
228.09	49.5
228.324	47.5
228.559	53.5
228.793	49.5
229.027	51.5
229.262	69.5
229.496	78.5
229.73	64.5
229.964	65.5
230.199	54.5
230.433	85.5
230.667	72.5
230.901	72.5
231.136	88.5
231.37	81.5
231.604	88.5
231.838	90.5
232.072	80.5
232.306	88.5
232.541	73.5
232.775	97.5
233.009	89.5
233.243	94.5
233.477	89.5
233.711	80.5
233.945	78.5
234.179	75.5
234.413	70.5
234.647	79.5
234.881	88.5
235.115	86.5
235.349	86.5
235.583	76.5
235.817	89.5
236.051	73.5
236.285	73.5
236.519	81.5
236.753	81.5
236.987	74.5
237.221	76.5
237.455	93.5
237.689	86.5
237.922	84.5
238.156	62.5
238.39	82.5
238.624	92.5
238.858	72.5
239.091	69.5
239.325	69.5
239.559	86.5
239.793	73.5
240.027	70.5
240.26	90.5
240.494	80.5
240.728	74.5
240.961	72.5
241.195	89.5
241.429	72.5
241.662	76.5
241.896	73.5
242.13	79.5
242.363	86.5
242.597	80.5
242.83	75.5
243.064	79.5
243.298	74.5
243.531	75.5
243.765	84.5
243.998	74.5
244.232	80.5
244.465	77.5
244.699	80.5
244.932	88.5
245.166	67.5
245.399	78.5
245.633	78.5
245.866	79.5
246.099	64.5
246.333	76.5
246.566	81.5
246.8	84.5
247.033	78.5
247.266	78.5
247.5	80.5
247.733	89.5
247.966	87.5
248.2	74.5
248.433	77.5
248.666	69.5
248.899	65.5
249.133	78.5
249.366	81.5
249.599	72.5
249.832	77.5
250.066	73.5
250.299	86.5
250.532	95.5
250.765	70.5
250.998	83.5
251.231	73.5
251.465	75.5
251.698	83.5
251.931	78.5
252.164	70.5
252.397	88.5
252.63	85.5
252.863	79.5
253.096	79.5
253.329	77.5
253.562	85.5
253.795	77.5
254.028	76.5
254.261	83.5
254.494	74.5
254.727	87.5
254.96	77.5
255.193	61.5
255.426	97.5
255.659	72.5
255.892	82.5
256.124	82.5
256.357	79.5
256.59	87.5
256.823	79.5
257.056	85.5
257.289	85.5
257.521	64.5
257.754	80.5
257.987	87.5
258.22	85.5
258.452	84.5
258.685	76.5
258.918	84.5
259.151	89.5
259.383	98.5
259.616	76.5
259.849	81.5
260.081	72.5
260.314	90.5
260.547	73.5
260.779	68.5
261.012	88.5
261.244	81.5
261.477	80.5
261.71	96.5
261.942	86.5
262.175	85.5
262.407	85.5
262.64	79.5
262.872	78.5
263.105	82.5
263.337	89.5
263.57	78.5
263.802	88.5
264.035	92.5
264.267	85.5
264.499	74.5
264.732	79.5
264.964	88.5
265.197	97.5
265.429	87.5
265.661	73.5
265.894	82.5
266.126	86.5
266.358	82.5
266.591	98.5
266.823	86.5
267.055	89.5
267.287	96.5
267.52	70.5
267.752	73.5
267.984	72.5
268.216	89.5
268.448	85.5
268.681	78.5
268.913	80.5
269.145	89.5
269.377	87.5
269.609	76.5
269.841	76.5
270.073	76.5
270.306	80.5
270.538	87.5
270.77	81.5
271.002	79.5
271.234	66.5
271.466	90.5
271.698	93.5
271.93	76.5
272.162	72.5
272.394	81.5
272.626	87.5
272.858	72.5
273.09	79.5
273.322	85.5
273.553	70.5
273.785	71.5
274.017	81.5
274.249	78.5
274.481	85.5
274.713	84.5
274.945	88.5
275.176	83.5
275.408	72.5
275.64	76.5
275.872	82.5
276.104	95.5
276.335	89.5
276.567	68.5
276.799	94.5
277.031	83.5
277.262	77.5
277.494	74.5
277.726	73.5
277.957	81.5
278.189	75.5
278.421	99.5
278.652	85.5
278.884	81.5
279.115	104.5
279.347	84.5
279.579	78.5
279.81	88.5
280.042	102.5
280.273	108.5
280.505	103.5
280.736	89.5
280.968	67.5
281.199	73.5
281.431	93.5
281.662	73.5
281.894	78.5
282.125	77.5
282.356	89.5
282.588	105.5
282.819	89.5
283.051	99.5
283.282	92.5
283.513	106.5
283.745	80.5
283.976	75.5
284.207	78.5
284.439	85.5
284.67	84.5
284.901	87.5
285.132	82.5
285.364	87.5
285.595	89.5
285.826	79.5
286.057	82.5
286.288	90.5
286.52	81.5
286.751	85.5
286.982	97.5
287.213	91.5
287.444	103.5
287.675	100.5
287.906	80.5
288.138	86.5
288.369	79.5
288.6	91.5
288.831	75.5
289.062	94.5
289.293	97.5
289.524	70.5
289.755	98.5
289.986	76.5
290.217	78.5
290.448	85.5
290.679	73.5
290.91	82.5
291.141	89.5
291.371	88.5
291.602	77.5
291.833	88.5
292.064	82.5
292.295	78.5
292.526	83.5
292.757	70.5
292.987	76.5
293.218	81.5
293.449	91.5
293.68	81.5
293.91	76.5
294.141	89.5
294.372	78.5
294.603	89.5
294.833	93.5
295.064	75.5
295.295	90.5
295.525	84.5
295.756	80.5
295.987	72.5
296.217	75.5
296.448	86.5
296.679	88.5
296.909	76.5
297.14	76.5
297.37	82.5
297.601	89.5
297.831	83.5
298.062	85.5
298.292	95.5
298.523	86.5
298.753	72.5
298.984	78.5
299.214	80.5
299.445	91.5
299.675	80.5
299.905	90.5
300.136	66.5
300.366	70.5
300.597	87.5
300.827	80.5
301.057	86.5
301.288	83.5
301.518	73.5
301.748	83.5
301.979	87.5
302.209	92.5
302.439	86.5
302.669	78.5
302.9	87.5
303.13	85.5
303.36	84.5
303.59	90.5
303.82	87.5
304.051	87.5
304.281	94.5
304.511	100.5
304.741	86.5
304.971	87.5
305.201	84.5
305.431	90.5
305.661	88.5
305.891	85.5
306.121	99.5
306.352	81.5
306.582	92.5
306.812	72.5
307.042	88.5
307.272	93.5
307.502	90.5
307.731	98.5
307.961	90.5
308.191	74.5
308.421	85.5
308.651	87.5
308.881	72.5
309.111	79.5
309.341	94.5
309.571	77.5
309.8	102.5
310.03	93.5
310.26	80.5
310.49	96.5
310.72	79.5
310.949	91.5
311.179	80.5
311.409	85.5
311.639	75.5
311.868	94.5
312.098	85.5
312.328	84.5
312.557	85.5
312.787	81.5
313.017	80.5
313.246	82.5
313.476	85.5
313.706	84.5
313.935	91.5
314.165	80.5
314.394	95.5
314.624	93.5
314.853	97.5
315.083	88.5
315.312	93.5
315.542	103.5
315.771	98.5
316.001	104.5
316.23	93.5
316.46	78.5
316.689	78.5
316.919	80.5
317.148	74.5
317.377	71.5
317.607	88.5
317.836	92.5
318.065	78.5
318.295	102.5
318.524	85.5
318.753	80.5
318.983	91.5
319.212	81.5
319.441	89.5
319.67	86.5
319.9	97.5
320.129	86.5
320.358	81.5
320.587	76.5
320.816	81.5
321.046	80.5
321.275	84.5
321.504	70.5
321.733	93.5
321.962	75.5
322.191	95.5
322.42	92.5
322.649	90.5
322.878	77.5
323.108	82.5
323.337	84.5
323.566	86.5
323.795	86.5
324.024	85.5
324.253	83.5
324.482	84.5
324.71	88.5
324.939	88.5
325.168	87.5
325.397	92.5
325.626	81.5
325.855	80.5
326.084	72.5
326.313	81.5
326.542	85.5
326.77	72.5
326.999	72.5
327.228	79.5
327.457	90.5
327.686	89.5
327.914	102.5
328.143	95.5
328.372	84.5
328.6	90.5
328.829	86.5
329.058	78.5
329.287	80.5
329.515	80.5
329.744	82.5
329.972	81.5
330.201	83.5
330.43	84.5
330.658	87.5
330.887	90.5
331.115	79.5
331.344	86.5
331.572	87.5
331.801	104.5
332.03	80.5
332.258	90.5
332.486	93.5
332.715	84.5
332.943	80.5
333.172	88.5
333.4	91.5
333.629	80.5
333.857	80.5
334.085	67.5
334.314	88.5
334.542	92.5
334.771	97.5
334.999	90.5
335.227	96.5
335.455	89.5
335.684	90.5
335.912	73.5
336.14	77.5
336.369	78.5
336.597	73.5
336.825	93.5
337.053	107.5
337.281	86.5
337.51	88.5
337.738	89.5
337.966	89.5
338.194	84.5
338.422	87.5
338.65	75.5
338.878	80.5
339.106	81.5
339.334	85.5
339.562	77.5
339.79	85.5
340.018	78.5
340.246	76.5
340.474	89.5
340.702	80.5
340.93	82.5
341.158	83.5
341.386	77.5
341.614	72.5
341.842	75.5
342.07	87.5
342.298	94.5
342.526	83.5
342.754	92.5
342.981	79.5
343.209	79.5
343.437	81.5
343.665	92.5
343.893	88.5
344.12	75.5
344.348	75.5
344.576	81.5
344.804	79.5
345.031	78.5
345.259	81.5
345.487	78.5
345.714	85.5
345.942	98.5
346.17	85.5
346.397	81.5
346.625	80.5
346.853	94.5
347.08	92.5
347.308	94.5
347.535	78.5
347.763	84.5
347.99	84.5
348.218	86.5
348.445	95.5
348.673	73.5
348.9	80.5
349.128	76.5
349.355	74.5
349.583	69.5
349.81	70.5
350.037	88.5
350.265	78.5
350.492	77.5
350.72	83.5
350.947	93.5
351.174	89.5
351.402	89.5
351.629	81.5
351.856	90.5
352.083	73.5
352.311	89.5
352.538	81.5
352.765	88.5
352.992	82.5
353.22	80.5
353.447	72.5
353.674	81.5
353.901	98.5
354.128	87.5
354.355	67.5
354.583	95.5
354.81	92.5
355.037	93.5
355.264	78.5
355.491	91.5
355.718	76.5
355.945	89.5
356.172	79.5
356.399	91.5
356.626	81.5
356.853	80.5
357.08	106.5
357.307	144.5
357.534	120.5
357.761	85.5
357.988	104.5
358.215	90.5
358.441	86.5
358.668	81.5
358.895	85.5
359.122	91.5
359.349	90.5
359.576	86.5
359.802	56.5
360.029	77.5
360.256	84.5
360.483	88.5
360.709	85.5
360.936	89.5
361.163	85.5
361.39	85.5
361.616	80.5
361.843	65.5
362.07	70.5
362.296	76.5
362.523	67.5
362.749	76.5
362.976	93.5
363.203	101.5
363.429	93.5
363.656	118.5
363.882	142.5
364.109	160.5
364.335	107.5
364.562	100.5
364.788	76.5
365.015	80.5
365.241	72.5
365.468	82.5
365.694	87.5
365.92	69.5
366.147	84.5
366.373	93.5
366.599	97.5
366.826	86.5
367.052	101.5
367.278	113.5
367.505	106.5
367.731	111.5
367.957	105.5
368.184	172.5
368.41	199.5
368.636	173.5
368.862	101.5
369.089	95.5
369.315	86.5
369.541	80.5
369.767	85.5
369.993	84.5
370.219	89.5
370.445	85.5
370.672	85.5
370.898	80.5
371.124	92.5
371.35	76.5
371.576	80.5
371.802	84.5
372.028	76.5
372.254	96.5
372.48	91.5
372.706	79.5
372.932	82.5
373.158	93.5
373.384	76.5
373.61	80.5
373.835	118.5
374.061	128.5
374.287	114.5
374.513	81.5
374.739	84.5
374.965	88.5
375.191	91.5
375.416	82.5
375.642	73.5
375.868	80.5
376.094	67.5
376.319	71.5
376.545	79.5
376.771	68.5
376.997	88.5
377.222	86.5
377.448	83.5
377.674	61.5
377.899	91.5
378.125	81.5
378.35	86.5
378.576	76.5
378.802	80.5
379.027	90.5
379.253	70.5
379.478	83.5
379.704	73.5
379.929	90.5
380.155	68.5
380.38	77.5
380.606	70.5
380.831	87.5
381.057	94.5
381.282	93.5
381.507	83.5
381.733	84.5
381.958	86.5
382.184	74.5
382.409	84.5
382.634	94.5
382.86	78.5
383.085	86.5
383.31	72.5
383.535	77.5
383.761	81.5
383.986	87.5
384.211	61.5
384.436	86.5
384.662	88.5
384.887	80.5
385.112	92.5
385.337	84.5
385.562	81.5
385.787	72.5
386.013	82.5
386.238	82.5
386.463	81.5
386.688	95.5
386.913	74.5
387.138	74.5
387.363	77.5
387.588	89.5
387.813	70.5
388.038	93.5
388.263	78.5
388.488	81.5
388.713	82.5
388.938	87.5
389.163	90.5
389.387	87.5
389.612	82.5
389.837	68.5
390.062	87.5
390.287	71.5
390.512	92.5
390.736	85.5
390.961	80.5
391.186	94.5
391.411	80.5
391.636	70.5
391.86	86.5
392.085	76.5
392.31	77.5
392.534	93.5
392.759	78.5
392.984	79.5
393.208	80.5
393.433	86.5
393.658	74.5
393.882	68.5
394.107	78.5
394.331	74.5
394.556	72.5
394.78	80.5
395.005	67.5
395.229	68.5
395.454	88.5
395.678	86.5
395.903	71.5
396.127	88.5
396.352	85.5
396.576	77.5
396.801	103.5
397.025	85.5
397.249	70.5
397.474	80.5
397.698	85.5
397.922	74.5
398.147	85.5
398.371	85.5
398.595	80.5
398.82	78.5
399.044	75.5
399.268	80.5
399.492	92.5
399.717	78.5
399.941	81.5
400.165	85.5
400.389	90.5
400.613	86.5
400.837	92.5
401.062	78.5
401.286	80.5
401.51	87.5
401.734	89.5
401.958	96.5
402.182	111.5
402.406	81.5
402.63	72.5
402.854	79.5
403.078	68.5
403.302	87.5
403.526	83.5
403.75	82.5
403.974	87.5
404.198	77.5
404.422	95.5
404.645	93.5
404.869	92.5
405.093	109.5
405.317	114.5
405.541	185.5
405.765	306.5
405.988	310.5
406.212	168.5
406.436	116.5
406.66	93.5
406.883	90.5
407.107	80.5
407.331	84.5
407.555	86.5
407.778	75.5
408.002	78.5
408.226	90.5
408.449	93.5
408.673	89.5
408.896	89.5
409.12	101.5
409.344	76.5
409.567	91.5
409.791	90.5
410.014	78.5
410.238	84.5
410.461	86.5
410.685	95.5
410.908	74.5
411.132	72.5
411.355	96.5
411.578	84.5
411.802	86.5
412.025	81.5
412.249	78.5
412.472	83.5
412.695	84.5
412.919	80.5
413.142	78.5
413.365	104.5
413.589	78.5
413.812	83.5
414.035	86.5
414.258	88.5
414.482	73.5
414.705	88.5
414.928	96.5
415.151	78.5
415.374	78.5
415.597	83.5
415.821	88.5
416.044	77.5
416.267	86.5
416.49	76.5
416.713	90.5
416.936	97.5
417.159	88.5
417.382	82.5
417.605	90.5
417.828	100.5
418.051	90.5
418.274	91.5
418.497	89.5
418.72	86.5
418.943	96.5
419.166	76.5
419.389	88.5
419.611	78.5
419.834	92.5
420.057	85.5
420.28	78.5
420.503	81.5
420.726	71.5
420.948	72.5
421.171	92.5
421.394	82.5
421.617	71.5
421.839	88.5
422.062	78.5
422.285	78.5
422.507	88.5
422.73	86.5
422.953	73.5
423.175	94.5
423.398	73.5
423.621	82.5
423.843	91.5
424.066	90.5
424.288	85.5
424.511	97.5
424.733	85.5
424.956	82.5
425.178	83.5
425.401	76.5
425.623	89.5
425.846	89.5
426.068	78.5
426.291	80.5
426.513	80.5
426.735	75.5
426.958	63.5
427.18	76.5
427.402	76.5
427.625	71.5
427.847	87.5
428.069	79.5
428.292	75.5
428.514	77.5
428.736	105.5
428.958	72.5
429.181	87.5
429.403	87.5
429.625	93.5
429.847	86.5
430.069	85.5
430.292	82.5
430.514	98.5
430.736	79.5
430.958	88.5
431.18	87.5
431.402	95.5
431.624	85.5
431.846	75.5
432.068	74.5
432.29	97.5
432.512	84.5
432.734	69.5
432.956	76.5
433.178	79.5
433.4	88.5
433.622	88.5
433.844	71.5
434.066	86.5
434.287	87.5
434.509	88.5
434.731	96.5
434.953	84.5
435.175	89.5
435.397	72.5
435.618	86.5
435.84	78.5
436.062	70.5
436.284	84.5
436.505	86.5
436.727	80.5
436.949	89.5
437.17	79.5
437.392	84.5
437.614	84.5
437.835	89.5
438.057	74.5
438.278	81.5
438.5	80.5
438.721	88.5
438.943	77.5
439.165	76.5
439.386	85.5
439.608	76.5
439.829	90.5
440.05	82.5
440.272	86.5
440.493	90.5
440.715	90.5
440.936	71.5
441.158	74.5
441.379	88.5
441.6	79.5
441.822	83.5
442.043	82.5
442.264	82.5
442.486	93.5
442.707	80.5
442.928	86.5
443.149	83.5
443.371	84.5
443.592	70.5
443.813	92.5
444.034	62.5
444.255	87.5
444.476	86.5
444.698	73.5
444.919	77.5
445.14	168.5
445.361	101.5
445.582	96.5
445.803	91.5
446.024	94.5
446.245	81.5
446.466	93.5
446.687	69.5
446.908	94.5
447.129	94.5
447.35	88.5
447.571	84.5
447.792	87.5
448.013	84.5
448.234	89.5
448.455	82.5
448.675	74.5
448.896	81.5
449.117	94.5
449.338	80.5
449.559	88.5
449.779	87.5
450	89.5
450.221	75.5
450.442	85.5
450.662	89.5
450.883	86.5
451.104	75.5
451.324	86.5
451.545	83.5
451.766	92.5
451.986	72.5
452.207	79.5
452.428	92.5
452.648	97.5
452.869	93.5
453.089	74.5
453.31	76.5
453.53	85.5
453.751	70.5
453.971	92.5
454.192	88.5
454.412	71.5
454.633	92.5
454.853	95.5
455.073	74.5
455.294	69.5
455.514	75.5
455.734	73.5
455.955	85.5
456.175	84.5
456.395	89.5
456.616	73.5
456.836	74.5
457.056	73.5
457.276	96.5
457.497	82.5
457.717	82.5
457.937	73.5
458.157	79.5
458.377	61.5
458.598	93.5
458.818	77.5
459.038	74.5
459.258	90.5
459.478	79.5
459.698	71.5
459.918	88.5
460.138	81.5
460.358	84.5
460.578	89.5
460.798	97.5
461.018	69.5
461.238	84.5
461.458	79.5
461.678	94.5
461.898	87.5
462.118	80.5
462.338	92.5
462.558	65.5
462.777	81.5
462.997	88.5
463.217	81.5
463.437	69.5
463.657	73.5
463.876	76.5
464.096	84.5
464.316	75.5
464.536	84.5
464.755	88.5
464.975	73.5
465.195	73.5
465.414	86.5
465.634	85.5
465.854	79.5
466.073	82.5
466.293	73.5
466.512	73.5
466.732	78.5
466.951	75.5
467.171	85.5
467.391	86.5
467.61	80.5
467.829	84.5
468.049	77.5
468.268	86.5
468.488	77.5
468.707	70.5
468.927	77.5
469.146	82.5
469.365	84.5
469.585	86.5
469.804	93.5
470.023	80.5
470.243	78.5
470.462	82.5
470.681	81.5
470.901	81.5
471.12	89.5
471.339	84.5
471.558	81.5
471.777	84.5
471.997	94.5
472.216	92.5
472.435	89.5
472.654	88.5
472.873	91.5
473.092	77.5
473.311	73.5
473.53	88.5
473.749	69.5
473.968	108.5
474.187	86.5
474.406	94.5
474.625	85.5
474.844	86.5
475.063	89.5
475.282	76.5
475.501	81.5
475.72	89.5
475.939	77.5
476.158	82.5
476.377	74.5
476.596	76.5
476.814	75.5
477.033	88.5
477.252	91.5
477.471	69.5
477.69	90.5
477.908	76.5
478.127	74.5
478.346	89.5
478.564	80.5
478.783	84.5
479.002	93.5
479.22	80.5
479.439	71.5
479.658	93.5
479.876	92.5
480.095	93.5
480.313	84.5
480.532	69.5
480.751	86.5
480.969	72.5
481.188	94.5
481.406	91.5
481.624	87.5
481.843	93.5
482.061	93.5
482.28	91.5
482.498	77.5
482.717	78.5
482.935	88.5
483.153	83.5
483.372	89.5
483.59	65.5
483.808	79.5
484.027	78.5
484.245	90.5
484.463	90.5
484.681	95.5
484.9	83.5
485.118	81.5
485.336	74.5
485.554	81.5
485.772	85.5
485.99	89.5
486.209	76.5
486.427	85.5
486.645	76.5
486.863	78.5
487.081	75.5
487.299	84.5
487.517	86.5
487.735	90.5
487.953	88.5
488.171	91.5
488.389	86.5
488.607	71.5
488.825	97.5
489.043	73.5
489.261	91.5
489.479	91.5
489.696	85.5
489.914	74.5
490.132	89.5
490.35	95.5
490.568	77.5
490.786	73.5
491.003	87.5
491.221	80.5
491.439	86.5
491.657	97.5
491.874	87.5
492.092	86.5
492.31	102.5
492.527	87.5
492.745	88.5
492.963	85.5
493.18	82.5
493.398	76.5
493.615	86.5
493.833	77.5
494.05	86.5
494.268	77.5
494.485	86.5
494.703	74.5
494.92	96.5
495.138	94.5
495.355	93.5
495.573	84.5
495.79	81.5
496.008	89.5
496.225	101.5
496.442	80.5
496.66	97.5
496.877	96.5
497.094	101.5
497.312	80.5
497.529	94.5
497.746	84.5
497.963	80.5
498.181	76.5
498.398	86.5
498.615	74.5
498.832	87.5
499.049	77.5
499.267	104.5
499.484	76.5
499.701	81.5
499.918	81.5
500.135	83.5
500.352	78.5
500.569	110.5
500.786	135.5
501.003	102.5
501.22	88.5
501.437	78.5
501.654	80.5
501.871	74.5
502.088	87.5
502.305	84.5
502.522	71.5
502.739	86.5
502.956	87.5
503.172	76.5
503.389	80.5
503.606	86.5
503.823	86.5
504.04	87.5
504.256	72.5
504.473	95.5
504.69	74.5
504.907	89.5
505.123	93.5
505.34	89.5
505.557	87.5
505.773	84.5
505.99	89.5
506.207	91.5
506.423	82.5
506.64	76.5
506.856	72.5
507.073	88.5
507.289	73.5
507.506	87.5
507.722	78.5
507.939	72.5
508.155	74.5
508.372	72.5
508.588	78.5
508.805	93.5
509.021	93.5
509.238	93.5
509.454	92.5
509.67	86.5
509.887	87.5
510.103	82.5
510.319	79.5
510.536	79.5
510.752	73.5
510.968	95.5
511.184	93.5
511.401	82.5
511.617	82.5
511.833	87.5
512.049	87.5
512.265	76.5
512.481	82.5
512.698	89.5
512.914	97.5
513.13	79.5
513.346	64.5
513.562	87.5
513.778	96.5
513.994	88.5
514.21	89.5
514.426	81.5
514.642	69.5
514.858	85.5
515.074	90.5
515.29	88.5
515.506	85.5
515.721	88.5
515.937	92.5
516.153	98.5
516.369	82.5
516.585	77.5
516.801	80.5
517.016	84.5
517.232	73.5
517.448	90.5
517.664	87.5
517.879	83.5
518.095	84.5
518.311	78.5
518.527	92.5
518.742	85.5
518.958	76.5
519.173	80.5
519.389	81.5
519.605	88.5
519.82	84.5
520.036	81.5
520.251	88.5
520.467	100.5
520.682	89.5
520.898	88.5
521.113	88.5
521.329	93.5
521.544	88.5
521.76	81.5
521.975	80.5
522.19	78.5
522.406	101.5
522.621	80.5
522.836	97.5
523.052	95.5
523.267	92.5
523.482	76.5
523.698	90.5
523.913	90.5
524.128	88.5
524.343	73.5
524.559	102.5
524.774	87.5
524.989	82.5
525.204	80.5
525.419	92.5
525.634	72.5
525.849	84.5
526.064	96.5
526.28	84.5
526.495	73.5
526.71	86.5
526.925	83.5
527.14	77.5
527.355	81.5
527.57	95.5
527.785	84.5
527.999	81.5
528.214	81.5
528.429	75.5
528.644	85.5
528.859	89.5
529.074	67.5
529.289	90.5
529.503	78.5
529.718	86.5
529.933	87.5
530.148	77.5
530.363	92.5
530.577	81.5
530.792	85.5
531.007	96.5
531.221	97.5
531.436	79.5
531.651	88.5
531.865	92.5
532.08	87.5
532.295	91.5
532.509	88.5
532.724	84.5
532.938	79.5
533.153	82.5
533.367	81.5
533.582	70.5
533.796	90.5
534.011	86.5
534.225	81.5
534.44	87.5
534.654	83.5
534.868	68.5
535.083	80.5
535.297	92.5
535.511	95.5
535.726	97.5
535.94	75.5
536.154	84.5
536.369	86.5
536.583	76.5
536.797	72.5
537.011	81.5
537.225	97.5
537.44	85.5
537.654	81.5
537.868	86.5
538.082	95.5
538.296	78.5
538.51	80.5
538.724	94.5
538.938	91.5
539.153	82.5
539.367	90.5
539.581	90.5
539.795	77.5
