Data from StdB_HRD10591_020.txt Node
Date: Fri May 16 15:24:56 EDT 2025
User: Yrep
Spectrometer: HR+D1059
Trigger mode: 1
Integration Time (sec): 1.000000E-1
Scans to average: 1
Electric dark correction enabled: true
Nonlinearity correction enabled: false
Boxcar width: 0
XAxis mode: Wavelengths
Number of Pixels in Spectrum: 2048
>>>>>Begin Spectral Data<<<<<
223.165	-16.88
223.4	-16.88
223.635	-16.88
223.869	-22.88
224.104	-5.88
224.338	-12.88
224.573	-10.88
224.808	-8.88
225.042	-13.88
225.277	1.12
225.511	-5.88
225.746	10.12
225.98	10.12
226.215	7.12
226.449	3.12
226.683	10.12
226.918	20.12
227.152	36.12
227.387	31.12
227.621	28.12
227.856	41.12
228.09	42.12
228.324	40.12
228.559	53.12
228.793	54.12
229.027	47.12
229.262	70.12
229.496	74.12
229.73	76.12
229.964	84.12
230.199	84.12
230.433	85.12
230.667	70.12
230.901	78.12
231.136	76.12
231.37	90.12
231.604	85.12
231.838	91.12
232.072	85.12
232.306	78.12
232.541	78.12
232.775	87.12
233.009	93.12
233.243	77.12
233.477	78.12
233.711	79.12
233.945	77.12
234.179	83.12
234.413	80.12
234.647	82.12
234.881	81.12
235.115	81.12
235.349	87.12
235.583	75.12
235.817	88.12
236.051	76.12
236.285	64.12
236.519	79.12
236.753	72.12
236.987	74.12
237.221	75.12
237.455	89.12
237.689	85.12
237.922	57.12
238.156	77.12
238.39	78.12
238.624	73.12
238.858	74.12
239.091	84.12
239.325	83.12
239.559	82.12
239.793	91.12
240.027	75.12
240.26	76.12
240.494	74.12
240.728	68.12
240.961	65.12
241.195	77.12
241.429	85.12
241.662	59.12
241.896	69.12
242.13	76.12
242.363	58.12
242.597	65.12
242.83	72.12
243.064	61.12
243.298	86.12
243.531	86.12
243.765	71.12
243.998	85.12
244.232	72.12
244.465	86.12
244.699	91.12
244.932	81.12
245.166	83.12
245.399	86.12
245.633	83.12
245.866	70.12
246.099	76.12
246.333	88.12
246.566	64.12
246.8	70.12
247.033	82.12
247.266	86.12
247.5	84.12
247.733	74.12
247.966	84.12
248.2	73.12
248.433	76.12
248.666	73.12
248.899	61.12
249.133	80.12
249.366	82.12
249.599	71.12
249.832	89.12
250.066	91.12
250.299	83.12
250.532	72.12
250.765	76.12
250.998	78.12
251.231	72.12
251.465	78.12
251.698	74.12
251.931	77.12
252.164	79.12
252.397	74.12
252.63	98.12
252.863	70.12
253.096	94.12
253.329	77.12
253.562	91.12
253.795	78.12
254.028	86.12
254.261	74.12
254.494	91.12
254.727	74.12
254.96	82.12
255.193	87.12
255.426	76.12
255.659	83.12
255.892	84.12
256.124	88.12
256.357	68.12
256.59	86.12
256.823	77.12
257.056	80.12
257.289	85.12
257.521	90.12
257.754	77.12
257.987	73.12
258.22	94.12
258.452	83.12
258.685	92.12
258.918	91.12
259.151	79.12
259.383	68.12
259.616	72.12
259.849	87.12
260.081	68.12
260.314	82.12
260.547	80.12
260.779	88.12
261.012	92.12
261.244	75.12
261.477	93.12
261.71	91.12
261.942	74.12
262.175	85.12
262.407	85.12
262.64	93.12
262.872	80.12
263.105	67.12
263.337	68.12
263.57	72.12
263.802	75.12
264.035	87.12
264.267	87.12
264.499	87.12
264.732	86.12
264.964	102.12
265.197	92.12
265.429	73.12
265.661	96.12
265.894	79.12
266.126	90.12
266.358	106.12
266.591	87.12
266.823	75.12
267.055	80.12
267.287	93.12
267.52	74.12
267.752	78.12
267.984	87.12
268.216	90.12
268.448	82.12
268.681	84.12
268.913	78.12
269.145	84.12
269.377	81.12
269.609	73.12
269.841	93.12
270.073	81.12
270.306	88.12
270.538	66.12
270.77	84.12
271.002	80.12
271.234	91.12
271.466	84.12
271.698	79.12
271.93	75.12
272.162	92.12
272.394	84.12
272.626	76.12
272.858	91.12
273.09	73.12
273.322	80.12
273.553	86.12
273.785	82.12
274.017	89.12
274.249	80.12
274.481	91.12
274.713	80.12
274.945	85.12
275.176	81.12
275.408	78.12
275.64	77.12
275.872	80.12
276.104	83.12
276.335	83.12
276.567	83.12
276.799	75.12
277.031	84.12
277.262	83.12
277.494	78.12
277.726	88.12
277.957	89.12
278.189	70.12
278.421	74.12
278.652	70.12
278.884	70.12
279.115	92.12
279.347	82.12
279.579	86.12
279.81	101.12
280.042	115.12
280.273	121.12
280.505	116.12
280.736	86.12
280.968	76.12
281.199	83.12
281.431	73.12
281.662	82.12
281.894	91.12
282.125	95.12
282.356	99.12
282.588	103.12
282.819	97.12
283.051	95.12
283.282	108.12
283.513	119.12
283.745	87.12
283.976	87.12
284.207	79.12
284.439	87.12
284.67	88.12
284.901	78.12
285.132	78.12
285.364	78.12
285.595	99.12
285.826	73.12
286.057	69.12
286.288	87.12
286.52	82.12
286.751	82.12
286.982	91.12
287.213	87.12
287.444	91.12
287.675	102.12
287.906	71.12
288.138	98.12
288.369	87.12
288.6	88.12
288.831	76.12
289.062	74.12
289.293	81.12
289.524	79.12
289.755	73.12
289.986	80.12
290.217	84.12
290.448	75.12
290.679	84.12
290.91	88.12
291.141	74.12
291.371	80.12
291.602	74.12
291.833	85.12
292.064	72.12
292.295	78.12
292.526	77.12
292.757	69.12
292.987	96.12
293.218	80.12
293.449	75.12
293.68	79.12
293.91	58.12
294.141	84.12
294.372	97.12
294.603	92.12
294.833	78.12
295.064	80.12
295.295	81.12
295.525	94.12
295.756	83.12
295.987	98.12
296.217	81.12
296.448	93.12
296.679	89.12
296.909	64.12
297.14	71.12
297.37	78.12
297.601	76.12
297.831	79.12
298.062	87.12
298.292	82.12
298.523	73.12
298.753	71.12
298.984	85.12
299.214	91.12
299.445	95.12
299.675	84.12
299.905	86.12
300.136	70.12
300.366	71.12
300.597	77.12
300.827	85.12
301.057	85.12
301.288	76.12
301.518	83.12
301.748	86.12
301.979	92.12
302.209	71.12
302.439	84.12
302.669	85.12
302.9	79.12
303.13	76.12
303.36	88.12
303.59	80.12
303.82	86.12
304.051	75.12
304.281	74.12
304.511	82.12
304.741	91.12
304.971	85.12
305.201	88.12
305.431	90.12
305.661	82.12
305.891	87.12
306.121	83.12
306.352	89.12
306.582	89.12
306.812	82.12
307.042	91.12
307.272	87.12
307.502	77.12
307.731	98.12
307.961	92.12
308.191	72.12
308.421	75.12
308.651	74.12
308.881	80.12
309.111	77.12
309.341	102.12
309.571	77.12
309.8	88.12
310.03	73.12
310.26	88.12
310.49	96.12
310.72	76.12
310.949	87.12
311.179	73.12
311.409	66.12
311.639	90.12
311.868	82.12
312.098	80.12
312.328	68.12
312.557	80.12
312.787	93.12
313.017	82.12
313.246	90.12
313.476	78.12
313.706	80.12
313.935	87.12
314.165	86.12
314.394	86.12
314.624	82.12
314.853	95.12
315.083	92.12
315.312	97.12
315.542	84.12
315.771	82.12
316.001	82.12
316.23	88.12
316.46	70.12
316.689	75.12
316.919	82.12
317.148	95.12
317.377	70.12
317.607	83.12
317.836	83.12
318.065	91.12
318.295	92.12
318.524	82.12
318.753	87.12
318.983	84.12
319.212	90.12
319.441	80.12
319.67	71.12
319.9	80.12
320.129	82.12
320.358	71.12
320.587	82.12
320.816	70.12
321.046	85.12
321.275	88.12
321.504	89.12
321.733	94.12
321.962	79.12
322.191	85.12
322.42	84.12
322.649	89.12
322.878	95.12
323.108	78.12
323.337	86.12
323.566	83.12
323.795	90.12
324.024	84.12
324.253	72.12
324.482	68.12
324.71	78.12
324.939	78.12
325.168	92.12
325.397	85.12
325.626	100.12
325.855	92.12
326.084	73.12
326.313	78.12
326.542	78.12
326.77	79.12
326.999	87.12
327.228	77.12
327.457	84.12
327.686	76.12
327.914	78.12
328.143	74.12
328.372	70.12
328.6	68.12
328.829	76.12
329.058	82.12
329.287	81.12
329.515	88.12
329.744	71.12
329.972	88.12
330.201	83.12
330.43	97.12
330.658	86.12
330.887	80.12
331.115	80.12
331.344	88.12
331.572	90.12
331.801	87.12
332.03	82.12
332.258	79.12
332.486	72.12
332.715	83.12
332.943	75.12
333.172	86.12
333.4	91.12
333.629	80.12
333.857	81.12
334.085	86.12
334.314	85.12
334.542	82.12
334.771	79.12
334.999	71.12
335.227	79.12
335.455	80.12
335.684	89.12
335.912	92.12
336.14	86.12
336.369	87.12
336.597	80.12
336.825	84.12
337.053	67.12
337.281	87.12
337.51	89.12
337.738	82.12
337.966	81.12
338.194	72.12
338.422	69.12
338.65	83.12
338.878	86.12
339.106	92.12
339.334	84.12
339.562	85.12
339.79	76.12
340.018	79.12
340.246	83.12
340.474	77.12
340.702	73.12
340.93	75.12
341.158	75.12
341.386	76.12
341.614	84.12
341.842	81.12
342.07	70.12
342.298	83.12
342.526	102.12
342.754	83.12
342.981	82.12
343.209	72.12
343.437	87.12
343.665	89.12
343.893	74.12
344.12	88.12
344.348	87.12
344.576	77.12
344.804	84.12
345.031	96.12
345.259	83.12
345.487	89.12
345.714	68.12
345.942	91.12
346.17	91.12
346.397	70.12
346.625	66.12
346.853	79.12
347.08	79.12
347.308	96.12
347.535	88.12
347.763	72.12
347.99	90.12
348.218	88.12
348.445	86.12
348.673	77.12
348.9	76.12
349.128	79.12
349.355	64.12
349.583	91.12
349.81	88.12
350.037	65.12
350.265	94.12
350.492	87.12
350.72	95.12
350.947	98.12
351.174	78.12
351.402	71.12
351.629	89.12
351.856	80.12
352.083	76.12
352.311	70.12
352.538	87.12
352.765	82.12
352.992	85.12
353.22	79.12
353.447	79.12
353.674	83.12
353.901	77.12
354.128	93.12
354.355	63.12
354.583	85.12
354.81	88.12
355.037	85.12
355.264	87.12
355.491	97.12
355.718	86.12
355.945	77.12
356.172	102.12
356.399	81.12
356.626	84.12
356.853	100.12
357.08	131.12
357.307	150.12
357.534	146.12
357.761	94.12
357.988	82.12
358.215	84.12
358.441	78.12
358.668	90.12
358.895	88.12
359.122	83.12
359.349	80.12
359.576	82.12
359.802	78.12
360.029	83.12
360.256	98.12
360.483	78.12
360.709	79.12
360.936	71.12
361.163	78.12
361.39	71.12
361.616	74.12
361.843	86.12
362.07	98.12
362.296	94.12
362.523	62.12
362.749	72.12
362.976	90.12
363.203	100.12
363.429	102.12
363.656	148.12
363.882	199.12
364.109	205.12
364.335	131.12
364.562	98.12
364.788	92.12
365.015	85.12
365.241	88.12
365.468	98.12
365.694	92.12
365.92	74.12
366.147	93.12
366.373	86.12
366.599	94.12
366.826	93.12
367.052	106.12
367.278	135.12
367.505	98.12
367.731	114.12
367.957	140.12
368.184	221.12
368.41	274.12
368.636	223.12
368.862	125.12
369.089	79.12
369.315	74.12
369.541	89.12
369.767	92.12
369.993	77.12
370.219	78.12
370.445	76.12
370.672	62.12
370.898	83.12
371.124	78.12
371.35	69.12
371.576	92.12
371.802	79.12
372.028	83.12
372.254	95.12
372.48	74.12
372.706	93.12
372.932	94.12
373.158	87.12
373.384	95.12
373.61	114.12
373.835	127.12
374.061	141.12
374.287	128.12
374.513	103.12
374.739	84.12
374.965	74.12
375.191	75.12
375.416	88.12
375.642	83.12
375.868	93.12
376.094	97.12
376.319	76.12
376.545	85.12
376.771	84.12
376.997	79.12
377.222	79.12
377.448	74.12
377.674	91.12
377.899	86.12
378.125	79.12
378.35	98.12
378.576	80.12
378.802	85.12
379.027	85.12
379.253	75.12
379.478	82.12
379.704	88.12
379.929	78.12
380.155	74.12
380.38	67.12
380.606	88.12
380.831	74.12
381.057	91.12
381.282	73.12
381.507	85.12
381.733	78.12
381.958	72.12
382.184	78.12
382.409	79.12
382.634	94.12
382.86	88.12
383.085	73.12
383.31	78.12
383.535	90.12
383.761	91.12
383.986	83.12
384.211	75.12
384.436	80.12
384.662	87.12
384.887	72.12
385.112	78.12
385.337	83.12
385.562	86.12
385.787	67.12
386.013	73.12
386.238	85.12
386.463	91.12
386.688	91.12
386.913	82.12
387.138	81.12
387.363	85.12
387.588	73.12
387.813	80.12
388.038	77.12
388.263	78.12
388.488	82.12
388.713	75.12
388.938	61.12
389.163	87.12
389.387	85.12
389.612	73.12
389.837	78.12
390.062	89.12
390.287	83.12
390.512	80.12
390.736	80.12
390.961	81.12
391.186	87.12
391.411	79.12
391.636	89.12
391.86	65.12
392.085	92.12
392.31	79.12
392.534	85.12
392.759	85.12
392.984	79.12
393.208	79.12
393.433	85.12
393.658	76.12
393.882	70.12
394.107	89.12
394.331	93.12
394.556	89.12
394.78	75.12
395.005	87.12
395.229	90.12
395.454	83.12
395.678	84.12
395.903	84.12
396.127	78.12
396.352	100.12
396.576	81.12
396.801	98.12
397.025	86.12
397.249	87.12
397.474	93.12
397.698	78.12
397.922	82.12
398.147	91.12
398.371	70.12
398.595	69.12
398.82	93.12
399.044	84.12
399.268	94.12
399.492	71.12
399.717	81.12
399.941	70.12
400.165	80.12
400.389	86.12
400.613	80.12
400.837	82.12
401.062	74.12
401.286	93.12
401.51	80.12
401.734	98.12
401.958	110.12
402.182	91.12
402.406	82.12
402.63	90.12
402.854	87.12
403.078	83.12
403.302	75.12
403.526	98.12
403.75	72.12
403.974	73.12
404.198	77.12
404.422	95.12
404.645	91.12
404.869	93.12
405.093	95.12
405.317	132.12
405.541	218.12
405.765	384.12
405.988	423.12
406.212	221.12
406.436	162.12
406.66	98.12
406.883	101.12
407.107	87.12
407.331	78.12
407.555	80.12
407.778	105.12
408.002	85.12
408.226	74.12
408.449	72.12
408.673	88.12
408.896	85.12
409.12	80.12
409.344	78.12
409.567	76.12
409.791	77.12
410.014	78.12
410.238	81.12
410.461	98.12
410.685	80.12
410.908	97.12
411.132	87.12
411.355	90.12
411.578	91.12
411.802	92.12
412.025	72.12
412.249	76.12
412.472	80.12
412.695	78.12
412.919	88.12
413.142	70.12
413.365	71.12
413.589	90.12
413.812	64.12
414.035	86.12
414.258	87.12
414.482	83.12
414.705	74.12
414.928	83.12
415.151	79.12
415.374	95.12
415.597	83.12
415.821	80.12
416.044	87.12
416.267	94.12
416.49	89.12
416.713	103.12
416.936	102.12
417.159	86.12
417.382	65.12
417.605	66.12
417.828	92.12
418.051	83.12
418.274	72.12
418.497	82.12
418.72	78.12
418.943	77.12
419.166	77.12
419.389	71.12
419.611	82.12
419.834	90.12
420.057	91.12
420.28	89.12
420.503	83.12
420.726	82.12
420.948	98.12
421.171	66.12
421.394	77.12
421.617	70.12
421.839	81.12
422.062	82.12
422.285	75.12
422.507	70.12
422.73	96.12
422.953	92.12
423.175	80.12
423.398	80.12
423.621	79.12
423.843	67.12
424.066	72.12
424.288	82.12
424.511	88.12
424.733	82.12
424.956	87.12
425.178	86.12
425.401	72.12
425.623	70.12
425.846	70.12
426.068	85.12
426.291	70.12
426.513	91.12
426.735	86.12
426.958	70.12
427.18	83.12
427.402	88.12
427.625	83.12
427.847	90.12
428.069	72.12
428.292	73.12
428.514	88.12
428.736	83.12
428.958	79.12
429.181	69.12
429.403	70.12
429.625	84.12
429.847	80.12
430.069	79.12
430.292	85.12
430.514	81.12
430.736	73.12
430.958	82.12
431.18	87.12
431.402	68.12
431.624	72.12
431.846	83.12
432.068	86.12
432.29	72.12
432.512	91.12
432.734	79.12
432.956	73.12
433.178	82.12
433.4	72.12
433.622	84.12
433.844	74.12
434.066	78.12
434.287	88.12
434.509	81.12
434.731	82.12
434.953	87.12
435.175	87.12
435.397	84.12
435.618	79.12
435.84	72.12
436.062	60.12
436.284	64.12
436.505	77.12
436.727	102.12
436.949	67.12
437.17	74.12
437.392	88.12
437.614	87.12
437.835	70.12
438.057	65.12
438.278	80.12
438.5	83.12
438.721	86.12
438.943	70.12
439.165	79.12
439.386	69.12
439.608	82.12
439.829	74.12
440.05	89.12
440.272	73.12
440.493	58.12
440.715	98.12
440.936	83.12
441.158	87.12
441.379	80.12
441.6	84.12
441.822	68.12
442.043	91.12
442.264	80.12
442.486	94.12
442.707	71.12
442.928	73.12
443.149	81.12
443.371	82.12
443.592	80.12
443.813	79.12
444.034	90.12
444.255	82.12
444.476	86.12
444.698	83.12
444.919	78.12
445.14	125.12
445.361	110.12
445.582	79.12
445.803	74.12
446.024	76.12
446.245	87.12
446.466	92.12
446.687	73.12
446.908	72.12
447.129	80.12
447.35	89.12
447.571	90.12
447.792	87.12
448.013	77.12
448.234	98.12
448.455	90.12
448.675	93.12
448.896	82.12
449.117	91.12
449.338	90.12
449.559	92.12
449.779	98.12
450	78.12
450.221	98.12
450.442	88.12
450.662	73.12
450.883	72.12
451.104	82.12
451.324	89.12
451.545	81.12
451.766	91.12
451.986	80.12
452.207	86.12
452.428	72.12
452.648	84.12
452.869	92.12
453.089	75.12
453.31	87.12
453.53	89.12
453.751	88.12
453.971	75.12
454.192	84.12
454.412	81.12
454.633	76.12
454.853	92.12
455.073	89.12
455.294	84.12
455.514	65.12
455.734	89.12
455.955	90.12
456.175	84.12
456.395	93.12
456.616	68.12
456.836	73.12
457.056	83.12
457.276	92.12
457.497	89.12
457.717	80.12
457.937	75.12
458.157	94.12
458.377	85.12
458.598	77.12
458.818	77.12
459.038	83.12
459.258	73.12
459.478	74.12
459.698	85.12
459.918	84.12
460.138	76.12
460.358	82.12
460.578	75.12
460.798	86.12
461.018	82.12
461.238	90.12
461.458	85.12
461.678	71.12
461.898	89.12
462.118	85.12
462.338	82.12
462.558	79.12
462.777	64.12
462.997	83.12
463.217	75.12
463.437	93.12
463.657	74.12
463.876	74.12
464.096	77.12
464.316	79.12
464.536	80.12
464.755	73.12
464.975	75.12
465.195	79.12
465.414	80.12
465.634	80.12
465.854	77.12
466.073	100.12
466.293	65.12
466.512	59.12
466.732	70.12
466.951	90.12
467.171	90.12
467.391	83.12
467.61	85.12
467.829	77.12
468.049	85.12
468.268	91.12
468.488	76.12
468.707	85.12
468.927	87.12
469.146	72.12
469.365	78.12
469.585	74.12
469.804	79.12
470.023	97.12
470.243	92.12
470.462	80.12
470.681	67.12
470.901	82.12
471.12	88.12
471.339	69.12
471.558	79.12
471.777	91.12
471.997	79.12
472.216	84.12
472.435	83.12
472.654	78.12
472.873	82.12
473.092	84.12
473.311	89.12
473.53	76.12
473.749	79.12
473.968	101.12
474.187	71.12
474.406	76.12
474.625	85.12
474.844	72.12
475.063	89.12
475.282	82.12
475.501	76.12
475.72	92.12
475.939	78.12
476.158	86.12
476.377	82.12
476.596	76.12
476.814	72.12
477.033	87.12
477.252	79.12
477.471	80.12
477.69	92.12
477.908	91.12
478.127	97.12
478.346	83.12
478.564	78.12
478.783	87.12
479.002	90.12
479.22	78.12
479.439	86.12
479.658	82.12
479.876	77.12
480.095	86.12
480.313	90.12
480.532	69.12
480.751	83.12
480.969	84.12
481.188	86.12
481.406	82.12
481.624	88.12
481.843	93.12
482.061	73.12
482.28	83.12
482.498	80.12
482.717	76.12
482.935	84.12
483.153	89.12
483.372	88.12
483.59	78.12
483.808	90.12
484.027	79.12
484.245	84.12
484.463	93.12
484.681	78.12
484.9	94.12
485.118	89.12
485.336	79.12
485.554	83.12
485.772	81.12
485.99	86.12
486.209	86.12
486.427	86.12
486.645	79.12
486.863	82.12
487.081	80.12
487.299	74.12
487.517	86.12
487.735	82.12
487.953	81.12
488.171	75.12
488.389	79.12
488.607	76.12
488.825	79.12
489.043	79.12
489.261	95.12
489.479	77.12
489.696	83.12
489.914	76.12
490.132	91.12
490.35	76.12
490.568	82.12
490.786	82.12
491.003	76.12
491.221	87.12
491.439	83.12
491.657	87.12
491.874	88.12
492.092	88.12
492.31	85.12
492.527	86.12
492.745	80.12
492.963	83.12
493.18	75.12
493.398	89.12
493.615	76.12
493.833	82.12
494.05	84.12
494.268	84.12
494.485	90.12
494.703	84.12
494.92	92.12
495.138	83.12
495.355	87.12
495.573	94.12
495.79	101.12
496.008	78.12
496.225	85.12
496.442	79.12
496.66	94.12
496.877	93.12
497.094	94.12
497.312	81.12
497.529	87.12
497.746	75.12
497.963	77.12
498.181	79.12
498.398	86.12
498.615	84.12
498.832	82.12
499.049	86.12
499.267	84.12
499.484	77.12
499.701	72.12
499.918	86.12
500.135	69.12
500.352	92.12
500.569	120.12
500.786	155.12
501.003	93.12
501.22	101.12
501.437	88.12
501.654	86.12
501.871	93.12
502.088	88.12
502.305	96.12
502.522	88.12
502.739	95.12
502.956	71.12
503.172	89.12
503.389	72.12
503.606	71.12
503.823	81.12
504.04	83.12
504.256	78.12
504.473	76.12
504.69	82.12
504.907	75.12
505.123	86.12
505.34	76.12
505.557	81.12
505.773	94.12
505.99	82.12
506.207	86.12
506.423	76.12
506.64	76.12
506.856	80.12
507.073	79.12
507.289	72.12
507.506	62.12
507.722	100.12
507.939	87.12
508.155	87.12
508.372	83.12
508.588	89.12
508.805	84.12
509.021	59.12
509.238	80.12
509.454	90.12
509.67	79.12
509.887	73.12
510.103	82.12
510.319	77.12
510.536	84.12
510.752	93.12
510.968	87.12
511.184	88.12
511.401	64.12
511.617	85.12
511.833	87.12
512.049	83.12
512.265	81.12
512.481	77.12
512.698	84.12
512.914	82.12
513.13	84.12
513.346	87.12
513.562	71.12
513.778	82.12
513.994	90.12
514.21	84.12
514.426	85.12
514.642	76.12
514.858	90.12
515.074	91.12
515.29	82.12
515.506	79.12
515.721	76.12
515.937	76.12
516.153	77.12
516.369	93.12
516.585	76.12
516.801	86.12
517.016	83.12
517.232	73.12
517.448	90.12
517.664	92.12
517.879	83.12
518.095	80.12
518.311	84.12
518.527	91.12
518.742	72.12
518.958	80.12
519.173	96.12
519.389	71.12
519.605	74.12
