Data from StdB_HRD10591_085.txt Node
Date: Fri May 16 15:25:28 EDT 2025
User: Yrep
Spectrometer: HR+D1059
Trigger mode: 1
Integration Time (sec): 1.000000E-1
Scans to average: 1
Electric dark correction enabled: true
Nonlinearity correction enabled: false
Boxcar width: 0
XAxis mode: Wavelengths
Number of Pixels in Spectrum: 2048
>>>>>Begin Spectral Data<<<<<
223.165	-19.81
223.4	-19.81
223.635	-19.81
223.869	-24.81
224.104	-11.81
224.338	-15.81
224.573	-18.81
224.808	-8.81
225.042	-6.81
225.277	-10.81
225.511	9.19
225.746	7.19
225.98	1.19
226.215	15.19
226.449	14.19
226.683	19.19
226.918	17.19
227.152	34.19
227.387	33.19
227.621	34.19
227.856	54.19
228.09	51.19
228.324	49.19
228.559	74.19
228.793	60.19
229.027	60.19
229.262	72.19
229.496	62.19
229.73	67.19
229.964	72.19
230.199	70.19
230.433	93.19
230.667	83.19
230.901	77.19
231.136	80.19
231.37	69.19
231.604	85.19
231.838	86.19
232.072	102.19
232.306	94.19
232.541	82.19
232.775	92.19
233.009	87.19
233.243	86.19
233.477	94.19
233.711	82.19
233.945	84.19
234.179	91.19
234.413	81.19
234.647	98.19
234.881	83.19
235.115	87.19
235.349	79.19
235.583	77.19
235.817	82.19
236.051	77.19
236.285	72.19
236.519	81.19
236.753	78.19
236.987	79.19
237.221	81.19
237.455	91.19
237.689	81.19
237.922	68.19
238.156	75.19
238.39	81.19
238.624	87.19
238.858	74.19
239.091	87.19
239.325	74.19
239.559	73.19
239.793	91.19
240.027	87.19
240.26	75.19
240.494	80.19
240.728	100.19
240.961	79.19
241.195	70.19
241.429	85.19
241.662	78.19
241.896	81.19
242.13	84.19
242.363	87.19
242.597	75.19
242.83	81.19
243.064	82.19
243.298	65.19
243.531	71.19
243.765	80.19
243.998	73.19
244.232	85.19
244.465	85.19
244.699	78.19
244.932	76.19
245.166	63.19
245.399	78.19
245.633	96.19
245.866	83.19
246.099	70.19
246.333	84.19
246.566	81.19
246.8	88.19
247.033	83.19
247.266	79.19
247.5	84.19
247.733	73.19
247.966	81.19
248.2	89.19
248.433	84.19
248.666	87.19
248.899	103.19
249.133	75.19
249.366	73.19
249.599	89.19
249.832	93.19
250.066	95.19
250.299	80.19
250.532	74.19
250.765	84.19
250.998	76.19
251.231	83.19
251.465	75.19
251.698	80.19
251.931	94.19
252.164	85.19
252.397	73.19
252.63	87.19
252.863	91.19
253.096	82.19
253.329	92.19
253.562	87.19
253.795	84.19
254.028	75.19
254.261	85.19
254.494	76.19
254.727	91.19
254.96	79.19
255.193	77.19
255.426	85.19
255.659	85.19
255.892	82.19
256.124	87.19
256.357	91.19
256.59	101.19
256.823	91.19
257.056	96.19
257.289	80.19
257.521	65.19
257.754	89.19
257.987	85.19
258.22	96.19
258.452	73.19
258.685	79.19
258.918	81.19
259.151	81.19
259.383	85.19
259.616	85.19
259.849	78.19
260.081	86.19
260.314	62.19
260.547	91.19
260.779	79.19
261.012	92.19
261.244	93.19
261.477	99.19
261.71	107.19
261.942	105.19
262.175	87.19
262.407	95.19
262.64	68.19
262.872	88.19
263.105	86.19
263.337	106.19
263.57	88.19
263.802	84.19
264.035	84.19
264.267	86.19
264.499	90.19
264.732	79.19
264.964	88.19
265.197	83.19
265.429	88.19
265.661	94.19
265.894	86.19
266.126	84.19
266.358	92.19
266.591	82.19
266.823	75.19
267.055	81.19
267.287	89.19
267.52	91.19
267.752	87.19
267.984	79.19
268.216	87.19
268.448	91.19
268.681	91.19
268.913	74.19
269.145	87.19
269.377	84.19
269.609	74.19
269.841	93.19
270.073	91.19
270.306	80.19
270.538	85.19
270.77	93.19
271.002	79.19
271.234	75.19
271.466	87.19
271.698	86.19
271.93	94.19
272.162	93.19
272.394	76.19
272.626	67.19
272.858	79.19
273.09	79.19
273.322	91.19
273.553	98.19
273.785	93.19
274.017	79.19
274.249	103.19
274.481	82.19
274.713	82.19
274.945	77.19
275.176	85.19
275.408	84.19
275.64	76.19
275.872	95.19
276.104	71.19
276.335	91.19
276.567	89.19
276.799	85.19
277.031	87.19
277.262	86.19
277.494	94.19
277.726	89.19
277.957	95.19
278.189	88.19
278.421	80.19
278.652	81.19
278.884	85.19
279.115	83.19
279.347	91.19
279.579	84.19
279.81	88.19
280.042	92.19
280.273	103.19
280.505	113.19
280.736	100.19
280.968	91.19
281.199	101.19
281.431	93.19
281.662	84.19
281.894	86.19
282.125	79.19
282.356	100.19
282.588	96.19
282.819	80.19
283.051	101.19
283.282	108.19
283.513	104.19
283.745	84.19
283.976	91.19
284.207	87.19
284.439	93.19
284.67	97.19
284.901	84.19
285.132	84.19
285.364	83.19
285.595	90.19
285.826	85.19
286.057	91.19
286.288	78.19
286.52	92.19
286.751	93.19
286.982	92.19
287.213	89.19
287.444	105.19
287.675	104.19
287.906	106.19
288.138	88.19
288.369	99.19
288.6	82.19
288.831	74.19
289.062	98.19
289.293	93.19
289.524	85.19
289.755	94.19
289.986	78.19
290.217	90.19
290.448	80.19
290.679	89.19
290.91	92.19
291.141	96.19
291.371	93.19
291.602	95.19
291.833	91.19
292.064	84.19
292.295	96.19
292.526	99.19
292.757	70.19
292.987	90.19
293.218	88.19
293.449	100.19
293.68	83.19
293.91	87.19
294.141	82.19
294.372	92.19
294.603	76.19
294.833	80.19
295.064	82.19
295.295	94.19
295.525	88.19
295.756	81.19
295.987	69.19
296.217	85.19
296.448	88.19
296.679	95.19
296.909	93.19
297.14	90.19
297.37	95.19
297.601	74.19
297.831	89.19
298.062	98.19
298.292	84.19
298.523	96.19
298.753	87.19
298.984	83.19
299.214	103.19
299.445	77.19
299.675	88.19
299.905	89.19
300.136	87.19
300.366	81.19
300.597	91.19
300.827	89.19
301.057	88.19
301.288	81.19
301.518	87.19
301.748	90.19
301.979	101.19
302.209	79.19
302.439	91.19
302.669	85.19
302.9	84.19
303.13	99.19
303.36	81.19
303.59	80.19
303.82	85.19
304.051	88.19
304.281	91.19
304.511	91.19
304.741	86.19
304.971	85.19
305.201	86.19
305.431	93.19
305.661	89.19
305.891	83.19
306.121	91.19
306.352	82.19
306.582	100.19
306.812	97.19
307.042	90.19
307.272	81.19
307.502	95.19
307.731	88.19
307.961	85.19
308.191	84.19
308.421	93.19
308.651	69.19
308.881	72.19
309.111	97.19
309.341	88.19
309.571	88.19
309.8	87.19
310.03	88.19
310.26	84.19
310.49	85.19
310.72	85.19
310.949	83.19
311.179	78.19
311.409	84.19
311.639	80.19
311.868	86.19
312.098	72.19
312.328	87.19
312.557	80.19
312.787	97.19
313.017	81.19
313.246	80.19
313.476	83.19
313.706	94.19
313.935	87.19
314.165	82.19
314.394	91.19
314.624	97.19
314.853	92.19
315.083	83.19
315.312	93.19
315.542	86.19
315.771	86.19
316.001	87.19
316.23	67.19
316.46	75.19
316.689	81.19
316.919	105.19
317.148	84.19
317.377	92.19
317.607	91.19
317.836	95.19
318.065	77.19
318.295	80.19
318.524	97.19
318.753	89.19
318.983	87.19
319.212	87.19
319.441	83.19
319.67	87.19
319.9	79.19
320.129	97.19
320.358	85.19
320.587	75.19
320.816	87.19
321.046	82.19
321.275	97.19
321.504	76.19
321.733	95.19
321.962	80.19
322.191	74.19
322.42	83.19
322.649	92.19
322.878	83.19
323.108	91.19
323.337	77.19
323.566	84.19
323.795	83.19
324.024	97.19
324.253	84.19
324.482	77.19
324.71	102.19
324.939	104.19
325.168	85.19
325.397	77.19
325.626	90.19
325.855	111.19
326.084	91.19
326.313	95.19
326.542	81.19
326.77	79.19
326.999	89.19
327.228	78.19
327.457	77.19
327.686	101.19
327.914	83.19
328.143	79.19
328.372	76.19
328.6	87.19
328.829	67.19
329.058	90.19
329.287	94.19
329.515	89.19
329.744	105.19
329.972	93.19
330.201	94.19
330.43	79.19
330.658	82.19
330.887	84.19
331.115	88.19
331.344	92.19
331.572	90.19
331.801	81.19
332.03	101.19
332.258	70.19
332.486	92.19
332.715	90.19
332.943	86.19
333.172	80.19
333.4	98.19
333.629	99.19
333.857	87.19
334.085	89.19
334.314	77.19
334.542	101.19
334.771	99.19
334.999	71.19
335.227	90.19
335.455	88.19
335.684	99.19
335.912	89.19
336.14	88.19
336.369	75.19
336.597	86.19
336.825	97.19
337.053	77.19
337.281	81.19
337.51	74.19
337.738	96.19
337.966	84.19
338.194	100.19
338.422	105.19
338.65	96.19
338.878	90.19
339.106	80.19
339.334	97.19
339.562	90.19
339.79	80.19
340.018	75.19
340.246	87.19
340.474	95.19
340.702	90.19
340.93	78.19
341.158	91.19
341.386	91.19
341.614	93.19
341.842	87.19
342.07	99.19
342.298	89.19
342.526	86.19
342.754	91.19
342.981	95.19
343.209	95.19
343.437	95.19
343.665	86.19
343.893	82.19
344.12	99.19
344.348	86.19
344.576	79.19
344.804	88.19
345.031	85.19
345.259	89.19
345.487	91.19
345.714	90.19
345.942	92.19
346.17	83.19
346.397	79.19
346.625	84.19
346.853	81.19
347.08	71.19
347.308	87.19
347.535	89.19
347.763	90.19
347.99	92.19
348.218	89.19
348.445	96.19
348.673	81.19
348.9	84.19
349.128	89.19
349.355	104.19
349.583	107.19
349.81	94.19
350.037	83.19
350.265	96.19
350.492	78.19
350.72	89.19
350.947	67.19
351.174	81.19
351.402	76.19
351.629	94.19
351.856	88.19
352.083	85.19
352.311	96.19
352.538	88.19
352.765	91.19
352.992	95.19
353.22	80.19
353.447	87.19
353.674	91.19
353.901	90.19
354.128	95.19
354.355	91.19
354.583	95.19
354.81	89.19
355.037	103.19
355.264	100.19
355.491	84.19
355.718	77.19
355.945	88.19
356.172	84.19
356.399	85.19
356.626	103.19
356.853	100.19
357.08	109.19
357.307	135.19
357.534	107.19
357.761	95.19
357.988	93.19
358.215	90.19
358.441	85.19
358.668	79.19
358.895	69.19
359.122	87.19
359.349	93.19
359.576	80.19
359.802	76.19
360.029	93.19
360.256	85.19
360.483	72.19
360.709	94.19
360.936	99.19
361.163	82.19
361.39	84.19
361.616	93.19
361.843	95.19
362.07	102.19
362.296	94.19
362.523	89.19
362.749	87.19
362.976	79.19
363.203	100.19
363.429	89.19
363.656	120.19
363.882	154.19
364.109	152.19
364.335	107.19
364.562	101.19
364.788	92.19
365.015	98.19
365.241	83.19
365.468	91.19
365.694	96.19
365.92	93.19
366.147	75.19
366.373	94.19
366.599	88.19
366.826	92.19
367.052	118.19
367.278	111.19
367.505	121.19
367.731	107.19
367.957	128.19
368.184	159.19
368.41	198.19
368.636	163.19
368.862	96.19
369.089	87.19
369.315	92.19
369.541	105.19
369.767	83.19
369.993	97.19
370.219	92.19
370.445	96.19
370.672	92.19
370.898	93.19
371.124	93.19
371.35	74.19
371.576	83.19
371.802	88.19
372.028	83.19
372.254	83.19
372.48	91.19
372.706	80.19
372.932	97.19
373.158	99.19
373.384	92.19
373.61	121.19
373.835	133.19
374.061	127.19
374.287	123.19
374.513	84.19
374.739	87.19
374.965	79.19
375.191	82.19
375.416	88.19
375.642	92.19
375.868	85.19
376.094	87.19
376.319	95.19
376.545	77.19
376.771	88.19
376.997	68.19
377.222	71.19
377.448	85.19
377.674	78.19
377.899	85.19
378.125	79.19
378.35	83.19
378.576	85.19
378.802	75.19
379.027	74.19
379.253	87.19
379.478	75.19
379.704	94.19
379.929	83.19
380.155	83.19
380.38	88.19
380.606	88.19
380.831	80.19
381.057	82.19
381.282	91.19
381.507	89.19
381.733	93.19
381.958	84.19
382.184	83.19
382.409	88.19
382.634	98.19
382.86	87.19
383.085	73.19
383.31	91.19
383.535	92.19
383.761	95.19
383.986	99.19
384.211	80.19
384.436	79.19
384.662	98.19
384.887	89.19
385.112	93.19
385.337	76.19
385.562	89.19
385.787	80.19
386.013	98.19
386.238	89.19
386.463	74.19
386.688	101.19
386.913	78.19
387.138	104.19
387.363	81.19
387.588	96.19
387.813	85.19
388.038	90.19
388.263	94.19
388.488	97.19
388.713	91.19
388.938	84.19
389.163	84.19
389.387	77.19
389.612	111.19
389.837	89.19
390.062	91.19
390.287	77.19
390.512	89.19
390.736	90.19
390.961	91.19
391.186	99.19
391.411	75.19
391.636	81.19
391.86	107.19
392.085	98.19
392.31	79.19
392.534	93.19
392.759	76.19
392.984	92.19
393.208	73.19
393.433	83.19
393.658	77.19
393.882	81.19
394.107	87.19
394.331	82.19
394.556	83.19
394.78	83.19
395.005	81.19
395.229	84.19
395.454	85.19
395.678	77.19
395.903	84.19
396.127	83.19
396.352	89.19
396.576	86.19
396.801	89.19
397.025	88.19
397.249	75.19
397.474	89.19
397.698	86.19
397.922	98.19
398.147	95.19
398.371	76.19
398.595	81.19
398.82	87.19
399.044	90.19
399.268	91.19
399.492	80.19
399.717	83.19
399.941	102.19
400.165	89.19
400.389	76.19
400.613	81.19
400.837	76.19
401.062	65.19
401.286	83.19
401.51	84.19
401.734	100.19
401.958	94.19
402.182	111.19
402.406	88.19
402.63	73.19
402.854	83.19
403.078	79.19
403.302	70.19
403.526	90.19
403.75	83.19
403.974	92.19
404.198	97.19
404.422	84.19
404.645	84.19
404.869	95.19
405.093	85.19
405.317	120.19
405.541	191.19
405.765	280.19
405.988	314.19
406.212	175.19
406.436	132.19
406.66	105.19
406.883	91.19
407.107	87.19
407.331	89.19
407.555	80.19
407.778	90.19
408.002	108.19
408.226	95.19
408.449	85.19
408.673	84.19
408.896	96.19
409.12	77.19
409.344	85.19
409.567	74.19
409.791	80.19
410.014	88.19
410.238	95.19
410.461	80.19
410.685	91.19
410.908	89.19
411.132	81.19
411.355	77.19
411.578	89.19
411.802	80.19
412.025	95.19
412.249	93.19
412.472	81.19
412.695	88.19
412.919	99.19
413.142	55.19
413.365	91.19
413.589	89.19
413.812	79.19
414.035	101.19
414.258	82.19
414.482	93.19
414.705	88.19
414.928	89.19
415.151	85.19
415.374	96.19
415.597	85.19
415.821	97.19
416.044	70.19
416.267	89.19
416.49	80.19
416.713	78.19
416.936	90.19
417.159	79.19
417.382	93.19
417.605	83.19
417.828	87.19
418.051	88.19
418.274	80.19
418.497	89.19
418.72	84.19
418.943	88.19
419.166	78.19
419.389	85.19
419.611	85.19
419.834	80.19
420.057	77.19
420.28	75.19
420.503	72.19
420.726	94.19
420.948	89.19
421.171	88.19
421.394	89.19
421.617	76.19
421.839	92.19
422.062	81.19
422.285	94.19
422.507	79.19
422.73	85.19
422.953	84.19
423.175	83.19
423.398	80.19
423.621	81.19
423.843	84.19
424.066	83.19
424.288	73.19
424.511	91.19
424.733	93.19
424.956	73.19
425.178	82.19
425.401	85.19
425.623	85.19
425.846	90.19
426.068	97.19
426.291	94.19
426.513	84.19
426.735	75.19
426.958	77.19
427.18	68.19
427.402	76.19
427.625	78.19
427.847	84.19
428.069	89.19
428.292	80.19
428.514	96.19
428.736	83.19
428.958	75.19
429.181	68.19
429.403	78.19
429.625	90.19
429.847	87.19
430.069	77.19
430.292	103.19
430.514	85.19
430.736	86.19
430.958	81.19
431.18	79.19
431.402	91.19
431.624	81.19
431.846	73.19
432.068	73.19
432.29	81.19
432.512	106.19
432.734	79.19
432.956	87.19
433.178	80.19
433.4	80.19
433.622	83.19
433.844	87.19
434.066	77.19
434.287	82.19
434.509	82.19
434.731	75.19
434.953	79.19
435.175	80.19
435.397	91.19
435.618	71.19
435.84	84.19
436.062	82.19
436.284	94.19
436.505	94.19
436.727	65.19
436.949	107.19
437.17	85.19
437.392	75.19
437.614	93.19
437.835	96.19
438.057	82.19
438.278	81.19
438.5	79.19
438.721	81.19
438.943	81.19
439.165	80.19
439.386	85.19
439.608	93.19
439.829	93.19
440.05	90.19
440.272	84.19
440.493	82.19
440.715	87.19
440.936	89.19
441.158	91.19
441.379	79.19
441.6	95.19
441.822	96.19
442.043	80.19
442.264	81.19
442.486	81.19
442.707	72.19
442.928	87.19
443.149	88.19
443.371	90.19
443.592	82.19
443.813	84.19
444.034	82.19
444.255	79.19
444.476	91.19
444.698	79.19
444.919	102.19
445.14	154.19
445.361	125.19
445.582	87.19
445.803	89.19
446.024	82.19
446.245	85.19
446.466	86.19
446.687	83.19
446.908	73.19
447.129	80.19
447.35	80.19
447.571	85.19
447.792	88.19
448.013	87.19
448.234	77.19
448.455	84.19
448.675	96.19
448.896	87.19
449.117	73.19
449.338	92.19
449.559	101.19
449.779	84.19
450	91.19
450.221	84.19
450.442	83.19
450.662	79.19
450.883	76.19
451.104	77.19
451.324	96.19
451.545	94.19
451.766	78.19
451.986	81.19
452.207	85.19
452.428	96.19
452.648	81.19
452.869	90.19
453.089	93.19
453.31	77.19
453.53	75.19
453.751	84.19
453.971	87.19
454.192	81.19
454.412	91.19
454.633	83.19
454.853	91.19
455.073	83.19
455.294	95.19
455.514	96.19
455.734	92.19
455.955	83.19
456.175	64.19
456.395	79.19
456.616	79.19
456.836	85.19
457.056	91.19
457.276	84.19
457.497	87.19
457.717	77.19
457.937	83.19
458.157	65.19
458.377	81.19
458.598	78.19
458.818	92.19
459.038	85.19
459.258	74.19
459.478	85.19
459.698	87.19
459.918	94.19
460.138	79.19
460.358	85.19
460.578	84.19
460.798	83.19
461.018	86.19
461.238	81.19
461.458	84.19
461.678	89.19
461.898	93.19
462.118	68.19
462.338	73.19
462.558	89.19
462.777	98.19
462.997	81.19
463.217	89.19
463.437	92.19
463.657	90.19
463.876	84.19
464.096	86.19
464.316	84.19
464.536	75.19
464.755	88.19
464.975	78.19
465.195	80.19
465.414	92.19
465.634	85.19
465.854	96.19
466.073	88.19
466.293	94.19
466.512	91.19
466.732	75.19
466.951	93.19
467.171	93.19
467.391	104.19
467.61	73.19
467.829	71.19
468.049	88.19
468.268	90.19
468.488	81.19
468.707	79.19
468.927	96.19
469.146	85.19
469.365	82.19
469.585	87.19
469.804	87.19
470.023	65.19
470.243	95.19
470.462	81.19
470.681	106.19
470.901	83.19
471.12	82.19
471.339	87.19
471.558	79.19
471.777	80.19
471.997	91.19
472.216	73.19
472.435	81.19
472.654	84.19
472.873	96.19
473.092	85.19
473.311	100.19
473.53	80.19
473.749	84.19
473.968	83.19
474.187	85.19
474.406	90.19
474.625	90.19
474.844	85.19
475.063	84.19
475.282	92.19
475.501	95.19
475.72	95.19
475.939	82.19
476.158	82.19
476.377	75.19
476.596	87.19
476.814	77.19
477.033	78.19
477.252	78.19
477.471	82.19
477.69	86.19
477.908	77.19
478.127	91.19
478.346	86.19
478.564	75.19
478.783	88.19
479.002	79.19
479.22	81.19
479.439	90.19
479.658	75.19
479.876	80.19
480.095	83.19
480.313	74.19
480.532	85.19
480.751	86.19
480.969	96.19
481.188	91.19
481.406	81.19
481.624	90.19
481.843	83.19
482.061	85.19
482.28	77.19
482.498	90.19
482.717	110.19
482.935	86.19
483.153	101.19
483.372	87.19
483.59	96.19
483.808	80.19
484.027	67.19
484.245	91.19
484.463	88.19
484.681	83.19
484.9	69.19
485.118	78.19
485.336	81.19
485.554	85.19
485.772	88.19
485.99	82.19
486.209	95.19
486.427	84.19
486.645	85.19
486.863	92.19
487.081	77.19
487.299	90.19
487.517	86.19
487.735	81.19
487.953	97.19
488.171	95.19
488.389	82.19
488.607	78.19
488.825	77.19
489.043	96.19
489.261	85.19
489.479	79.19
489.696	81.19
489.914	105.19
490.132	95.19
490.35	98.19
490.568	92.19
490.786	91.19
491.003	85.19
491.221	95.19
491.439	113.19
491.657	85.19
491.874	77.19
492.092	78.19
492.31	93.19
492.527	97.19
492.745	89.19
492.963	85.19
493.18	87.19
493.398	109.19
493.615	94.19
493.833	81.19
494.05	89.19
494.268	88.19
494.485	92.19
494.703	95.19
494.92	82.19
495.138	96.19
495.355	87.19
495.573	84.19
495.79	82.19
496.008	96.19
496.225	96.19
496.442	90.19
496.66	87.19
496.877	76.19
497.094	94.19
497.312	88.19
497.529	84.19
497.746	72.19
497.963	94.19
498.181	89.19
498.398	93.19
498.615	96.19
498.832	87.19
499.049	83.19
499.267	73.19
499.484	75.19
499.701	87.19
499.918	97.19
500.135	81.19
500.352	111.19
500.569	110.19
500.786	124.19
501.003	111.19
501.22	97.19
501.437	95.19
501.654	96.19
501.871	87.19
502.088	86.19
502.305	78.19
502.522	81.19
502.739	83.19
502.956	87.19
503.172	91.19
503.389	93.19
503.606	97.19
503.823	79.19
504.04	100.19
504.256	106.19
504.473	86.19
504.69	92.19
504.907	88.19
505.123	89.19
505.34	78.19
505.557	87.19
505.773	105.19
505.99	95.19
506.207	88.19
506.423	91.19
506.64	78.19
506.856	91.19
507.073	85.19
507.289	84.19
507.506	84.19
507.722	89.19
507.939	80.19
508.155	100.19
508.372	86.19
508.588	73.19
508.805	87.19
509.021	88.19
509.238	79.19
509.454	99.19
509.67	83.19
509.887	89.19
510.103	93.19
510.319	90.19
510.536	92.19
510.752	79.19
510.968	96.19
511.184	77.19
511.401	71.19
511.617	75.19
511.833	83.19
512.049	78.19
512.265	66.19
512.481	97.19
512.698	88.19
512.914	88.19
513.13	81.19
513.346	87.19
513.562	94.19
513.778	70.19
513.994	83.19
514.21	80.19
514.426	91.19
514.642	92.19
514.858	75.19
515.074	81.19
515.29	87.19
515.506	90.19
515.721	92.19
515.937	87.19
516.153	92.19
516.369	95.19
516.585	101.19
516.801	79.19
517.016	92.19
517.232	87.19
517.448	84.19
517.664	81.19
517.879	72.19
518.095	76.19
518.311	94.19
518.527	99.19
518.742	87.19
518.958	96.19
