Data from StdB_HRD10591_084.txt Node
Date: Fri May 16 15:25:28 EDT 2025
User: Yrep
Spectrometer: HR+D1059
Trigger mode: 1
Integration Time (sec): 1.000000E-1
Scans to average: 1
Electric dark correction enabled: true
Nonlinearity correction enabled: false
Boxcar width: 0
XAxis mode: Wavelengths
Number of Pixels in Spectrum: 2048
>>>>>Begin Spectral Data<<<<<
223.165	-18.75
223.4	-18.75
223.635	-18.75
223.869	-23.75
224.104	-15.75
224.338	-18.75
224.573	-19.75
224.808	-1.75
225.042	-6.75
225.277	-10.75
225.511	-14.75
225.746	11.25
225.98	16.25
226.215	3.25
226.449	11.25
226.683	19.25
226.918	31.25
227.152	38.25
227.387	28.25
227.621	44.25
227.856	38.25
228.09	32.25
228.324	42.25
228.559	48.25
228.793	50.25
229.027	53.25
229.262	74.25
229.496	66.25
229.73	69.25
229.964	50.25
230.199	72.25
230.433	74.25
230.667	82.25
230.901	55.25
231.136	80.25
231.37	85.25
231.604	84.25
231.838	78.25
232.072	74.25
232.306	77.25
232.541	75.25
232.775	79.25
233.009	90.25
233.243	77.25
233.477	67.25
233.711	72.25
233.945	80.25
234.179	71.25
234.413	73.25
234.647	78.25
234.881	70.25
235.115	84.25
235.349	59.25
235.583	69.25
235.817	69.25
236.051	65.25
236.285	74.25
236.519	66.25
236.753	84.25
236.987	69.25
237.221	77.25
237.455	75.25
237.689	69.25
237.922	66.25
238.156	63.25
238.39	79.25
238.624	85.25
238.858	74.25
239.091	75.25
239.325	77.25
239.559	83.25
239.793	75.25
240.027	83.25
240.26	72.25
240.494	76.25
240.728	68.25
240.961	62.25
241.195	77.25
241.429	59.25
241.662	82.25
241.896	70.25
242.13	92.25
242.363	68.25
242.597	76.25
242.83	82.25
243.064	66.25
243.298	84.25
243.531	84.25
243.765	82.25
243.998	74.25
244.232	71.25
244.465	69.25
244.699	82.25
244.932	78.25
245.166	72.25
245.399	73.25
245.633	73.25
245.866	73.25
246.099	74.25
246.333	74.25
246.566	56.25
246.8	72.25
247.033	76.25
247.266	61.25
247.5	70.25
247.733	68.25
247.966	73.25
248.2	71.25
248.433	68.25
248.666	78.25
248.899	75.25
249.133	71.25
249.366	77.25
249.599	81.25
249.832	74.25
250.066	77.25
250.299	76.25
250.532	61.25
250.765	64.25
250.998	80.25
251.231	73.25
251.465	76.25
251.698	79.25
251.931	82.25
252.164	74.25
252.397	70.25
252.63	86.25
252.863	77.25
253.096	78.25
253.329	71.25
253.562	83.25
253.795	82.25
254.028	86.25
254.261	88.25
254.494	79.25
254.727	69.25
254.96	79.25
255.193	79.25
255.426	75.25
255.659	73.25
255.892	78.25
256.124	71.25
256.357	67.25
256.59	68.25
256.823	89.25
257.056	78.25
257.289	83.25
257.521	66.25
257.754	85.25
257.987	101.25
258.22	73.25
258.452	82.25
258.685	79.25
258.918	83.25
259.151	85.25
259.383	79.25
259.616	85.25
259.849	65.25
260.081	92.25
260.314	81.25
260.547	78.25
260.779	82.25
261.012	74.25
261.244	83.25
261.477	86.25
261.71	84.25
261.942	77.25
262.175	81.25
262.407	84.25
262.64	77.25
262.872	65.25
263.105	67.25
263.337	76.25
263.57	80.25
263.802	85.25
264.035	90.25
264.267	83.25
264.499	63.25
264.732	84.25
264.964	73.25
265.197	82.25
265.429	73.25
265.661	71.25
265.894	75.25
266.126	81.25
266.358	86.25
266.591	83.25
266.823	78.25
267.055	80.25
267.287	59.25
267.52	57.25
267.752	91.25
267.984	83.25
268.216	70.25
268.448	92.25
268.681	94.25
268.913	69.25
269.145	76.25
269.377	75.25
269.609	82.25
269.841	78.25
270.073	72.25
270.306	73.25
270.538	81.25
270.77	85.25
271.002	81.25
271.234	86.25
271.466	84.25
271.698	69.25
271.93	62.25
272.162	78.25
272.394	81.25
272.626	84.25
272.858	77.25
273.09	81.25
273.322	87.25
273.553	76.25
273.785	86.25
274.017	84.25
274.249	83.25
274.481	81.25
274.713	73.25
274.945	82.25
275.176	79.25
275.408	80.25
275.64	64.25
275.872	64.25
276.104	85.25
276.335	87.25
276.567	81.25
276.799	75.25
277.031	73.25
277.262	83.25
277.494	78.25
277.726	82.25
277.957	71.25
278.189	63.25
278.421	83.25
278.652	77.25
278.884	76.25
279.115	89.25
279.347	87.25
279.579	97.25
279.81	90.25
280.042	89.25
280.273	98.25
280.505	93.25
280.736	77.25
280.968	92.25
281.199	80.25
281.431	90.25
281.662	86.25
281.894	67.25
282.125	82.25
282.356	89.25
282.588	86.25
282.819	73.25
283.051	90.25
283.282	84.25
283.513	92.25
283.745	108.25
283.976	92.25
284.207	67.25
284.439	86.25
284.67	83.25
284.901	92.25
285.132	90.25
285.364	76.25
285.595	65.25
285.826	92.25
286.057	84.25
286.288	71.25
286.52	85.25
286.751	73.25
286.982	75.25
287.213	80.25
287.444	91.25
287.675	91.25
287.906	86.25
288.138	74.25
288.369	79.25
288.6	78.25
288.831	86.25
289.062	82.25
289.293	75.25
289.524	72.25
289.755	91.25
289.986	78.25
290.217	65.25
290.448	74.25
290.679	88.25
290.91	97.25
291.141	69.25
291.371	71.25
291.602	94.25
291.833	84.25
292.064	84.25
292.295	85.25
292.526	60.25
292.757	79.25
292.987	90.25
293.218	75.25
293.449	83.25
293.68	88.25
293.91	68.25
294.141	74.25
294.372	83.25
294.603	84.25
294.833	88.25
295.064	81.25
295.295	77.25
295.525	74.25
295.756	81.25
295.987	81.25
296.217	78.25
296.448	89.25
296.679	82.25
296.909	72.25
297.14	66.25
297.37	80.25
297.601	80.25
297.831	83.25
298.062	77.25
298.292	86.25
298.523	84.25
298.753	69.25
298.984	83.25
299.214	60.25
299.445	83.25
299.675	93.25
299.905	80.25
300.136	71.25
300.366	77.25
300.597	85.25
300.827	76.25
301.057	82.25
301.288	75.25
301.518	77.25
301.748	76.25
301.979	84.25
302.209	72.25
302.439	76.25
302.669	75.25
302.9	68.25
303.13	74.25
303.36	93.25
303.59	82.25
303.82	82.25
304.051	78.25
304.281	84.25
304.511	89.25
304.741	83.25
304.971	77.25
305.201	74.25
305.431	62.25
305.661	76.25
305.891	72.25
306.121	80.25
306.352	78.25
306.582	72.25
306.812	94.25
307.042	74.25
307.272	78.25
307.502	80.25
307.731	83.25
307.961	80.25
308.191	67.25
308.421	66.25
308.651	68.25
308.881	80.25
309.111	79.25
309.341	76.25
309.571	91.25
309.8	76.25
310.03	78.25
310.26	80.25
310.49	77.25
310.72	91.25
310.949	73.25
311.179	74.25
311.409	74.25
311.639	72.25
311.868	87.25
312.098	73.25
312.328	78.25
312.557	80.25
312.787	74.25
313.017	84.25
313.246	69.25
313.476	78.25
313.706	83.25
313.935	77.25
314.165	64.25
314.394	93.25
314.624	76.25
314.853	73.25
315.083	89.25
315.312	79.25
315.542	81.25
315.771	77.25
316.001	82.25
316.23	84.25
316.46	86.25
316.689	69.25
316.919	77.25
317.148	77.25
317.377	80.25
317.607	72.25
317.836	89.25
318.065	78.25
318.295	88.25
318.524	87.25
318.753	89.25
318.983	85.25
319.212	82.25
319.441	76.25
319.67	69.25
319.9	71.25
320.129	86.25
320.358	74.25
320.587	87.25
320.816	80.25
321.046	80.25
321.275	73.25
321.504	78.25
321.733	83.25
321.962	96.25
322.191	82.25
322.42	82.25
322.649	94.25
322.878	76.25
323.108	82.25
323.337	80.25
323.566	81.25
323.795	74.25
324.024	96.25
324.253	70.25
324.482	88.25
324.71	85.25
324.939	85.25
325.168	65.25
325.397	83.25
325.626	93.25
325.855	82.25
326.084	84.25
326.313	80.25
326.542	86.25
326.77	83.25
326.999	96.25
327.228	82.25
327.457	76.25
327.686	87.25
327.914	88.25
328.143	86.25
328.372	97.25
328.6	69.25
328.829	85.25
329.058	72.25
329.287	86.25
329.515	90.25
329.744	81.25
329.972	78.25
330.201	82.25
330.43	74.25
330.658	78.25
330.887	79.25
331.115	80.25
331.344	71.25
331.572	79.25
331.801	81.25
332.03	76.25
332.258	75.25
332.486	72.25
332.715	86.25
332.943	72.25
333.172	92.25
333.4	77.25
333.629	89.25
333.857	80.25
334.085	77.25
334.314	75.25
334.542	80.25
334.771	68.25
334.999	67.25
335.227	82.25
335.455	62.25
335.684	83.25
335.912	92.25
336.14	71.25
336.369	93.25
336.597	86.25
336.825	89.25
337.053	72.25
337.281	74.25
337.51	82.25
337.738	81.25
337.966	75.25
338.194	62.25
338.422	82.25
338.65	80.25
338.878	76.25
339.106	88.25
339.334	77.25
339.562	70.25
339.79	76.25
340.018	70.25
340.246	78.25
340.474	69.25
340.702	78.25
340.93	79.25
341.158	76.25
341.386	57.25
341.614	76.25
341.842	82.25
342.07	96.25
342.298	75.25
342.526	91.25
342.754	92.25
342.981	86.25
343.209	75.25
343.437	90.25
343.665	80.25
343.893	81.25
344.12	80.25
344.348	85.25
344.576	72.25
344.804	74.25
345.031	62.25
345.259	70.25
345.487	70.25
345.714	77.25
345.942	85.25
346.17	76.25
346.397	75.25
346.625	72.25
346.853	86.25
347.08	63.25
347.308	66.25
347.535	69.25
347.763	67.25
347.99	84.25
348.218	80.25
348.445	77.25
348.673	85.25
348.9	73.25
349.128	78.25
349.355	86.25
349.583	94.25
349.81	77.25
350.037	67.25
350.265	96.25
350.492	64.25
350.72	93.25
350.947	71.25
351.174	82.25
351.402	77.25
351.629	88.25
351.856	75.25
352.083	80.25
352.311	91.25
352.538	85.25
352.765	72.25
352.992	78.25
353.22	76.25
353.447	80.25
353.674	92.25
353.901	75.25
354.128	86.25
354.355	73.25
354.583	72.25
354.81	85.25
355.037	93.25
355.264	78.25
355.491	84.25
355.718	94.25
355.945	82.25
356.172	77.25
356.399	69.25
356.626	91.25
356.853	85.25
357.08	113.25
357.307	130.25
357.534	125.25
357.761	81.25
357.988	66.25
358.215	79.25
358.441	78.25
358.668	86.25
358.895	87.25
359.122	72.25
359.349	73.25
359.576	81.25
359.802	70.25
360.029	68.25
360.256	77.25
360.483	72.25
360.709	57.25
360.936	82.25
361.163	84.25
361.39	66.25
361.616	73.25
361.843	86.25
362.07	68.25
362.296	68.25
362.523	74.25
362.749	78.25
362.976	74.25
363.203	95.25
363.429	66.25
363.656	128.25
363.882	174.25
364.109	164.25
364.335	109.25
364.562	92.25
364.788	73.25
365.015	92.25
365.241	80.25
365.468	84.25
365.694	72.25
365.92	82.25
366.147	77.25
366.373	84.25
366.599	96.25
366.826	96.25
367.052	82.25
367.278	124.25
367.505	108.25
367.731	103.25
367.957	118.25
368.184	153.25
368.41	212.25
368.636	185.25
368.862	91.25
369.089	97.25
369.315	72.25
369.541	93.25
369.767	66.25
369.993	69.25
370.219	74.25
370.445	81.25
370.672	69.25
370.898	65.25
371.124	71.25
371.35	72.25
371.576	69.25
371.802	83.25
372.028	74.25
372.254	69.25
372.48	76.25
372.706	76.25
372.932	70.25
373.158	77.25
373.384	77.25
373.61	91.25
373.835	99.25
374.061	128.25
374.287	109.25
374.513	80.25
374.739	88.25
374.965	73.25
375.191	77.25
375.416	75.25
375.642	81.25
375.868	84.25
376.094	91.25
376.319	70.25
376.545	80.25
376.771	84.25
376.997	70.25
377.222	85.25
377.448	82.25
377.674	77.25
377.899	77.25
378.125	78.25
378.35	94.25
378.576	86.25
378.802	72.25
379.027	72.25
379.253	67.25
379.478	68.25
379.704	80.25
379.929	79.25
380.155	80.25
380.38	80.25
380.606	75.25
380.831	84.25
381.057	92.25
381.282	84.25
381.507	75.25
381.733	87.25
381.958	69.25
382.184	73.25
382.409	90.25
382.634	60.25
382.86	58.25
383.085	73.25
383.31	83.25
383.535	84.25
383.761	85.25
383.986	75.25
384.211	97.25
384.436	84.25
384.662	67.25
384.887	83.25
385.112	79.25
385.337	65.25
385.562	82.25
385.787	68.25
386.013	74.25
386.238	73.25
386.463	72.25
386.688	84.25
386.913	77.25
387.138	77.25
387.363	66.25
387.588	82.25
387.813	67.25
388.038	73.25
388.263	75.25
388.488	80.25
388.713	62.25
388.938	74.25
389.163	86.25
389.387	85.25
389.612	74.25
389.837	82.25
390.062	75.25
390.287	84.25
390.512	85.25
390.736	75.25
390.961	72.25
391.186	74.25
391.411	87.25
391.636	78.25
391.86	68.25
392.085	77.25
392.31	69.25
392.534	78.25
392.759	87.25
392.984	77.25
393.208	66.25
393.433	78.25
393.658	86.25
393.882	91.25
394.107	74.25
394.331	88.25
394.556	84.25
394.78	65.25
395.005	90.25
395.229	74.25
395.454	74.25
395.678	75.25
395.903	88.25
396.127	73.25
396.352	85.25
396.576	84.25
396.801	103.25
397.025	74.25
397.249	75.25
397.474	96.25
397.698	88.25
397.922	77.25
398.147	68.25
398.371	81.25
398.595	78.25
398.82	81.25
399.044	87.25
399.268	89.25
399.492	73.25
399.717	96.25
399.941	75.25
400.165	92.25
400.389	75.25
400.613	92.25
400.837	62.25
401.062	82.25
401.286	82.25
401.51	80.25
401.734	70.25
401.958	103.25
402.182	96.25
402.406	63.25
402.63	70.25
402.854	86.25
403.078	84.25
403.302	83.25
403.526	75.25
403.75	69.25
403.974	66.25
404.198	100.25
404.422	93.25
404.645	82.25
404.869	84.25
405.093	94.25
405.317	108.25
405.541	177.25
405.765	310.25
405.988	338.25
406.212	164.25
406.436	138.25
406.66	105.25
406.883	90.25
407.107	82.25
407.331	77.25
407.555	84.25
407.778	75.25
408.002	87.25
408.226	84.25
408.449	81.25
408.673	87.25
408.896	78.25
409.12	83.25
409.344	85.25
409.567	77.25
409.791	85.25
410.014	72.25
410.238	74.25
410.461	81.25
410.685	66.25
410.908	80.25
411.132	80.25
411.355	81.25
411.578	72.25
411.802	84.25
412.025	80.25
412.249	83.25
412.472	75.25
412.695	71.25
412.919	78.25
413.142	60.25
413.365	73.25
413.589	77.25
413.812	67.25
414.035	81.25
414.258	86.25
414.482	80.25
414.705	66.25
414.928	84.25
415.151	80.25
415.374	96.25
415.597	86.25
415.821	71.25
416.044	80.25
416.267	76.25
416.49	88.25
416.713	81.25
416.936	90.25
417.159	70.25
417.382	69.25
417.605	83.25
417.828	81.25
418.051	83.25
418.274	78.25
418.497	85.25
418.72	63.25
418.943	82.25
419.166	69.25
419.389	84.25
419.611	77.25
419.834	64.25
420.057	73.25
420.28	80.25
420.503	62.25
420.726	74.25
420.948	92.25
421.171	63.25
421.394	86.25
421.617	71.25
421.839	63.25
422.062	73.25
422.285	71.25
422.507	81.25
422.73	78.25
422.953	89.25
423.175	74.25
423.398	83.25
423.621	74.25
423.843	73.25
424.066	80.25
424.288	76.25
424.511	68.25
424.733	75.25
424.956	82.25
425.178	67.25
425.401	82.25
425.623	62.25
425.846	80.25
426.068	68.25
426.291	83.25
426.513	68.25
426.735	76.25
426.958	64.25
427.18	67.25
427.402	72.25
427.625	74.25
427.847	84.25
428.069	86.25
428.292	70.25
428.514	85.25
428.736	63.25
428.958	73.25
429.181	74.25
429.403	80.25
429.625	75.25
429.847	83.25
430.069	73.25
430.292	81.25
430.514	78.25
430.736	71.25
430.958	80.25
431.18	82.25
431.402	84.25
431.624	72.25
431.846	64.25
432.068	81.25
432.29	75.25
432.512	77.25
432.734	88.25
432.956	85.25
433.178	79.25
433.4	67.25
433.622	85.25
433.844	73.25
434.066	76.25
434.287	77.25
434.509	75.25
434.731	74.25
434.953	86.25
435.175	79.25
435.397	80.25
435.618	104.25
435.84	83.25
436.062	86.25
436.284	83.25
436.505	84.25
436.727	83.25
436.949	82.25
437.17	64.25
437.392	71.25
437.614	80.25
437.835	65.25
438.057	81.25
438.278	74.25
438.5	75.25
438.721	82.25
438.943	95.25
439.165	77.25
439.386	72.25
439.608	63.25
439.829	72.25
440.05	82.25
440.272	72.25
440.493	80.25
440.715	83.25
440.936	86.25
441.158	93.25
441.379	69.25
441.6	72.25
441.822	78.25
442.043	72.25
442.264	78.25
442.486	88.25
442.707	71.25
442.928	77.25
443.149	66.25
443.371	70.25
443.592	68.25
443.813	82.25
444.034	66.25
444.255	82.25
444.476	83.25
444.698	77.25
444.919	97.25
445.14	146.25
445.361	114.25
445.582	91.25
445.803	74.25
446.024	100.25
446.245	78.25
446.466	82.25
446.687	83.25
446.908	77.25
447.129	76.25
447.35	67.25
447.571	75.25
447.792	76.25
448.013	74.25
448.234	83.25
448.455	76.25
448.675	72.25
448.896	71.25
449.117	86.25
449.338	88.25
449.559	77.25
449.779	86.25
450	68.25
450.221	75.25
450.442	74.25
450.662	80.25
450.883	78.25
451.104	86.25
451.324	92.25
451.545	73.25
451.766	75.25
451.986	72.25
452.207	84.25
452.428	86.25
452.648	85.25
452.869	88.25
453.089	76.25
453.31	81.25
453.53	74.25
453.751	86.25
453.971	81.25
454.192	68.25
454.412	75.25
454.633	69.25
454.853	73.25
455.073	84.25
455.294	67.25
455.514	81.25
455.734	84.25
455.955	75.25
456.175	83.25
456.395	72.25
456.616	73.25
456.836	81.25
457.056	90.25
457.276	78.25
457.497	76.25
457.717	68.25
457.937	83.25
458.157	72.25
458.377	76.25
458.598	80.25
458.818	68.25
459.038	80.25
459.258	72.25
459.478	80.25
459.698	68.25
459.918	65.25
460.138	72.25
460.358	74.25
460.578	80.25
460.798	82.25
461.018	92.25
461.238	68.25
461.458	78.25
461.678	86.25
461.898	80.25
462.118	87.25
462.338	77.25
462.558	67.25
462.777	84.25
462.997	88.25
463.217	75.25
463.437	82.25
463.657	86.25
463.876	80.25
464.096	72.25
464.316	60.25
464.536	78.25
464.755	64.25
464.975	58.25
465.195	77.25
465.414	82.25
465.634	83.25
465.854	78.25
466.073	76.25
466.293	78.25
466.512	79.25
466.732	84.25
466.951	85.25
467.171	89.25
467.391	88.25
467.61	81.25
467.829	71.25
468.049	77.25
468.268	87.25
468.488	82.25
468.707	81.25
468.927	85.25
469.146	63.25
469.365	79.25
469.585	81.25
469.804	77.25
470.023	88.25
470.243	92.25
470.462	71.25
470.681	74.25
470.901	75.25
471.12	83.25
471.339	71.25
471.558	81.25
471.777	73.25
471.997	72.25
472.216	76.25
472.435	63.25
472.654	63.25
472.873	89.25
473.092	79.25
473.311	83.25
473.53	65.25
473.749	82.25
473.968	85.25
474.187	76.25
474.406	85.25
474.625	65.25
474.844	74.25
475.063	82.25
475.282	92.25
475.501	82.25
475.72	90.25
475.939	80.25
476.158	87.25
476.377	92.25
476.596	75.25
476.814	83.25
477.033	76.25
477.252	90.25
477.471	70.25
477.69	74.25
477.908	71.25
478.127	87.25
478.346	87.25
478.564	88.25
478.783	75.25
479.002	73.25
479.22	72.25
479.439	81.25
479.658	84.25
479.876	86.25
480.095	83.25
480.313	74.25
480.532	80.25
480.751	77.25
480.969	86.25
481.188	81.25
481.406	78.25
481.624	89.25
481.843	93.25
482.061	80.25
482.28	70.25
482.498	79.25
482.717	77.25
482.935	72.25
483.153	89.25
483.372	88.25
483.59	86.25
483.808	73.25
484.027	65.25
484.245	74.25
484.463	76.25
484.681	74.25
484.9	85.25
485.118	72.25
485.336	88.25
485.554	70.25
485.772	86.25
485.99	89.25
486.209	81.25
486.427	81.25
486.645	83.25
486.863	88.25
487.081	81.25
487.299	88.25
487.517	73.25
487.735	67.25
487.953	88.25
488.171	76.25
488.389	84.25
488.607	75.25
488.825	77.25
489.043	87.25
489.261	96.25
489.479	68.25
489.696	84.25
489.914	69.25
490.132	81.25
490.35	89.25
490.568	91.25
490.786	82.25
491.003	83.25
491.221	85.25
491.439	76.25
491.657	82.25
491.874	93.25
492.092	96.25
492.31	80.25
492.527	86.25
492.745	84.25
492.963	82.25
493.18	91.25
493.398	82.25
493.615	96.25
493.833	93.25
494.05	98.25
494.268	94.25
494.485	78.25
494.703	83.25
494.92	79.25
495.138	79.25
495.355	89.25
495.573	84.25
495.79	98.25
496.008	76.25
496.225	85.25
496.442	92.25
496.66	81.25
496.877	72.25
497.094	92.25
497.312	75.25
497.529	75.25
497.746	65.25
497.963	62.25
498.181	79.25
498.398	80.25
498.615	80.25
498.832	80.25
499.049	82.25
499.267	70.25
499.484	77.25
499.701	90.25
499.918	82.25
500.135	73.25
500.352	91.25
500.569	120.25
500.786	133.25
501.003	83.25
501.22	92.25
501.437	75.25
501.654	82.25
501.871	76.25
502.088	73.25
502.305	72.25
502.522	75.25
502.739	84.25
502.956	83.25
503.172	86.25
503.389	89.25
503.606	83.25
503.823	90.25
504.04	92.25
504.256	79.25
504.473	80.25
504.69	86.25
504.907	86.25
505.123	72.25
505.34	80.25
505.557	88.25
505.773	73.25
505.99	79.25
506.207	78.25
506.423	75.25
506.64	78.25
506.856	80.25
507.073	77.25
507.289	81.25
507.506	76.25
507.722	87.25
507.939	83.25
508.155	85.25
508.372	90.25
508.588	82.25
508.805	76.25
509.021	75.25
509.238	81.25
509.454	77.25
509.67	96.25
509.887	80.25
510.103	78.25
510.319	83.25
510.536	86.25
510.752	81.25
510.968	73.25
511.184	83.25
511.401	80.25
511.617	72.25
511.833	70.25
512.049	82.25
512.265	62.25
512.481	72.25
512.698	82.25
512.914	82.25
513.13	90.25
513.346	89.25
513.562	80.25
513.778	78.25
513.994	83.25
514.21	70.25
514.426	85.25
514.642	82.25
514.858	88.25
515.074	83.25
515.29	78.25
515.506	87.25
515.721	87.25
515.937	87.25
516.153	75.25
516.369	63.25
516.585	76.25
516.801	76.25
517.016	84.25
517.232	68.25
517.448	79.25
517.664	84.25
517.879	76.25
518.095	84.25
518.311	86.25
518.527	93.25
518.742	85.25
518.958	76.25
519.173	85.25
519.389	78.25
519.605	78.25
519.82	77.25
