Data from StdB_HRD10591_022.txt Node
Date: Fri May 16 15:24:57 EDT 2025
User: Yrep
Spectrometer: HR+D1059
Trigger mode: 1
Integration Time (sec): 1.000000E-1
Scans to average: 1
Electric dark correction enabled: true
Nonlinearity correction enabled: false
Boxcar width: 0
XAxis mode: Wavelengths
Number of Pixels in Spectrum: 2048
>>>>>Begin Spectral Data<<<<<
223.165	-18.69
223.4	-18.69
223.635	-18.69
223.869	-21.69
224.104	-17.69
224.338	-24.69
224.573	-12.69
224.808	-11.69
225.042	-22.69
225.277	-8.69
225.511	13.31
225.746	5.31
225.98	14.31
226.215	10.31
226.449	27.31
226.683	17.31
226.918	22.31
227.152	28.31
227.387	35.31
227.621	41.31
227.856	37.31
228.09	31.31
228.324	55.31
228.559	45.31
228.793	51.31
229.027	58.31
229.262	67.31
229.496	77.31
229.73	85.31
229.964	76.31
230.199	77.31
230.433	87.31
230.667	88.31
230.901	109.31
231.136	82.31
231.37	97.31
231.604	91.31
231.838	88.31
232.072	99.31
232.306	81.31
232.541	96.31
232.775	77.31
233.009	93.31
233.243	85.31
233.477	91.31
233.711	95.31
233.945	79.31
234.179	95.31
234.413	96.31
234.647	83.31
234.881	81.31
235.115	86.31
235.349	99.31
235.583	98.31
235.817	91.31
236.051	105.31
236.285	94.31
236.519	94.31
236.753	88.31
236.987	106.31
237.221	98.31
237.455	89.31
237.689	91.31
237.922	101.31
238.156	87.31
238.39	82.31
238.624	86.31
238.858	91.31
239.091	97.31
239.325	109.31
239.559	113.31
239.793	103.31
240.027	114.31
240.26	97.31
240.494	110.31
240.728	122.31
240.961	90.31
241.195	95.31
241.429	105.31
241.662	112.31
241.896	83.31
242.13	95.31
242.363	94.31
242.597	98.31
242.83	99.31
243.064	102.31
243.298	101.31
243.531	91.31
243.765	105.31
243.998	107.31
244.232	107.31
244.465	105.31
244.699	122.31
244.932	125.31
245.166	115.31
245.399	111.31
245.633	98.31
245.866	87.31
246.099	106.31
246.333	96.31
246.566	105.31
246.8	103.31
247.033	103.31
247.266	114.31
247.5	116.31
247.733	113.31
247.966	115.31
248.2	117.31
248.433	115.31
248.666	117.31
248.899	99.31
249.133	96.31
249.366	120.31
249.599	120.31
249.832	113.31
250.066	103.31
250.299	97.31
250.532	117.31
250.765	125.31
250.998	115.31
251.231	124.31
251.465	113.31
251.698	121.31
251.931	119.31
252.164	126.31
252.397	121.31
252.63	137.31
252.863	128.31
253.096	137.31
253.329	147.31
253.562	161.31
253.795	139.31
254.028	142.31
254.261	135.31
254.494	138.31
254.727	141.31
254.96	137.31
255.193	154.31
255.426	135.31
255.659	126.31
255.892	133.31
256.124	141.31
256.357	135.31
256.59	140.31
256.823	143.31
257.056	136.31
257.289	121.31
257.521	148.31
257.754	157.31
257.987	174.31
258.22	189.31
258.452	156.31
258.685	143.31
258.918	144.31
259.151	153.31
259.383	150.31
259.616	145.31
259.849	143.31
260.081	144.31
260.314	158.31
260.547	162.31
260.779	187.31
261.012	225.31
261.244	249.31
261.477	327.31
261.71	337.31
261.942	237.31
262.175	177.31
262.407	159.31
262.64	135.31
262.872	145.31
263.105	161.31
263.337	151.31
263.57	153.31
263.802	171.31
264.035	145.31
264.267	142.31
264.499	150.31
264.732	170.31
264.964	187.31
265.197	190.31
265.429	177.31
265.661	149.31
265.894	158.31
266.126	161.31
266.358	219.31
266.591	237.31
266.823	208.31
267.055	159.31
267.287	153.31
267.52	139.31
267.752	134.31
267.984	144.31
268.216	129.31
268.448	148.31
268.681	143.31
268.913	121.31
269.145	126.31
269.377	136.31
269.609	146.31
269.841	136.31
270.073	162.31
270.306	129.31
270.538	137.31
270.77	139.31
271.002	150.31
271.234	129.31
271.466	128.31
271.698	141.31
271.93	138.31
272.162	161.31
272.394	136.31
272.626	138.31
272.858	143.31
273.09	152.31
273.322	131.31
273.553	144.31
273.785	130.31
274.017	130.31
274.249	141.31
274.481	144.31
274.713	145.31
274.945	143.31
275.176	135.31
275.408	147.31
275.64	133.31
275.872	149.31
276.104	154.31
276.335	135.31
276.567	149.31
276.799	152.31
277.031	146.31
277.262	141.31
277.494	150.31
277.726	155.31
277.957	159.31
278.189	178.31
278.421	181.31
278.652	195.31
278.884	189.31
279.115	210.31
279.347	229.31
279.579	266.31
279.81	314.31
280.042	413.31
280.273	517.31
280.505	456.31
280.736	312.31
280.968	246.31
281.199	219.31
281.431	198.31
281.662	203.31
281.894	221.31
282.125	240.31
282.356	268.31
282.588	278.31
282.819	237.31
283.051	278.31
283.282	352.31
283.513	379.31
283.745	317.31
283.976	251.31
284.207	213.31
284.439	188.31
284.67	175.31
284.901	185.31
285.132	160.31
285.364	161.31
285.595	159.31
285.826	180.31
286.057	166.31
286.288	173.31
286.52	183.31
286.751	196.31
286.982	235.31
287.213	276.31
287.444	304.31
287.675	270.31
287.906	203.31
288.138	191.31
288.369	165.31
288.6	178.31
288.831	170.31
289.062	153.31
289.293	150.31
289.524	155.31
289.755	150.31
289.986	161.31
290.217	158.31
290.448	152.31
290.679	158.31
290.91	154.31
291.141	165.31
291.371	156.31
291.602	154.31
291.833	143.31
292.064	165.31
292.295	168.31
292.526	157.31
292.757	154.31
292.987	159.31
293.218	162.31
293.449	144.31
293.68	171.31
293.91	155.31
294.141	159.31
294.372	180.31
294.603	169.31
294.833	140.31
295.064	159.31
295.295	183.31
295.525	179.31
295.756	167.31
295.987	167.31
296.217	153.31
296.448	161.31
296.679	172.31
296.909	160.31
297.14	171.31
297.37	183.31
297.601	175.31
297.831	176.31
298.062	175.31
298.292	165.31
298.523	192.31
298.753	151.31
298.984	155.31
299.214	166.31
299.445	157.31
299.675	179.31
299.905	163.31
300.136	173.31
300.366	168.31
300.597	153.31
300.827	168.31
301.057	181.31
301.288	162.31
301.518	185.31
301.748	156.31
301.979	192.31
302.209	191.31
302.439	174.31
302.669	177.31
302.9	168.31
303.13	176.31
303.36	175.31
303.59	197.31
303.82	171.31
304.051	190.31
304.281	190.31
304.511	186.31
304.741	186.31
304.971	170.31
305.201	170.31
305.431	179.31
305.661	175.31
305.891	167.31
306.121	187.31
306.352	177.31
306.582	174.31
306.812	188.31
307.042	170.31
307.272	174.31
307.502	177.31
307.731	174.31
307.961	169.31
308.191	185.31
308.421	189.31
308.651	170.31
308.881	171.31
309.111	179.31
309.341	171.31
309.571	172.31
309.8	162.31
310.03	161.31
310.26	178.31
310.49	147.31
310.72	181.31
310.949	183.31
311.179	187.31
311.409	172.31
311.639	177.31
311.868	198.31
312.098	180.31
312.328	185.31
312.557	181.31
312.787	192.31
313.017	199.31
313.246	211.31
313.476	206.31
313.706	192.31
313.935	215.31
314.165	215.31
314.394	207.31
314.624	231.31
314.853	222.31
315.083	199.31
315.312	229.31
315.542	232.31
315.771	212.31
316.001	203.31
316.23	216.31
316.46	207.31
316.689	200.31
316.919	205.31
317.148	213.31
317.377	209.31
317.607	197.31
317.836	221.31
318.065	223.31
318.295	218.31
318.524	203.31
318.753	195.31
318.983	207.31
319.212	211.31
319.441	201.31
319.67	204.31
319.9	180.31
320.129	197.31
320.358	180.31
320.587	186.31
320.816	201.31
321.046	195.31
321.275	187.31
321.504	200.31
321.733	185.31
321.962	191.31
322.191	195.31
322.42	171.31
322.649	201.31
322.878	190.31
323.108	190.31
323.337	185.31
323.566	185.31
323.795	205.31
324.024	197.31
324.253	202.31
324.482	198.31
324.71	193.31
324.939	203.31
325.168	204.31
325.397	190.31
325.626	193.31
325.855	184.31
326.084	179.31
326.313	196.31
326.542	208.31
326.77	200.31
326.999	192.31
327.228	182.31
327.457	187.31
327.686	183.31
327.914	187.31
328.143	188.31
328.372	181.31
328.6	199.31
328.829	196.31
329.058	182.31
329.287	205.31
329.515	193.31
329.744	218.31
329.972	196.31
330.201	198.31
330.43	206.31
330.658	184.31
330.887	175.31
331.115	193.31
331.344	206.31
331.572	184.31
331.801	194.31
332.03	193.31
332.258	201.31
332.486	199.31
332.715	195.31
332.943	209.31
333.172	194.31
333.4	193.31
333.629	187.31
333.857	198.31
334.085	203.31
334.314	214.31
334.542	203.31
334.771	190.31
334.999	202.31
335.227	211.31
335.455	199.31
335.684	192.31
335.912	203.31
336.14	199.31
336.369	195.31
336.597	204.31
336.825	203.31
337.053	179.31
337.281	199.31
337.51	191.31
337.738	194.31
337.966	210.31
338.194	182.31
338.422	179.31
338.65	191.31
338.878	210.31
339.106	202.31
339.334	217.31
339.562	194.31
339.79	198.31
340.018	187.31
340.246	188.31
340.474	179.31
340.702	188.31
340.93	205.31
341.158	197.31
341.386	185.31
341.614	194.31
341.842	187.31
342.07	190.31
342.298	187.31
342.526	187.31
342.754	200.31
342.981	195.31
343.209	187.31
343.437	222.31
343.665	207.31
343.893	212.31
344.12	209.31
344.348	189.31
344.576	211.31
344.804	181.31
345.031	199.31
345.259	194.31
345.487	199.31
345.714	203.31
345.942	177.31
346.17	202.31
346.397	184.31
346.625	190.31
346.853	195.31
347.08	190.31
347.308	195.31
347.535	212.31
347.763	195.31
347.99	188.31
348.218	185.31
348.445	181.31
348.673	175.31
348.9	203.31
349.128	189.31
349.355	180.31
349.583	178.31
349.81	199.31
350.037	191.31
350.265	210.31
350.492	188.31
350.72	183.31
350.947	172.31
351.174	187.31
351.402	187.31
351.629	198.31
351.856	185.31
352.083	189.31
352.311	188.31
352.538	173.31
352.765	184.31
352.992	184.31
353.22	198.31
353.447	202.31
353.674	196.31
353.901	199.31
354.128	195.31
354.355	198.31
354.583	196.31
354.81	211.31
355.037	218.31
355.264	199.31
355.491	209.31
355.718	211.31
355.945	211.31
356.172	211.31
356.399	229.31
356.626	247.31
356.853	320.31
357.08	423.31
357.307	573.31
357.534	574.31
357.761	398.31
357.988	324.31
358.215	295.31
358.441	271.31
358.668	250.31
358.895	237.31
359.122	217.31
359.349	224.31
359.576	218.31
359.802	218.31
360.029	207.31
360.256	223.31
360.483	220.31
360.709	216.31
360.936	218.31
361.163	224.31
361.39	226.31
361.616	206.31
361.843	205.31
362.07	211.31
362.296	228.31
362.523	224.31
362.749	217.31
362.976	225.31
363.203	245.31
363.429	314.31
363.656	439.31
363.882	623.31
364.109	760.31
364.335	541.31
364.562	357.31
364.788	290.31
365.015	256.31
365.241	242.31
365.468	235.31
365.694	217.31
365.92	232.31
366.147	251.31
366.373	238.31
366.599	251.31
366.826	269.31
367.052	315.31
367.278	380.31
367.505	365.31
367.731	354.31
367.957	483.31
368.184	735.31
368.41	983.31
368.636	866.31
368.862	504.31
369.089	387.31
369.315	333.31
369.541	260.31
369.767	261.31
369.993	249.31
370.219	243.31
370.445	239.31
370.672	227.31
370.898	219.31
371.124	227.31
371.35	231.31
371.576	223.31
371.802	235.31
372.028	226.31
372.254	243.31
372.48	241.31
372.706	229.31
372.932	248.31
373.158	237.31
373.384	258.31
373.61	345.31
373.835	501.31
374.061	637.31
374.287	557.31
374.513	365.31
374.739	299.31
374.965	266.31
375.191	239.31
375.416	226.31
375.642	246.31
375.868	244.31
376.094	217.31
376.319	223.31
376.545	206.31
376.771	212.31
376.997	205.31
377.222	226.31
377.448	207.31
377.674	222.31
377.899	203.31
378.125	208.31
378.35	242.31
378.576	225.31
378.802	237.31
379.027	219.31
379.253	229.31
379.478	213.31
379.704	218.31
379.929	231.31
380.155	214.31
380.38	216.31
380.606	205.31
380.831	210.31
381.057	204.31
381.282	202.31
381.507	210.31
381.733	187.31
381.958	211.31
382.184	217.31
382.409	204.31
382.634	203.31
382.86	217.31
383.085	221.31
383.31	209.31
383.535	214.31
383.761	219.31
383.986	216.31
384.211	213.31
384.436	218.31
384.662	210.31
384.887	226.31
385.112	236.31
385.337	231.31
385.562	216.31
385.787	233.31
386.013	216.31
386.238	209.31
386.463	229.31
386.688	224.31
386.913	216.31
387.138	217.31
387.363	203.31
387.588	210.31
387.813	221.31
388.038	223.31
388.263	233.31
388.488	213.31
388.713	211.31
388.938	218.31
389.163	210.31
389.387	231.31
389.612	229.31
389.837	216.31
390.062	218.31
390.287	216.31
390.512	217.31
390.736	207.31
390.961	210.31
391.186	213.31
391.411	222.31
391.636	197.31
391.86	225.31
392.085	219.31
392.31	199.31
392.534	214.31
392.759	230.31
392.984	214.31
393.208	232.31
393.433	238.31
393.658	225.31
393.882	219.31
394.107	236.31
394.331	205.31
394.556	218.31
394.78	227.31
395.005	201.31
395.229	224.31
395.454	215.31
395.678	233.31
395.903	229.31
396.127	233.31
396.352	221.31
396.576	222.31
396.801	240.31
397.025	211.31
397.249	222.31
397.474	235.31
397.698	226.31
397.922	237.31
398.147	245.31
398.371	224.31
398.595	213.31
398.82	235.31
399.044	231.31
399.268	251.31
399.492	258.31
399.717	269.31
399.941	255.31
400.165	275.31
400.389	255.31
400.613	246.31
400.837	250.31
401.062	260.31
401.286	243.31
401.51	248.31
401.734	269.31
401.958	302.31
402.182	305.31
402.406	280.31
402.63	249.31
402.854	243.31
403.078	270.31
403.302	248.31
403.526	246.31
403.75	269.31
403.974	272.31
404.198	280.31
404.422	296.31
404.645	303.31
404.869	317.31
405.093	380.31
405.317	494.31
405.541	797.31
405.765	1344.31
405.988	1518.31
406.212	1039.31
406.436	685.31
406.66	497.31
406.883	406.31
407.107	363.31
407.331	320.31
407.555	318.31
407.778	298.31
408.002	315.31
408.226	287.31
408.449	278.31
408.673	262.31
408.896	265.31
409.12	253.31
409.344	258.31
409.567	259.31
409.791	264.31
410.014	254.31
410.238	264.31
410.461	254.31
410.685	257.31
410.908	256.31
411.132	250.31
411.355	255.31
411.578	243.31
411.802	266.31
412.025	241.31
412.249	247.31
412.472	230.31
412.695	232.31
412.919	255.31
413.142	246.31
413.365	234.31
413.589	237.31
413.812	247.31
414.035	250.31
414.258	227.31
414.482	235.31
414.705	236.31
414.928	245.31
415.151	248.31
415.374	250.31
415.597	230.31
415.821	232.31
416.044	248.31
416.267	253.31
416.49	233.31
416.713	271.31
416.936	273.31
417.159	260.31
417.382	248.31
417.605	225.31
417.828	252.31
418.051	239.31
418.274	241.31
418.497	222.31
418.72	245.31
418.943	255.31
419.166	256.31
419.389	258.31
419.611	238.31
419.834	263.31
420.057	251.31
420.28	231.31
420.503	220.31
420.726	241.31
420.948	241.31
421.171	254.31
421.394	258.31
421.617	248.31
421.839	257.31
422.062	263.31
422.285	272.31
422.507	270.31
422.73	265.31
422.953	288.31
423.175	297.31
423.398	309.31
423.621	340.31
423.843	368.31
424.066	411.31
424.288	514.31
424.511	622.31
424.733	721.31
424.956	603.31
425.178	504.31
425.401	450.31
425.623	419.31
425.846	378.31
426.068	351.31
426.291	343.31
426.513	334.31
426.735	314.31
426.958	286.31
427.18	291.31
427.402	295.31
427.625	279.31
427.847	287.31
428.069	273.31
428.292	262.31
428.514	272.31
428.736	259.31
428.958	269.31
429.181	250.31
429.403	245.31
429.625	237.31
429.847	258.31
430.069	250.31
430.292	253.31
430.514	242.31
430.736	257.31
430.958	252.31
431.18	235.31
431.402	239.31
431.624	243.31
431.846	251.31
432.068	237.31
432.29	241.31
432.512	256.31
432.734	251.31
432.956	236.31
433.178	246.31
433.4	240.31
433.622	245.31
433.844	257.31
434.066	255.31
434.287	275.31
434.509	250.31
434.731	247.31
434.953	251.31
435.175	278.31
435.397	264.31
435.618	264.31
435.84	249.31
436.062	258.31
436.284	266.31
436.505	252.31
436.727	254.31
436.949	262.31
437.17	289.31
437.392	291.31
437.614	304.31
437.835	309.31
438.057	335.31
438.278	399.31
438.5	483.31
438.721	593.31
438.943	646.31
439.165	550.31
439.386	488.31
439.608	447.31
439.829	403.31
440.05	387.31
440.272	386.31
440.493	382.31
440.715	426.31
440.936	435.31
441.158	451.31
441.379	398.31
441.6	350.31
441.822	329.31
442.043	335.31
442.264	317.31
442.486	303.31
442.707	293.31
442.928	284.31
443.149	280.31
443.371	275.31
443.592	247.31
443.813	243.31
444.034	254.31
444.255	259.31
444.476	280.31
444.698	242.31
444.919	259.31
445.14	323.31
445.361	275.31
445.582	242.31
445.803	244.31
446.024	241.31
446.245	246.31
446.466	236.31
446.687	245.31
446.908	238.31
447.129	245.31
447.35	236.31
447.571	229.31
447.792	236.31
448.013	231.31
448.234	241.31
448.455	234.31
448.675	217.31
448.896	213.31
449.117	222.31
449.338	226.31
449.559	244.31
449.779	227.31
450	234.31
450.221	217.31
450.442	200.31
450.662	230.31
450.883	206.31
451.104	207.31
451.324	207.31
451.545	224.31
451.766	210.31
451.986	194.31
452.207	212.31
452.428	231.31
452.648	215.31
452.869	210.31
453.089	221.31
453.31	201.31
453.53	195.31
453.751	213.31
453.971	211.31
454.192	202.31
454.412	194.31
454.633	213.31
454.853	212.31
455.073	206.31
455.294	199.31
455.514	233.31
455.734	200.31
455.955	200.31
456.175	211.31
456.395	203.31
456.616	214.31
456.836	194.31
457.056	193.31
457.276	204.31
457.497	199.31
457.717	206.31
457.937	197.31
458.157	208.31
458.377	203.31
458.598	203.31
458.818	206.31
459.038	208.31
459.258	197.31
459.478	207.31
459.698	231.31
459.918	221.31
460.138	217.31
460.358	223.31
460.578	216.31
460.798	227.31
461.018	224.31
461.238	226.31
461.458	222.31
461.678	221.31
461.898	236.31
462.118	233.31
462.338	242.31
462.558	240.31
462.777	226.31
462.997	240.31
463.217	237.31
463.437	239.31
463.657	231.31
463.876	226.31
464.096	232.31
464.316	221.31
464.536	241.31
464.755	221.31
464.975	238.31
465.195	226.31
465.414	225.31
465.634	220.31
465.854	199.31
466.073	198.31
466.293	204.31
466.512	228.31
466.732	212.31
466.951	195.31
467.171	203.31
467.391	203.31
467.61	213.31
467.829	216.31
468.049	179.31
468.268	218.31
468.488	203.31
468.707	208.31
468.927	196.31
469.146	202.31
469.365	218.31
469.585	220.31
469.804	206.31
470.023	215.31
470.243	211.31
470.462	199.31
470.681	209.31
470.901	203.31
471.12	210.31
471.339	215.31
471.558	187.31
471.777	201.31
471.997	214.31
472.216	215.31
472.435	213.31
472.654	213.31
472.873	234.31
473.092	205.31
473.311	214.31
473.53	214.31
473.749	209.31
473.968	205.31
474.187	215.31
474.406	210.31
474.625	211.31
474.844	220.31
475.063	225.31
475.282	232.31
475.501	225.31
475.72	222.31
475.939	220.31
476.158	240.31
476.377	218.31
476.596	210.31
476.814	230.31
477.033	219.31
477.252	215.31
477.471	236.31
477.69	239.31
477.908	229.31
478.127	233.31
478.346	228.31
478.564	240.31
478.783	245.31
479.002	256.31
479.22	252.31
479.439	254.31
479.658	255.31
479.876	257.31
480.095	248.31
480.313	273.31
480.532	237.31
480.751	257.31
480.969	257.31
481.188	243.31
481.406	249.31
481.624	248.31
481.843	236.31
482.061	249.31
482.28	255.31
482.498	247.31
482.717	233.31
482.935	219.31
483.153	251.31
483.372	237.31
483.59	235.31
483.808	237.31
484.027	224.31
484.245	227.31
484.463	236.31
484.681	233.31
484.9	250.31
485.118	240.31
485.336	257.31
485.554	230.31
485.772	246.31
485.99	238.31
486.209	232.31
486.427	251.31
486.645	250.31
486.863	238.31
487.081	256.31
487.299	221.31
487.517	248.31
487.735	240.31
487.953	243.31
488.171	256.31
488.389	250.31
488.607	238.31
488.825	231.31
489.043	259.31
489.261	239.31
489.479	260.31
489.696	240.31
489.914	273.31
490.132	242.31
490.35	234.31
490.568	257.31
490.786	247.31
491.003	252.31
491.221	241.31
491.439	237.31
491.657	260.31
491.874	267.31
492.092	246.31
492.31	249.31
492.527	253.31
492.745	255.31
492.963	256.31
493.18	255.31
493.398	255.31
493.615	223.31
493.833	256.31
494.05	255.31
494.268	276.31
494.485	261.31
494.703	265.31
494.92	250.31
495.138	267.31
495.355	273.31
495.573	273.31
495.79	278.31
496.008	265.31
496.225	264.31
496.442	271.31
496.66	275.31
496.877	264.31
497.094	261.31
497.312	272.31
497.529	271.31
497.746	281.31
497.963	265.31
498.181	286.31
498.398	272.31
498.615	313.31
498.832	309.31
499.049	313.31
499.267	339.31
499.484	331.31
499.701	362.31
499.918	364.31
500.135	386.31
500.352	393.31
500.569	463.31
500.786	528.31
501.003	424.31
501.22	385.31
501.437	364.31
501.654	334.31
501.871	345.31
502.088	317.31
502.305	320.31
502.522	337.31
502.739	320.31
502.956	310.31
503.172	318.31
503.389	320.31
