Data from StdB_HRD10591_093.txt Node
Date: Fri May 16 15:25:32 EDT 2025
User: Yrep
Spectrometer: HR+D1059
Trigger mode: 1
Integration Time (sec): 1.000000E-1
Scans to average: 1
Electric dark correction enabled: true
Nonlinearity correction enabled: false
Boxcar width: 0
XAxis mode: Wavelengths
Number of Pixels in Spectrum: 2048
>>>>>Begin Spectral Data<<<<<
223.165	-8.44
223.4	-8.44
223.635	-8.44
223.869	-17.44
224.104	-27.44
224.338	-9.44
224.573	-19.44
224.808	-18.44
225.042	-12.44
225.277	-0.44
225.511	-11.44
225.746	-6.44
225.98	10.56
226.215	11.56
226.449	5.56
226.683	28.56
226.918	34.56
227.152	40.56
227.387	33.56
227.621	36.56
227.856	42.56
228.09	37.56
228.324	56.56
228.559	61.56
228.793	64.56
229.027	59.56
229.262	75.56
229.496	64.56
229.73	62.56
229.964	67.56
230.199	92.56
230.433	66.56
230.667	81.56
230.901	74.56
231.136	60.56
231.37	76.56
231.604	72.56
231.838	82.56
232.072	69.56
232.306	78.56
232.541	82.56
232.775	85.56
233.009	77.56
233.243	79.56
233.477	70.56
233.711	87.56
233.945	80.56
234.179	77.56
234.413	99.56
234.647	67.56
234.881	74.56
235.115	72.56
235.349	59.56
235.583	79.56
235.817	76.56
236.051	80.56
236.285	83.56
236.519	71.56
236.753	70.56
236.987	84.56
237.221	84.56
237.455	74.56
237.689	79.56
237.922	90.56
238.156	75.56
238.39	66.56
238.624	78.56
238.858	77.56
239.091	78.56
239.325	74.56
239.559	63.56
239.793	86.56
240.027	70.56
240.26	77.56
240.494	68.56
240.728	76.56
240.961	65.56
241.195	67.56
241.429	70.56
241.662	72.56
241.896	77.56
242.13	78.56
242.363	73.56
242.597	68.56
242.83	73.56
243.064	70.56
243.298	76.56
243.531	74.56
243.765	67.56
243.998	72.56
244.232	85.56
244.465	83.56
244.699	72.56
244.932	78.56
245.166	73.56
245.399	72.56
245.633	63.56
245.866	73.56
246.099	63.56
246.333	71.56
246.566	78.56
246.8	78.56
247.033	78.56
247.266	87.56
247.5	75.56
247.733	68.56
247.966	65.56
248.2	86.56
248.433	76.56
248.666	73.56
248.899	77.56
249.133	89.56
249.366	71.56
249.599	77.56
249.832	64.56
250.066	77.56
250.299	90.56
250.532	77.56
250.765	65.56
250.998	79.56
251.231	91.56
251.465	87.56
251.698	72.56
251.931	76.56
252.164	74.56
252.397	79.56
252.63	82.56
252.863	67.56
253.096	89.56
253.329	82.56
253.562	72.56
253.795	79.56
254.028	83.56
254.261	89.56
254.494	83.56
254.727	72.56
254.96	65.56
255.193	79.56
255.426	87.56
255.659	67.56
255.892	71.56
256.124	85.56
256.357	77.56
256.59	77.56
256.823	76.56
257.056	73.56
257.289	81.56
257.521	81.56
257.754	79.56
257.987	81.56
258.22	79.56
258.452	81.56
258.685	76.56
258.918	86.56
259.151	78.56
259.383	71.56
259.616	74.56
259.849	101.56
260.081	74.56
260.314	69.56
260.547	81.56
260.779	87.56
261.012	80.56
261.244	73.56
261.477	86.56
261.71	104.56
261.942	70.56
262.175	87.56
262.407	77.56
262.64	65.56
262.872	75.56
263.105	91.56
263.337	69.56
263.57	85.56
263.802	76.56
264.035	75.56
264.267	83.56
264.499	94.56
264.732	84.56
264.964	87.56
265.197	97.56
265.429	79.56
265.661	81.56
265.894	67.56
266.126	83.56
266.358	83.56
266.591	78.56
266.823	77.56
267.055	72.56
267.287	76.56
267.52	81.56
267.752	90.56
267.984	85.56
268.216	76.56
268.448	81.56
268.681	91.56
268.913	84.56
269.145	78.56
269.377	90.56
269.609	81.56
269.841	95.56
270.073	90.56
270.306	90.56
270.538	77.56
270.77	62.56
271.002	75.56
271.234	87.56
271.466	85.56
271.698	98.56
271.93	89.56
272.162	85.56
272.394	85.56
272.626	89.56
272.858	78.56
273.09	71.56
273.322	77.56
273.553	70.56
273.785	76.56
274.017	87.56
274.249	85.56
274.481	79.56
274.713	65.56
274.945	83.56
275.176	86.56
275.408	96.56
275.64	84.56
275.872	84.56
276.104	77.56
276.335	77.56
276.567	82.56
276.799	93.56
277.031	75.56
277.262	76.56
277.494	72.56
277.726	90.56
277.957	82.56
278.189	73.56
278.421	86.56
278.652	86.56
278.884	62.56
279.115	82.56
279.347	82.56
279.579	84.56
279.81	84.56
280.042	100.56
280.273	97.56
280.505	107.56
280.736	94.56
280.968	65.56
281.199	71.56
281.431	94.56
281.662	84.56
281.894	88.56
282.125	85.56
282.356	91.56
282.588	79.56
282.819	81.56
283.051	85.56
283.282	109.56
283.513	93.56
283.745	86.56
283.976	82.56
284.207	70.56
284.439	86.56
284.67	81.56
284.901	74.56
285.132	85.56
285.364	92.56
285.595	76.56
285.826	86.56
286.057	84.56
286.288	90.56
286.52	85.56
286.751	97.56
286.982	87.56
287.213	104.56
287.444	87.56
287.675	92.56
287.906	74.56
288.138	85.56
288.369	71.56
288.6	71.56
288.831	81.56
289.062	79.56
289.293	85.56
289.524	73.56
289.755	83.56
289.986	82.56
290.217	87.56
290.448	81.56
290.679	88.56
290.91	75.56
291.141	86.56
291.371	91.56
291.602	91.56
291.833	82.56
292.064	82.56
292.295	86.56
292.526	69.56
292.757	75.56
292.987	71.56
293.218	83.56
293.449	85.56
293.68	80.56
293.91	75.56
294.141	85.56
294.372	73.56
294.603	78.56
294.833	73.56
295.064	79.56
295.295	75.56
295.525	85.56
295.756	88.56
295.987	85.56
296.217	83.56
296.448	86.56
296.679	74.56
296.909	82.56
297.14	78.56
297.37	81.56
297.601	79.56
297.831	85.56
298.062	92.56
298.292	80.56
298.523	74.56
298.753	78.56
298.984	87.56
299.214	84.56
299.445	82.56
299.675	78.56
299.905	70.56
300.136	89.56
300.366	90.56
300.597	80.56
300.827	95.56
301.057	84.56
301.288	94.56
301.518	94.56
301.748	68.56
301.979	90.56
302.209	94.56
302.439	80.56
302.669	66.56
302.9	98.56
303.13	78.56
303.36	88.56
303.59	78.56
303.82	83.56
304.051	64.56
304.281	81.56
304.511	90.56
304.741	82.56
304.971	88.56
305.201	85.56
305.431	62.56
305.661	83.56
305.891	76.56
306.121	85.56
306.352	71.56
306.582	87.56
306.812	86.56
307.042	86.56
307.272	85.56
307.502	80.56
307.731	99.56
307.961	94.56
308.191	83.56
308.421	89.56
308.651	67.56
308.881	81.56
309.111	77.56
309.341	77.56
309.571	84.56
309.8	83.56
310.03	69.56
310.26	77.56
310.49	90.56
310.72	84.56
310.949	74.56
311.179	76.56
311.409	76.56
311.639	70.56
311.868	92.56
312.098	89.56
312.328	79.56
312.557	92.56
312.787	77.56
313.017	71.56
313.246	78.56
313.476	93.56
313.706	65.56
313.935	69.56
314.165	93.56
314.394	93.56
314.624	87.56
314.853	82.56
315.083	80.56
315.312	82.56
315.542	89.56
315.771	87.56
316.001	83.56
316.23	86.56
316.46	73.56
316.689	87.56
316.919	77.56
317.148	76.56
317.377	84.56
317.607	92.56
317.836	52.56
318.065	70.56
318.295	74.56
318.524	96.56
318.753	84.56
318.983	91.56
319.212	91.56
319.441	100.56
319.67	73.56
319.9	86.56
320.129	78.56
320.358	87.56
320.587	63.56
320.816	90.56
321.046	65.56
321.275	67.56
321.504	92.56
321.733	93.56
321.962	81.56
322.191	89.56
322.42	74.56
322.649	74.56
322.878	71.56
323.108	79.56
323.337	82.56
323.566	83.56
323.795	92.56
324.024	81.56
324.253	71.56
324.482	92.56
324.71	86.56
324.939	85.56
325.168	89.56
325.397	83.56
325.626	86.56
325.855	72.56
326.084	75.56
326.313	75.56
326.542	94.56
326.77	81.56
326.999	94.56
327.228	86.56
327.457	82.56
327.686	81.56
327.914	85.56
328.143	94.56
328.372	81.56
328.6	80.56
328.829	77.56
329.058	74.56
329.287	83.56
329.515	75.56
329.744	66.56
329.972	73.56
330.201	79.56
330.43	94.56
330.658	67.56
330.887	74.56
331.115	79.56
331.344	85.56
331.572	80.56
331.801	79.56
332.03	90.56
332.258	84.56
332.486	62.56
332.715	81.56
332.943	76.56
333.172	76.56
333.4	91.56
333.629	75.56
333.857	94.56
334.085	88.56
334.314	85.56
334.542	75.56
334.771	89.56
334.999	83.56
335.227	85.56
335.455	77.56
335.684	78.56
335.912	89.56
336.14	82.56
336.369	82.56
336.597	80.56
336.825	71.56
337.053	71.56
337.281	76.56
337.51	75.56
337.738	79.56
337.966	72.56
338.194	83.56
338.422	85.56
338.65	84.56
338.878	79.56
339.106	91.56
339.334	76.56
339.562	81.56
339.79	69.56
340.018	63.56
340.246	89.56
340.474	85.56
340.702	81.56
340.93	89.56
341.158	82.56
341.386	83.56
341.614	93.56
341.842	78.56
342.07	83.56
342.298	69.56
342.526	65.56
342.754	73.56
342.981	97.56
343.209	77.56
343.437	88.56
343.665	71.56
343.893	86.56
344.12	85.56
344.348	59.56
344.576	80.56
344.804	96.56
345.031	87.56
345.259	91.56
345.487	77.56
345.714	81.56
345.942	75.56
346.17	99.56
346.397	91.56
346.625	79.56
346.853	78.56
347.08	79.56
347.308	90.56
347.535	77.56
347.763	81.56
347.99	86.56
348.218	73.56
348.445	87.56
348.673	78.56
348.9	97.56
349.128	90.56
349.355	77.56
349.583	81.56
349.81	75.56
350.037	83.56
350.265	81.56
350.492	75.56
350.72	69.56
350.947	65.56
351.174	79.56
351.402	92.56
351.629	78.56
351.856	93.56
352.083	77.56
352.311	78.56
352.538	88.56
352.765	84.56
352.992	86.56
353.22	82.56
353.447	74.56
353.674	82.56
353.901	78.56
354.128	91.56
354.355	69.56
354.583	90.56
354.81	68.56
355.037	74.56
355.264	78.56
355.491	78.56
355.718	82.56
355.945	81.56
356.172	87.56
356.399	78.56
356.626	67.56
356.853	102.56
357.08	126.56
357.307	136.56
357.534	117.56
357.761	79.56
357.988	88.56
358.215	80.56
358.441	78.56
358.668	85.56
358.895	87.56
359.122	82.56
359.349	67.56
359.576	77.56
359.802	95.56
360.029	77.56
360.256	79.56
360.483	60.56
360.709	60.56
360.936	81.56
361.163	99.56
361.39	78.56
361.616	83.56
361.843	83.56
362.07	85.56
362.296	77.56
362.523	86.56
362.749	82.56
362.976	85.56
363.203	83.56
363.429	101.56
363.656	114.56
363.882	137.56
364.109	181.56
364.335	124.56
364.562	81.56
364.788	75.56
365.015	74.56
365.241	74.56
365.468	78.56
365.694	83.56
365.92	86.56
366.147	71.56
366.373	77.56
366.599	89.56
366.826	91.56
367.052	104.56
367.278	116.56
367.505	98.56
367.731	90.56
367.957	111.56
368.184	163.56
368.41	207.56
368.636	165.56
368.862	105.56
369.089	82.56
369.315	91.56
369.541	76.56
369.767	73.56
369.993	74.56
370.219	96.56
370.445	82.56
370.672	81.56
370.898	70.56
371.124	87.56
371.35	85.56
371.576	78.56
371.802	73.56
372.028	84.56
372.254	85.56
372.48	79.56
372.706	68.56
372.932	70.56
373.158	93.56
373.384	80.56
373.61	88.56
373.835	119.56
374.061	123.56
374.287	109.56
374.513	84.56
374.739	79.56
374.965	74.56
375.191	89.56
375.416	89.56
375.642	83.56
375.868	79.56
376.094	86.56
376.319	73.56
376.545	83.56
376.771	73.56
376.997	72.56
377.222	69.56
377.448	72.56
377.674	84.56
377.899	88.56
378.125	78.56
378.35	93.56
378.576	92.56
378.802	72.56
379.027	78.56
379.253	87.56
379.478	86.56
379.704	76.56
379.929	91.56
380.155	73.56
380.38	95.56
380.606	91.56
380.831	61.56
381.057	97.56
381.282	92.56
381.507	84.56
381.733	79.56
381.958	77.56
382.184	80.56
382.409	81.56
382.634	67.56
382.86	75.56
383.085	80.56
383.31	65.56
383.535	74.56
383.761	94.56
383.986	73.56
384.211	85.56
384.436	82.56
384.662	74.56
384.887	86.56
385.112	65.56
385.337	70.56
385.562	86.56
385.787	85.56
386.013	83.56
386.238	85.56
386.463	74.56
386.688	84.56
386.913	75.56
387.138	75.56
387.363	74.56
387.588	95.56
387.813	88.56
388.038	56.56
388.263	73.56
388.488	61.56
388.713	74.56
388.938	67.56
389.163	85.56
389.387	84.56
389.612	71.56
389.837	88.56
390.062	87.56
390.287	85.56
390.512	75.56
390.736	83.56
390.961	78.56
391.186	86.56
391.411	82.56
391.636	89.56
391.86	78.56
392.085	77.56
392.31	78.56
392.534	74.56
392.759	70.56
392.984	85.56
393.208	75.56
393.433	79.56
393.658	76.56
393.882	89.56
394.107	86.56
394.331	69.56
394.556	70.56
394.78	91.56
395.005	83.56
395.229	86.56
395.454	79.56
395.678	76.56
395.903	88.56
396.127	85.56
396.352	99.56
396.576	90.56
396.801	73.56
397.025	75.56
397.249	74.56
397.474	84.56
397.698	89.56
397.922	81.56
398.147	78.56
398.371	76.56
398.595	67.56
398.82	69.56
399.044	81.56
399.268	93.56
399.492	82.56
399.717	90.56
399.941	75.56
400.165	81.56
400.389	91.56
400.613	77.56
400.837	88.56
401.062	63.56
401.286	80.56
401.51	81.56
401.734	91.56
401.958	104.56
402.182	103.56
402.406	89.56
402.63	93.56
402.854	87.56
403.078	75.56
403.302	82.56
403.526	75.56
403.75	92.56
403.974	97.56
404.198	75.56
404.422	84.56
404.645	67.56
404.869	89.56
405.093	84.56
405.317	109.56
405.541	180.56
405.765	297.56
405.988	297.56
406.212	183.56
406.436	121.56
406.66	87.56
406.883	88.56
407.107	69.56
407.331	79.56
407.555	70.56
407.778	79.56
408.002	74.56
408.226	82.56
408.449	89.56
408.673	65.56
408.896	83.56
409.12	82.56
409.344	72.56
409.567	88.56
409.791	70.56
410.014	94.56
410.238	104.56
410.461	79.56
410.685	73.56
410.908	73.56
411.132	74.56
411.355	82.56
411.578	79.56
411.802	77.56
412.025	73.56
412.249	70.56
412.472	77.56
412.695	71.56
412.919	70.56
413.142	85.56
413.365	83.56
413.589	79.56
413.812	72.56
414.035	83.56
414.258	84.56
414.482	86.56
414.705	83.56
414.928	98.56
415.151	74.56
415.374	73.56
415.597	78.56
415.821	91.56
416.044	97.56
416.267	79.56
416.49	71.56
416.713	99.56
416.936	101.56
417.159	85.56
417.382	78.56
417.605	85.56
417.828	72.56
418.051	79.56
418.274	84.56
418.497	76.56
418.72	79.56
418.943	65.56
419.166	72.56
419.389	81.56
419.611	90.56
419.834	78.56
420.057	74.56
420.28	72.56
420.503	85.56
420.726	59.56
420.948	85.56
421.171	87.56
421.394	84.56
421.617	85.56
421.839	81.56
422.062	73.56
422.285	82.56
422.507	84.56
422.73	55.56
422.953	74.56
423.175	74.56
423.398	89.56
423.621	80.56
423.843	81.56
424.066	69.56
424.288	82.56
424.511	78.56
424.733	83.56
424.956	78.56
425.178	74.56
425.401	89.56
425.623	86.56
425.846	79.56
426.068	89.56
426.291	87.56
426.513	81.56
426.735	75.56
426.958	88.56
427.18	87.56
427.402	75.56
427.625	87.56
427.847	83.56
428.069	82.56
428.292	74.56
428.514	101.56
428.736	79.56
428.958	78.56
429.181	78.56
429.403	75.56
429.625	78.56
429.847	89.56
430.069	85.56
430.292	72.56
430.514	87.56
430.736	81.56
430.958	66.56
431.18	63.56
431.402	70.56
431.624	86.56
431.846	83.56
432.068	70.56
432.29	67.56
432.512	77.56
432.734	79.56
432.956	81.56
433.178	84.56
433.4	73.56
433.622	75.56
433.844	89.56
434.066	87.56
434.287	73.56
434.509	74.56
434.731	64.56
434.953	81.56
435.175	82.56
435.397	90.56
435.618	76.56
435.84	72.56
436.062	70.56
436.284	78.56
436.505	86.56
436.727	90.56
436.949	88.56
437.17	78.56
437.392	85.56
437.614	78.56
437.835	71.56
438.057	81.56
438.278	80.56
438.5	58.56
438.721	69.56
438.943	79.56
439.165	80.56
439.386	93.56
439.608	86.56
439.829	87.56
440.05	78.56
440.272	67.56
440.493	85.56
440.715	75.56
440.936	79.56
441.158	91.56
441.379	71.56
441.6	86.56
441.822	84.56
442.043	75.56
442.264	67.56
442.486	78.56
442.707	88.56
442.928	74.56
443.149	81.56
443.371	75.56
443.592	80.56
443.813	84.56
444.034	76.56
444.255	86.56
444.476	87.56
444.698	77.56
444.919	79.56
445.14	157.56
445.361	110.56
445.582	90.56
445.803	85.56
446.024	80.56
446.245	79.56
446.466	74.56
446.687	57.56
446.908	71.56
447.129	78.56
447.35	93.56
447.571	83.56
447.792	81.56
448.013	68.56
448.234	67.56
448.455	73.56
448.675	84.56
448.896	79.56
449.117	78.56
449.338	73.56
449.559	82.56
449.779	84.56
450	77.56
450.221	90.56
450.442	69.56
450.662	94.56
450.883	84.56
451.104	96.56
451.324	88.56
451.545	82.56
451.766	69.56
451.986	75.56
452.207	78.56
452.428	94.56
452.648	83.56
452.869	73.56
453.089	91.56
453.31	74.56
453.53	67.56
453.751	85.56
453.971	82.56
454.192	74.56
454.412	74.56
454.633	83.56
454.853	71.56
455.073	75.56
455.294	78.56
455.514	80.56
455.734	78.56
455.955	89.56
456.175	79.56
456.395	73.56
456.616	78.56
456.836	75.56
457.056	77.56
457.276	88.56
457.497	60.56
457.717	78.56
457.937	74.56
458.157	77.56
458.377	77.56
458.598	83.56
458.818	84.56
459.038	88.56
459.258	88.56
459.478	78.56
459.698	95.56
459.918	88.56
460.138	80.56
460.358	67.56
460.578	80.56
460.798	92.56
461.018	80.56
461.238	76.56
461.458	78.56
461.678	89.56
461.898	79.56
462.118	99.56
462.338	74.56
462.558	75.56
462.777	77.56
462.997	81.56
463.217	86.56
463.437	85.56
463.657	75.56
463.876	70.56
464.096	59.56
464.316	77.56
464.536	92.56
464.755	93.56
464.975	85.56
465.195	86.56
465.414	76.56
465.634	93.56
465.854	79.56
466.073	80.56
466.293	75.56
466.512	83.56
466.732	88.56
466.951	69.56
467.171	73.56
467.391	78.56
467.61	78.56
467.829	77.56
468.049	63.56
468.268	80.56
468.488	80.56
468.707	94.56
468.927	77.56
469.146	92.56
469.365	88.56
469.585	76.56
469.804	84.56
470.023	73.56
470.243	86.56
470.462	82.56
470.681	69.56
470.901	73.56
471.12	71.56
471.339	93.56
471.558	75.56
471.777	91.56
471.997	93.56
472.216	90.56
472.435	79.56
472.654	83.56
472.873	79.56
473.092	76.56
473.311	84.56
473.53	89.56
473.749	73.56
473.968	78.56
474.187	87.56
474.406	73.56
474.625	76.56
474.844	80.56
475.063	73.56
475.282	81.56
475.501	77.56
475.72	96.56
475.939	78.56
476.158	93.56
476.377	83.56
476.596	77.56
476.814	79.56
477.033	99.56
477.252	77.56
477.471	90.56
477.69	71.56
477.908	83.56
478.127	90.56
478.346	86.56
478.564	81.56
478.783	86.56
479.002	81.56
479.22	86.56
479.439	79.56
479.658	75.56
479.876	79.56
480.095	74.56
480.313	78.56
480.532	83.56
480.751	94.56
480.969	100.56
481.188	69.56
481.406	81.56
481.624	71.56
481.843	71.56
482.061	80.56
482.28	80.56
482.498	68.56
482.717	87.56
482.935	87.56
483.153	75.56
483.372	71.56
483.59	62.56
483.808	89.56
484.027	78.56
484.245	87.56
484.463	72.56
484.681	83.56
484.9	79.56
485.118	83.56
485.336	63.56
485.554	82.56
485.772	86.56
485.99	86.56
486.209	79.56
486.427	83.56
486.645	76.56
486.863	77.56
487.081	77.56
487.299	87.56
487.517	72.56
487.735	69.56
487.953	86.56
488.171	86.56
488.389	83.56
488.607	77.56
488.825	87.56
489.043	90.56
489.261	88.56
489.479	82.56
489.696	89.56
489.914	73.56
490.132	81.56
490.35	81.56
490.568	90.56
490.786	90.56
491.003	91.56
491.221	73.56
491.439	85.56
491.657	87.56
491.874	82.56
492.092	85.56
492.31	80.56
492.527	103.56
492.745	84.56
492.963	83.56
493.18	75.56
493.398	86.56
493.615	79.56
493.833	89.56
494.05	77.56
494.268	94.56
494.485	81.56
494.703	84.56
494.92	93.56
495.138	94.56
495.355	83.56
495.573	73.56
495.79	84.56
496.008	85.56
496.225	76.56
496.442	99.56
496.66	76.56
496.877	99.56
497.094	69.56
497.312	77.56
497.529	81.56
497.746	89.56
497.963	90.56
498.181	84.56
498.398	67.56
498.615	78.56
498.832	80.56
499.049	83.56
499.267	72.56
499.484	76.56
499.701	83.56
499.918	87.56
500.135	76.56
500.352	88.56
500.569	96.56
500.786	128.56
501.003	90.56
501.22	77.56
501.437	76.56
501.654	70.56
501.871	64.56
502.088	72.56
502.305	74.56
502.522	68.56
502.739	74.56
502.956	82.56
503.172	84.56
503.389	94.56
503.606	94.56
503.823	79.56
504.04	83.56
504.256	86.56
504.473	97.56
504.69	81.56
504.907	61.56
505.123	92.56
505.34	82.56
505.557	67.56
505.773	92.56
505.99	86.56
506.207	78.56
506.423	81.56
506.64	85.56
506.856	66.56
507.073	84.56
507.289	79.56
507.506	83.56
507.722	79.56
507.939	81.56
508.155	83.56
508.372	77.56
508.588	85.56
508.805	78.56
509.021	91.56
509.238	76.56
509.454	81.56
509.67	78.56
509.887	67.56
510.103	86.56
510.319	76.56
510.536	88.56
510.752	75.56
510.968	84.56
511.184	81.56
511.401	90.56
511.617	78.56
511.833	81.56
512.049	73.56
512.265	76.56
512.481	89.56
512.698	79.56
512.914	79.56
513.13	77.56
513.346	77.56
513.562	95.56
513.778	86.56
513.994	80.56
514.21	69.56
514.426	84.56
514.642	84.56
514.858	100.56
515.074	87.56
515.29	91.56
515.506	69.56
515.721	84.56
515.937	88.56
516.153	101.56
516.369	80.56
516.585	79.56
516.801	77.56
517.016	82.56
517.232	85.56
517.448	80.56
517.664	74.56
517.879	75.56
518.095	75.56
518.311	81.56
518.527	86.56
518.742	89.56
518.958	81.56
519.173	78.56
519.389	70.56
519.605	81.56
519.82	83.56
