Data from StdB_HRD10591_004.txt Node
Date: Fri May 16 15:24:48 EDT 2025
User: Yrep
Spectrometer: HR+D1059
Trigger mode: 1
Integration Time (sec): 1.000000E-1
Scans to average: 1
Electric dark correction enabled: true
Nonlinearity correction enabled: false
Boxcar width: 0
XAxis mode: Wavelengths
Number of Pixels in Spectrum: 2048
>>>>>Begin Spectral Data<<<<<
223.165	-14.38
223.4	-14.38
223.635	-14.38
223.869	-15.38
224.104	-24.38
224.338	-19.38
224.573	-11.38
224.808	1.62
225.042	-5.38
225.277	-14.38
225.511	-8.38
225.746	1.62
225.98	2.62
226.215	10.62
226.449	26.62
226.683	20.62
226.918	27.62
227.152	21.62
227.387	20.62
227.621	43.62
227.856	60.62
228.09	47.62
228.324	46.62
228.559	47.62
228.793	63.62
229.027	73.62
229.262	84.62
229.496	69.62
229.73	74.62
229.964	76.62
230.199	67.62
230.433	70.62
230.667	84.62
230.901	88.62
231.136	82.62
231.37	87.62
231.604	86.62
231.838	98.62
232.072	85.62
232.306	95.62
232.541	99.62
232.775	94.62
233.009	74.62
233.243	79.62
233.477	102.62
233.711	84.62
233.945	88.62
234.179	102.62
234.413	88.62
234.647	91.62
234.881	100.62
235.115	86.62
235.349	99.62
235.583	77.62
235.817	88.62
236.051	95.62
236.285	91.62
236.519	86.62
236.753	75.62
236.987	92.62
237.221	93.62
237.455	106.62
237.689	83.62
237.922	106.62
238.156	90.62
238.39	91.62
238.624	71.62
238.858	78.62
239.091	97.62
239.325	89.62
239.559	93.62
239.793	113.62
240.027	95.62
240.26	95.62
240.494	90.62
240.728	85.62
240.961	103.62
241.195	103.62
241.429	99.62
241.662	98.62
241.896	88.62
242.13	101.62
242.363	95.62
242.597	79.62
242.83	87.62
243.064	105.62
243.298	100.62
243.531	85.62
243.765	90.62
243.998	104.62
244.232	90.62
244.465	93.62
244.699	114.62
244.932	114.62
245.166	107.62
245.399	105.62
245.633	90.62
245.866	102.62
246.099	97.62
246.333	104.62
246.566	100.62
246.8	107.62
247.033	93.62
247.266	90.62
247.5	95.62
247.733	100.62
247.966	124.62
248.2	118.62
248.433	103.62
248.666	106.62
248.899	82.62
249.133	101.62
249.366	98.62
249.599	96.62
249.832	105.62
250.066	117.62
250.299	110.62
250.532	103.62
250.765	107.62
250.998	103.62
251.231	117.62
251.465	106.62
251.698	100.62
251.931	110.62
252.164	130.62
252.397	122.62
252.63	129.62
252.863	136.62
253.096	142.62
253.329	146.62
253.562	115.62
253.795	128.62
254.028	129.62
254.261	144.62
254.494	139.62
254.727	136.62
254.96	132.62
255.193	139.62
255.426	119.62
255.659	115.62
255.892	130.62
256.124	116.62
256.357	139.62
256.59	123.62
256.823	124.62
257.056	126.62
257.289	126.62
257.521	134.62
257.754	155.62
257.987	181.62
258.22	149.62
258.452	159.62
258.685	147.62
258.918	120.62
259.151	135.62
259.383	154.62
259.616	129.62
259.849	141.62
260.081	138.62
260.314	142.62
260.547	170.62
260.779	189.62
261.012	204.62
261.244	258.62
261.477	319.62
261.71	350.62
261.942	252.62
262.175	185.62
262.407	172.62
262.64	149.62
262.872	148.62
263.105	156.62
263.337	143.62
263.57	139.62
263.802	137.62
264.035	130.62
264.267	149.62
264.499	148.62
264.732	166.62
264.964	180.62
265.197	201.62
265.429	185.62
265.661	149.62
265.894	163.62
266.126	181.62
266.358	213.62
266.591	238.62
266.823	196.62
267.055	158.62
267.287	142.62
267.52	149.62
267.752	132.62
267.984	142.62
268.216	134.62
268.448	128.62
268.681	139.62
268.913	132.62
269.145	124.62
269.377	149.62
269.609	146.62
269.841	144.62
270.073	143.62
270.306	132.62
270.538	151.62
270.77	156.62
271.002	133.62
271.234	117.62
271.466	138.62
271.698	123.62
271.93	136.62
272.162	142.62
272.394	134.62
272.626	132.62
272.858	136.62
273.09	140.62
273.322	138.62
273.553	143.62
273.785	135.62
274.017	133.62
274.249	143.62
274.481	141.62
274.713	138.62
274.945	143.62
275.176	146.62
275.408	135.62
275.64	150.62
275.872	140.62
276.104	134.62
276.335	146.62
276.567	129.62
276.799	153.62
277.031	140.62
277.262	158.62
277.494	158.62
277.726	168.62
277.957	163.62
278.189	173.62
278.421	162.62
278.652	164.62
278.884	190.62
279.115	198.62
279.347	214.62
279.579	268.62
279.81	324.62
280.042	422.62
280.273	520.62
280.505	453.62
280.736	299.62
280.968	243.62
281.199	210.62
281.431	194.62
281.662	222.62
281.894	212.62
282.125	222.62
282.356	268.62
282.588	268.62
282.819	252.62
283.051	266.62
283.282	376.62
283.513	397.62
283.745	323.62
283.976	238.62
284.207	203.62
284.439	193.62
284.67	172.62
284.901	168.62
285.132	190.62
285.364	167.62
285.595	169.62
285.826	164.62
286.057	178.62
286.288	171.62
286.52	180.62
286.751	204.62
286.982	228.62
287.213	274.62
287.444	295.62
287.675	265.62
287.906	190.62
288.138	164.62
288.369	181.62
288.6	164.62
288.831	155.62
289.062	152.62
289.293	166.62
289.524	153.62
289.755	141.62
289.986	154.62
290.217	139.62
290.448	135.62
290.679	133.62
290.91	143.62
291.141	150.62
291.371	144.62
291.602	167.62
291.833	159.62
292.064	145.62
292.295	164.62
292.526	154.62
292.757	157.62
292.987	163.62
293.218	147.62
293.449	159.62
293.68	173.62
293.91	168.62
294.141	175.62
294.372	163.62
294.603	167.62
294.833	162.62
295.064	182.62
295.295	159.62
295.525	160.62
295.756	176.62
295.987	158.62
296.217	168.62
296.448	160.62
296.679	168.62
296.909	174.62
297.14	151.62
297.37	174.62
297.601	176.62
297.831	182.62
298.062	161.62
298.292	167.62
298.523	181.62
298.753	167.62
298.984	159.62
299.214	167.62
299.445	162.62
299.675	166.62
299.905	174.62
300.136	178.62
300.366	167.62
300.597	171.62
300.827	168.62
301.057	166.62
301.288	171.62
301.518	182.62
301.748	152.62
301.979	201.62
302.209	174.62
302.439	167.62
302.669	179.62
302.9	179.62
303.13	167.62
303.36	162.62
303.59	154.62
303.82	179.62
304.051	180.62
304.281	183.62
304.511	162.62
304.741	178.62
304.971	178.62
305.201	186.62
305.431	183.62
305.661	182.62
305.891	161.62
306.121	164.62
306.352	188.62
306.582	166.62
306.812	166.62
307.042	159.62
307.272	178.62
307.502	178.62
307.731	178.62
307.961	174.62
308.191	168.62
308.421	167.62
308.651	160.62
308.881	171.62
309.111	176.62
309.341	170.62
309.571	173.62
309.8	167.62
310.03	173.62
310.26	183.62
310.49	178.62
310.72	191.62
310.949	172.62
311.179	159.62
311.409	180.62
311.639	175.62
311.868	176.62
312.098	184.62
312.328	192.62
312.557	191.62
312.787	199.62
313.017	195.62
313.246	202.62
313.476	181.62
313.706	209.62
313.935	205.62
314.165	205.62
314.394	200.62
314.624	212.62
314.853	223.62
315.083	201.62
315.312	222.62
315.542	204.62
315.771	190.62
316.001	210.62
316.23	199.62
316.46	198.62
316.689	202.62
316.919	208.62
317.148	207.62
317.377	214.62
317.607	209.62
317.836	212.62
318.065	207.62
318.295	210.62
318.524	202.62
318.753	182.62
318.983	188.62
319.212	192.62
319.441	187.62
319.67	198.62
319.9	189.62
320.129	174.62
320.358	174.62
320.587	179.62
320.816	176.62
321.046	164.62
321.275	183.62
321.504	183.62
321.733	183.62
321.962	190.62
322.191	208.62
322.42	189.62
322.649	158.62
322.878	178.62
323.108	175.62
323.337	185.62
323.566	192.62
323.795	198.62
324.024	175.62
324.253	192.62
324.482	190.62
324.71	184.62
324.939	175.62
325.168	190.62
325.397	190.62
325.626	189.62
325.855	193.62
326.084	199.62
326.313	185.62
326.542	189.62
326.77	178.62
326.999	198.62
327.228	200.62
327.457	186.62
327.686	215.62
327.914	184.62
328.143	181.62
328.372	198.62
328.6	182.62
328.829	195.62
329.058	193.62
329.287	174.62
329.515	176.62
329.744	193.62
329.972	193.62
330.201	187.62
330.43	202.62
330.658	182.62
330.887	191.62
331.115	200.62
331.344	200.62
331.572	186.62
331.801	197.62
332.03	192.62
332.258	196.62
332.486	195.62
332.715	196.62
332.943	190.62
333.172	195.62
333.4	202.62
333.629	210.62
333.857	199.62
334.085	205.62
334.314	200.62
334.542	198.62
334.771	197.62
334.999	182.62
335.227	183.62
335.455	193.62
335.684	188.62
335.912	190.62
336.14	200.62
336.369	193.62
336.597	184.62
336.825	208.62
337.053	209.62
337.281	193.62
337.51	176.62
337.738	182.62
337.966	186.62
338.194	180.62
338.422	197.62
338.65	187.62
338.878	183.62
339.106	192.62
339.334	188.62
339.562	204.62
339.79	185.62
340.018	174.62
340.246	171.62
340.474	182.62
340.702	174.62
340.93	180.62
341.158	186.62
341.386	196.62
341.614	193.62
341.842	192.62
342.07	189.62
342.298	197.62
342.526	192.62
342.754	199.62
342.981	193.62
343.209	187.62
343.437	199.62
343.665	198.62
343.893	202.62
344.12	216.62
344.348	214.62
344.576	192.62
344.804	202.62
345.031	178.62
345.259	209.62
345.487	192.62
345.714	208.62
345.942	205.62
346.17	192.62
346.397	186.62
346.625	192.62
346.853	178.62
347.08	206.62
347.308	186.62
347.535	197.62
347.763	178.62
347.99	188.62
348.218	183.62
348.445	181.62
348.673	178.62
348.9	206.62
349.128	185.62
349.355	182.62
349.583	180.62
349.81	191.62
350.037	166.62
350.265	190.62
350.492	184.62
350.72	182.62
350.947	196.62
351.174	192.62
351.402	174.62
351.629	199.62
351.856	194.62
352.083	188.62
352.311	202.62
352.538	197.62
352.765	194.62
352.992	199.62
353.22	182.62
353.447	191.62
353.674	183.62
353.901	191.62
354.128	202.62
354.355	192.62
354.583	203.62
354.81	186.62
355.037	200.62
355.264	183.62
355.491	199.62
355.718	207.62
355.945	218.62
356.172	217.62
356.399	217.62
356.626	259.62
356.853	308.62
357.08	443.62
357.307	566.62
357.534	572.62
357.761	422.62
357.988	344.62
358.215	270.62
358.441	252.62
358.668	256.62
358.895	252.62
359.122	216.62
359.349	233.62
359.576	230.62
359.802	205.62
360.029	206.62
360.256	191.62
360.483	210.62
360.709	214.62
360.936	230.62
361.163	229.62
361.39	205.62
361.616	189.62
361.843	210.62
362.07	213.62
362.296	209.62
362.523	222.62
362.749	207.62
362.976	231.62
363.203	258.62
363.429	313.62
363.656	452.62
363.882	625.62
364.109	734.62
364.335	508.62
364.562	356.62
364.788	283.62
365.015	251.62
365.241	223.62
365.468	216.62
365.694	236.62
365.92	228.62
366.147	222.62
366.373	239.62
366.599	246.62
366.826	279.62
367.052	318.62
367.278	343.62
367.505	331.62
367.731	359.62
367.957	488.62
368.184	735.62
368.41	1002.62
368.636	849.62
368.862	505.62
369.089	367.62
369.315	314.62
369.541	290.62
369.767	262.62
369.993	248.62
370.219	218.62
370.445	230.62
370.672	220.62
370.898	229.62
371.124	228.62
371.35	224.62
371.576	216.62
371.802	205.62
372.028	220.62
372.254	221.62
372.48	244.62
372.706	226.62
372.932	255.62
373.158	254.62
373.384	266.62
373.61	338.62
373.835	496.62
374.061	644.62
374.287	552.62
374.513	370.62
374.739	296.62
374.965	268.62
375.191	243.62
375.416	241.62
375.642	231.62
375.868	232.62
376.094	219.62
376.319	212.62
376.545	219.62
376.771	203.62
376.997	200.62
377.222	198.62
377.448	203.62
377.674	227.62
377.899	218.62
378.125	212.62
378.35	216.62
378.576	223.62
378.802	224.62
379.027	235.62
379.253	240.62
379.478	230.62
379.704	220.62
379.929	211.62
380.155	216.62
380.38	202.62
380.606	209.62
380.831	199.62
381.057	207.62
381.282	192.62
381.507	199.62
381.733	206.62
381.958	221.62
382.184	198.62
382.409	234.62
382.634	219.62
382.86	214.62
383.085	220.62
383.31	220.62
383.535	208.62
383.761	214.62
383.986	208.62
384.211	214.62
384.436	209.62
384.662	199.62
384.887	226.62
385.112	216.62
385.337	231.62
385.562	220.62
385.787	228.62
386.013	223.62
386.238	222.62
386.463	240.62
386.688	236.62
386.913	219.62
387.138	228.62
387.363	205.62
387.588	221.62
387.813	229.62
388.038	231.62
388.263	210.62
388.488	212.62
388.713	199.62
388.938	227.62
389.163	225.62
389.387	214.62
389.612	198.62
389.837	211.62
390.062	219.62
390.287	208.62
390.512	223.62
390.736	210.62
390.961	207.62
391.186	219.62
391.411	231.62
391.636	218.62
391.86	223.62
392.085	222.62
392.31	210.62
392.534	206.62
392.759	210.62
392.984	227.62
393.208	240.62
393.433	238.62
393.658	228.62
393.882	221.62
394.107	234.62
394.331	228.62
394.556	224.62
394.78	208.62
395.005	207.62
395.229	233.62
395.454	228.62
395.678	223.62
395.903	238.62
396.127	226.62
396.352	199.62
396.576	233.62
396.801	221.62
397.025	245.62
397.249	237.62
397.474	219.62
397.698	219.62
397.922	216.62
398.147	198.62
398.371	228.62
398.595	240.62
398.82	241.62
399.044	264.62
399.268	239.62
399.492	263.62
399.717	274.62
399.941	253.62
400.165	254.62
400.389	244.62
400.613	250.62
400.837	248.62
401.062	244.62
401.286	240.62
401.51	269.62
401.734	269.62
401.958	307.62
402.182	293.62
402.406	266.62
402.63	254.62
402.854	249.62
403.078	250.62
403.302	240.62
403.526	262.62
403.75	256.62
403.974	259.62
404.198	276.62
404.422	300.62
404.645	298.62
404.869	337.62
405.093	397.62
405.317	505.62
405.541	845.62
405.765	1365.62
405.988	1607.62
406.212	1043.62
406.436	703.62
406.66	504.62
406.883	415.62
407.107	394.62
407.331	339.62
407.555	330.62
407.778	290.62
408.002	303.62
408.226	312.62
408.449	285.62
408.673	277.62
408.896	260.62
409.12	282.62
409.344	270.62
409.567	271.62
409.791	262.62
410.014	241.62
410.238	239.62
410.461	255.62
410.685	237.62
410.908	247.62
411.132	239.62
411.355	256.62
411.578	240.62
411.802	259.62
412.025	237.62
412.249	259.62
412.472	245.62
412.695	248.62
412.919	246.62
413.142	249.62
413.365	236.62
413.589	238.62
413.812	238.62
414.035	242.62
414.258	244.62
414.482	236.62
414.705	223.62
414.928	257.62
415.151	234.62
415.374	250.62
415.597	233.62
415.821	245.62
416.044	230.62
416.267	240.62
416.49	241.62
416.713	262.62
416.936	265.62
417.159	237.62
417.382	249.62
417.605	228.62
417.828	236.62
418.051	242.62
418.274	242.62
418.497	231.62
418.72	234.62
418.943	232.62
419.166	243.62
419.389	261.62
419.611	246.62
419.834	229.62
420.057	233.62
420.28	247.62
420.503	232.62
420.726	244.62
420.948	245.62
421.171	256.62
421.394	246.62
421.617	245.62
421.839	255.62
422.062	258.62
422.285	252.62
422.507	291.62
422.73	284.62
422.953	299.62
423.175	309.62
423.398	328.62
423.621	356.62
423.843	384.62
424.066	415.62
424.288	522.62
424.511	638.62
424.733	692.62
424.956	605.62
425.178	505.62
425.401	452.62
425.623	432.62
425.846	365.62
426.068	360.62
426.291	325.62
426.513	321.62
426.735	308.62
426.958	313.62
427.18	286.62
427.402	284.62
427.625	266.62
427.847	281.62
428.069	269.62
428.292	255.62
428.514	268.62
428.736	256.62
428.958	256.62
429.181	252.62
429.403	240.62
429.625	252.62
429.847	240.62
430.069	245.62
430.292	244.62
430.514	215.62
430.736	238.62
430.958	246.62
431.18	237.62
431.402	244.62
431.624	226.62
431.846	232.62
432.068	242.62
432.29	238.62
432.512	250.62
432.734	246.62
432.956	241.62
433.178	247.62
433.4	260.62
433.622	268.62
433.844	274.62
434.066	282.62
434.287	264.62
434.509	251.62
434.731	270.62
434.953	253.62
435.175	263.62
435.397	278.62
435.618	235.62
435.84	247.62
436.062	242.62
436.284	245.62
436.505	256.62
436.727	271.62
436.949	278.62
437.17	294.62
437.392	292.62
437.614	300.62
437.835	325.62
438.057	360.62
438.278	388.62
438.5	484.62
438.721	578.62
438.943	627.62
439.165	548.62
439.386	484.62
439.608	434.62
439.829	401.62
440.05	386.62
440.272	387.62
440.493	381.62
440.715	420.62
440.936	438.62
441.158	448.62
441.379	387.62
441.6	366.62
441.822	342.62
442.043	306.62
442.264	304.62
442.486	298.62
442.707	273.62
442.928	290.62
443.149	288.62
443.371	275.62
443.592	276.62
443.813	266.62
444.034	244.62
444.255	263.62
444.476	258.62
444.698	264.62
444.919	258.62
445.14	334.62
445.361	282.62
445.582	237.62
445.803	240.62
446.024	235.62
446.245	239.62
446.466	233.62
446.687	236.62
446.908	244.62
447.129	243.62
447.35	243.62
447.571	239.62
447.792	228.62
448.013	212.62
448.234	227.62
448.455	223.62
448.675	226.62
448.896	217.62
449.117	244.62
449.338	230.62
449.559	228.62
449.779	227.62
450	217.62
450.221	206.62
450.442	214.62
450.662	212.62
450.883	200.62
451.104	218.62
451.324	210.62
451.545	221.62
451.766	202.62
451.986	196.62
452.207	215.62
452.428	216.62
452.648	206.62
452.869	192.62
453.089	205.62
453.31	200.62
453.53	201.62
453.751	201.62
453.971	218.62
454.192	212.62
454.412	196.62
454.633	205.62
454.853	212.62
455.073	214.62
455.294	218.62
455.514	209.62
455.734	204.62
455.955	210.62
456.175	200.62
456.395	197.62
456.616	197.62
456.836	191.62
457.056	214.62
457.276	192.62
457.497	191.62
457.717	184.62
457.937	198.62
458.157	188.62
458.377	204.62
458.598	212.62
458.818	206.62
459.038	216.62
459.258	202.62
459.478	227.62
459.698	208.62
459.918	219.62
460.138	204.62
460.358	207.62
460.578	222.62
460.798	231.62
461.018	234.62
461.238	224.62
461.458	223.62
461.678	230.62
461.898	218.62
462.118	210.62
462.338	228.62
462.558	236.62
462.777	242.62
462.997	245.62
463.217	239.62
463.437	230.62
463.657	219.62
463.876	226.62
464.096	236.62
464.316	250.62
464.536	238.62
464.755	239.62
464.975	213.62
465.195	224.62
465.414	220.62
465.634	222.62
465.854	222.62
466.073	207.62
466.293	224.62
466.512	220.62
466.732	220.62
466.951	218.62
467.171	210.62
467.391	206.62
467.61	195.62
467.829	237.62
468.049	215.62
468.268	216.62
468.488	197.62
468.707	207.62
468.927	200.62
469.146	205.62
469.365	216.62
469.585	213.62
469.804	208.62
470.023	222.62
470.243	201.62
470.462	226.62
470.681	216.62
470.901	209.62
471.12	208.62
471.339	213.62
471.558	202.62
471.777	202.62
471.997	202.62
472.216	208.62
472.435	197.62
472.654	215.62
472.873	220.62
473.092	208.62
473.311	216.62
473.53	212.62
473.749	202.62
473.968	219.62
474.187	220.62
474.406	231.62
474.625	222.62
474.844	208.62
475.063	209.62
475.282	190.62
475.501	216.62
475.72	211.62
475.939	217.62
476.158	202.62
476.377	216.62
476.596	219.62
476.814	218.62
477.033	222.62
477.252	232.62
477.471	228.62
477.69	223.62
477.908	230.62
478.127	235.62
478.346	245.62
478.564	250.62
478.783	253.62
479.002	254.62
479.22	230.62
479.439	249.62
479.658	244.62
479.876	264.62
480.095	247.62
480.313	255.62
480.532	254.62
480.751	266.62
480.969	260.62
481.188	237.62
481.406	242.62
481.624	243.62
481.843	243.62
482.061	233.62
482.28	249.62
482.498	246.62
482.717	236.62
482.935	224.62
483.153	228.62
483.372	228.62
483.59	219.62
483.808	247.62
484.027	228.62
484.245	253.62
484.463	242.62
484.681	243.62
484.9	230.62
485.118	217.62
485.336	235.62
485.554	248.62
485.772	236.62
485.99	229.62
486.209	232.62
486.427	221.62
486.645	255.62
486.863	238.62
487.081	267.62
487.299	244.62
487.517	249.62
487.735	256.62
487.953	239.62
488.171	242.62
488.389	242.62
488.607	247.62
488.825	241.62
489.043	249.62
489.261	252.62
489.479	255.62
489.696	248.62
489.914	260.62
490.132	247.62
490.35	233.62
490.568	238.62
490.786	244.62
491.003	240.62
491.221	269.62
491.439	261.62
491.657	252.62
491.874	243.62
492.092	267.62
492.31	247.62
492.527	257.62
492.745	246.62
492.963	261.62
493.18	251.62
493.398	249.62
493.615	261.62
493.833	252.62
494.05	255.62
494.268	248.62
494.485	254.62
494.703	247.62
494.92	267.62
495.138	267.62
495.355	291.62
495.573	296.62
495.79	269.62
496.008	284.62
496.225	274.62
496.442	280.62
496.66	281.62
496.877	254.62
497.094	269.62
497.312	288.62
497.529	283.62
497.746	283.62
497.963	286.62
498.181	283.62
498.398	294.62
498.615	306.62
498.832	327.62
499.049	315.62
499.267	326.62
499.484	327.62
499.701	363.62
499.918	368.62
500.135	385.62
500.352	409.62
500.569	493.62
500.786	546.62
501.003	450.62
501.22	399.62
501.437	364.62
501.654	344.62
501.871	354.62
502.088	338.62
502.305	314.62
502.522	341.62
502.739	324.62
502.956	317.62
503.172	302.62
503.389	321.62
503.606	318.62
