Data from StdB_HRD10591_029.txt Node
Date: Fri May 16 15:25:00 EDT 2025
User: Yrep
Spectrometer: HR+D1059
Trigger mode: 1
Integration Time (sec): 1.000000E-1
Scans to average: 1
Electric dark correction enabled: true
Nonlinearity correction enabled: false
Boxcar width: 0
XAxis mode: Wavelengths
Number of Pixels in Spectrum: 2048
>>>>>Begin Spectral Data<<<<<
223.165	-8.12
223.4	-8.12
223.635	-8.12
223.869	-21.12
224.104	-31.12
224.338	-21.12
224.573	-3.12
224.808	-18.12
225.042	-4.12
225.277	-10.12
225.511	-0.12
225.746	2.88
225.98	13.88
226.215	18.88
226.449	8.88
226.683	12.88
226.918	29.88
227.152	29.88
227.387	51.88
227.621	42.88
227.856	45.88
228.09	44.88
228.324	42.88
228.559	51.88
228.793	69.88
229.027	80.88
229.262	75.88
229.496	82.88
229.73	82.88
229.964	75.88
230.199	88.88
230.433	100.88
230.667	81.88
230.901	72.88
231.136	87.88
231.37	92.88
231.604	79.88
231.838	79.88
232.072	86.88
232.306	80.88
232.541	88.88
232.775	93.88
233.009	102.88
233.243	97.88
233.477	85.88
233.711	92.88
233.945	74.88
234.179	104.88
234.413	109.88
234.647	95.88
234.881	94.88
235.115	90.88
235.349	107.88
235.583	104.88
235.817	106.88
236.051	84.88
236.285	86.88
236.519	92.88
236.753	75.88
236.987	85.88
237.221	84.88
237.455	104.88
237.689	93.88
237.922	110.88
238.156	85.88
238.39	88.88
238.624	94.88
238.858	92.88
239.091	90.88
239.325	90.88
239.559	119.88
239.793	120.88
240.027	110.88
240.26	107.88
240.494	112.88
240.728	99.88
240.961	94.88
241.195	100.88
241.429	98.88
241.662	93.88
241.896	92.88
242.13	91.88
242.363	113.88
242.597	94.88
242.83	112.88
243.064	110.88
243.298	108.88
243.531	106.88
243.765	107.88
243.998	105.88
244.232	104.88
244.465	105.88
244.699	130.88
244.932	102.88
245.166	108.88
245.399	104.88
245.633	107.88
245.866	107.88
246.099	97.88
246.333	108.88
246.566	115.88
246.8	108.88
247.033	110.88
247.266	98.88
247.5	117.88
247.733	134.88
247.966	135.88
248.2	125.88
248.433	129.88
248.666	116.88
248.899	112.88
249.133	109.88
249.366	110.88
249.599	110.88
249.832	107.88
250.066	111.88
250.299	107.88
250.532	127.88
250.765	122.88
250.998	132.88
251.231	123.88
251.465	122.88
251.698	123.88
251.931	120.88
252.164	129.88
252.397	140.88
252.63	146.88
252.863	134.88
253.096	135.88
253.329	137.88
253.562	134.88
253.795	151.88
254.028	138.88
254.261	149.88
254.494	131.88
254.727	146.88
254.96	144.88
255.193	128.88
255.426	132.88
255.659	136.88
255.892	135.88
256.124	135.88
256.357	127.88
256.59	149.88
256.823	135.88
257.056	139.88
257.289	140.88
257.521	144.88
257.754	157.88
257.987	188.88
258.22	185.88
258.452	156.88
258.685	136.88
258.918	151.88
259.151	146.88
259.383	152.88
259.616	148.88
259.849	148.88
260.081	146.88
260.314	169.88
260.547	178.88
260.779	187.88
261.012	205.88
261.244	271.88
261.477	319.88
261.71	320.88
261.942	236.88
262.175	181.88
262.407	163.88
262.64	160.88
262.872	151.88
263.105	164.88
263.337	147.88
263.57	141.88
263.802	153.88
264.035	151.88
264.267	162.88
264.499	146.88
264.732	185.88
264.964	178.88
265.197	202.88
265.429	184.88
265.661	140.88
265.894	164.88
266.126	175.88
266.358	216.88
266.591	223.88
266.823	202.88
267.055	181.88
267.287	157.88
267.52	139.88
267.752	146.88
267.984	140.88
268.216	142.88
268.448	140.88
268.681	143.88
268.913	130.88
269.145	139.88
269.377	147.88
269.609	152.88
269.841	152.88
270.073	148.88
270.306	137.88
270.538	152.88
270.77	140.88
271.002	139.88
271.234	139.88
271.466	129.88
271.698	141.88
271.93	148.88
272.162	140.88
272.394	146.88
272.626	136.88
272.858	133.88
273.09	138.88
273.322	152.88
273.553	139.88
273.785	148.88
274.017	129.88
274.249	142.88
274.481	138.88
274.713	151.88
274.945	153.88
275.176	148.88
275.408	147.88
275.64	136.88
275.872	147.88
276.104	157.88
276.335	146.88
276.567	146.88
276.799	143.88
277.031	150.88
277.262	150.88
277.494	154.88
277.726	145.88
277.957	183.88
278.189	180.88
278.421	166.88
278.652	189.88
278.884	185.88
279.115	217.88
279.347	225.88
279.579	268.88
279.81	324.88
280.042	430.88
280.273	508.88
280.505	462.88
280.736	311.88
280.968	242.88
281.199	232.88
281.431	211.88
281.662	214.88
281.894	235.88
282.125	247.88
282.356	271.88
282.588	273.88
282.819	253.88
283.051	278.88
283.282	332.88
283.513	390.88
283.745	335.88
283.976	226.88
284.207	217.88
284.439	194.88
284.67	180.88
284.901	203.88
285.132	184.88
285.364	170.88
285.595	175.88
285.826	175.88
286.057	178.88
286.288	202.88
286.52	190.88
286.751	210.88
286.982	253.88
287.213	270.88
287.444	325.88
287.675	273.88
287.906	192.88
288.138	184.88
288.369	157.88
288.6	180.88
288.831	175.88
289.062	157.88
289.293	161.88
289.524	155.88
289.755	170.88
289.986	182.88
290.217	167.88
290.448	155.88
290.679	159.88
290.91	164.88
291.141	163.88
291.371	153.88
291.602	170.88
291.833	162.88
292.064	154.88
292.295	167.88
292.526	151.88
292.757	160.88
292.987	173.88
293.218	166.88
293.449	169.88
293.68	162.88
293.91	168.88
294.141	168.88
294.372	179.88
294.603	158.88
294.833	182.88
295.064	168.88
295.295	173.88
295.525	172.88
295.756	167.88
295.987	185.88
296.217	186.88
296.448	173.88
296.679	174.88
296.909	167.88
297.14	167.88
297.37	182.88
297.601	183.88
297.831	168.88
298.062	160.88
298.292	181.88
298.523	155.88
298.753	181.88
298.984	183.88
299.214	177.88
299.445	174.88
299.675	166.88
299.905	180.88
300.136	191.88
300.366	177.88
300.597	163.88
300.827	180.88
301.057	180.88
301.288	177.88
301.518	159.88
301.748	195.88
301.979	184.88
302.209	187.88
302.439	186.88
302.669	171.88
302.9	178.88
303.13	203.88
303.36	190.88
303.59	173.88
303.82	183.88
304.051	192.88
304.281	189.88
304.511	181.88
304.741	190.88
304.971	182.88
305.201	193.88
305.431	177.88
305.661	182.88
305.891	173.88
306.121	172.88
306.352	186.88
306.582	167.88
306.812	178.88
307.042	182.88
307.272	182.88
307.502	182.88
307.731	186.88
307.961	149.88
308.191	186.88
308.421	175.88
308.651	180.88
308.881	173.88
309.111	196.88
309.341	164.88
309.571	169.88
309.8	184.88
310.03	172.88
310.26	186.88
310.49	191.88
310.72	168.88
310.949	169.88
311.179	191.88
311.409	182.88
311.639	183.88
311.868	186.88
312.098	198.88
312.328	192.88
312.557	194.88
312.787	163.88
313.017	203.88
313.246	195.88
313.476	205.88
313.706	216.88
313.935	232.88
314.165	202.88
314.394	222.88
314.624	214.88
314.853	210.88
315.083	216.88
315.312	237.88
315.542	218.88
315.771	210.88
316.001	208.88
316.23	233.88
316.46	208.88
316.689	206.88
316.919	219.88
317.148	232.88
317.377	229.88
317.607	236.88
317.836	216.88
318.065	209.88
318.295	210.88
318.524	211.88
318.753	196.88
318.983	200.88
319.212	190.88
319.441	204.88
319.67	198.88
319.9	201.88
320.129	201.88
320.358	194.88
320.587	185.88
320.816	187.88
321.046	190.88
321.275	215.88
321.504	182.88
321.733	171.88
321.962	206.88
322.191	206.88
322.42	204.88
322.649	195.88
322.878	178.88
323.108	192.88
323.337	186.88
323.566	194.88
323.795	203.88
324.024	196.88
324.253	184.88
324.482	189.88
324.71	180.88
324.939	207.88
325.168	206.88
325.397	195.88
325.626	206.88
325.855	196.88
326.084	196.88
326.313	203.88
326.542	202.88
326.77	199.88
326.999	194.88
327.228	201.88
327.457	192.88
327.686	198.88
327.914	193.88
328.143	211.88
328.372	207.88
328.6	200.88
328.829	197.88
329.058	208.88
329.287	222.88
329.515	194.88
329.744	216.88
329.972	208.88
330.201	206.88
330.43	204.88
330.658	210.88
330.887	190.88
331.115	207.88
331.344	183.88
331.572	190.88
331.801	207.88
332.03	194.88
332.258	192.88
332.486	207.88
332.715	212.88
332.943	199.88
333.172	207.88
333.4	211.88
333.629	230.88
333.857	208.88
334.085	187.88
334.314	201.88
334.542	202.88
334.771	197.88
334.999	204.88
335.227	204.88
335.455	203.88
335.684	193.88
335.912	218.88
336.14	189.88
336.369	183.88
336.597	201.88
336.825	197.88
337.053	199.88
337.281	205.88
337.51	194.88
337.738	208.88
337.966	198.88
338.194	205.88
338.422	184.88
338.65	205.88
338.878	188.88
339.106	207.88
339.334	204.88
339.562	204.88
339.79	196.88
340.018	170.88
340.246	180.88
340.474	203.88
340.702	188.88
340.93	192.88
341.158	191.88
341.386	197.88
341.614	198.88
341.842	188.88
342.07	206.88
342.298	206.88
342.526	202.88
342.754	204.88
342.981	201.88
343.209	198.88
343.437	209.88
343.665	197.88
343.893	214.88
344.12	204.88
344.348	208.88
344.576	203.88
344.804	208.88
345.031	200.88
345.259	210.88
345.487	211.88
345.714	199.88
345.942	195.88
346.17	194.88
346.397	211.88
346.625	209.88
346.853	206.88
347.08	194.88
347.308	203.88
347.535	217.88
347.763	198.88
347.99	202.88
348.218	204.88
348.445	186.88
348.673	194.88
348.9	187.88
349.128	192.88
349.355	199.88
349.583	192.88
349.81	182.88
350.037	188.88
350.265	191.88
350.492	188.88
350.72	178.88
350.947	197.88
351.174	187.88
351.402	194.88
351.629	190.88
351.856	197.88
352.083	191.88
352.311	187.88
352.538	192.88
352.765	195.88
352.992	207.88
353.22	195.88
353.447	185.88
353.674	195.88
353.901	200.88
354.128	210.88
354.355	197.88
354.583	202.88
354.81	209.88
355.037	210.88
355.264	214.88
355.491	205.88
355.718	222.88
355.945	226.88
356.172	227.88
356.399	238.88
356.626	259.88
356.853	317.88
357.08	426.88
357.307	593.88
357.534	562.88
357.761	423.88
357.988	324.88
358.215	312.88
358.441	270.88
358.668	261.88
358.895	246.88
359.122	243.88
359.349	224.88
359.576	257.88
359.802	225.88
360.029	236.88
360.256	226.88
360.483	214.88
360.709	209.88
360.936	223.88
361.163	222.88
361.39	222.88
361.616	222.88
361.843	189.88
362.07	211.88
362.296	227.88
362.523	222.88
362.749	232.88
362.976	242.88
363.203	272.88
363.429	301.88
363.656	456.88
363.882	642.88
364.109	753.88
364.335	526.88
364.562	366.88
364.788	284.88
365.015	288.88
365.241	255.88
365.468	246.88
365.694	231.88
365.92	242.88
366.147	247.88
366.373	254.88
366.599	263.88
366.826	275.88
367.052	298.88
367.278	350.88
367.505	354.88
367.731	355.88
367.957	496.88
368.184	727.88
368.41	994.88
368.636	865.88
368.862	523.88
369.089	396.88
369.315	338.88
369.541	303.88
369.767	277.88
369.993	270.88
370.219	228.88
370.445	251.88
370.672	250.88
370.898	249.88
371.124	235.88
371.35	229.88
371.576	230.88
371.802	234.88
372.028	220.88
372.254	226.88
372.48	236.88
372.706	238.88
372.932	248.88
373.158	259.88
373.384	281.88
373.61	356.88
373.835	495.88
374.061	630.88
374.287	564.88
374.513	390.88
374.739	294.88
374.965	266.88
375.191	251.88
375.416	253.88
375.642	220.88
375.868	219.88
376.094	224.88
376.319	221.88
376.545	224.88
376.771	208.88
376.997	212.88
377.222	205.88
377.448	195.88
377.674	217.88
377.899	205.88
378.125	215.88
378.35	236.88
378.576	225.88
378.802	230.88
379.027	242.88
379.253	235.88
379.478	207.88
379.704	220.88
379.929	242.88
380.155	219.88
380.38	214.88
380.606	203.88
380.831	206.88
381.057	224.88
381.282	214.88
381.507	196.88
381.733	209.88
381.958	222.88
382.184	212.88
382.409	227.88
382.634	227.88
382.86	217.88
383.085	211.88
383.31	216.88
383.535	222.88
383.761	219.88
383.986	202.88
384.211	212.88
384.436	226.88
384.662	234.88
384.887	225.88
385.112	222.88
385.337	218.88
385.562	232.88
385.787	220.88
386.013	239.88
386.238	233.88
386.463	221.88
386.688	238.88
386.913	230.88
387.138	223.88
387.363	226.88
387.588	226.88
387.813	218.88
388.038	240.88
388.263	223.88
388.488	218.88
388.713	227.88
388.938	218.88
389.163	209.88
389.387	213.88
389.612	211.88
389.837	220.88
390.062	215.88
390.287	205.88
390.512	224.88
390.736	216.88
390.961	218.88
391.186	237.88
391.411	227.88
391.636	213.88
391.86	223.88
392.085	232.88
392.31	235.88
392.534	219.88
392.759	223.88
392.984	214.88
393.208	242.88
393.433	228.88
393.658	210.88
393.882	217.88
394.107	223.88
394.331	220.88
394.556	225.88
394.78	230.88
395.005	240.88
395.229	233.88
395.454	226.88
395.678	227.88
395.903	227.88
396.127	226.88
396.352	200.88
396.576	216.88
396.801	211.88
397.025	223.88
397.249	218.88
397.474	236.88
397.698	234.88
397.922	223.88
398.147	215.88
398.371	246.88
398.595	236.88
398.82	247.88
399.044	239.88
399.268	255.88
399.492	271.88
399.717	273.88
399.941	274.88
400.165	273.88
400.389	255.88
400.613	258.88
400.837	257.88
401.062	245.88
401.286	241.88
401.51	257.88
401.734	277.88
401.958	312.88
402.182	306.88
402.406	268.88
402.63	256.88
402.854	248.88
403.078	256.88
403.302	298.88
403.526	274.88
403.75	255.88
403.974	276.88
404.198	280.88
404.422	296.88
404.645	308.88
404.869	328.88
405.093	368.88
405.317	483.88
405.541	794.88
405.765	1320.88
405.988	1543.88
406.212	1003.88
406.436	686.88
406.66	514.88
406.883	426.88
407.107	372.88
407.331	324.88
407.555	336.88
407.778	309.88
408.002	320.88
408.226	298.88
408.449	290.88
408.673	287.88
408.896	273.88
409.12	243.88
409.344	248.88
409.567	255.88
409.791	258.88
410.014	249.88
410.238	256.88
410.461	259.88
410.685	252.88
410.908	258.88
411.132	254.88
411.355	264.88
411.578	262.88
411.802	245.88
412.025	244.88
412.249	268.88
412.472	260.88
412.695	237.88
412.919	259.88
413.142	248.88
413.365	257.88
413.589	226.88
413.812	243.88
414.035	252.88
414.258	243.88
414.482	238.88
414.705	247.88
414.928	252.88
415.151	260.88
415.374	254.88
415.597	261.88
415.821	224.88
416.044	241.88
416.267	241.88
416.49	258.88
416.713	275.88
416.936	273.88
417.159	263.88
417.382	252.88
417.605	236.88
417.828	236.88
418.051	236.88
418.274	242.88
418.497	248.88
418.72	243.88
418.943	237.88
419.166	266.88
419.389	275.88
419.611	254.88
419.834	260.88
420.057	247.88
420.28	240.88
420.503	244.88
420.726	246.88
420.948	240.88
421.171	262.88
421.394	267.88
421.617	255.88
421.839	271.88
422.062	277.88
422.285	279.88
422.507	268.88
422.73	264.88
422.953	297.88
423.175	327.88
423.398	324.88
423.621	339.88
423.843	372.88
424.066	406.88
424.288	515.88
424.511	650.88
424.733	712.88
424.956	617.88
425.178	538.88
425.401	462.88
425.623	424.88
425.846	386.88
426.068	370.88
426.291	340.88
426.513	331.88
426.735	321.88
426.958	302.88
427.18	286.88
427.402	299.88
427.625	301.88
427.847	274.88
428.069	256.88
428.292	279.88
428.514	274.88
428.736	272.88
428.958	267.88
429.181	259.88
429.403	260.88
429.625	259.88
429.847	255.88
430.069	255.88
430.292	258.88
430.514	253.88
430.736	269.88
430.958	248.88
431.18	246.88
431.402	245.88
431.624	248.88
431.846	249.88
432.068	242.88
432.29	243.88
432.512	240.88
432.734	244.88
432.956	266.88
433.178	258.88
433.4	251.88
433.622	252.88
433.844	256.88
434.066	261.88
434.287	275.88
434.509	274.88
434.731	270.88
434.953	267.88
435.175	275.88
435.397	265.88
435.618	261.88
435.84	299.88
436.062	250.88
436.284	252.88
436.505	270.88
436.727	262.88
436.949	273.88
437.17	270.88
437.392	295.88
437.614	304.88
437.835	304.88
438.057	344.88
438.278	385.88
438.5	477.88
438.721	574.88
438.943	625.88
439.165	547.88
439.386	486.88
439.608	453.88
439.829	406.88
440.05	390.88
440.272	405.88
440.493	404.88
440.715	409.88
440.936	466.88
441.158	441.88
441.379	380.88
441.6	361.88
441.822	335.88
442.043	312.88
442.264	311.88
442.486	302.88
442.707	297.88
442.928	298.88
443.149	278.88
443.371	280.88
443.592	266.88
443.813	267.88
444.034	263.88
444.255	270.88
444.476	261.88
444.698	271.88
444.919	268.88
445.14	327.88
445.361	280.88
445.582	270.88
445.803	249.88
446.024	238.88
446.245	262.88
446.466	233.88
446.687	229.88
446.908	232.88
447.129	242.88
447.35	214.88
447.571	231.88
447.792	254.88
448.013	223.88
448.234	234.88
448.455	230.88
448.675	222.88
448.896	234.88
449.117	238.88
449.338	218.88
449.559	209.88
449.779	230.88
450	221.88
450.221	235.88
450.442	240.88
450.662	212.88
450.883	217.88
451.104	217.88
451.324	231.88
451.545	218.88
451.766	215.88
451.986	217.88
452.207	221.88
452.428	220.88
452.648	211.88
452.869	219.88
453.089	222.88
453.31	221.88
453.53	226.88
453.751	212.88
453.971	206.88
454.192	199.88
454.412	200.88
454.633	196.88
454.853	221.88
455.073	207.88
455.294	192.88
455.514	216.88
455.734	208.88
455.955	223.88
456.175	195.88
456.395	196.88
456.616	217.88
456.836	193.88
457.056	199.88
457.276	193.88
457.497	210.88
457.717	200.88
457.937	210.88
458.157	211.88
458.377	212.88
458.598	216.88
458.818	204.88
459.038	195.88
459.258	225.88
459.478	216.88
459.698	227.88
459.918	202.88
460.138	215.88
460.358	216.88
460.578	226.88
460.798	224.88
461.018	238.88
461.238	220.88
461.458	242.88
461.678	224.88
461.898	224.88
462.118	247.88
462.338	254.88
462.558	242.88
462.777	252.88
462.997	243.88
463.217	243.88
463.437	251.88
463.657	232.88
463.876	247.88
464.096	237.88
464.316	225.88
464.536	222.88
464.755	227.88
464.975	221.88
465.195	224.88
465.414	217.88
465.634	221.88
465.854	218.88
466.073	227.88
466.293	214.88
466.512	213.88
466.732	234.88
466.951	220.88
467.171	215.88
467.391	226.88
467.61	214.88
467.829	224.88
468.049	219.88
468.268	201.88
468.488	211.88
468.707	208.88
468.927	208.88
469.146	203.88
469.365	207.88
469.585	216.88
469.804	224.88
470.023	232.88
470.243	210.88
470.462	202.88
470.681	212.88
470.901	204.88
471.12	212.88
471.339	208.88
471.558	206.88
471.777	219.88
471.997	210.88
472.216	210.88
472.435	227.88
472.654	205.88
472.873	214.88
473.092	216.88
473.311	223.88
473.53	228.88
473.749	231.88
473.968	218.88
474.187	222.88
474.406	212.88
474.625	220.88
474.844	212.88
475.063	224.88
475.282	208.88
475.501	206.88
475.72	219.88
475.939	223.88
476.158	212.88
476.377	219.88
476.596	227.88
476.814	234.88
477.033	225.88
477.252	217.88
477.471	216.88
477.69	235.88
477.908	246.88
478.127	263.88
478.346	242.88
478.564	239.88
478.783	259.88
479.002	268.88
479.22	266.88
479.439	280.88
479.658	228.88
479.876	234.88
480.095	248.88
480.313	248.88
480.532	257.88
480.751	252.88
480.969	254.88
481.188	253.88
481.406	239.88
481.624	245.88
481.843	247.88
482.061	263.88
482.28	243.88
482.498	244.88
482.717	248.88
482.935	244.88
483.153	228.88
483.372	262.88
483.59	259.88
483.808	249.88
484.027	242.88
484.245	245.88
484.463	254.88
484.681	251.88
484.9	251.88
485.118	249.88
485.336	244.88
485.554	246.88
485.772	257.88
485.99	244.88
486.209	240.88
486.427	236.88
486.645	249.88
486.863	254.88
487.081	237.88
487.299	250.88
487.517	268.88
487.735	239.88
487.953	254.88
488.171	239.88
488.389	249.88
488.607	236.88
488.825	254.88
489.043	254.88
489.261	259.88
489.479	278.88
489.696	251.88
489.914	272.88
490.132	256.88
490.35	250.88
490.568	254.88
490.786	224.88
491.003	264.88
491.221	267.88
491.439	255.88
491.657	266.88
491.874	263.88
492.092	260.88
492.31	247.88
492.527	257.88
492.745	261.88
492.963	258.88
493.18	271.88
493.398	244.88
493.615	258.88
493.833	250.88
494.05	242.88
494.268	262.88
494.485	268.88
494.703	274.88
494.92	257.88
495.138	266.88
495.355	268.88
495.573	281.88
495.79	275.88
496.008	279.88
496.225	278.88
496.442	272.88
496.66	271.88
496.877	275.88
497.094	260.88
497.312	273.88
497.529	284.88
497.746	294.88
497.963	300.88
498.181	290.88
498.398	301.88
498.615	295.88
498.832	310.88
499.049	336.88
499.267	318.88
499.484	331.88
499.701	356.88
499.918	364.88
500.135	378.88
500.352	412.88
500.569	506.88
500.786	534.88
501.003	450.88
501.22	418.88
501.437	384.88
501.654	350.88
501.871	378.88
502.088	323.88
502.305	335.88
502.522	337.88
502.739	323.88
502.956	318.88
503.172	332.88
503.389	327.88
