Data from StdB_HRD10591_067.txt Node
Date: Fri May 16 15:25:19 EDT 2025
User: Yrep
Spectrometer: HR+D1059
Trigger mode: 1
Integration Time (sec): 1.000000E-1
Scans to average: 1
Electric dark correction enabled: true
Nonlinearity correction enabled: false
Boxcar width: 0
XAxis mode: Wavelengths
Number of Pixels in Spectrum: 2048
>>>>>Begin Spectral Data<<<<<
223.165	-18.31
223.4	-18.31
223.635	-18.31
223.869	-35.31
224.104	-24.31
224.338	-8.31
224.573	-14.31
224.808	-17.31
225.042	-8.31
225.277	0.69
225.511	-8.31
225.746	10.69
225.98	8.69
226.215	10.69
226.449	21.69
226.683	18.69
226.918	35.69
227.152	27.69
227.387	41.69
227.621	45.69
227.856	39.69
228.09	30.69
228.324	37.69
228.559	54.69
228.793	68.69
229.027	65.69
229.262	63.69
229.496	57.69
229.73	69.69
229.964	74.69
230.199	79.69
230.433	76.69
230.667	68.69
230.901	75.69
231.136	69.69
231.37	84.69
231.604	88.69
231.838	76.69
232.072	79.69
232.306	74.69
232.541	68.69
232.775	81.69
233.009	69.69
233.243	62.69
233.477	81.69
233.711	77.69
233.945	72.69
234.179	81.69
234.413	77.69
234.647	74.69
234.881	65.69
235.115	88.69
235.349	71.69
235.583	77.69
235.817	82.69
236.051	85.69
236.285	82.69
236.519	83.69
236.753	78.69
236.987	84.69
237.221	68.69
237.455	74.69
237.689	82.69
237.922	68.69
238.156	81.69
238.39	74.69
238.624	68.69
238.858	76.69
239.091	84.69
239.325	81.69
239.559	89.69
239.793	77.69
240.027	82.69
240.26	77.69
240.494	75.69
240.728	73.69
240.961	70.69
241.195	75.69
241.429	82.69
241.662	59.69
241.896	67.69
242.13	81.69
242.363	65.69
242.597	54.69
242.83	77.69
243.064	73.69
243.298	72.69
243.531	72.69
243.765	68.69
243.998	80.69
244.232	74.69
244.465	71.69
244.699	77.69
244.932	87.69
245.166	73.69
245.399	83.69
245.633	71.69
245.866	68.69
246.099	85.69
246.333	77.69
246.566	81.69
246.8	70.69
247.033	77.69
247.266	69.69
247.5	69.69
247.733	67.69
247.966	89.69
248.2	87.69
248.433	77.69
248.666	68.69
248.899	63.69
249.133	81.69
249.366	69.69
249.599	67.69
249.832	78.69
250.066	78.69
250.299	79.69
250.532	72.69
250.765	77.69
250.998	76.69
251.231	93.69
251.465	79.69
251.698	65.69
251.931	62.69
252.164	85.69
252.397	60.69
252.63	71.69
252.863	78.69
253.096	84.69
253.329	91.69
253.562	79.69
253.795	74.69
254.028	97.69
254.261	85.69
254.494	84.69
254.727	87.69
254.96	86.69
255.193	81.69
255.426	87.69
255.659	89.69
255.892	80.69
256.124	59.69
256.357	86.69
256.59	73.69
256.823	76.69
257.056	83.69
257.289	86.69
257.521	72.69
257.754	72.69
257.987	93.69
258.22	93.69
258.452	83.69
258.685	79.69
258.918	78.69
259.151	72.69
259.383	69.69
259.616	76.69
259.849	89.69
260.081	91.69
260.314	73.69
260.547	81.69
260.779	79.69
261.012	80.69
261.244	80.69
261.477	93.69
261.71	101.69
261.942	68.69
262.175	69.69
262.407	77.69
262.64	72.69
262.872	78.69
263.105	97.69
263.337	94.69
263.57	85.69
263.802	69.69
264.035	98.69
264.267	83.69
264.499	84.69
264.732	95.69
264.964	81.69
265.197	77.69
265.429	77.69
265.661	88.69
265.894	90.69
266.126	87.69
266.358	85.69
266.591	97.69
266.823	75.69
267.055	86.69
267.287	74.69
267.52	73.69
267.752	92.69
267.984	85.69
268.216	96.69
268.448	69.69
268.681	88.69
268.913	79.69
269.145	83.69
269.377	88.69
269.609	79.69
269.841	83.69
270.073	81.69
270.306	61.69
270.538	84.69
270.77	71.69
271.002	80.69
271.234	69.69
271.466	86.69
271.698	82.69
271.93	78.69
272.162	83.69
272.394	79.69
272.626	78.69
272.858	81.69
273.09	90.69
273.322	78.69
273.553	77.69
273.785	85.69
274.017	97.69
274.249	88.69
274.481	85.69
274.713	80.69
274.945	83.69
275.176	65.69
275.408	66.69
275.64	87.69
275.872	84.69
276.104	70.69
276.335	82.69
276.567	71.69
276.799	77.69
277.031	81.69
277.262	90.69
277.494	87.69
277.726	83.69
277.957	79.69
278.189	72.69
278.421	93.69
278.652	89.69
278.884	88.69
279.115	80.69
279.347	100.69
279.579	89.69
279.81	83.69
280.042	109.69
280.273	107.69
280.505	92.69
280.736	94.69
280.968	94.69
281.199	85.69
281.431	83.69
281.662	87.69
281.894	78.69
282.125	84.69
282.356	103.69
282.588	88.69
282.819	85.69
283.051	98.69
283.282	98.69
283.513	107.69
283.745	94.69
283.976	85.69
284.207	84.69
284.439	85.69
284.67	98.69
284.901	88.69
285.132	93.69
285.364	70.69
285.595	81.69
285.826	93.69
286.057	73.69
286.288	79.69
286.52	69.69
286.751	91.69
286.982	83.69
287.213	87.69
287.444	87.69
287.675	87.69
287.906	84.69
288.138	78.69
288.369	82.69
288.6	82.69
288.831	81.69
289.062	82.69
289.293	88.69
289.524	87.69
289.755	86.69
289.986	85.69
290.217	87.69
290.448	102.69
290.679	81.69
290.91	77.69
291.141	70.69
291.371	82.69
291.602	92.69
291.833	84.69
292.064	91.69
292.295	78.69
292.526	88.69
292.757	77.69
292.987	70.69
293.218	75.69
293.449	75.69
293.68	75.69
293.91	91.69
294.141	77.69
294.372	79.69
294.603	68.69
294.833	90.69
295.064	81.69
295.295	73.69
295.525	74.69
295.756	84.69
295.987	78.69
296.217	83.69
296.448	91.69
296.679	84.69
296.909	86.69
297.14	86.69
297.37	85.69
297.601	83.69
297.831	62.69
298.062	77.69
298.292	76.69
298.523	93.69
298.753	101.69
298.984	90.69
299.214	86.69
299.445	90.69
299.675	73.69
299.905	75.69
300.136	86.69
300.366	88.69
300.597	66.69
300.827	84.69
301.057	85.69
301.288	76.69
301.518	78.69
301.748	88.69
301.979	88.69
302.209	82.69
302.439	90.69
302.669	67.69
302.9	82.69
303.13	86.69
303.36	68.69
303.59	81.69
303.82	82.69
304.051	84.69
304.281	77.69
304.511	93.69
304.741	79.69
304.971	85.69
305.201	83.69
305.431	79.69
305.661	84.69
305.891	79.69
306.121	83.69
306.352	95.69
306.582	77.69
306.812	75.69
307.042	83.69
307.272	85.69
307.502	68.69
307.731	72.69
307.961	90.69
308.191	75.69
308.421	78.69
308.651	83.69
308.881	84.69
309.111	76.69
309.341	80.69
309.571	83.69
309.8	81.69
310.03	87.69
310.26	78.69
310.49	83.69
310.72	79.69
310.949	83.69
311.179	88.69
311.409	83.69
311.639	83.69
311.868	75.69
312.098	83.69
312.328	82.69
312.557	102.69
312.787	90.69
313.017	81.69
313.246	70.69
313.476	99.69
313.706	79.69
313.935	78.69
314.165	100.69
314.394	66.69
314.624	61.69
314.853	83.69
315.083	78.69
315.312	91.69
315.542	80.69
315.771	81.69
316.001	88.69
316.23	75.69
316.46	68.69
316.689	94.69
316.919	92.69
317.148	83.69
317.377	86.69
317.607	85.69
317.836	85.69
318.065	70.69
318.295	89.69
318.524	75.69
318.753	86.69
318.983	81.69
319.212	102.69
319.441	70.69
319.67	74.69
319.9	80.69
320.129	77.69
320.358	89.69
320.587	91.69
320.816	79.69
321.046	67.69
321.275	99.69
321.504	89.69
321.733	86.69
321.962	87.69
322.191	90.69
322.42	76.69
322.649	85.69
322.878	79.69
323.108	79.69
323.337	72.69
323.566	77.69
323.795	85.69
324.024	83.69
324.253	91.69
324.482	81.69
324.71	79.69
324.939	77.69
325.168	79.69
325.397	90.69
325.626	86.69
325.855	90.69
326.084	83.69
326.313	77.69
326.542	71.69
326.77	70.69
326.999	75.69
327.228	78.69
327.457	76.69
327.686	76.69
327.914	81.69
328.143	86.69
328.372	80.69
328.6	83.69
328.829	87.69
329.058	76.69
329.287	78.69
329.515	79.69
329.744	89.69
329.972	87.69
330.201	82.69
330.43	73.69
330.658	82.69
330.887	74.69
331.115	75.69
331.344	76.69
331.572	87.69
331.801	88.69
332.03	86.69
332.258	79.69
332.486	79.69
332.715	83.69
332.943	85.69
333.172	79.69
333.4	89.69
333.629	87.69
333.857	75.69
334.085	81.69
334.314	70.69
334.542	80.69
334.771	77.69
334.999	81.69
335.227	89.69
335.455	89.69
335.684	90.69
335.912	72.69
336.14	89.69
336.369	91.69
336.597	100.69
336.825	90.69
337.053	86.69
337.281	82.69
337.51	74.69
337.738	90.69
337.966	72.69
338.194	85.69
338.422	83.69
338.65	70.69
338.878	89.69
339.106	87.69
339.334	86.69
339.562	78.69
339.79	83.69
340.018	88.69
340.246	80.69
340.474	82.69
340.702	74.69
340.93	71.69
341.158	83.69
341.386	68.69
341.614	88.69
341.842	73.69
342.07	73.69
342.298	92.69
342.526	100.69
342.754	66.69
342.981	85.69
343.209	90.69
343.437	77.69
343.665	87.69
343.893	74.69
344.12	77.69
344.348	71.69
344.576	77.69
344.804	85.69
345.031	82.69
345.259	79.69
345.487	65.69
345.714	69.69
345.942	71.69
346.17	73.69
346.397	75.69
346.625	75.69
346.853	73.69
347.08	93.69
347.308	77.69
347.535	85.69
347.763	78.69
347.99	83.69
348.218	72.69
348.445	85.69
348.673	86.69
348.9	76.69
349.128	75.69
349.355	79.69
349.583	94.69
349.81	83.69
350.037	85.69
350.265	77.69
350.492	87.69
350.72	70.69
350.947	70.69
351.174	82.69
351.402	98.69
351.629	78.69
351.856	89.69
352.083	89.69
352.311	74.69
352.538	73.69
352.765	101.69
352.992	94.69
353.22	81.69
353.447	65.69
353.674	75.69
353.901	83.69
354.128	85.69
354.355	78.69
354.583	67.69
354.81	88.69
355.037	95.69
355.264	97.69
355.491	78.69
355.718	74.69
355.945	85.69
356.172	91.69
356.399	86.69
356.626	89.69
356.853	87.69
357.08	126.69
357.307	121.69
357.534	127.69
357.761	79.69
357.988	92.69
358.215	96.69
358.441	88.69
358.668	81.69
358.895	91.69
359.122	88.69
359.349	82.69
359.576	86.69
359.802	77.69
360.029	87.69
360.256	78.69
360.483	82.69
360.709	79.69
360.936	89.69
361.163	86.69
361.39	80.69
361.616	103.69
361.843	71.69
362.07	70.69
362.296	82.69
362.523	89.69
362.749	74.69
362.976	106.69
363.203	92.69
363.429	98.69
363.656	125.69
363.882	155.69
364.109	180.69
364.335	110.69
364.562	86.69
364.788	85.69
365.015	83.69
365.241	80.69
365.468	90.69
365.694	85.69
365.92	88.69
366.147	78.69
366.373	82.69
366.599	85.69
366.826	100.69
367.052	94.69
367.278	115.69
367.505	97.69
367.731	114.69
367.957	127.69
368.184	173.69
368.41	231.69
368.636	173.69
368.862	101.69
369.089	75.69
369.315	74.69
369.541	87.69
369.767	86.69
369.993	67.69
370.219	75.69
370.445	83.69
370.672	67.69
370.898	74.69
371.124	79.69
371.35	72.69
371.576	73.69
371.802	74.69
372.028	70.69
372.254	77.69
372.48	84.69
372.706	91.69
372.932	74.69
373.158	92.69
373.384	85.69
373.61	89.69
373.835	126.69
374.061	135.69
374.287	102.69
374.513	81.69
374.739	88.69
374.965	75.69
375.191	90.69
375.416	87.69
375.642	88.69
375.868	91.69
376.094	77.69
376.319	78.69
376.545	83.69
376.771	73.69
376.997	63.69
377.222	86.69
377.448	87.69
377.674	75.69
377.899	84.69
378.125	88.69
378.35	76.69
378.576	82.69
378.802	95.69
379.027	84.69
379.253	73.69
379.478	73.69
379.704	70.69
379.929	88.69
380.155	82.69
380.38	78.69
380.606	74.69
380.831	89.69
381.057	84.69
381.282	78.69
381.507	66.69
381.733	76.69
381.958	83.69
382.184	81.69
382.409	67.69
382.634	83.69
382.86	82.69
383.085	82.69
383.31	85.69
383.535	87.69
383.761	79.69
383.986	79.69
384.211	82.69
384.436	73.69
384.662	78.69
384.887	83.69
385.112	75.69
385.337	81.69
385.562	83.69
385.787	75.69
386.013	85.69
386.238	64.69
386.463	81.69
386.688	81.69
386.913	77.69
387.138	79.69
387.363	76.69
387.588	72.69
387.813	88.69
388.038	85.69
388.263	93.69
388.488	77.69
388.713	80.69
388.938	78.69
389.163	66.69
389.387	77.69
389.612	86.69
389.837	79.69
390.062	77.69
390.287	87.69
390.512	93.69
390.736	86.69
390.961	63.69
391.186	92.69
391.411	84.69
391.636	93.69
391.86	92.69
392.085	82.69
392.31	79.69
392.534	74.69
392.759	75.69
392.984	90.69
393.208	76.69
393.433	89.69
393.658	80.69
393.882	103.69
394.107	87.69
394.331	77.69
394.556	68.69
394.78	77.69
395.005	83.69
395.229	81.69
395.454	85.69
395.678	89.69
395.903	84.69
396.127	85.69
396.352	86.69
396.576	84.69
396.801	64.69
397.025	81.69
397.249	84.69
397.474	78.69
397.698	85.69
397.922	75.69
398.147	78.69
398.371	85.69
398.595	74.69
398.82	79.69
399.044	74.69
399.268	78.69
399.492	82.69
399.717	82.69
399.941	74.69
400.165	93.69
400.389	69.69
400.613	69.69
400.837	73.69
401.062	81.69
401.286	78.69
401.51	92.69
401.734	97.69
401.958	95.69
402.182	97.69
402.406	89.69
402.63	75.69
402.854	83.69
403.078	80.69
403.302	84.69
403.526	93.69
403.75	90.69
403.974	83.69
404.198	78.69
404.422	71.69
404.645	89.69
404.869	90.69
405.093	98.69
405.317	105.69
405.541	197.69
405.765	331.69
405.988	342.69
406.212	187.69
406.436	117.69
406.66	81.69
406.883	86.69
407.107	83.69
407.331	74.69
407.555	78.69
407.778	88.69
408.002	76.69
408.226	73.69
408.449	70.69
408.673	84.69
408.896	85.69
409.12	77.69
409.344	78.69
409.567	89.69
409.791	83.69
410.014	82.69
410.238	74.69
410.461	85.69
410.685	74.69
410.908	77.69
411.132	74.69
411.355	72.69
411.578	85.69
411.802	76.69
412.025	71.69
412.249	73.69
412.472	73.69
412.695	99.69
412.919	86.69
413.142	69.69
413.365	69.69
413.589	82.69
413.812	81.69
414.035	88.69
414.258	82.69
414.482	84.69
414.705	80.69
414.928	83.69
415.151	87.69
415.374	71.69
415.597	75.69
415.821	86.69
416.044	89.69
416.267	77.69
416.49	67.69
416.713	79.69
416.936	90.69
417.159	78.69
417.382	68.69
417.605	60.69
417.828	83.69
418.051	88.69
418.274	81.69
418.497	79.69
418.72	68.69
418.943	70.69
419.166	69.69
419.389	86.69
419.611	72.69
419.834	74.69
420.057	93.69
420.28	90.69
420.503	69.69
420.726	73.69
420.948	75.69
421.171	70.69
421.394	72.69
421.617	85.69
421.839	81.69
422.062	79.69
422.285	78.69
422.507	84.69
422.73	81.69
422.953	61.69
423.175	67.69
423.398	87.69
423.621	81.69
423.843	83.69
424.066	93.69
424.288	63.69
424.511	67.69
424.733	74.69
424.956	70.69
425.178	78.69
425.401	77.69
425.623	86.69
425.846	63.69
426.068	86.69
426.291	81.69
426.513	78.69
426.735	69.69
426.958	68.69
427.18	86.69
427.402	90.69
427.625	68.69
427.847	70.69
428.069	82.69
428.292	80.69
428.514	84.69
428.736	97.69
428.958	85.69
429.181	76.69
429.403	77.69
429.625	92.69
429.847	85.69
430.069	71.69
430.292	75.69
430.514	90.69
430.736	91.69
430.958	93.69
431.18	85.69
431.402	72.69
431.624	70.69
431.846	85.69
432.068	85.69
432.29	77.69
432.512	78.69
432.734	81.69
432.956	75.69
433.178	91.69
433.4	82.69
433.622	90.69
433.844	88.69
434.066	83.69
434.287	82.69
434.509	88.69
434.731	80.69
434.953	67.69
435.175	84.69
435.397	85.69
435.618	90.69
435.84	85.69
436.062	85.69
436.284	75.69
436.505	87.69
436.727	81.69
436.949	76.69
437.17	74.69
437.392	83.69
437.614	82.69
437.835	60.69
438.057	81.69
438.278	85.69
438.5	85.69
438.721	74.69
438.943	54.69
439.165	73.69
439.386	75.69
439.608	77.69
439.829	86.69
440.05	75.69
440.272	79.69
440.493	77.69
440.715	81.69
440.936	82.69
441.158	76.69
441.379	70.69
441.6	83.69
441.822	75.69
442.043	85.69
442.264	78.69
442.486	74.69
442.707	76.69
442.928	90.69
443.149	76.69
443.371	73.69
443.592	81.69
443.813	78.69
444.034	76.69
444.255	68.69
444.476	79.69
444.698	85.69
444.919	75.69
445.14	150.69
445.361	108.69
445.582	95.69
445.803	82.69
446.024	77.69
446.245	83.69
446.466	79.69
446.687	76.69
446.908	79.69
447.129	89.69
447.35	70.69
447.571	79.69
447.792	87.69
448.013	72.69
448.234	81.69
448.455	85.69
448.675	76.69
448.896	74.69
449.117	75.69
449.338	85.69
449.559	76.69
449.779	74.69
450	83.69
450.221	63.69
450.442	68.69
450.662	63.69
450.883	72.69
451.104	69.69
451.324	86.69
451.545	88.69
451.766	88.69
451.986	74.69
452.207	90.69
452.428	75.69
452.648	80.69
452.869	65.69
453.089	93.69
453.31	76.69
453.53	74.69
453.751	77.69
453.971	85.69
454.192	84.69
454.412	84.69
454.633	74.69
454.853	73.69
455.073	83.69
455.294	82.69
455.514	83.69
455.734	82.69
455.955	81.69
456.175	79.69
456.395	69.69
456.616	81.69
456.836	76.69
457.056	93.69
457.276	85.69
457.497	86.69
457.717	97.69
457.937	74.69
458.157	77.69
458.377	89.69
458.598	81.69
458.818	71.69
459.038	93.69
459.258	92.69
459.478	79.69
459.698	81.69
459.918	74.69
460.138	89.69
460.358	75.69
460.578	74.69
460.798	79.69
461.018	66.69
461.238	83.69
461.458	74.69
461.678	62.69
461.898	84.69
462.118	73.69
462.338	78.69
462.558	79.69
462.777	93.69
462.997	84.69
463.217	84.69
463.437	78.69
463.657	81.69
463.876	76.69
464.096	89.69
464.316	76.69
464.536	82.69
464.755	81.69
464.975	86.69
465.195	82.69
465.414	78.69
465.634	82.69
465.854	92.69
466.073	75.69
466.293	76.69
466.512	79.69
466.732	94.69
466.951	86.69
467.171	76.69
467.391	86.69
467.61	75.69
467.829	89.69
468.049	86.69
468.268	78.69
468.488	95.69
468.707	83.69
468.927	66.69
469.146	81.69
469.365	88.69
469.585	87.69
469.804	74.69
470.023	91.69
470.243	84.69
470.462	77.69
470.681	77.69
470.901	69.69
471.12	87.69
471.339	83.69
471.558	78.69
471.777	85.69
471.997	79.69
472.216	91.69
472.435	78.69
472.654	89.69
472.873	73.69
473.092	73.69
473.311	83.69
473.53	84.69
473.749	71.69
473.968	81.69
474.187	85.69
474.406	75.69
474.625	78.69
474.844	88.69
475.063	69.69
475.282	77.69
475.501	82.69
475.72	95.69
475.939	72.69
476.158	79.69
476.377	71.69
476.596	80.69
476.814	75.69
477.033	71.69
477.252	81.69
477.471	78.69
477.69	85.69
477.908	93.69
478.127	92.69
478.346	71.69
478.564	67.69
478.783	89.69
479.002	89.69
479.22	81.69
479.439	83.69
479.658	85.69
479.876	61.69
480.095	82.69
480.313	76.69
480.532	88.69
480.751	93.69
480.969	72.69
481.188	87.69
481.406	85.69
481.624	91.69
481.843	88.69
482.061	74.69
482.28	85.69
482.498	75.69
482.717	81.69
482.935	92.69
483.153	85.69
483.372	71.69
483.59	91.69
483.808	79.69
484.027	79.69
484.245	83.69
484.463	89.69
484.681	79.69
484.9	79.69
485.118	79.69
485.336	72.69
485.554	79.69
485.772	80.69
485.99	78.69
486.209	81.69
486.427	76.69
486.645	85.69
486.863	71.69
487.081	70.69
487.299	88.69
487.517	85.69
487.735	84.69
487.953	76.69
488.171	82.69
488.389	87.69
488.607	83.69
488.825	85.69
489.043	88.69
489.261	87.69
489.479	97.69
489.696	81.69
489.914	76.69
490.132	65.69
490.35	92.69
490.568	98.69
490.786	72.69
491.003	101.69
491.221	77.69
491.439	74.69
491.657	72.69
491.874	83.69
492.092	91.69
492.31	56.69
492.527	85.69
492.745	87.69
492.963	89.69
493.18	88.69
493.398	88.69
493.615	77.69
493.833	75.69
494.05	98.69
494.268	70.69
494.485	85.69
494.703	85.69
494.92	73.69
495.138	92.69
495.355	84.69
495.573	85.69
495.79	90.69
496.008	93.69
496.225	83.69
496.442	79.69
496.66	90.69
496.877	101.69
497.094	91.69
497.312	83.69
497.529	83.69
497.746	67.69
497.963	70.69
498.181	85.69
498.398	82.69
498.615	66.69
498.832	86.69
499.049	79.69
499.267	74.69
499.484	89.69
499.701	78.69
499.918	75.69
500.135	83.69
500.352	83.69
500.569	114.69
500.786	142.69
501.003	103.69
501.22	86.69
501.437	81.69
501.654	91.69
501.871	80.69
502.088	85.69
502.305	83.69
502.522	75.69
502.739	83.69
502.956	84.69
503.172	75.69
503.389	81.69
503.606	70.69
503.823	66.69
504.04	83.69
504.256	87.69
504.473	73.69
504.69	89.69
504.907	91.69
505.123	79.69
505.34	89.69
505.557	71.69
505.773	83.69
505.99	89.69
506.207	74.69
506.423	71.69
506.64	89.69
506.856	81.69
507.073	81.69
507.289	84.69
507.506	84.69
507.722	92.69
507.939	93.69
508.155	89.69
508.372	86.69
508.588	96.69
508.805	80.69
509.021	86.69
509.238	76.69
509.454	77.69
509.67	76.69
509.887	86.69
510.103	83.69
510.319	73.69
510.536	79.69
510.752	78.69
510.968	70.69
511.184	75.69
511.401	77.69
511.617	71.69
511.833	92.69
512.049	77.69
512.265	75.69
512.481	76.69
512.698	81.69
512.914	74.69
513.13	84.69
513.346	79.69
513.562	92.69
513.778	83.69
513.994	74.69
514.21	73.69
514.426	73.69
514.642	80.69
514.858	81.69
515.074	79.69
515.29	101.69
515.506	86.69
515.721	84.69
515.937	83.69
516.153	86.69
516.369	79.69
516.585	70.69
516.801	67.69
517.016	87.69
517.232	76.69
517.448	75.69
517.664	89.69
517.879	75.69
518.095	60.69
518.311	75.69
518.527	84.69
518.742	81.69
518.958	80.69
519.173	89.69
519.389	87.69
519.605	83.69
