Data from StdB_HRD10591_035.txt Node
Date: Fri May 16 15:25:03 EDT 2025
User: Yrep
Spectrometer: HR+D1059
Trigger mode: 1
Integration Time (sec): 1.000000E-1
Scans to average: 1
Electric dark correction enabled: true
Nonlinearity correction enabled: false
Boxcar width: 0
XAxis mode: Wavelengths
Number of Pixels in Spectrum: 2048
>>>>>Begin Spectral Data<<<<<
223.165	-23.25
223.4	-23.25
223.635	-23.25
223.869	-17.25
224.104	-20.25
224.338	-20.25
224.573	-27.25
224.808	-19.25
225.042	-13.25
225.277	9.75
225.511	0.75
225.746	7.75
225.98	-4.25
226.215	8.75
226.449	28.75
226.683	18.75
226.918	42.75
227.152	27.75
227.387	40.75
227.621	38.75
227.856	51.75
228.09	55.75
228.324	48.75
228.559	50.75
228.793	58.75
229.027	55.75
229.262	56.75
229.496	68.75
229.73	78.75
229.964	74.75
230.199	65.75
230.433	75.75
230.667	78.75
230.901	83.75
231.136	87.75
231.37	91.75
231.604	91.75
231.838	74.75
232.072	89.75
232.306	97.75
232.541	92.75
232.775	89.75
233.009	84.75
233.243	74.75
233.477	76.75
233.711	93.75
233.945	83.75
234.179	87.75
234.413	72.75
234.647	79.75
234.881	90.75
235.115	85.75
235.349	78.75
235.583	86.75
235.817	83.75
236.051	82.75
236.285	82.75
236.519	83.75
236.753	67.75
236.987	75.75
237.221	83.75
237.455	80.75
237.689	91.75
237.922	83.75
238.156	76.75
238.39	80.75
238.624	77.75
238.858	90.75
239.091	67.75
239.325	79.75
239.559	83.75
239.793	74.75
240.027	78.75
240.26	75.75
240.494	76.75
240.728	76.75
240.961	82.75
241.195	72.75
241.429	79.75
241.662	80.75
241.896	82.75
242.13	78.75
242.363	84.75
242.597	71.75
242.83	77.75
243.064	73.75
243.298	70.75
243.531	79.75
243.765	90.75
243.998	86.75
244.232	84.75
244.465	83.75
244.699	78.75
244.932	74.75
245.166	86.75
245.399	94.75
245.633	82.75
245.866	81.75
246.099	75.75
246.333	75.75
246.566	82.75
246.8	76.75
247.033	87.75
247.266	84.75
247.5	89.75
247.733	81.75
247.966	82.75
248.2	83.75
248.433	67.75
248.666	70.75
248.899	83.75
249.133	81.75
249.366	78.75
249.599	86.75
249.832	75.75
250.066	78.75
250.299	92.75
250.532	79.75
250.765	78.75
250.998	75.75
251.231	78.75
251.465	86.75
251.698	91.75
251.931	94.75
252.164	84.75
252.397	87.75
252.63	74.75
252.863	78.75
253.096	82.75
253.329	93.75
253.562	90.75
253.795	90.75
254.028	79.75
254.261	84.75
254.494	83.75
254.727	99.75
254.96	81.75
255.193	81.75
255.426	87.75
255.659	90.75
255.892	79.75
256.124	82.75
256.357	91.75
256.59	90.75
256.823	81.75
257.056	90.75
257.289	86.75
257.521	78.75
257.754	74.75
257.987	94.75
258.22	106.75
258.452	98.75
258.685	81.75
258.918	78.75
259.151	78.75
259.383	89.75
259.616	78.75
259.849	79.75
260.081	87.75
260.314	88.75
260.547	83.75
260.779	87.75
261.012	84.75
261.244	87.75
261.477	97.75
261.71	109.75
261.942	85.75
262.175	75.75
262.407	80.75
262.64	82.75
262.872	79.75
263.105	87.75
263.337	91.75
263.57	83.75
263.802	92.75
264.035	84.75
264.267	75.75
264.499	82.75
264.732	94.75
264.964	85.75
265.197	90.75
265.429	69.75
265.661	83.75
265.894	87.75
266.126	90.75
266.358	89.75
266.591	102.75
266.823	94.75
267.055	92.75
267.287	92.75
267.52	89.75
267.752	91.75
267.984	75.75
268.216	80.75
268.448	91.75
268.681	96.75
268.913	75.75
269.145	104.75
269.377	87.75
269.609	87.75
269.841	95.75
270.073	95.75
270.306	92.75
270.538	82.75
270.77	82.75
271.002	75.75
271.234	94.75
271.466	79.75
271.698	100.75
271.93	82.75
272.162	89.75
272.394	75.75
272.626	82.75
272.858	95.75
273.09	84.75
273.322	97.75
273.553	81.75
273.785	97.75
274.017	95.75
274.249	87.75
274.481	77.75
274.713	93.75
274.945	72.75
275.176	78.75
275.408	68.75
275.64	72.75
275.872	94.75
276.104	78.75
276.335	98.75
276.567	77.75
276.799	83.75
277.031	87.75
277.262	81.75
277.494	79.75
277.726	80.75
277.957	79.75
278.189	99.75
278.421	75.75
278.652	79.75
278.884	97.75
279.115	83.75
279.347	74.75
279.579	78.75
279.81	114.75
280.042	99.75
280.273	122.75
280.505	127.75
280.736	98.75
280.968	85.75
281.199	87.75
281.431	80.75
281.662	93.75
281.894	100.75
282.125	76.75
282.356	92.75
282.588	106.75
282.819	90.75
283.051	107.75
283.282	118.75
283.513	128.75
283.745	106.75
283.976	80.75
284.207	78.75
284.439	99.75
284.67	103.75
284.901	87.75
285.132	90.75
285.364	86.75
285.595	76.75
285.826	74.75
286.057	96.75
286.288	81.75
286.52	105.75
286.751	89.75
286.982	94.75
287.213	98.75
287.444	108.75
287.675	101.75
287.906	90.75
288.138	86.75
288.369	93.75
288.6	88.75
288.831	81.75
289.062	88.75
289.293	82.75
289.524	83.75
289.755	82.75
289.986	77.75
290.217	103.75
290.448	91.75
290.679	82.75
290.91	89.75
291.141	101.75
291.371	84.75
291.602	91.75
291.833	79.75
292.064	86.75
292.295	94.75
292.526	80.75
292.757	88.75
292.987	96.75
293.218	73.75
293.449	81.75
293.68	94.75
293.91	98.75
294.141	94.75
294.372	94.75
294.603	73.75
294.833	99.75
295.064	81.75
295.295	80.75
295.525	79.75
295.756	91.75
295.987	82.75
296.217	98.75
296.448	84.75
296.679	88.75
296.909	76.75
297.14	86.75
297.37	102.75
297.601	82.75
297.831	94.75
298.062	98.75
298.292	93.75
298.523	100.75
298.753	82.75
298.984	78.75
299.214	86.75
299.445	81.75
299.675	76.75
299.905	92.75
300.136	74.75
300.366	80.75
300.597	80.75
300.827	87.75
301.057	93.75
301.288	84.75
301.518	84.75
301.748	78.75
301.979	106.75
302.209	88.75
302.439	92.75
302.669	85.75
302.9	86.75
303.13	86.75
303.36	88.75
303.59	85.75
303.82	96.75
304.051	106.75
304.281	82.75
304.511	73.75
304.741	89.75
304.971	86.75
305.201	81.75
305.431	89.75
305.661	78.75
305.891	75.75
306.121	93.75
306.352	76.75
306.582	81.75
306.812	82.75
307.042	101.75
307.272	90.75
307.502	82.75
307.731	94.75
307.961	88.75
308.191	82.75
308.421	89.75
308.651	94.75
308.881	85.75
309.111	97.75
309.341	87.75
309.571	80.75
309.8	94.75
310.03	87.75
310.26	89.75
310.49	98.75
310.72	76.75
310.949	89.75
311.179	92.75
311.409	82.75
311.639	86.75
311.868	90.75
312.098	105.75
312.328	83.75
312.557	83.75
312.787	66.75
313.017	80.75
313.246	82.75
313.476	89.75
313.706	68.75
313.935	80.75
314.165	84.75
314.394	96.75
314.624	90.75
314.853	93.75
315.083	89.75
315.312	95.75
315.542	78.75
315.771	96.75
316.001	98.75
316.23	93.75
316.46	75.75
316.689	78.75
316.919	72.75
317.148	81.75
317.377	97.75
317.607	81.75
317.836	87.75
318.065	84.75
318.295	74.75
318.524	80.75
318.753	82.75
318.983	84.75
319.212	82.75
319.441	82.75
319.67	87.75
319.9	76.75
320.129	99.75
320.358	97.75
320.587	82.75
320.816	95.75
321.046	92.75
321.275	94.75
321.504	78.75
321.733	74.75
321.962	87.75
322.191	95.75
322.42	95.75
322.649	93.75
322.878	80.75
323.108	81.75
323.337	92.75
323.566	87.75
323.795	86.75
324.024	99.75
324.253	99.75
324.482	67.75
324.71	64.75
324.939	85.75
325.168	77.75
325.397	75.75
325.626	93.75
325.855	87.75
326.084	83.75
326.313	107.75
326.542	83.75
326.77	82.75
326.999	86.75
327.228	93.75
327.457	91.75
327.686	99.75
327.914	82.75
328.143	94.75
328.372	89.75
328.6	82.75
328.829	82.75
329.058	80.75
329.287	77.75
329.515	97.75
329.744	83.75
329.972	89.75
330.201	86.75
330.43	76.75
330.658	77.75
330.887	83.75
331.115	79.75
331.344	79.75
331.572	75.75
331.801	74.75
332.03	90.75
332.258	76.75
332.486	95.75
332.715	76.75
332.943	66.75
333.172	75.75
333.4	85.75
333.629	86.75
333.857	98.75
334.085	85.75
334.314	86.75
334.542	83.75
334.771	88.75
334.999	99.75
335.227	89.75
335.455	81.75
335.684	80.75
335.912	83.75
336.14	88.75
336.369	95.75
336.597	84.75
336.825	86.75
337.053	97.75
337.281	88.75
337.51	93.75
337.738	98.75
337.966	78.75
338.194	84.75
338.422	92.75
338.65	84.75
338.878	83.75
339.106	87.75
339.334	92.75
339.562	76.75
339.79	82.75
340.018	68.75
340.246	78.75
340.474	100.75
340.702	97.75
340.93	87.75
341.158	82.75
341.386	86.75
341.614	94.75
341.842	74.75
342.07	68.75
342.298	88.75
342.526	85.75
342.754	80.75
342.981	89.75
343.209	85.75
343.437	89.75
343.665	83.75
343.893	80.75
344.12	95.75
344.348	80.75
344.576	85.75
344.804	80.75
345.031	83.75
345.259	74.75
345.487	75.75
345.714	83.75
345.942	78.75
346.17	89.75
346.397	84.75
346.625	89.75
346.853	91.75
347.08	94.75
347.308	83.75
347.535	91.75
347.763	87.75
347.99	88.75
348.218	99.75
348.445	79.75
348.673	79.75
348.9	82.75
349.128	96.75
349.355	73.75
349.583	87.75
349.81	82.75
350.037	76.75
350.265	98.75
350.492	78.75
350.72	93.75
350.947	98.75
351.174	89.75
351.402	75.75
351.629	81.75
351.856	80.75
352.083	97.75
352.311	78.75
352.538	88.75
352.765	91.75
352.992	92.75
353.22	91.75
353.447	83.75
353.674	95.75
353.901	96.75
354.128	89.75
354.355	92.75
354.583	83.75
354.81	92.75
355.037	94.75
355.264	81.75
355.491	78.75
355.718	84.75
355.945	88.75
356.172	84.75
356.399	84.75
356.626	94.75
356.853	112.75
357.08	152.75
357.307	158.75
357.534	132.75
357.761	102.75
357.988	95.75
358.215	87.75
358.441	86.75
358.668	84.75
358.895	84.75
359.122	74.75
359.349	77.75
359.576	69.75
359.802	77.75
360.029	85.75
360.256	91.75
360.483	92.75
360.709	86.75
360.936	84.75
361.163	86.75
361.39	74.75
361.616	86.75
361.843	98.75
362.07	89.75
362.296	96.75
362.523	92.75
362.749	97.75
362.976	90.75
363.203	102.75
363.429	121.75
363.656	130.75
363.882	191.75
364.109	220.75
364.335	143.75
364.562	96.75
364.788	99.75
365.015	86.75
365.241	82.75
365.468	89.75
365.694	87.75
365.92	89.75
366.147	85.75
366.373	74.75
366.599	74.75
366.826	106.75
367.052	117.75
367.278	130.75
367.505	110.75
367.731	120.75
367.957	148.75
368.184	234.75
368.41	298.75
368.636	214.75
368.862	115.75
369.089	94.75
369.315	88.75
369.541	80.75
369.767	87.75
369.993	86.75
370.219	99.75
370.445	106.75
370.672	81.75
370.898	79.75
371.124	76.75
371.35	80.75
371.576	82.75
371.802	87.75
372.028	81.75
372.254	83.75
372.48	85.75
372.706	92.75
372.932	82.75
373.158	98.75
373.384	95.75
373.61	109.75
373.835	135.75
374.061	160.75
374.287	125.75
374.513	87.75
374.739	82.75
374.965	80.75
375.191	83.75
375.416	77.75
375.642	82.75
375.868	85.75
376.094	83.75
376.319	82.75
376.545	79.75
376.771	84.75
376.997	83.75
377.222	78.75
377.448	82.75
377.674	69.75
377.899	83.75
378.125	66.75
378.35	88.75
378.576	84.75
378.802	92.75
379.027	86.75
379.253	87.75
379.478	97.75
379.704	99.75
379.929	74.75
380.155	87.75
380.38	92.75
380.606	81.75
380.831	81.75
381.057	103.75
381.282	94.75
381.507	65.75
381.733	83.75
381.958	87.75
382.184	85.75
382.409	91.75
382.634	74.75
382.86	86.75
383.085	79.75
383.31	79.75
383.535	90.75
383.761	79.75
383.986	86.75
384.211	79.75
384.436	88.75
384.662	105.75
384.887	82.75
385.112	79.75
385.337	89.75
385.562	89.75
385.787	86.75
386.013	84.75
386.238	83.75
386.463	84.75
386.688	98.75
386.913	85.75
387.138	94.75
387.363	75.75
387.588	80.75
387.813	76.75
388.038	71.75
388.263	75.75
388.488	96.75
388.713	78.75
388.938	75.75
389.163	87.75
389.387	88.75
389.612	82.75
389.837	67.75
390.062	90.75
390.287	87.75
390.512	87.75
390.736	83.75
390.961	83.75
391.186	91.75
391.411	95.75
391.636	87.75
391.86	99.75
392.085	87.75
392.31	85.75
392.534	97.75
392.759	83.75
392.984	90.75
393.208	88.75
393.433	94.75
393.658	90.75
393.882	99.75
394.107	93.75
394.331	73.75
394.556	86.75
394.78	89.75
395.005	81.75
395.229	83.75
395.454	87.75
395.678	78.75
395.903	78.75
396.127	96.75
396.352	100.75
396.576	74.75
396.801	94.75
397.025	92.75
397.249	86.75
397.474	80.75
397.698	73.75
397.922	86.75
398.147	79.75
398.371	81.75
398.595	82.75
398.82	79.75
399.044	78.75
399.268	76.75
399.492	87.75
399.717	88.75
399.941	80.75
400.165	84.75
400.389	92.75
400.613	86.75
400.837	97.75
401.062	90.75
401.286	72.75
401.51	83.75
401.734	82.75
401.958	117.75
402.182	120.75
402.406	92.75
402.63	98.75
402.854	93.75
403.078	94.75
403.302	90.75
403.526	96.75
403.75	93.75
403.974	82.75
404.198	88.75
404.422	102.75
404.645	89.75
404.869	86.75
405.093	103.75
405.317	137.75
405.541	250.75
405.765	416.75
405.988	466.75
406.212	241.75
406.436	155.75
406.66	99.75
406.883	88.75
407.107	78.75
407.331	79.75
407.555	70.75
407.778	85.75
408.002	91.75
408.226	85.75
408.449	65.75
408.673	81.75
408.896	76.75
409.12	81.75
409.344	82.75
409.567	78.75
409.791	78.75
410.014	86.75
410.238	83.75
410.461	85.75
410.685	87.75
410.908	91.75
411.132	78.75
411.355	83.75
411.578	94.75
411.802	66.75
412.025	93.75
412.249	89.75
412.472	83.75
412.695	85.75
412.919	94.75
413.142	93.75
413.365	82.75
413.589	81.75
413.812	85.75
414.035	92.75
414.258	85.75
414.482	88.75
414.705	90.75
414.928	94.75
415.151	83.75
415.374	86.75
415.597	86.75
415.821	79.75
416.044	78.75
416.267	76.75
416.49	90.75
416.713	107.75
416.936	97.75
417.159	88.75
417.382	83.75
417.605	84.75
417.828	74.75
418.051	73.75
418.274	80.75
418.497	93.75
418.72	84.75
418.943	93.75
419.166	91.75
419.389	69.75
419.611	87.75
419.834	97.75
420.057	69.75
420.28	80.75
420.503	91.75
420.726	77.75
420.948	73.75
421.171	73.75
421.394	78.75
421.617	84.75
421.839	94.75
422.062	89.75
422.285	75.75
422.507	74.75
422.73	86.75
422.953	96.75
423.175	82.75
423.398	71.75
423.621	84.75
423.843	79.75
424.066	80.75
424.288	78.75
424.511	89.75
424.733	72.75
424.956	76.75
425.178	79.75
425.401	83.75
425.623	90.75
425.846	77.75
426.068	88.75
426.291	88.75
426.513	78.75
426.735	95.75
426.958	74.75
427.18	74.75
427.402	84.75
427.625	87.75
427.847	83.75
428.069	82.75
428.292	88.75
428.514	86.75
428.736	80.75
428.958	95.75
429.181	87.75
429.403	90.75
429.625	77.75
429.847	82.75
430.069	70.75
430.292	82.75
430.514	76.75
430.736	99.75
430.958	90.75
431.18	78.75
431.402	67.75
431.624	79.75
431.846	84.75
432.068	72.75
432.29	103.75
432.512	89.75
432.734	84.75
432.956	80.75
433.178	92.75
433.4	92.75
433.622	93.75
433.844	100.75
434.066	84.75
434.287	75.75
434.509	83.75
434.731	82.75
434.953	90.75
435.175	95.75
435.397	89.75
435.618	84.75
435.84	75.75
436.062	86.75
436.284	86.75
436.505	82.75
436.727	78.75
436.949	95.75
437.17	83.75
437.392	83.75
437.614	80.75
437.835	75.75
438.057	88.75
438.278	94.75
438.5	97.75
438.721	92.75
438.943	83.75
439.165	87.75
439.386	73.75
439.608	82.75
439.829	92.75
440.05	88.75
440.272	83.75
440.493	81.75
440.715	80.75
440.936	84.75
441.158	84.75
441.379	89.75
441.6	81.75
441.822	98.75
442.043	79.75
442.264	83.75
442.486	87.75
442.707	91.75
442.928	90.75
443.149	78.75
443.371	86.75
443.592	81.75
443.813	81.75
444.034	89.75
444.255	79.75
444.476	92.75
444.698	85.75
444.919	93.75
445.14	141.75
445.361	122.75
445.582	85.75
445.803	77.75
446.024	87.75
446.245	78.75
446.466	77.75
446.687	69.75
446.908	84.75
447.129	82.75
447.35	75.75
447.571	76.75
447.792	85.75
448.013	102.75
448.234	81.75
448.455	76.75
448.675	82.75
448.896	81.75
449.117	79.75
449.338	87.75
449.559	88.75
449.779	102.75
450	86.75
450.221	80.75
450.442	99.75
450.662	81.75
450.883	78.75
451.104	94.75
451.324	76.75
451.545	78.75
451.766	84.75
451.986	76.75
452.207	77.75
452.428	82.75
452.648	97.75
452.869	98.75
453.089	87.75
453.31	70.75
453.53	88.75
453.751	89.75
453.971	86.75
454.192	71.75
454.412	68.75
454.633	96.75
454.853	80.75
455.073	72.75
455.294	76.75
455.514	96.75
455.734	93.75
455.955	77.75
456.175	73.75
456.395	84.75
456.616	86.75
456.836	77.75
457.056	95.75
457.276	80.75
457.497	86.75
457.717	80.75
457.937	81.75
458.157	83.75
458.377	92.75
458.598	87.75
458.818	90.75
459.038	83.75
459.258	78.75
459.478	78.75
459.698	73.75
459.918	86.75
460.138	82.75
460.358	80.75
460.578	83.75
460.798	80.75
461.018	92.75
461.238	78.75
461.458	72.75
461.678	86.75
461.898	92.75
462.118	94.75
462.338	91.75
462.558	83.75
462.777	89.75
462.997	78.75
463.217	66.75
463.437	77.75
463.657	79.75
463.876	76.75
464.096	91.75
464.316	89.75
464.536	90.75
464.755	89.75
464.975	88.75
465.195	83.75
465.414	82.75
465.634	84.75
465.854	75.75
466.073	75.75
466.293	84.75
466.512	90.75
466.732	86.75
466.951	75.75
467.171	94.75
467.391	82.75
467.61	84.75
467.829	86.75
468.049	82.75
468.268	83.75
468.488	78.75
468.707	97.75
468.927	83.75
469.146	82.75
469.365	90.75
469.585	92.75
469.804	74.75
470.023	85.75
470.243	82.75
470.462	78.75
470.681	79.75
470.901	65.75
471.12	97.75
471.339	84.75
471.558	104.75
471.777	75.75
471.997	94.75
472.216	93.75
472.435	94.75
472.654	77.75
472.873	83.75
473.092	87.75
473.311	91.75
473.53	85.75
473.749	80.75
473.968	69.75
474.187	83.75
474.406	80.75
474.625	85.75
474.844	90.75
475.063	93.75
475.282	92.75
475.501	97.75
475.72	72.75
475.939	87.75
476.158	91.75
476.377	86.75
476.596	65.75
476.814	73.75
477.033	89.75
477.252	82.75
477.471	92.75
477.69	86.75
477.908	80.75
478.127	87.75
478.346	76.75
478.564	95.75
478.783	79.75
479.002	104.75
479.22	86.75
479.439	86.75
479.658	76.75
479.876	78.75
480.095	87.75
480.313	83.75
480.532	90.75
480.751	76.75
480.969	90.75
481.188	77.75
481.406	88.75
481.624	66.75
481.843	82.75
482.061	76.75
482.28	74.75
482.498	78.75
482.717	106.75
482.935	80.75
483.153	90.75
483.372	96.75
483.59	86.75
483.808	95.75
484.027	87.75
484.245	99.75
484.463	81.75
484.681	77.75
484.9	76.75
485.118	91.75
485.336	91.75
485.554	79.75
485.772	82.75
485.99	80.75
486.209	75.75
486.427	82.75
486.645	82.75
486.863	85.75
487.081	92.75
487.299	97.75
487.517	100.75
487.735	82.75
487.953	93.75
488.171	85.75
488.389	74.75
488.607	81.75
488.825	80.75
489.043	91.75
489.261	87.75
489.479	108.75
489.696	80.75
489.914	79.75
490.132	91.75
490.35	101.75
490.568	84.75
490.786	89.75
491.003	94.75
491.221	98.75
491.439	86.75
491.657	81.75
491.874	94.75
492.092	89.75
492.31	96.75
492.527	104.75
492.745	87.75
492.963	86.75
493.18	92.75
493.398	85.75
493.615	92.75
493.833	96.75
494.05	89.75
494.268	90.75
494.485	91.75
494.703	93.75
494.92	90.75
495.138	87.75
495.355	91.75
495.573	98.75
495.79	93.75
496.008	90.75
496.225	107.75
496.442	92.75
496.66	94.75
496.877	90.75
497.094	90.75
497.312	83.75
497.529	82.75
497.746	104.75
497.963	86.75
498.181	82.75
498.398	98.75
498.615	82.75
498.832	74.75
499.049	95.75
499.267	90.75
499.484	98.75
499.701	103.75
499.918	88.75
500.135	84.75
500.352	106.75
500.569	124.75
500.786	161.75
501.003	115.75
501.22	89.75
501.437	87.75
501.654	97.75
501.871	81.75
502.088	81.75
502.305	82.75
502.522	82.75
502.739	93.75
502.956	86.75
503.172	79.75
503.389	93.75
503.606	81.75
503.823	84.75
504.04	90.75
504.256	87.75
504.473	97.75
504.69	91.75
504.907	96.75
505.123	92.75
505.34	86.75
505.557	82.75
505.773	90.75
505.99	84.75
506.207	94.75
506.423	82.75
506.64	90.75
506.856	90.75
507.073	106.75
507.289	103.75
507.506	81.75
507.722	72.75
507.939	88.75
508.155	87.75
508.372	91.75
508.588	101.75
508.805	91.75
509.021	92.75
509.238	90.75
509.454	94.75
509.67	96.75
509.887	89.75
510.103	89.75
510.319	84.75
510.536	108.75
510.752	81.75
510.968	78.75
511.184	90.75
511.401	83.75
511.617	83.75
511.833	86.75
512.049	74.75
512.265	78.75
512.481	102.75
512.698	85.75
512.914	72.75
513.13	95.75
513.346	98.75
513.562	86.75
513.778	79.75
513.994	86.75
514.21	75.75
514.426	73.75
514.642	89.75
514.858	85.75
515.074	94.75
515.29	82.75
515.506	82.75
515.721	77.75
515.937	102.75
516.153	103.75
516.369	79.75
516.585	94.75
516.801	72.75
517.016	82.75
517.232	88.75
517.448	99.75
517.664	80.75
517.879	86.75
518.095	89.75
518.311	106.75
518.527	85.75
518.742	90.75
518.958	86.75
