Data from StdB_HRD10591_056.txt Node
Date: Fri May 16 15:25:14 EDT 2025
User: Yrep
Spectrometer: HR+D1059
Trigger mode: 1
Integration Time (sec): 1.000000E-1
Scans to average: 1
Electric dark correction enabled: true
Nonlinearity correction enabled: false
Boxcar width: 0
XAxis mode: Wavelengths
Number of Pixels in Spectrum: 2048
>>>>>Begin Spectral Data<<<<<
223.165	-8.75
223.4	-8.75
223.635	-8.75
223.869	-19.75
224.104	-27.75
224.338	-21.75
224.573	-10.75
224.808	-17.75
225.042	-19.75
225.277	0.25
225.511	2.25
225.746	13.25
225.98	3.25
226.215	-0.75
226.449	31.25
226.683	23.25
226.918	21.25
227.152	32.25
227.387	41.25
227.621	31.25
227.856	38.25
228.09	54.25
228.324	50.25
228.559	56.25
228.793	68.25
229.027	69.25
229.262	57.25
229.496	60.25
229.73	62.25
229.964	74.25
230.199	66.25
230.433	56.25
230.667	80.25
230.901	73.25
231.136	83.25
231.37	81.25
231.604	69.25
231.838	81.25
232.072	86.25
232.306	86.25
232.541	65.25
232.775	82.25
233.009	81.25
233.243	75.25
233.477	64.25
233.711	85.25
233.945	88.25
234.179	67.25
234.413	96.25
234.647	66.25
234.881	81.25
235.115	75.25
235.349	87.25
235.583	73.25
235.817	79.25
236.051	66.25
236.285	89.25
236.519	70.25
236.753	77.25
236.987	82.25
237.221	86.25
237.455	74.25
237.689	68.25
237.922	95.25
238.156	76.25
238.39	80.25
238.624	69.25
238.858	67.25
239.091	77.25
239.325	76.25
239.559	77.25
239.793	89.25
240.027	84.25
240.26	72.25
240.494	84.25
240.728	84.25
240.961	79.25
241.195	88.25
241.429	82.25
241.662	80.25
241.896	85.25
242.13	74.25
242.363	80.25
242.597	84.25
242.83	88.25
243.064	79.25
243.298	76.25
243.531	68.25
243.765	88.25
243.998	72.25
244.232	81.25
244.465	89.25
244.699	90.25
244.932	72.25
245.166	68.25
245.399	80.25
245.633	93.25
245.866	87.25
246.099	63.25
246.333	91.25
246.566	95.25
246.8	74.25
247.033	74.25
247.266	90.25
247.5	74.25
247.733	77.25
247.966	87.25
248.2	92.25
248.433	89.25
248.666	67.25
248.899	86.25
249.133	82.25
249.366	89.25
249.599	75.25
249.832	81.25
250.066	82.25
250.299	86.25
250.532	86.25
250.765	91.25
250.998	79.25
251.231	79.25
251.465	82.25
251.698	85.25
251.931	76.25
252.164	80.25
252.397	80.25
252.63	92.25
252.863	87.25
253.096	71.25
253.329	81.25
253.562	80.25
253.795	87.25
254.028	91.25
254.261	76.25
254.494	84.25
254.727	96.25
254.96	82.25
255.193	89.25
255.426	81.25
255.659	77.25
255.892	80.25
256.124	88.25
256.357	83.25
256.59	75.25
256.823	79.25
257.056	83.25
257.289	73.25
257.521	94.25
257.754	95.25
257.987	100.25
258.22	88.25
258.452	88.25
258.685	81.25
258.918	87.25
259.151	77.25
259.383	90.25
259.616	85.25
259.849	80.25
260.081	87.25
260.314	91.25
260.547	78.25
260.779	85.25
261.012	87.25
261.244	100.25
261.477	92.25
261.71	98.25
261.942	84.25
262.175	77.25
262.407	88.25
262.64	84.25
262.872	77.25
263.105	92.25
263.337	80.25
263.57	82.25
263.802	82.25
264.035	82.25
264.267	76.25
264.499	85.25
264.732	102.25
264.964	93.25
265.197	96.25
265.429	85.25
265.661	78.25
265.894	92.25
266.126	75.25
266.358	90.25
266.591	82.25
266.823	91.25
267.055	78.25
267.287	71.25
267.52	102.25
267.752	85.25
267.984	85.25
268.216	77.25
268.448	87.25
268.681	88.25
268.913	92.25
269.145	86.25
269.377	101.25
269.609	94.25
269.841	84.25
270.073	85.25
270.306	88.25
270.538	89.25
270.77	76.25
271.002	68.25
271.234	73.25
271.466	81.25
271.698	88.25
271.93	75.25
272.162	78.25
272.394	78.25
272.626	103.25
272.858	88.25
273.09	100.25
273.322	90.25
273.553	74.25
273.785	89.25
274.017	72.25
274.249	94.25
274.481	77.25
274.713	87.25
274.945	89.25
275.176	79.25
275.408	79.25
275.64	86.25
275.872	93.25
276.104	92.25
276.335	67.25
276.567	77.25
276.799	84.25
277.031	87.25
277.262	76.25
277.494	101.25
277.726	89.25
277.957	85.25
278.189	71.25
278.421	81.25
278.652	76.25
278.884	86.25
279.115	97.25
279.347	87.25
279.579	89.25
279.81	93.25
280.042	106.25
280.273	126.25
280.505	110.25
280.736	93.25
280.968	85.25
281.199	89.25
281.431	87.25
281.662	78.25
281.894	84.25
282.125	95.25
282.356	106.25
282.588	100.25
282.819	78.25
283.051	95.25
283.282	112.25
283.513	124.25
283.745	101.25
283.976	81.25
284.207	80.25
284.439	89.25
284.67	76.25
284.901	86.25
285.132	82.25
285.364	67.25
285.595	86.25
285.826	78.25
286.057	101.25
286.288	86.25
286.52	88.25
286.751	79.25
286.982	89.25
287.213	91.25
287.444	108.25
287.675	85.25
287.906	71.25
288.138	89.25
288.369	98.25
288.6	102.25
288.831	95.25
289.062	92.25
289.293	81.25
289.524	82.25
289.755	81.25
289.986	92.25
290.217	79.25
290.448	92.25
290.679	87.25
290.91	80.25
291.141	75.25
291.371	90.25
291.602	84.25
291.833	101.25
292.064	97.25
292.295	86.25
292.526	83.25
292.757	88.25
292.987	80.25
293.218	82.25
293.449	91.25
293.68	87.25
293.91	91.25
294.141	93.25
294.372	76.25
294.603	90.25
294.833	93.25
295.064	84.25
295.295	62.25
295.525	80.25
295.756	82.25
295.987	95.25
296.217	89.25
296.448	77.25
296.679	110.25
296.909	80.25
297.14	81.25
297.37	91.25
297.601	103.25
297.831	88.25
298.062	96.25
298.292	85.25
298.523	83.25
298.753	97.25
298.984	90.25
299.214	84.25
299.445	87.25
299.675	93.25
299.905	82.25
300.136	84.25
300.366	85.25
300.597	79.25
300.827	84.25
301.057	93.25
301.288	76.25
301.518	93.25
301.748	84.25
301.979	90.25
302.209	107.25
302.439	88.25
302.669	84.25
302.9	77.25
303.13	94.25
303.36	82.25
303.59	75.25
303.82	86.25
304.051	85.25
304.281	88.25
304.511	82.25
304.741	69.25
304.971	77.25
305.201	83.25
305.431	81.25
305.661	88.25
305.891	78.25
306.121	81.25
306.352	82.25
306.582	89.25
306.812	91.25
307.042	92.25
307.272	82.25
307.502	82.25
307.731	71.25
307.961	92.25
308.191	91.25
308.421	92.25
308.651	85.25
308.881	81.25
309.111	92.25
309.341	79.25
309.571	88.25
309.8	93.25
310.03	88.25
310.26	75.25
310.49	81.25
310.72	92.25
310.949	86.25
311.179	87.25
311.409	89.25
311.639	90.25
311.868	100.25
312.098	81.25
312.328	92.25
312.557	95.25
312.787	90.25
313.017	98.25
313.246	104.25
313.476	79.25
313.706	84.25
313.935	81.25
314.165	92.25
314.394	78.25
314.624	80.25
314.853	81.25
315.083	84.25
315.312	78.25
315.542	74.25
315.771	82.25
316.001	88.25
316.23	89.25
316.46	90.25
316.689	101.25
316.919	84.25
317.148	83.25
317.377	84.25
317.607	106.25
317.836	88.25
318.065	97.25
318.295	78.25
318.524	84.25
318.753	79.25
318.983	81.25
319.212	83.25
319.441	87.25
319.67	81.25
319.9	84.25
320.129	83.25
320.358	91.25
320.587	104.25
320.816	102.25
321.046	84.25
321.275	79.25
321.504	89.25
321.733	77.25
321.962	102.25
322.191	88.25
322.42	83.25
322.649	86.25
322.878	100.25
323.108	80.25
323.337	82.25
323.566	85.25
323.795	89.25
324.024	78.25
324.253	77.25
324.482	82.25
324.71	91.25
324.939	87.25
325.168	83.25
325.397	75.25
325.626	85.25
325.855	86.25
326.084	96.25
326.313	93.25
326.542	88.25
326.77	82.25
326.999	101.25
327.228	82.25
327.457	87.25
327.686	82.25
327.914	71.25
328.143	101.25
328.372	88.25
328.6	77.25
328.829	77.25
329.058	100.25
329.287	72.25
329.515	73.25
329.744	89.25
329.972	77.25
330.201	79.25
330.43	71.25
330.658	72.25
330.887	86.25
331.115	84.25
331.344	90.25
331.572	85.25
331.801	84.25
332.03	84.25
332.258	88.25
332.486	88.25
332.715	96.25
332.943	78.25
333.172	78.25
333.4	72.25
333.629	87.25
333.857	86.25
334.085	84.25
334.314	76.25
334.542	71.25
334.771	86.25
334.999	81.25
335.227	91.25
335.455	88.25
335.684	76.25
335.912	86.25
336.14	92.25
336.369	78.25
336.597	106.25
336.825	93.25
337.053	88.25
337.281	80.25
337.51	88.25
337.738	83.25
337.966	89.25
338.194	88.25
338.422	74.25
338.65	90.25
338.878	89.25
339.106	84.25
339.334	95.25
339.562	96.25
339.79	92.25
340.018	94.25
340.246	74.25
340.474	84.25
340.702	80.25
340.93	75.25
341.158	93.25
341.386	90.25
341.614	88.25
341.842	81.25
342.07	85.25
342.298	83.25
342.526	81.25
342.754	79.25
342.981	86.25
343.209	80.25
343.437	102.25
343.665	79.25
343.893	76.25
344.12	90.25
344.348	79.25
344.576	86.25
344.804	85.25
345.031	79.25
345.259	88.25
345.487	81.25
345.714	88.25
345.942	82.25
346.17	73.25
346.397	88.25
346.625	98.25
346.853	90.25
347.08	73.25
347.308	83.25
347.535	67.25
347.763	77.25
347.99	89.25
348.218	90.25
348.445	93.25
348.673	80.25
348.9	84.25
349.128	76.25
349.355	82.25
349.583	91.25
349.81	80.25
350.037	78.25
350.265	76.25
350.492	77.25
350.72	96.25
350.947	99.25
351.174	80.25
351.402	76.25
351.629	86.25
351.856	85.25
352.083	75.25
352.311	80.25
352.538	90.25
352.765	84.25
352.992	92.25
353.22	103.25
353.447	82.25
353.674	87.25
353.901	80.25
354.128	78.25
354.355	69.25
354.583	93.25
354.81	82.25
355.037	76.25
355.264	91.25
355.491	83.25
355.718	75.25
355.945	82.25
356.172	86.25
356.399	88.25
356.626	88.25
356.853	105.25
357.08	132.25
357.307	139.25
357.534	138.25
357.761	91.25
357.988	100.25
358.215	90.25
358.441	96.25
358.668	108.25
358.895	86.25
359.122	76.25
359.349	86.25
359.576	79.25
359.802	82.25
360.029	86.25
360.256	91.25
360.483	89.25
360.709	74.25
360.936	86.25
361.163	65.25
361.39	90.25
361.616	82.25
361.843	91.25
362.07	84.25
362.296	98.25
362.523	89.25
362.749	84.25
362.976	84.25
363.203	103.25
363.429	108.25
363.656	143.25
363.882	191.25
364.109	201.25
364.335	129.25
364.562	92.25
364.788	80.25
365.015	83.25
365.241	81.25
365.468	84.25
365.694	91.25
365.92	84.25
366.147	88.25
366.373	94.25
366.599	88.25
366.826	109.25
367.052	110.25
367.278	125.25
367.505	96.25
367.731	107.25
367.957	115.25
368.184	203.25
368.41	256.25
368.636	198.25
368.862	120.25
369.089	80.25
369.315	91.25
369.541	90.25
369.767	93.25
369.993	81.25
370.219	84.25
370.445	73.25
370.672	60.25
370.898	72.25
371.124	74.25
371.35	89.25
371.576	81.25
371.802	64.25
372.028	72.25
372.254	87.25
372.48	81.25
372.706	91.25
372.932	93.25
373.158	87.25
373.384	96.25
373.61	100.25
373.835	120.25
374.061	150.25
374.287	126.25
374.513	86.25
374.739	74.25
374.965	87.25
375.191	89.25
375.416	96.25
375.642	76.25
375.868	88.25
376.094	81.25
376.319	80.25
376.545	92.25
376.771	85.25
376.997	84.25
377.222	98.25
377.448	78.25
377.674	84.25
377.899	85.25
378.125	69.25
378.35	88.25
378.576	89.25
378.802	77.25
379.027	66.25
379.253	81.25
379.478	95.25
379.704	81.25
379.929	87.25
380.155	89.25
380.38	83.25
380.606	89.25
380.831	72.25
381.057	92.25
381.282	84.25
381.507	75.25
381.733	77.25
381.958	65.25
382.184	82.25
382.409	68.25
382.634	82.25
382.86	72.25
383.085	85.25
383.31	89.25
383.535	89.25
383.761	69.25
383.986	84.25
384.211	84.25
384.436	82.25
384.662	88.25
384.887	88.25
385.112	96.25
385.337	93.25
385.562	78.25
385.787	72.25
386.013	72.25
386.238	76.25
386.463	92.25
386.688	102.25
386.913	90.25
387.138	83.25
387.363	93.25
387.588	87.25
387.813	96.25
388.038	84.25
388.263	77.25
388.488	71.25
388.713	88.25
388.938	100.25
389.163	92.25
389.387	94.25
389.612	82.25
389.837	77.25
390.062	72.25
390.287	69.25
390.512	80.25
390.736	82.25
390.961	89.25
391.186	86.25
391.411	74.25
391.636	95.25
391.86	78.25
392.085	90.25
392.31	90.25
392.534	88.25
392.759	94.25
392.984	95.25
393.208	68.25
393.433	92.25
393.658	86.25
393.882	76.25
394.107	91.25
394.331	93.25
394.556	72.25
394.78	90.25
395.005	83.25
395.229	79.25
395.454	78.25
395.678	80.25
395.903	95.25
396.127	79.25
396.352	75.25
396.576	79.25
396.801	79.25
397.025	89.25
397.249	87.25
397.474	79.25
397.698	85.25
397.922	66.25
398.147	94.25
398.371	80.25
398.595	83.25
398.82	89.25
399.044	93.25
399.268	80.25
399.492	84.25
399.717	82.25
399.941	87.25
400.165	84.25
400.389	78.25
400.613	81.25
400.837	92.25
401.062	63.25
401.286	86.25
401.51	86.25
401.734	101.25
401.958	105.25
402.182	105.25
402.406	82.25
402.63	89.25
402.854	74.25
403.078	88.25
403.302	92.25
403.526	90.25
403.75	86.25
403.974	97.25
404.198	81.25
404.422	77.25
404.645	86.25
404.869	90.25
405.093	94.25
405.317	132.25
405.541	217.25
405.765	387.25
405.988	410.25
406.212	215.25
406.436	128.25
406.66	118.25
406.883	89.25
407.107	97.25
407.331	86.25
407.555	80.25
407.778	87.25
408.002	91.25
408.226	78.25
408.449	87.25
408.673	82.25
408.896	86.25
409.12	93.25
409.344	77.25
409.567	85.25
409.791	82.25
410.014	96.25
410.238	103.25
410.461	84.25
410.685	84.25
410.908	77.25
411.132	84.25
411.355	89.25
411.578	74.25
411.802	82.25
412.025	98.25
412.249	90.25
412.472	75.25
412.695	79.25
412.919	77.25
413.142	84.25
413.365	76.25
413.589	88.25
413.812	77.25
414.035	78.25
414.258	81.25
414.482	71.25
414.705	84.25
414.928	87.25
415.151	82.25
415.374	65.25
415.597	86.25
415.821	78.25
416.044	89.25
416.267	96.25
416.49	82.25
416.713	82.25
416.936	93.25
417.159	90.25
417.382	87.25
417.605	90.25
417.828	87.25
418.051	68.25
418.274	93.25
418.497	75.25
418.72	91.25
418.943	89.25
419.166	89.25
419.389	64.25
419.611	92.25
419.834	80.25
420.057	72.25
420.28	72.25
420.503	63.25
420.726	66.25
420.948	72.25
421.171	94.25
421.394	80.25
421.617	87.25
421.839	74.25
422.062	77.25
422.285	70.25
422.507	79.25
422.73	73.25
422.953	86.25
423.175	86.25
423.398	65.25
423.621	77.25
423.843	76.25
424.066	66.25
424.288	66.25
424.511	88.25
424.733	86.25
424.956	78.25
425.178	84.25
425.401	81.25
425.623	78.25
425.846	93.25
426.068	79.25
426.291	95.25
426.513	76.25
426.735	68.25
426.958	77.25
427.18	89.25
427.402	77.25
427.625	84.25
427.847	79.25
428.069	82.25
428.292	94.25
428.514	84.25
428.736	74.25
428.958	80.25
429.181	78.25
429.403	85.25
429.625	83.25
429.847	88.25
430.069	91.25
430.292	81.25
430.514	81.25
430.736	86.25
430.958	86.25
431.18	76.25
431.402	84.25
431.624	78.25
431.846	79.25
432.068	83.25
432.29	76.25
432.512	80.25
432.734	67.25
432.956	94.25
433.178	95.25
433.4	95.25
433.622	88.25
433.844	79.25
434.066	89.25
434.287	91.25
434.509	93.25
434.731	78.25
434.953	81.25
435.175	94.25
435.397	72.25
435.618	86.25
435.84	90.25
436.062	86.25
436.284	75.25
436.505	85.25
436.727	79.25
436.949	73.25
437.17	93.25
437.392	74.25
437.614	76.25
437.835	80.25
438.057	86.25
438.278	91.25
438.5	83.25
438.721	74.25
438.943	68.25
439.165	81.25
439.386	78.25
439.608	95.25
439.829	79.25
440.05	81.25
440.272	77.25
440.493	72.25
440.715	81.25
440.936	86.25
441.158	85.25
441.379	74.25
441.6	85.25
441.822	74.25
442.043	84.25
442.264	83.25
442.486	79.25
442.707	84.25
442.928	75.25
443.149	84.25
443.371	93.25
443.592	80.25
443.813	83.25
444.034	68.25
444.255	92.25
444.476	81.25
444.698	76.25
444.919	80.25
445.14	148.25
445.361	106.25
445.582	83.25
445.803	85.25
446.024	76.25
446.245	75.25
446.466	89.25
446.687	84.25
446.908	86.25
447.129	94.25
447.35	76.25
447.571	67.25
447.792	93.25
448.013	85.25
448.234	90.25
448.455	82.25
448.675	87.25
448.896	91.25
449.117	63.25
449.338	97.25
449.559	91.25
449.779	75.25
450	66.25
450.221	78.25
450.442	95.25
450.662	84.25
450.883	76.25
451.104	81.25
451.324	87.25
451.545	94.25
451.766	89.25
451.986	81.25
452.207	94.25
452.428	79.25
452.648	80.25
452.869	83.25
453.089	82.25
453.31	84.25
453.53	76.25
453.751	77.25
453.971	89.25
454.192	88.25
454.412	93.25
454.633	81.25
454.853	101.25
455.073	77.25
455.294	76.25
455.514	64.25
455.734	89.25
455.955	69.25
456.175	85.25
456.395	83.25
456.616	84.25
456.836	82.25
457.056	65.25
457.276	80.25
457.497	88.25
457.717	74.25
457.937	81.25
458.157	88.25
458.377	74.25
458.598	87.25
458.818	87.25
459.038	74.25
459.258	74.25
459.478	75.25
459.698	79.25
459.918	76.25
460.138	93.25
460.358	78.25
460.578	72.25
460.798	81.25
461.018	89.25
461.238	86.25
461.458	86.25
461.678	75.25
461.898	79.25
462.118	81.25
462.338	76.25
462.558	93.25
462.777	75.25
462.997	81.25
463.217	70.25
463.437	68.25
463.657	79.25
463.876	78.25
464.096	72.25
464.316	77.25
464.536	85.25
464.755	77.25
464.975	72.25
465.195	72.25
465.414	85.25
465.634	81.25
465.854	85.25
466.073	103.25
466.293	90.25
466.512	78.25
466.732	106.25
466.951	77.25
467.171	94.25
467.391	65.25
467.61	74.25
467.829	90.25
468.049	74.25
468.268	69.25
468.488	84.25
468.707	92.25
468.927	79.25
469.146	78.25
469.365	79.25
469.585	82.25
469.804	91.25
470.023	76.25
470.243	73.25
470.462	90.25
470.681	93.25
470.901	97.25
471.12	88.25
471.339	68.25
471.558	78.25
471.777	85.25
471.997	98.25
472.216	83.25
472.435	81.25
472.654	74.25
472.873	82.25
473.092	92.25
473.311	82.25
473.53	80.25
473.749	82.25
473.968	85.25
474.187	58.25
474.406	81.25
474.625	86.25
474.844	88.25
475.063	75.25
475.282	81.25
475.501	85.25
475.72	79.25
475.939	94.25
476.158	69.25
476.377	68.25
476.596	87.25
476.814	80.25
477.033	94.25
477.252	79.25
477.471	86.25
477.69	81.25
477.908	91.25
478.127	90.25
478.346	81.25
478.564	94.25
478.783	97.25
479.002	101.25
479.22	82.25
479.439	82.25
479.658	75.25
479.876	78.25
480.095	81.25
480.313	81.25
480.532	91.25
480.751	86.25
480.969	80.25
481.188	89.25
481.406	79.25
481.624	80.25
481.843	90.25
482.061	78.25
482.28	91.25
482.498	90.25
482.717	84.25
482.935	84.25
483.153	74.25
483.372	81.25
483.59	84.25
483.808	85.25
484.027	75.25
484.245	93.25
484.463	83.25
484.681	80.25
484.9	76.25
485.118	82.25
485.336	89.25
485.554	88.25
485.772	84.25
485.99	71.25
486.209	85.25
486.427	84.25
486.645	85.25
486.863	81.25
487.081	75.25
487.299	75.25
487.517	91.25
487.735	76.25
487.953	81.25
488.171	85.25
488.389	84.25
488.607	69.25
488.825	88.25
489.043	75.25
489.261	77.25
489.479	96.25
489.696	70.25
489.914	79.25
490.132	87.25
490.35	83.25
490.568	75.25
490.786	86.25
491.003	98.25
491.221	87.25
491.439	90.25
491.657	66.25
491.874	79.25
492.092	93.25
492.31	88.25
492.527	100.25
492.745	88.25
492.963	101.25
493.18	96.25
493.398	83.25
493.615	90.25
493.833	89.25
494.05	99.25
494.268	76.25
494.485	82.25
494.703	85.25
494.92	86.25
495.138	92.25
495.355	100.25
495.573	81.25
495.79	80.25
496.008	85.25
496.225	92.25
496.442	78.25
496.66	85.25
496.877	81.25
497.094	98.25
497.312	93.25
497.529	82.25
497.746	75.25
497.963	73.25
498.181	85.25
498.398	71.25
498.615	84.25
498.832	68.25
499.049	89.25
499.267	75.25
499.484	86.25
499.701	80.25
499.918	92.25
500.135	84.25
500.352	87.25
500.569	113.25
500.786	143.25
501.003	103.25
501.22	81.25
501.437	91.25
501.654	76.25
501.871	77.25
502.088	91.25
502.305	83.25
502.522	81.25
502.739	86.25
502.956	86.25
503.172	80.25
503.389	76.25
503.606	88.25
503.823	96.25
504.04	77.25
504.256	72.25
504.473	84.25
504.69	73.25
504.907	82.25
505.123	85.25
505.34	82.25
505.557	85.25
505.773	90.25
505.99	77.25
506.207	74.25
506.423	86.25
506.64	93.25
506.856	84.25
507.073	72.25
507.289	66.25
507.506	93.25
507.722	81.25
507.939	85.25
508.155	80.25
508.372	80.25
508.588	80.25
508.805	90.25
509.021	85.25
509.238	80.25
509.454	80.25
509.67	85.25
509.887	79.25
510.103	80.25
510.319	96.25
510.536	94.25
510.752	83.25
510.968	91.25
511.184	82.25
511.401	85.25
511.617	73.25
511.833	81.25
512.049	79.25
512.265	90.25
512.481	80.25
512.698	84.25
512.914	92.25
513.13	92.25
513.346	78.25
513.562	83.25
513.778	69.25
513.994	78.25
514.21	89.25
514.426	69.25
514.642	73.25
514.858	84.25
515.074	89.25
515.29	81.25
515.506	85.25
515.721	94.25
515.937	84.25
516.153	76.25
516.369	84.25
516.585	75.25
516.801	82.25
517.016	88.25
517.232	72.25
517.448	92.25
517.664	77.25
517.879	76.25
518.095	71.25
518.311	79.25
518.527	74.25
518.742	90.25
518.958	98.25
519.173	88.25
