Data from StdB_HRD10591_049.txt Node
Date: Fri May 16 15:25:10 EDT 2025
User: Yrep
Spectrometer: HR+D1059
Trigger mode: 1
Integration Time (sec): 1.000000E-1
Scans to average: 1
Electric dark correction enabled: true
Nonlinearity correction enabled: false
Boxcar width: 0
XAxis mode: Wavelengths
Number of Pixels in Spectrum: 2048
>>>>>Begin Spectral Data<<<<<
223.165	0.06
223.4	0.06
223.635	0.06
223.869	-20.94
224.104	-17.94
224.338	-11.94
224.573	-9.94
224.808	-25.94
225.042	-7.94
225.277	-6.94
225.511	0.06
225.746	8.06
225.98	8.06
226.215	15.06
226.449	8.06
226.683	10.06
226.918	23.06
227.152	29.06
227.387	31.06
227.621	35.06
227.856	34.06
228.09	48.06
228.324	55.06
228.559	51.06
228.793	62.06
229.027	51.06
229.262	55.06
229.496	72.06
229.73	70.06
229.964	86.06
230.199	89.06
230.433	80.06
230.667	81.06
230.901	81.06
231.136	60.06
231.37	84.06
231.604	84.06
231.838	82.06
232.072	94.06
232.306	89.06
232.541	76.06
232.775	82.06
233.009	79.06
233.243	85.06
233.477	74.06
233.711	96.06
233.945	85.06
234.179	90.06
234.413	85.06
234.647	82.06
234.881	76.06
235.115	85.06
235.349	85.06
235.583	94.06
235.817	81.06
236.051	97.06
236.285	96.06
236.519	85.06
236.753	79.06
236.987	83.06
237.221	82.06
237.455	81.06
237.689	77.06
237.922	79.06
238.156	77.06
238.39	79.06
238.624	95.06
238.858	92.06
239.091	86.06
239.325	93.06
239.559	68.06
239.793	79.06
240.027	81.06
240.26	83.06
240.494	95.06
240.728	76.06
240.961	82.06
241.195	84.06
241.429	75.06
241.662	59.06
241.896	73.06
242.13	75.06
242.363	86.06
242.597	81.06
242.83	81.06
243.064	75.06
243.298	66.06
243.531	84.06
243.765	73.06
243.998	71.06
244.232	79.06
244.465	78.06
244.699	80.06
244.932	83.06
245.166	76.06
245.399	86.06
245.633	69.06
245.866	78.06
246.099	85.06
246.333	82.06
246.566	78.06
246.8	88.06
247.033	79.06
247.266	81.06
247.5	76.06
247.733	82.06
247.966	76.06
248.2	74.06
248.433	92.06
248.666	72.06
248.899	92.06
249.133	93.06
249.366	89.06
249.599	83.06
249.832	72.06
250.066	76.06
250.299	72.06
250.532	77.06
250.765	75.06
250.998	87.06
251.231	83.06
251.465	81.06
251.698	79.06
251.931	88.06
252.164	90.06
252.397	107.06
252.63	73.06
252.863	77.06
253.096	89.06
253.329	103.06
253.562	84.06
253.795	81.06
254.028	86.06
254.261	84.06
254.494	68.06
254.727	90.06
254.96	78.06
255.193	84.06
255.426	71.06
255.659	86.06
255.892	76.06
256.124	96.06
256.357	89.06
256.59	96.06
256.823	96.06
257.056	96.06
257.289	98.06
257.521	98.06
257.754	114.06
257.987	97.06
258.22	90.06
258.452	83.06
258.685	78.06
258.918	107.06
259.151	87.06
259.383	86.06
259.616	90.06
259.849	90.06
260.081	84.06
260.314	82.06
260.547	81.06
260.779	84.06
261.012	92.06
261.244	92.06
261.477	100.06
261.71	99.06
261.942	96.06
262.175	71.06
262.407	80.06
262.64	73.06
262.872	90.06
263.105	93.06
263.337	93.06
263.57	98.06
263.802	102.06
264.035	98.06
264.267	82.06
264.499	89.06
264.732	97.06
264.964	85.06
265.197	106.06
265.429	91.06
265.661	86.06
265.894	82.06
266.126	86.06
266.358	81.06
266.591	98.06
266.823	91.06
267.055	78.06
267.287	100.06
267.52	98.06
267.752	91.06
267.984	91.06
268.216	80.06
268.448	77.06
268.681	83.06
268.913	78.06
269.145	87.06
269.377	95.06
269.609	76.06
269.841	90.06
270.073	90.06
270.306	84.06
270.538	95.06
270.77	87.06
271.002	107.06
271.234	89.06
271.466	99.06
271.698	84.06
271.93	73.06
272.162	84.06
272.394	79.06
272.626	80.06
272.858	83.06
273.09	84.06
273.322	83.06
273.553	79.06
273.785	94.06
274.017	89.06
274.249	86.06
274.481	81.06
274.713	86.06
274.945	100.06
275.176	87.06
275.408	78.06
275.64	98.06
275.872	78.06
276.104	86.06
276.335	83.06
276.567	83.06
276.799	77.06
277.031	95.06
277.262	97.06
277.494	98.06
277.726	89.06
277.957	93.06
278.189	95.06
278.421	85.06
278.652	107.06
278.884	92.06
279.115	85.06
279.347	93.06
279.579	84.06
279.81	91.06
280.042	114.06
280.273	123.06
280.505	125.06
280.736	99.06
280.968	93.06
281.199	89.06
281.431	87.06
281.662	81.06
281.894	103.06
282.125	102.06
282.356	96.06
282.588	107.06
282.819	99.06
283.051	98.06
283.282	114.06
283.513	117.06
283.745	101.06
283.976	92.06
284.207	88.06
284.439	82.06
284.67	85.06
284.901	106.06
285.132	99.06
285.364	87.06
285.595	84.06
285.826	77.06
286.057	90.06
286.288	87.06
286.52	95.06
286.751	78.06
286.982	82.06
287.213	103.06
287.444	98.06
287.675	114.06
287.906	106.06
288.138	82.06
288.369	93.06
288.6	86.06
288.831	87.06
289.062	84.06
289.293	77.06
289.524	78.06
289.755	79.06
289.986	83.06
290.217	90.06
290.448	81.06
290.679	95.06
290.91	88.06
291.141	87.06
291.371	90.06
291.602	76.06
291.833	93.06
292.064	83.06
292.295	85.06
292.526	83.06
292.757	84.06
292.987	90.06
293.218	84.06
293.449	87.06
293.68	92.06
293.91	87.06
294.141	91.06
294.372	87.06
294.603	86.06
294.833	83.06
295.064	87.06
295.295	90.06
295.525	83.06
295.756	91.06
295.987	93.06
296.217	97.06
296.448	92.06
296.679	120.06
296.909	99.06
297.14	93.06
297.37	92.06
297.601	89.06
297.831	94.06
298.062	89.06
298.292	98.06
298.523	108.06
298.753	92.06
298.984	101.06
299.214	98.06
299.445	88.06
299.675	89.06
299.905	87.06
300.136	95.06
300.366	90.06
300.597	86.06
300.827	86.06
301.057	79.06
301.288	83.06
301.518	91.06
301.748	78.06
301.979	103.06
302.209	87.06
302.439	89.06
302.669	97.06
302.9	90.06
303.13	78.06
303.36	92.06
303.59	98.06
303.82	97.06
304.051	87.06
304.281	84.06
304.511	78.06
304.741	92.06
304.971	93.06
305.201	100.06
305.431	92.06
305.661	78.06
305.891	92.06
306.121	85.06
306.352	76.06
306.582	96.06
306.812	109.06
307.042	99.06
307.272	98.06
307.502	84.06
307.731	88.06
307.961	86.06
308.191	80.06
308.421	86.06
308.651	92.06
308.881	79.06
309.111	99.06
309.341	102.06
309.571	87.06
309.8	98.06
310.03	96.06
310.26	90.06
310.49	101.06
310.72	90.06
310.949	99.06
311.179	99.06
311.409	98.06
311.639	76.06
311.868	86.06
312.098	98.06
312.328	103.06
312.557	82.06
312.787	88.06
313.017	93.06
313.246	91.06
313.476	85.06
313.706	79.06
313.935	82.06
314.165	99.06
314.394	104.06
314.624	94.06
314.853	90.06
315.083	81.06
315.312	94.06
315.542	90.06
315.771	94.06
316.001	100.06
316.23	96.06
316.46	72.06
316.689	89.06
316.919	97.06
317.148	89.06
317.377	97.06
317.607	88.06
317.836	79.06
318.065	93.06
318.295	98.06
318.524	84.06
318.753	79.06
318.983	95.06
319.212	94.06
319.441	93.06
319.67	74.06
319.9	75.06
320.129	98.06
320.358	82.06
320.587	82.06
320.816	94.06
321.046	91.06
321.275	95.06
321.504	92.06
321.733	89.06
321.962	88.06
322.191	94.06
322.42	93.06
322.649	87.06
322.878	89.06
323.108	84.06
323.337	79.06
323.566	99.06
323.795	97.06
324.024	83.06
324.253	94.06
324.482	87.06
324.71	98.06
324.939	94.06
325.168	100.06
325.397	93.06
325.626	85.06
325.855	94.06
326.084	95.06
326.313	93.06
326.542	81.06
326.77	77.06
326.999	82.06
327.228	87.06
327.457	80.06
327.686	76.06
327.914	96.06
328.143	94.06
328.372	97.06
328.6	87.06
328.829	99.06
329.058	84.06
329.287	73.06
329.515	82.06
329.744	85.06
329.972	79.06
330.201	74.06
330.43	93.06
330.658	89.06
330.887	90.06
331.115	76.06
331.344	101.06
331.572	90.06
331.801	95.06
332.03	85.06
332.258	88.06
332.486	96.06
332.715	94.06
332.943	88.06
333.172	90.06
333.4	102.06
333.629	91.06
333.857	94.06
334.085	75.06
334.314	76.06
334.542	93.06
334.771	96.06
334.999	77.06
335.227	106.06
335.455	85.06
335.684	89.06
335.912	86.06
336.14	90.06
336.369	83.06
336.597	101.06
336.825	81.06
337.053	96.06
337.281	89.06
337.51	94.06
337.738	86.06
337.966	88.06
338.194	87.06
338.422	79.06
338.65	99.06
338.878	96.06
339.106	93.06
339.334	86.06
339.562	75.06
339.79	89.06
340.018	80.06
340.246	92.06
340.474	91.06
340.702	95.06
340.93	94.06
341.158	86.06
341.386	95.06
341.614	87.06
341.842	69.06
342.07	83.06
342.298	83.06
342.526	88.06
342.754	88.06
342.981	86.06
343.209	86.06
343.437	101.06
343.665	77.06
343.893	87.06
344.12	92.06
344.348	90.06
344.576	85.06
344.804	77.06
345.031	107.06
345.259	83.06
345.487	93.06
345.714	92.06
345.942	93.06
346.17	82.06
346.397	90.06
346.625	87.06
346.853	90.06
347.08	93.06
347.308	75.06
347.535	100.06
347.763	104.06
347.99	97.06
348.218	84.06
348.445	89.06
348.673	90.06
348.9	93.06
349.128	95.06
349.355	93.06
349.583	82.06
349.81	99.06
350.037	91.06
350.265	97.06
350.492	95.06
350.72	93.06
350.947	108.06
351.174	93.06
351.402	81.06
351.629	82.06
351.856	79.06
352.083	94.06
352.311	89.06
352.538	76.06
352.765	89.06
352.992	84.06
353.22	98.06
353.447	83.06
353.674	90.06
353.901	114.06
354.128	84.06
354.355	83.06
354.583	74.06
354.81	103.06
355.037	84.06
355.264	92.06
355.491	90.06
355.718	78.06
355.945	82.06
356.172	96.06
356.399	94.06
356.626	91.06
356.853	109.06
357.08	135.06
357.307	169.06
357.534	157.06
357.761	106.06
357.988	94.06
358.215	99.06
358.441	84.06
358.668	97.06
358.895	91.06
359.122	98.06
359.349	83.06
359.576	79.06
359.802	74.06
360.029	97.06
360.256	92.06
360.483	97.06
360.709	86.06
360.936	87.06
361.163	83.06
361.39	81.06
361.616	75.06
361.843	84.06
362.07	90.06
362.296	93.06
362.523	79.06
362.749	105.06
362.976	89.06
363.203	110.06
363.429	115.06
363.656	144.06
363.882	192.06
364.109	212.06
364.335	126.06
364.562	86.06
364.788	85.06
365.015	83.06
365.241	102.06
365.468	97.06
365.694	78.06
365.92	81.06
366.147	90.06
366.373	92.06
366.599	99.06
366.826	101.06
367.052	113.06
367.278	142.06
367.505	102.06
367.731	125.06
367.957	134.06
368.184	210.06
368.41	272.06
368.636	194.06
368.862	121.06
369.089	103.06
369.315	100.06
369.541	93.06
369.767	81.06
369.993	93.06
370.219	67.06
370.445	86.06
370.672	90.06
370.898	83.06
371.124	81.06
371.35	90.06
371.576	78.06
371.802	90.06
372.028	66.06
372.254	85.06
372.48	95.06
372.706	80.06
372.932	82.06
373.158	86.06
373.384	87.06
373.61	106.06
373.835	127.06
374.061	145.06
374.287	128.06
374.513	98.06
374.739	99.06
374.965	88.06
375.191	93.06
375.416	86.06
375.642	85.06
375.868	88.06
376.094	87.06
376.319	72.06
376.545	81.06
376.771	88.06
376.997	94.06
377.222	82.06
377.448	79.06
377.674	77.06
377.899	85.06
378.125	88.06
378.35	93.06
378.576	92.06
378.802	88.06
379.027	99.06
379.253	79.06
379.478	91.06
379.704	95.06
379.929	82.06
380.155	93.06
380.38	84.06
380.606	86.06
380.831	92.06
381.057	95.06
381.282	93.06
381.507	94.06
381.733	74.06
381.958	86.06
382.184	85.06
382.409	86.06
382.634	92.06
382.86	81.06
383.085	97.06
383.31	96.06
383.535	90.06
383.761	79.06
383.986	85.06
384.211	75.06
384.436	77.06
384.662	93.06
384.887	76.06
385.112	91.06
385.337	85.06
385.562	89.06
385.787	81.06
386.013	83.06
386.238	82.06
386.463	98.06
386.688	95.06
386.913	81.06
387.138	77.06
387.363	87.06
387.588	93.06
387.813	92.06
388.038	91.06
388.263	83.06
388.488	86.06
388.713	90.06
388.938	91.06
389.163	82.06
389.387	86.06
389.612	79.06
389.837	70.06
390.062	101.06
390.287	93.06
390.512	94.06
390.736	78.06
390.961	81.06
391.186	71.06
391.411	71.06
391.636	92.06
391.86	98.06
392.085	79.06
392.31	95.06
392.534	69.06
392.759	79.06
392.984	91.06
393.208	102.06
393.433	89.06
393.658	78.06
393.882	97.06
394.107	89.06
394.331	89.06
394.556	87.06
394.78	89.06
395.005	83.06
395.229	95.06
395.454	89.06
395.678	93.06
395.903	96.06
396.127	83.06
396.352	94.06
396.576	87.06
396.801	80.06
397.025	83.06
397.249	90.06
397.474	95.06
397.698	92.06
397.922	84.06
398.147	71.06
398.371	99.06
398.595	86.06
398.82	79.06
399.044	80.06
399.268	94.06
399.492	85.06
399.717	86.06
399.941	91.06
400.165	95.06
400.389	93.06
400.613	86.06
400.837	91.06
401.062	81.06
401.286	87.06
401.51	102.06
401.734	95.06
401.958	100.06
402.182	109.06
402.406	96.06
402.63	90.06
402.854	77.06
403.078	89.06
403.302	71.06
403.526	79.06
403.75	76.06
403.974	89.06
404.198	79.06
404.422	94.06
404.645	81.06
404.869	91.06
405.093	96.06
405.317	136.06
405.541	226.06
405.765	375.06
405.988	402.06
406.212	220.06
406.436	148.06
406.66	94.06
406.883	91.06
407.107	76.06
407.331	83.06
407.555	96.06
407.778	90.06
408.002	107.06
408.226	95.06
408.449	85.06
408.673	76.06
408.896	98.06
409.12	95.06
409.344	102.06
409.567	102.06
409.791	96.06
410.014	86.06
410.238	77.06
410.461	101.06
410.685	79.06
410.908	78.06
411.132	91.06
411.355	92.06
411.578	87.06
411.802	86.06
412.025	87.06
412.249	89.06
412.472	86.06
412.695	85.06
412.919	77.06
413.142	89.06
413.365	79.06
413.589	87.06
413.812	95.06
414.035	91.06
414.258	100.06
414.482	96.06
414.705	86.06
414.928	90.06
415.151	86.06
415.374	82.06
415.597	89.06
415.821	91.06
416.044	78.06
416.267	84.06
416.49	101.06
416.713	84.06
416.936	109.06
417.159	92.06
417.382	80.06
417.605	77.06
417.828	82.06
418.051	93.06
418.274	79.06
418.497	91.06
418.72	79.06
418.943	92.06
419.166	92.06
419.389	92.06
419.611	66.06
419.834	90.06
420.057	79.06
420.28	70.06
420.503	89.06
420.726	92.06
420.948	83.06
421.171	84.06
421.394	74.06
421.617	75.06
421.839	94.06
422.062	84.06
422.285	77.06
422.507	85.06
422.73	105.06
422.953	94.06
423.175	81.06
423.398	96.06
423.621	79.06
423.843	81.06
424.066	95.06
424.288	85.06
424.511	79.06
424.733	79.06
424.956	91.06
425.178	91.06
425.401	80.06
425.623	76.06
425.846	80.06
426.068	82.06
426.291	91.06
426.513	85.06
426.735	81.06
426.958	78.06
427.18	83.06
427.402	96.06
427.625	70.06
427.847	76.06
428.069	77.06
428.292	89.06
428.514	75.06
428.736	91.06
428.958	80.06
429.181	90.06
429.403	99.06
429.625	93.06
429.847	96.06
430.069	90.06
430.292	79.06
430.514	71.06
430.736	85.06
430.958	77.06
431.18	93.06
431.402	106.06
431.624	83.06
431.846	80.06
432.068	82.06
432.29	82.06
432.512	91.06
432.734	77.06
432.956	91.06
433.178	82.06
433.4	88.06
433.622	91.06
433.844	94.06
434.066	88.06
434.287	82.06
434.509	86.06
434.731	82.06
434.953	94.06
435.175	84.06
435.397	97.06
435.618	82.06
435.84	86.06
436.062	94.06
436.284	88.06
436.505	87.06
436.727	94.06
436.949	88.06
437.17	78.06
437.392	87.06
437.614	89.06
437.835	93.06
438.057	85.06
438.278	93.06
438.5	71.06
438.721	92.06
438.943	86.06
439.165	73.06
439.386	92.06
439.608	87.06
439.829	69.06
440.05	84.06
440.272	92.06
440.493	73.06
440.715	99.06
440.936	93.06
441.158	97.06
441.379	92.06
441.6	81.06
441.822	90.06
442.043	92.06
442.264	88.06
442.486	86.06
442.707	92.06
442.928	100.06
443.149	90.06
443.371	85.06
443.592	77.06
443.813	81.06
444.034	83.06
444.255	75.06
444.476	89.06
444.698	82.06
444.919	98.06
445.14	143.06
445.361	117.06
445.582	90.06
445.803	93.06
446.024	84.06
446.245	98.06
446.466	78.06
446.687	90.06
446.908	81.06
447.129	82.06
447.35	76.06
447.571	89.06
447.792	91.06
448.013	99.06
448.234	110.06
448.455	77.06
448.675	97.06
448.896	90.06
449.117	84.06
449.338	93.06
449.559	92.06
449.779	93.06
450	105.06
450.221	87.06
450.442	93.06
450.662	87.06
450.883	94.06
451.104	81.06
451.324	90.06
451.545	96.06
451.766	83.06
451.986	80.06
452.207	73.06
452.428	95.06
452.648	94.06
452.869	93.06
453.089	85.06
453.31	99.06
453.53	85.06
453.751	84.06
453.971	87.06
454.192	103.06
454.412	95.06
454.633	89.06
454.853	85.06
455.073	78.06
455.294	83.06
455.514	86.06
455.734	82.06
455.955	86.06
456.175	82.06
456.395	76.06
456.616	94.06
456.836	83.06
457.056	91.06
457.276	82.06
457.497	91.06
457.717	81.06
457.937	72.06
458.157	76.06
458.377	83.06
458.598	89.06
458.818	85.06
459.038	90.06
459.258	75.06
459.478	79.06
459.698	72.06
459.918	81.06
460.138	85.06
460.358	85.06
460.578	77.06
460.798	88.06
461.018	73.06
461.238	85.06
461.458	92.06
461.678	78.06
461.898	92.06
462.118	91.06
462.338	77.06
462.558	82.06
462.777	92.06
462.997	83.06
463.217	83.06
463.437	90.06
463.657	90.06
463.876	71.06
464.096	61.06
464.316	83.06
464.536	105.06
464.755	91.06
464.975	93.06
465.195	93.06
465.414	87.06
465.634	89.06
465.854	80.06
466.073	83.06
466.293	69.06
466.512	93.06
466.732	89.06
466.951	87.06
467.171	91.06
467.391	96.06
467.61	81.06
467.829	88.06
468.049	92.06
468.268	101.06
468.488	85.06
468.707	105.06
468.927	87.06
469.146	91.06
469.365	94.06
469.585	79.06
469.804	92.06
470.023	90.06
470.243	83.06
470.462	100.06
470.681	85.06
470.901	85.06
471.12	81.06
471.339	83.06
471.558	92.06
471.777	93.06
471.997	85.06
472.216	83.06
472.435	97.06
472.654	91.06
472.873	90.06
473.092	79.06
473.311	86.06
473.53	91.06
473.749	89.06
473.968	83.06
474.187	102.06
474.406	87.06
474.625	77.06
474.844	80.06
475.063	95.06
475.282	85.06
475.501	70.06
475.72	87.06
475.939	82.06
476.158	86.06
476.377	85.06
476.596	94.06
476.814	80.06
477.033	89.06
477.252	97.06
477.471	93.06
477.69	79.06
477.908	82.06
478.127	97.06
478.346	99.06
478.564	92.06
478.783	85.06
479.002	101.06
479.22	92.06
479.439	86.06
479.658	97.06
479.876	79.06
480.095	91.06
480.313	98.06
480.532	98.06
480.751	87.06
480.969	86.06
481.188	81.06
481.406	80.06
481.624	92.06
481.843	84.06
482.061	92.06
482.28	79.06
482.498	80.06
482.717	89.06
482.935	95.06
483.153	92.06
483.372	78.06
483.59	73.06
483.808	87.06
484.027	87.06
484.245	94.06
484.463	96.06
484.681	93.06
484.9	92.06
485.118	94.06
485.336	85.06
485.554	85.06
485.772	69.06
485.99	87.06
486.209	88.06
486.427	81.06
486.645	83.06
486.863	92.06
487.081	89.06
487.299	89.06
487.517	84.06
487.735	85.06
487.953	91.06
488.171	79.06
488.389	74.06
488.607	79.06
488.825	89.06
489.043	101.06
489.261	83.06
489.479	94.06
489.696	82.06
489.914	85.06
490.132	79.06
490.35	98.06
490.568	95.06
490.786	95.06
491.003	90.06
491.221	87.06
491.439	66.06
491.657	96.06
491.874	80.06
492.092	93.06
492.31	97.06
492.527	94.06
492.745	82.06
492.963	78.06
493.18	90.06
493.398	97.06
493.615	99.06
493.833	88.06
494.05	91.06
494.268	94.06
494.485	79.06
494.703	84.06
494.92	103.06
495.138	85.06
495.355	87.06
495.573	83.06
495.79	93.06
496.008	90.06
496.225	86.06
496.442	102.06
496.66	100.06
496.877	90.06
497.094	98.06
497.312	100.06
497.529	94.06
497.746	89.06
497.963	79.06
498.181	87.06
498.398	99.06
498.615	88.06
498.832	82.06
499.049	88.06
499.267	82.06
499.484	85.06
499.701	82.06
499.918	103.06
500.135	83.06
500.352	94.06
500.569	121.06
500.786	157.06
501.003	96.06
501.22	105.06
501.437	95.06
501.654	81.06
501.871	77.06
502.088	82.06
502.305	93.06
502.522	83.06
502.739	97.06
502.956	79.06
503.172	85.06
503.389	96.06
503.606	81.06
503.823	82.06
504.04	92.06
504.256	75.06
504.473	92.06
504.69	97.06
504.907	98.06
505.123	95.06
505.34	78.06
505.557	101.06
505.773	86.06
505.99	84.06
506.207	78.06
506.423	85.06
506.64	91.06
506.856	94.06
507.073	77.06
507.289	92.06
507.506	96.06
507.722	92.06
507.939	84.06
508.155	95.06
508.372	107.06
508.588	82.06
508.805	87.06
509.021	70.06
509.238	85.06
509.454	89.06
509.67	84.06
509.887	81.06
510.103	82.06
510.319	82.06
510.536	91.06
510.752	79.06
510.968	79.06
511.184	98.06
511.401	89.06
511.617	75.06
511.833	90.06
512.049	92.06
512.265	94.06
512.481	97.06
512.698	85.06
512.914	94.06
513.13	95.06
513.346	88.06
513.562	84.06
513.778	88.06
513.994	93.06
514.21	83.06
514.426	95.06
514.642	82.06
514.858	77.06
515.074	105.06
515.29	94.06
515.506	93.06
515.721	78.06
515.937	93.06
516.153	73.06
516.369	99.06
516.585	88.06
516.801	90.06
517.016	93.06
517.232	92.06
517.448	82.06
517.664	83.06
517.879	93.06
518.095	93.06
518.311	107.06
518.527	91.06
518.742	92.06
