Data from StdB_HRD10591_046.txt Node
Date: Fri May 16 15:25:09 EDT 2025
User: Yrep
Spectrometer: HR+D1059
Trigger mode: 1
Integration Time (sec): 1.000000E-1
Scans to average: 1
Electric dark correction enabled: true
Nonlinearity correction enabled: false
Boxcar width: 0
XAxis mode: Wavelengths
Number of Pixels in Spectrum: 2048
>>>>>Begin Spectral Data<<<<<
223.165	-21.69
223.4	-21.69
223.635	-21.69
223.869	-12.69
224.104	-21.69
224.338	-26.69
224.573	-18.69
224.808	-6.69
225.042	-10.69
225.277	-2.69
225.511	-3.69
225.746	0.31
225.98	14.31
226.215	18.31
226.449	14.31
226.683	25.31
226.918	15.31
227.152	37.31
227.387	38.31
227.621	46.31
227.856	58.31
228.09	41.31
228.324	52.31
228.559	48.31
228.793	45.31
229.027	69.31
229.262	66.31
229.496	54.31
229.73	78.31
229.964	73.31
230.199	85.31
230.433	63.31
230.667	65.31
230.901	97.31
231.136	61.31
231.37	92.31
231.604	87.31
231.838	82.31
232.072	72.31
232.306	79.31
232.541	81.31
232.775	81.31
233.009	80.31
233.243	72.31
233.477	77.31
233.711	84.31
233.945	78.31
234.179	88.31
234.413	88.31
234.647	93.31
234.881	70.31
235.115	80.31
235.349	69.31
235.583	75.31
235.817	60.31
236.051	62.31
236.285	83.31
236.519	68.31
236.753	62.31
236.987	89.31
237.221	64.31
237.455	76.31
237.689	84.31
237.922	84.31
238.156	73.31
238.39	78.31
238.624	70.31
238.858	70.31
239.091	81.31
239.325	82.31
239.559	73.31
239.793	91.31
240.027	74.31
240.26	76.31
240.494	75.31
240.728	84.31
240.961	72.31
241.195	77.31
241.429	80.31
241.662	76.31
241.896	77.31
242.13	71.31
242.363	67.31
242.597	77.31
242.83	86.31
243.064	73.31
243.298	92.31
243.531	77.31
243.765	66.31
243.998	74.31
244.232	67.31
244.465	81.31
244.699	80.31
244.932	77.31
245.166	74.31
245.399	78.31
245.633	73.31
245.866	78.31
246.099	67.31
246.333	81.31
246.566	71.31
246.8	81.31
247.033	88.31
247.266	84.31
247.5	72.31
247.733	84.31
247.966	91.31
248.2	98.31
248.433	69.31
248.666	82.31
248.899	80.31
249.133	86.31
249.366	82.31
249.599	74.31
249.832	87.31
250.066	78.31
250.299	79.31
250.532	69.31
250.765	72.31
250.998	72.31
251.231	74.31
251.465	76.31
251.698	69.31
251.931	80.31
252.164	76.31
252.397	73.31
252.63	76.31
252.863	93.31
253.096	63.31
253.329	92.31
253.562	72.31
253.795	73.31
254.028	75.31
254.261	79.31
254.494	78.31
254.727	91.31
254.96	78.31
255.193	86.31
255.426	81.31
255.659	87.31
255.892	94.31
256.124	79.31
256.357	72.31
256.59	84.31
256.823	93.31
257.056	89.31
257.289	79.31
257.521	81.31
257.754	82.31
257.987	89.31
258.22	86.31
258.452	77.31
258.685	81.31
258.918	94.31
259.151	88.31
259.383	80.31
259.616	79.31
259.849	85.31
260.081	74.31
260.314	78.31
260.547	74.31
260.779	76.31
261.012	86.31
261.244	75.31
261.477	105.31
261.71	99.31
261.942	88.31
262.175	82.31
262.407	79.31
262.64	85.31
262.872	87.31
263.105	77.31
263.337	92.31
263.57	72.31
263.802	70.31
264.035	84.31
264.267	78.31
264.499	108.31
264.732	84.31
264.964	76.31
265.197	81.31
265.429	90.31
265.661	91.31
265.894	102.31
266.126	102.31
266.358	92.31
266.591	72.31
266.823	68.31
267.055	87.31
267.287	87.31
267.52	90.31
267.752	81.31
267.984	81.31
268.216	89.31
268.448	78.31
268.681	78.31
268.913	81.31
269.145	84.31
269.377	68.31
269.609	87.31
269.841	86.31
270.073	87.31
270.306	81.31
270.538	80.31
270.77	73.31
271.002	89.31
271.234	81.31
271.466	83.31
271.698	88.31
271.93	75.31
272.162	95.31
272.394	84.31
272.626	73.31
272.858	75.31
273.09	94.31
273.322	84.31
273.553	80.31
273.785	94.31
274.017	89.31
274.249	85.31
274.481	76.31
274.713	82.31
274.945	82.31
275.176	80.31
275.408	85.31
275.64	80.31
275.872	92.31
276.104	85.31
276.335	74.31
276.567	77.31
276.799	86.31
277.031	67.31
277.262	94.31
277.494	88.31
277.726	88.31
277.957	104.31
278.189	94.31
278.421	80.31
278.652	82.31
278.884	75.31
279.115	86.31
279.347	104.31
279.579	80.31
279.81	85.31
280.042	104.31
280.273	111.31
280.505	105.31
280.736	97.31
280.968	85.31
281.199	73.31
281.431	97.31
281.662	88.31
281.894	87.31
282.125	94.31
282.356	96.31
282.588	93.31
282.819	81.31
283.051	102.31
283.282	104.31
283.513	123.31
283.745	116.31
283.976	86.31
284.207	77.31
284.439	88.31
284.67	77.31
284.901	84.31
285.132	90.31
285.364	84.31
285.595	74.31
285.826	85.31
286.057	86.31
286.288	79.31
286.52	79.31
286.751	68.31
286.982	90.31
287.213	96.31
287.444	111.31
287.675	111.31
287.906	103.31
288.138	85.31
288.369	84.31
288.6	90.31
288.831	71.31
289.062	98.31
289.293	92.31
289.524	88.31
289.755	81.31
289.986	88.31
290.217	78.31
290.448	93.31
290.679	89.31
290.91	87.31
291.141	88.31
291.371	87.31
291.602	84.31
291.833	87.31
292.064	83.31
292.295	84.31
292.526	88.31
292.757	89.31
292.987	90.31
293.218	93.31
293.449	84.31
293.68	100.31
293.91	93.31
294.141	80.31
294.372	81.31
294.603	86.31
294.833	81.31
295.064	64.31
295.295	88.31
295.525	89.31
295.756	73.31
295.987	81.31
296.217	61.31
296.448	95.31
296.679	97.31
296.909	88.31
297.14	86.31
297.37	89.31
297.601	82.31
297.831	92.31
298.062	79.31
298.292	78.31
298.523	79.31
298.753	90.31
298.984	82.31
299.214	76.31
299.445	72.31
299.675	94.31
299.905	85.31
300.136	100.31
300.366	83.31
300.597	80.31
300.827	101.31
301.057	76.31
301.288	87.31
301.518	78.31
301.748	89.31
301.979	114.31
302.209	96.31
302.439	85.31
302.669	86.31
302.9	87.31
303.13	84.31
303.36	56.31
303.59	92.31
303.82	84.31
304.051	89.31
304.281	91.31
304.511	73.31
304.741	81.31
304.971	80.31
305.201	73.31
305.431	80.31
305.661	78.31
305.891	73.31
306.121	87.31
306.352	73.31
306.582	77.31
306.812	79.31
307.042	71.31
307.272	85.31
307.502	84.31
307.731	89.31
307.961	90.31
308.191	85.31
308.421	81.31
308.651	88.31
308.881	82.31
309.111	79.31
309.341	88.31
309.571	84.31
309.8	102.31
310.03	84.31
310.26	65.31
310.49	70.31
310.72	94.31
310.949	84.31
311.179	105.31
311.409	72.31
311.639	68.31
311.868	84.31
312.098	91.31
312.328	89.31
312.557	84.31
312.787	90.31
313.017	89.31
313.246	104.31
313.476	92.31
313.706	78.31
313.935	84.31
314.165	88.31
314.394	86.31
314.624	92.31
314.853	88.31
315.083	92.31
315.312	89.31
315.542	94.31
315.771	76.31
316.001	80.31
316.23	75.31
316.46	86.31
316.689	68.31
316.919	84.31
317.148	92.31
317.377	78.31
317.607	96.31
317.836	88.31
318.065	89.31
318.295	80.31
318.524	92.31
318.753	86.31
318.983	79.31
319.212	78.31
319.441	83.31
319.67	92.31
319.9	73.31
320.129	66.31
320.358	81.31
320.587	77.31
320.816	86.31
321.046	93.31
321.275	81.31
321.504	69.31
321.733	90.31
321.962	90.31
322.191	93.31
322.42	74.31
322.649	78.31
322.878	84.31
323.108	88.31
323.337	89.31
323.566	77.31
323.795	87.31
324.024	83.31
324.253	88.31
324.482	96.31
324.71	84.31
324.939	79.31
325.168	84.31
325.397	77.31
325.626	85.31
325.855	68.31
326.084	66.31
326.313	96.31
326.542	94.31
326.77	80.31
326.999	80.31
327.228	81.31
327.457	98.31
327.686	80.31
327.914	90.31
328.143	75.31
328.372	78.31
328.6	89.31
328.829	73.31
329.058	92.31
329.287	82.31
329.515	87.31
329.744	82.31
329.972	81.31
330.201	80.31
330.43	96.31
330.658	79.31
330.887	78.31
331.115	84.31
331.344	80.31
331.572	81.31
331.801	81.31
332.03	81.31
332.258	85.31
332.486	89.31
332.715	81.31
332.943	81.31
333.172	87.31
333.4	87.31
333.629	81.31
333.857	86.31
334.085	86.31
334.314	80.31
334.542	89.31
334.771	81.31
334.999	104.31
335.227	91.31
335.455	100.31
335.684	86.31
335.912	84.31
336.14	94.31
336.369	78.31
336.597	92.31
336.825	87.31
337.053	87.31
337.281	97.31
337.51	90.31
337.738	84.31
337.966	70.31
338.194	91.31
338.422	64.31
338.65	77.31
338.878	80.31
339.106	79.31
339.334	88.31
339.562	88.31
339.79	80.31
340.018	79.31
340.246	89.31
340.474	89.31
340.702	89.31
340.93	85.31
341.158	74.31
341.386	75.31
341.614	76.31
341.842	77.31
342.07	77.31
342.298	94.31
342.526	68.31
342.754	61.31
342.981	86.31
343.209	87.31
343.437	100.31
343.665	90.31
343.893	76.31
344.12	88.31
344.348	97.31
344.576	91.31
344.804	86.31
345.031	92.31
345.259	81.31
345.487	89.31
345.714	95.31
345.942	80.31
346.17	90.31
346.397	76.31
346.625	96.31
346.853	90.31
347.08	96.31
347.308	72.31
347.535	82.31
347.763	68.31
347.99	86.31
348.218	93.31
348.445	89.31
348.673	93.31
348.9	95.31
349.128	89.31
349.355	86.31
349.583	95.31
349.81	78.31
350.037	75.31
350.265	78.31
350.492	85.31
350.72	82.31
350.947	75.31
351.174	98.31
351.402	84.31
351.629	80.31
351.856	81.31
352.083	72.31
352.311	74.31
352.538	83.31
352.765	90.31
352.992	90.31
353.22	74.31
353.447	88.31
353.674	75.31
353.901	100.31
354.128	96.31
354.355	95.31
354.583	72.31
354.81	86.31
355.037	91.31
355.264	92.31
355.491	77.31
355.718	87.31
355.945	92.31
356.172	91.31
356.399	84.31
356.626	102.31
356.853	102.31
357.08	131.31
357.307	159.31
357.534	137.31
357.761	86.31
357.988	95.31
358.215	86.31
358.441	78.31
358.668	73.31
358.895	96.31
359.122	96.31
359.349	86.31
359.576	75.31
359.802	86.31
360.029	79.31
360.256	91.31
360.483	78.31
360.709	70.31
360.936	80.31
361.163	84.31
361.39	68.31
361.616	84.31
361.843	91.31
362.07	87.31
362.296	85.31
362.523	82.31
362.749	90.31
362.976	83.31
363.203	86.31
363.429	115.31
363.656	126.31
363.882	192.31
364.109	211.31
364.335	134.31
364.562	97.31
364.788	80.31
365.015	87.31
365.241	69.31
365.468	85.31
365.694	90.31
365.92	89.31
366.147	82.31
366.373	95.31
366.599	86.31
366.826	99.31
367.052	107.31
367.278	131.31
367.505	112.31
367.731	118.31
367.957	122.31
368.184	202.31
368.41	262.31
368.636	198.31
368.862	125.31
369.089	95.31
369.315	88.31
369.541	84.31
369.767	82.31
369.993	89.31
370.219	76.31
370.445	85.31
370.672	74.31
370.898	68.31
371.124	86.31
371.35	76.31
371.576	89.31
371.802	86.31
372.028	80.31
372.254	70.31
372.48	91.31
372.706	80.31
372.932	82.31
373.158	74.31
373.384	96.31
373.61	96.31
373.835	130.31
374.061	153.31
374.287	123.31
374.513	90.31
374.739	94.31
374.965	72.31
375.191	89.31
375.416	73.31
375.642	82.31
375.868	88.31
376.094	67.31
376.319	88.31
376.545	84.31
376.771	77.31
376.997	85.31
377.222	85.31
377.448	95.31
377.674	79.31
377.899	89.31
378.125	76.31
378.35	74.31
378.576	73.31
378.802	80.31
379.027	96.31
379.253	89.31
379.478	74.31
379.704	91.31
379.929	68.31
380.155	87.31
380.38	70.31
380.606	69.31
380.831	85.31
381.057	89.31
381.282	84.31
381.507	74.31
381.733	98.31
381.958	84.31
382.184	73.31
382.409	73.31
382.634	97.31
382.86	91.31
383.085	86.31
383.31	95.31
383.535	75.31
383.761	88.31
383.986	94.31
384.211	82.31
384.436	66.31
384.662	76.31
384.887	95.31
385.112	92.31
385.337	79.31
385.562	77.31
385.787	81.31
386.013	93.31
386.238	86.31
386.463	73.31
386.688	89.31
386.913	78.31
387.138	92.31
387.363	86.31
387.588	90.31
387.813	85.31
388.038	73.31
388.263	71.31
388.488	64.31
388.713	80.31
388.938	87.31
389.163	84.31
389.387	76.31
389.612	83.31
389.837	72.31
390.062	88.31
390.287	79.31
390.512	91.31
390.736	73.31
390.961	84.31
391.186	82.31
391.411	77.31
391.636	89.31
391.86	80.31
392.085	96.31
392.31	76.31
392.534	81.31
392.759	73.31
392.984	69.31
393.208	84.31
393.433	85.31
393.658	90.31
393.882	87.31
394.107	76.31
394.331	74.31
394.556	95.31
394.78	76.31
395.005	92.31
395.229	78.31
395.454	69.31
395.678	76.31
395.903	84.31
396.127	93.31
396.352	77.31
396.576	86.31
396.801	85.31
397.025	87.31
397.249	103.31
397.474	103.31
397.698	86.31
397.922	81.31
398.147	88.31
398.371	73.31
398.595	70.31
398.82	76.31
399.044	71.31
399.268	59.31
399.492	84.31
399.717	95.31
399.941	76.31
400.165	80.31
400.389	87.31
400.613	104.31
400.837	86.31
401.062	85.31
401.286	80.31
401.51	79.31
401.734	92.31
401.958	108.31
402.182	100.31
402.406	67.31
402.63	75.31
402.854	81.31
403.078	74.31
403.302	67.31
403.526	78.31
403.75	94.31
403.974	78.31
404.198	83.31
404.422	78.31
404.645	84.31
404.869	110.31
405.093	104.31
405.317	129.31
405.541	228.31
405.765	375.31
405.988	404.31
406.212	195.31
406.436	140.31
406.66	113.31
406.883	105.31
407.107	106.31
407.331	71.31
407.555	80.31
407.778	82.31
408.002	90.31
408.226	70.31
408.449	78.31
408.673	92.31
408.896	84.31
409.12	92.31
409.344	84.31
409.567	72.31
409.791	86.31
410.014	78.31
410.238	75.31
410.461	88.31
410.685	90.31
410.908	88.31
411.132	77.31
411.355	72.31
411.578	72.31
411.802	87.31
412.025	81.31
412.249	88.31
412.472	79.31
412.695	89.31
412.919	72.31
413.142	64.31
413.365	82.31
413.589	58.31
413.812	74.31
414.035	85.31
414.258	89.31
414.482	74.31
414.705	87.31
414.928	68.31
415.151	84.31
415.374	64.31
415.597	77.31
415.821	85.31
416.044	78.31
416.267	81.31
416.49	86.31
416.713	90.31
416.936	94.31
417.159	104.31
417.382	83.31
417.605	78.31
417.828	78.31
418.051	91.31
418.274	79.31
418.497	86.31
418.72	74.31
418.943	94.31
419.166	72.31
419.389	82.31
419.611	85.31
419.834	92.31
420.057	97.31
420.28	69.31
420.503	84.31
420.726	81.31
420.948	80.31
421.171	88.31
421.394	70.31
421.617	85.31
421.839	81.31
422.062	76.31
422.285	90.31
422.507	93.31
422.73	94.31
422.953	81.31
423.175	82.31
423.398	69.31
423.621	85.31
423.843	82.31
424.066	82.31
424.288	81.31
424.511	81.31
424.733	74.31
424.956	68.31
425.178	85.31
425.401	91.31
425.623	87.31
425.846	91.31
426.068	87.31
426.291	78.31
426.513	73.31
426.735	86.31
426.958	89.31
427.18	85.31
427.402	79.31
427.625	87.31
427.847	75.31
428.069	92.31
428.292	82.31
428.514	82.31
428.736	83.31
428.958	90.31
429.181	82.31
429.403	81.31
429.625	74.31
429.847	85.31
430.069	92.31
430.292	68.31
430.514	68.31
430.736	87.31
430.958	90.31
431.18	75.31
431.402	84.31
431.624	82.31
431.846	78.31
432.068	100.31
432.29	87.31
432.512	90.31
432.734	73.31
432.956	85.31
433.178	98.31
433.4	81.31
433.622	84.31
433.844	78.31
434.066	83.31
434.287	67.31
434.509	77.31
434.731	75.31
434.953	78.31
435.175	87.31
435.397	96.31
435.618	74.31
435.84	88.31
436.062	74.31
436.284	90.31
436.505	95.31
436.727	81.31
436.949	78.31
437.17	84.31
437.392	78.31
437.614	96.31
437.835	95.31
438.057	84.31
438.278	82.31
438.5	79.31
438.721	93.31
438.943	102.31
439.165	80.31
439.386	86.31
439.608	91.31
439.829	74.31
440.05	84.31
440.272	72.31
440.493	83.31
440.715	90.31
440.936	82.31
441.158	73.31
441.379	81.31
441.6	79.31
441.822	88.31
442.043	87.31
442.264	81.31
442.486	86.31
442.707	92.31
442.928	83.31
443.149	88.31
443.371	91.31
443.592	80.31
443.813	76.31
444.034	79.31
444.255	73.31
444.476	80.31
444.698	83.31
444.919	92.31
445.14	144.31
445.361	101.31
445.582	88.31
445.803	84.31
446.024	81.31
446.245	86.31
446.466	96.31
446.687	81.31
446.908	85.31
447.129	88.31
447.35	93.31
447.571	81.31
447.792	83.31
448.013	82.31
448.234	96.31
448.455	80.31
448.675	84.31
448.896	86.31
449.117	72.31
449.338	88.31
449.559	93.31
449.779	86.31
450	75.31
450.221	72.31
450.442	87.31
450.662	87.31
450.883	76.31
451.104	54.31
451.324	86.31
451.545	78.31
451.766	79.31
451.986	81.31
452.207	76.31
452.428	73.31
452.648	91.31
452.869	87.31
453.089	89.31
453.31	92.31
453.53	85.31
453.751	73.31
453.971	89.31
454.192	77.31
454.412	82.31
454.633	76.31
454.853	60.31
455.073	90.31
455.294	70.31
455.514	88.31
455.734	70.31
455.955	86.31
456.175	90.31
456.395	80.31
456.616	83.31
456.836	73.31
457.056	87.31
457.276	80.31
457.497	84.31
457.717	70.31
457.937	94.31
458.157	74.31
458.377	83.31
458.598	84.31
458.818	91.31
459.038	77.31
459.258	82.31
459.478	82.31
459.698	78.31
459.918	83.31
460.138	80.31
460.358	70.31
460.578	85.31
460.798	77.31
461.018	67.31
461.238	88.31
461.458	97.31
461.678	86.31
461.898	82.31
462.118	73.31
462.338	72.31
462.558	74.31
462.777	84.31
462.997	84.31
463.217	87.31
463.437	82.31
463.657	80.31
463.876	85.31
464.096	70.31
464.316	81.31
464.536	90.31
464.755	84.31
464.975	62.31
465.195	80.31
465.414	79.31
465.634	88.31
465.854	82.31
466.073	99.31
466.293	80.31
466.512	92.31
466.732	95.31
466.951	81.31
467.171	86.31
467.391	83.31
467.61	92.31
467.829	81.31
468.049	86.31
468.268	106.31
468.488	89.31
468.707	76.31
468.927	80.31
469.146	81.31
469.365	81.31
469.585	75.31
469.804	90.31
470.023	86.31
470.243	80.31
470.462	85.31
470.681	72.31
470.901	79.31
471.12	73.31
471.339	85.31
471.558	67.31
471.777	74.31
471.997	67.31
472.216	108.31
472.435	80.31
472.654	79.31
472.873	81.31
473.092	93.31
473.311	95.31
473.53	85.31
473.749	92.31
473.968	82.31
474.187	66.31
474.406	83.31
474.625	81.31
474.844	81.31
475.063	84.31
475.282	89.31
475.501	81.31
475.72	78.31
475.939	75.31
476.158	72.31
476.377	75.31
476.596	84.31
476.814	81.31
477.033	80.31
477.252	86.31
477.471	82.31
477.69	70.31
477.908	74.31
478.127	96.31
478.346	82.31
478.564	73.31
478.783	80.31
479.002	72.31
479.22	90.31
479.439	85.31
479.658	78.31
479.876	83.31
480.095	75.31
480.313	84.31
480.532	82.31
480.751	83.31
480.969	74.31
481.188	92.31
481.406	86.31
481.624	77.31
481.843	81.31
482.061	86.31
482.28	79.31
482.498	81.31
482.717	84.31
482.935	89.31
483.153	76.31
483.372	60.31
483.59	72.31
483.808	78.31
484.027	87.31
484.245	91.31
484.463	76.31
484.681	94.31
484.9	82.31
485.118	92.31
485.336	88.31
485.554	80.31
485.772	100.31
485.99	88.31
486.209	76.31
486.427	82.31
486.645	84.31
486.863	74.31
487.081	79.31
487.299	92.31
487.517	84.31
487.735	74.31
487.953	81.31
488.171	77.31
488.389	84.31
488.607	80.31
488.825	73.31
489.043	89.31
489.261	75.31
489.479	87.31
489.696	93.31
489.914	82.31
490.132	84.31
490.35	79.31
490.568	95.31
490.786	90.31
491.003	90.31
491.221	63.31
491.439	86.31
491.657	100.31
491.874	95.31
492.092	98.31
492.31	86.31
492.527	85.31
492.745	89.31
492.963	81.31
493.18	99.31
493.398	82.31
493.615	89.31
493.833	79.31
494.05	77.31
494.268	74.31
494.485	92.31
494.703	84.31
494.92	73.31
495.138	77.31
495.355	82.31
495.573	89.31
495.79	96.31
496.008	97.31
496.225	93.31
496.442	85.31
496.66	84.31
496.877	85.31
497.094	80.31
497.312	78.31
497.529	77.31
497.746	71.31
497.963	72.31
498.181	73.31
498.398	74.31
498.615	81.31
498.832	90.31
499.049	82.31
499.267	78.31
499.484	82.31
499.701	83.31
499.918	94.31
500.135	97.31
500.352	89.31
500.569	126.31
500.786	148.31
501.003	90.31
501.22	84.31
501.437	85.31
501.654	82.31
501.871	95.31
502.088	92.31
502.305	75.31
502.522	79.31
502.739	79.31
502.956	84.31
503.172	87.31
503.389	102.31
503.606	76.31
503.823	92.31
504.04	84.31
504.256	65.31
504.473	79.31
504.69	109.31
504.907	89.31
505.123	82.31
505.34	84.31
505.557	87.31
505.773	84.31
505.99	87.31
506.207	77.31
506.423	72.31
506.64	95.31
506.856	83.31
507.073	71.31
507.289	90.31
507.506	80.31
507.722	80.31
507.939	85.31
508.155	86.31
508.372	75.31
508.588	78.31
508.805	85.31
509.021	84.31
509.238	98.31
509.454	90.31
509.67	83.31
509.887	87.31
510.103	90.31
510.319	81.31
510.536	78.31
510.752	88.31
510.968	80.31
511.184	90.31
511.401	92.31
511.617	92.31
511.833	88.31
512.049	82.31
512.265	72.31
512.481	76.31
512.698	78.31
512.914	83.31
513.13	86.31
513.346	84.31
513.562	92.31
513.778	93.31
513.994	75.31
514.21	87.31
514.426	75.31
514.642	86.31
514.858	86.31
515.074	95.31
515.29	90.31
515.506	93.31
515.721	86.31
515.937	80.31
516.153	82.31
516.369	87.31
516.585	84.31
516.801	74.31
517.016	88.31
517.232	77.31
517.448	64.31
517.664	79.31
517.879	70.31
518.095	78.31
518.311	63.31
518.527	78.31
518.742	85.31
518.958	74.31
519.173	72.31
