Data from StdB_HRD10591_073.txt Node
Date: Fri May 16 15:25:22 EDT 2025
User: Yrep
Spectrometer: HR+D1059
Trigger mode: 1
Integration Time (sec): 1.000000E-1
Scans to average: 1
Electric dark correction enabled: true
Nonlinearity correction enabled: false
Boxcar width: 0
XAxis mode: Wavelengths
Number of Pixels in Spectrum: 2048
>>>>>Begin Spectral Data<<<<<
223.165	-16.31
223.4	-16.31
223.635	-16.31
223.869	-35.31
224.104	-14.31
224.338	-12.31
224.573	-12.31
224.808	-7.31
225.042	-8.31
225.277	-6.31
225.511	6.69
225.746	-2.31
225.98	7.69
226.215	21.69
226.449	10.69
226.683	20.69
226.918	17.69
227.152	29.69
227.387	29.69
227.621	36.69
227.856	29.69
228.09	35.69
228.324	49.69
228.559	55.69
228.793	53.69
229.027	57.69
229.262	70.69
229.496	51.69
229.73	70.69
229.964	80.69
230.199	63.69
230.433	76.69
230.667	66.69
230.901	71.69
231.136	77.69
231.37	72.69
231.604	67.69
231.838	83.69
232.072	68.69
232.306	63.69
232.541	85.69
232.775	85.69
233.009	78.69
233.243	72.69
233.477	86.69
233.711	87.69
233.945	91.69
234.179	73.69
234.413	73.69
234.647	78.69
234.881	71.69
235.115	84.69
235.349	61.69
235.583	69.69
235.817	89.69
236.051	78.69
236.285	78.69
236.519	60.69
236.753	76.69
236.987	75.69
237.221	82.69
237.455	78.69
237.689	78.69
237.922	75.69
238.156	77.69
238.39	78.69
238.624	66.69
238.858	75.69
239.091	78.69
239.325	73.69
239.559	69.69
239.793	68.69
240.027	75.69
240.26	76.69
240.494	66.69
240.728	72.69
240.961	69.69
241.195	74.69
241.429	63.69
241.662	79.69
241.896	73.69
242.13	64.69
242.363	82.69
242.597	70.69
242.83	69.69
243.064	77.69
243.298	68.69
243.531	89.69
243.765	89.69
243.998	71.69
244.232	61.69
244.465	86.69
244.699	86.69
244.932	78.69
245.166	79.69
245.399	84.69
245.633	69.69
245.866	71.69
246.099	69.69
246.333	79.69
246.566	69.69
246.8	63.69
247.033	78.69
247.266	76.69
247.5	85.69
247.733	87.69
247.966	69.69
248.2	71.69
248.433	74.69
248.666	73.69
248.899	74.69
249.133	70.69
249.366	91.69
249.599	94.69
249.832	81.69
250.066	89.69
250.299	72.69
250.532	76.69
250.765	81.69
250.998	77.69
251.231	68.69
251.465	79.69
251.698	75.69
251.931	69.69
252.164	96.69
252.397	72.69
252.63	74.69
252.863	78.69
253.096	83.69
253.329	78.69
253.562	77.69
253.795	77.69
254.028	66.69
254.261	94.69
254.494	69.69
254.727	73.69
254.96	81.69
255.193	90.69
255.426	73.69
255.659	85.69
255.892	78.69
256.124	67.69
256.357	75.69
256.59	76.69
256.823	87.69
257.056	79.69
257.289	73.69
257.521	63.69
257.754	79.69
257.987	85.69
258.22	90.69
258.452	82.69
258.685	77.69
258.918	73.69
259.151	79.69
259.383	79.69
259.616	82.69
259.849	73.69
260.081	77.69
260.314	71.69
260.547	92.69
260.779	76.69
261.012	86.69
261.244	73.69
261.477	92.69
261.71	94.69
261.942	75.69
262.175	102.69
262.407	61.69
262.64	81.69
262.872	83.69
263.105	89.69
263.337	75.69
263.57	82.69
263.802	94.69
264.035	81.69
264.267	77.69
264.499	75.69
264.732	91.69
264.964	81.69
265.197	81.69
265.429	89.69
265.661	76.69
265.894	83.69
266.126	84.69
266.358	95.69
266.591	91.69
266.823	82.69
267.055	74.69
267.287	81.69
267.52	70.69
267.752	73.69
267.984	81.69
268.216	72.69
268.448	71.69
268.681	96.69
268.913	79.69
269.145	70.69
269.377	81.69
269.609	77.69
269.841	85.69
270.073	94.69
270.306	69.69
270.538	73.69
270.77	77.69
271.002	80.69
271.234	78.69
271.466	79.69
271.698	79.69
271.93	79.69
272.162	84.69
272.394	85.69
272.626	73.69
272.858	57.69
273.09	71.69
273.322	80.69
273.553	73.69
273.785	92.69
274.017	88.69
274.249	81.69
274.481	78.69
274.713	60.69
274.945	100.69
275.176	92.69
275.408	76.69
275.64	81.69
275.872	75.69
276.104	89.69
276.335	102.69
276.567	81.69
276.799	87.69
277.031	72.69
277.262	67.69
277.494	81.69
277.726	74.69
277.957	75.69
278.189	78.69
278.421	81.69
278.652	73.69
278.884	81.69
279.115	70.69
279.347	94.69
279.579	85.69
279.81	89.69
280.042	97.69
280.273	112.69
280.505	105.69
280.736	89.69
280.968	87.69
281.199	82.69
281.431	82.69
281.662	94.69
281.894	84.69
282.125	84.69
282.356	76.69
282.588	76.69
282.819	75.69
283.051	85.69
283.282	95.69
283.513	103.69
283.745	97.69
283.976	88.69
284.207	78.69
284.439	77.69
284.67	78.69
284.901	88.69
285.132	73.69
285.364	73.69
285.595	82.69
285.826	86.69
286.057	99.69
286.288	86.69
286.52	95.69
286.751	76.69
286.982	87.69
287.213	92.69
287.444	84.69
287.675	90.69
287.906	80.69
288.138	75.69
288.369	79.69
288.6	77.69
288.831	87.69
289.062	80.69
289.293	69.69
289.524	85.69
289.755	80.69
289.986	74.69
290.217	78.69
290.448	88.69
290.679	86.69
290.91	83.69
291.141	85.69
291.371	77.69
291.602	86.69
291.833	93.69
292.064	74.69
292.295	72.69
292.526	74.69
292.757	76.69
292.987	71.69
293.218	79.69
293.449	84.69
293.68	81.69
293.91	90.69
294.141	85.69
294.372	84.69
294.603	81.69
294.833	71.69
295.064	82.69
295.295	85.69
295.525	71.69
295.756	89.69
295.987	91.69
296.217	65.69
296.448	94.69
296.679	73.69
296.909	91.69
297.14	77.69
297.37	107.69
297.601	77.69
297.831	75.69
298.062	76.69
298.292	85.69
298.523	105.69
298.753	75.69
298.984	84.69
299.214	73.69
299.445	75.69
299.675	86.69
299.905	75.69
300.136	77.69
300.366	85.69
300.597	74.69
300.827	75.69
301.057	75.69
301.288	87.69
301.518	82.69
301.748	100.69
301.979	101.69
302.209	70.69
302.439	79.69
302.669	83.69
302.9	78.69
303.13	77.69
303.36	78.69
303.59	76.69
303.82	92.69
304.051	80.69
304.281	87.69
304.511	71.69
304.741	78.69
304.971	64.69
305.201	72.69
305.431	88.69
305.661	84.69
305.891	85.69
306.121	88.69
306.352	73.69
306.582	78.69
306.812	75.69
307.042	88.69
307.272	82.69
307.502	87.69
307.731	59.69
307.961	74.69
308.191	91.69
308.421	90.69
308.651	84.69
308.881	82.69
309.111	69.69
309.341	71.69
309.571	79.69
309.8	75.69
310.03	74.69
310.26	74.69
310.49	78.69
310.72	89.69
310.949	96.69
311.179	88.69
311.409	78.69
311.639	79.69
311.868	76.69
312.098	90.69
312.328	86.69
312.557	95.69
312.787	85.69
313.017	74.69
313.246	95.69
313.476	75.69
313.706	86.69
313.935	75.69
314.165	86.69
314.394	76.69
314.624	91.69
314.853	92.69
315.083	81.69
315.312	86.69
315.542	73.69
315.771	91.69
316.001	84.69
316.23	80.69
316.46	89.69
316.689	75.69
316.919	86.69
317.148	88.69
317.377	75.69
317.607	77.69
317.836	92.69
318.065	70.69
318.295	74.69
318.524	85.69
318.753	90.69
318.983	93.69
319.212	73.69
319.441	80.69
319.67	81.69
319.9	85.69
320.129	75.69
320.358	73.69
320.587	85.69
320.816	77.69
321.046	77.69
321.275	90.69
321.504	62.69
321.733	71.69
321.962	92.69
322.191	76.69
322.42	66.69
322.649	85.69
322.878	82.69
323.108	80.69
323.337	87.69
323.566	83.69
323.795	72.69
324.024	86.69
324.253	78.69
324.482	80.69
324.71	89.69
324.939	75.69
325.168	81.69
325.397	90.69
325.626	73.69
325.855	85.69
326.084	88.69
326.313	82.69
326.542	82.69
326.77	83.69
326.999	80.69
327.228	75.69
327.457	80.69
327.686	71.69
327.914	65.69
328.143	87.69
328.372	87.69
328.6	94.69
328.829	100.69
329.058	77.69
329.287	85.69
329.515	75.69
329.744	88.69
329.972	90.69
330.201	90.69
330.43	81.69
330.658	88.69
330.887	70.69
331.115	86.69
331.344	70.69
331.572	73.69
331.801	83.69
332.03	94.69
332.258	88.69
332.486	79.69
332.715	86.69
332.943	79.69
333.172	85.69
333.4	93.69
333.629	73.69
333.857	75.69
334.085	86.69
334.314	84.69
334.542	92.69
334.771	82.69
334.999	76.69
335.227	74.69
335.455	73.69
335.684	87.69
335.912	89.69
336.14	68.69
336.369	73.69
336.597	77.69
336.825	78.69
337.053	90.69
337.281	82.69
337.51	74.69
337.738	77.69
337.966	71.69
338.194	83.69
338.422	95.69
338.65	75.69
338.878	72.69
339.106	86.69
339.334	78.69
339.562	82.69
339.79	76.69
340.018	72.69
340.246	68.69
340.474	67.69
340.702	87.69
340.93	78.69
341.158	95.69
341.386	85.69
341.614	99.69
341.842	89.69
342.07	85.69
342.298	74.69
342.526	79.69
342.754	64.69
342.981	80.69
343.209	77.69
343.437	95.69
343.665	77.69
343.893	86.69
344.12	85.69
344.348	87.69
344.576	85.69
344.804	94.69
345.031	77.69
345.259	71.69
345.487	75.69
345.714	78.69
345.942	77.69
346.17	77.69
346.397	88.69
346.625	79.69
346.853	81.69
347.08	76.69
347.308	90.69
347.535	90.69
347.763	84.69
347.99	85.69
348.218	82.69
348.445	75.69
348.673	81.69
348.9	92.69
349.128	82.69
349.355	85.69
349.583	62.69
349.81	79.69
350.037	77.69
350.265	87.69
350.492	84.69
350.72	82.69
350.947	75.69
351.174	80.69
351.402	74.69
351.629	76.69
351.856	92.69
352.083	86.69
352.311	79.69
352.538	61.69
352.765	85.69
352.992	83.69
353.22	82.69
353.447	86.69
353.674	84.69
353.901	85.69
354.128	76.69
354.355	86.69
354.583	87.69
354.81	78.69
355.037	73.69
355.264	84.69
355.491	89.69
355.718	70.69
355.945	76.69
356.172	75.69
356.399	91.69
356.626	86.69
356.853	80.69
357.08	117.69
357.307	138.69
357.534	129.69
357.761	91.69
357.988	86.69
358.215	86.69
358.441	79.69
358.668	93.69
358.895	81.69
359.122	84.69
359.349	81.69
359.576	77.69
359.802	79.69
360.029	84.69
360.256	83.69
360.483	75.69
360.709	83.69
360.936	79.69
361.163	69.69
361.39	94.69
361.616	91.69
361.843	75.69
362.07	78.69
362.296	93.69
362.523	85.69
362.749	79.69
362.976	88.69
363.203	91.69
363.429	105.69
363.656	137.69
363.882	151.69
364.109	158.69
364.335	126.69
364.562	83.69
364.788	75.69
365.015	82.69
365.241	83.69
365.468	82.69
365.694	67.69
365.92	85.69
366.147	89.69
366.373	73.69
366.599	68.69
366.826	84.69
367.052	117.69
367.278	111.69
367.505	94.69
367.731	116.69
367.957	127.69
368.184	187.69
368.41	228.69
368.636	169.69
368.862	126.69
369.089	96.69
369.315	91.69
369.541	79.69
369.767	78.69
369.993	97.69
370.219	76.69
370.445	69.69
370.672	96.69
370.898	90.69
371.124	76.69
371.35	79.69
371.576	91.69
371.802	78.69
372.028	81.69
372.254	74.69
372.48	74.69
372.706	73.69
372.932	74.69
373.158	88.69
373.384	87.69
373.61	88.69
373.835	121.69
374.061	133.69
374.287	121.69
374.513	94.69
374.739	90.69
374.965	76.69
375.191	99.69
375.416	77.69
375.642	95.69
375.868	89.69
376.094	94.69
376.319	81.69
376.545	63.69
376.771	90.69
376.997	82.69
377.222	73.69
377.448	70.69
377.674	87.69
377.899	84.69
378.125	85.69
378.35	83.69
378.576	93.69
378.802	81.69
379.027	71.69
379.253	78.69
379.478	81.69
379.704	65.69
379.929	82.69
380.155	79.69
380.38	72.69
380.606	80.69
380.831	84.69
381.057	80.69
381.282	76.69
381.507	82.69
381.733	79.69
381.958	64.69
382.184	71.69
382.409	75.69
382.634	68.69
382.86	77.69
383.085	81.69
383.31	77.69
383.535	77.69
383.761	86.69
383.986	71.69
384.211	82.69
384.436	92.69
384.662	75.69
384.887	84.69
385.112	82.69
385.337	71.69
385.562	73.69
385.787	85.69
386.013	82.69
386.238	86.69
386.463	78.69
386.688	91.69
386.913	86.69
387.138	87.69
387.363	73.69
387.588	90.69
387.813	88.69
388.038	75.69
388.263	76.69
388.488	68.69
388.713	64.69
388.938	68.69
389.163	93.69
389.387	78.69
389.612	79.69
389.837	88.69
390.062	71.69
390.287	82.69
390.512	85.69
390.736	80.69
390.961	80.69
391.186	78.69
391.411	71.69
391.636	92.69
391.86	86.69
392.085	85.69
392.31	67.69
392.534	89.69
392.759	94.69
392.984	94.69
393.208	87.69
393.433	91.69
393.658	85.69
393.882	78.69
394.107	91.69
394.331	87.69
394.556	74.69
394.78	80.69
395.005	77.69
395.229	89.69
395.454	63.69
395.678	82.69
395.903	71.69
396.127	81.69
396.352	89.69
396.576	78.69
396.801	86.69
397.025	85.69
397.249	83.69
397.474	86.69
397.698	84.69
397.922	73.69
398.147	73.69
398.371	78.69
398.595	92.69
398.82	72.69
399.044	71.69
399.268	92.69
399.492	86.69
399.717	93.69
399.941	85.69
400.165	72.69
400.389	69.69
400.613	83.69
400.837	69.69
401.062	92.69
401.286	79.69
401.51	85.69
401.734	81.69
401.958	102.69
402.182	105.69
402.406	93.69
402.63	100.69
402.854	96.69
403.078	93.69
403.302	85.69
403.526	74.69
403.75	75.69
403.974	87.69
404.198	84.69
404.422	92.69
404.645	86.69
404.869	84.69
405.093	108.69
405.317	120.69
405.541	214.69
405.765	332.69
405.988	350.69
406.212	179.69
406.436	135.69
406.66	93.69
406.883	94.69
407.107	85.69
407.331	84.69
407.555	67.69
407.778	85.69
408.002	83.69
408.226	71.69
408.449	79.69
408.673	70.69
408.896	65.69
409.12	73.69
409.344	82.69
409.567	74.69
409.791	75.69
410.014	77.69
410.238	74.69
410.461	79.69
410.685	77.69
410.908	102.69
411.132	86.69
411.355	82.69
411.578	75.69
411.802	80.69
412.025	66.69
412.249	97.69
412.472	83.69
412.695	85.69
412.919	85.69
413.142	71.69
413.365	82.69
413.589	67.69
413.812	83.69
414.035	68.69
414.258	65.69
414.482	76.69
414.705	92.69
414.928	82.69
415.151	82.69
415.374	92.69
415.597	77.69
415.821	79.69
416.044	79.69
416.267	83.69
416.49	83.69
416.713	89.69
416.936	100.69
417.159	84.69
417.382	73.69
417.605	79.69
417.828	69.69
418.051	74.69
418.274	76.69
418.497	70.69
418.72	69.69
418.943	77.69
419.166	78.69
419.389	87.69
419.611	74.69
419.834	76.69
420.057	82.69
420.28	81.69
420.503	71.69
420.726	61.69
420.948	81.69
421.171	85.69
421.394	80.69
421.617	77.69
421.839	79.69
422.062	78.69
422.285	89.69
422.507	78.69
422.73	72.69
422.953	67.69
423.175	85.69
423.398	82.69
423.621	82.69
423.843	76.69
424.066	75.69
424.288	75.69
424.511	66.69
424.733	82.69
424.956	70.69
425.178	78.69
425.401	87.69
425.623	70.69
425.846	69.69
426.068	87.69
426.291	63.69
426.513	80.69
426.735	79.69
426.958	64.69
427.18	89.69
427.402	80.69
427.625	76.69
427.847	69.69
428.069	83.69
428.292	83.69
428.514	87.69
428.736	80.69
428.958	88.69
429.181	69.69
429.403	78.69
429.625	73.69
429.847	76.69
430.069	92.69
430.292	73.69
430.514	82.69
430.736	77.69
430.958	78.69
431.18	87.69
431.402	81.69
431.624	87.69
431.846	73.69
432.068	83.69
432.29	91.69
432.512	85.69
432.734	60.69
432.956	80.69
433.178	93.69
433.4	76.69
433.622	73.69
433.844	83.69
434.066	97.69
434.287	97.69
434.509	72.69
434.731	66.69
434.953	91.69
435.175	78.69
435.397	69.69
435.618	77.69
435.84	72.69
436.062	89.69
436.284	77.69
436.505	99.69
436.727	86.69
436.949	83.69
437.17	83.69
437.392	78.69
437.614	81.69
437.835	73.69
438.057	84.69
438.278	97.69
438.5	81.69
438.721	83.69
438.943	84.69
439.165	86.69
439.386	75.69
439.608	82.69
439.829	85.69
440.05	76.69
440.272	69.69
440.493	73.69
440.715	70.69
440.936	78.69
441.158	69.69
441.379	83.69
441.6	77.69
441.822	76.69
442.043	94.69
442.264	90.69
442.486	76.69
442.707	82.69
442.928	77.69
443.149	90.69
443.371	105.69
443.592	95.69
443.813	71.69
444.034	88.69
444.255	73.69
444.476	77.69
444.698	74.69
444.919	71.69
445.14	148.69
445.361	118.69
445.582	77.69
445.803	67.69
446.024	89.69
446.245	69.69
446.466	71.69
446.687	74.69
446.908	82.69
447.129	75.69
447.35	74.69
447.571	76.69
447.792	78.69
448.013	86.69
448.234	92.69
448.455	77.69
448.675	75.69
448.896	76.69
449.117	87.69
449.338	76.69
449.559	99.69
449.779	78.69
450	92.69
450.221	79.69
450.442	74.69
450.662	89.69
450.883	80.69
451.104	81.69
451.324	84.69
451.545	74.69
451.766	69.69
451.986	78.69
452.207	85.69
452.428	73.69
452.648	84.69
452.869	85.69
453.089	78.69
453.31	77.69
453.53	75.69
453.751	67.69
453.971	78.69
454.192	74.69
454.412	83.69
454.633	79.69
454.853	77.69
455.073	74.69
455.294	79.69
455.514	91.69
455.734	70.69
455.955	73.69
456.175	78.69
456.395	78.69
456.616	80.69
456.836	84.69
457.056	78.69
457.276	78.69
457.497	80.69
457.717	77.69
457.937	85.69
458.157	81.69
458.377	85.69
458.598	81.69
458.818	95.69
459.038	83.69
459.258	73.69
459.478	82.69
459.698	75.69
459.918	72.69
460.138	65.69
460.358	86.69
460.578	92.69
460.798	75.69
461.018	78.69
461.238	71.69
461.458	83.69
461.678	83.69
461.898	67.69
462.118	97.69
462.338	78.69
462.558	77.69
462.777	77.69
462.997	85.69
463.217	84.69
463.437	75.69
463.657	69.69
463.876	77.69
464.096	70.69
464.316	75.69
464.536	82.69
464.755	83.69
464.975	74.69
465.195	81.69
465.414	81.69
465.634	89.69
465.854	68.69
466.073	79.69
466.293	86.69
466.512	77.69
466.732	93.69
466.951	79.69
467.171	89.69
467.391	97.69
467.61	87.69
467.829	81.69
468.049	79.69
468.268	85.69
468.488	76.69
468.707	71.69
468.927	85.69
469.146	75.69
469.365	91.69
469.585	80.69
469.804	73.69
470.023	77.69
470.243	87.69
470.462	77.69
470.681	91.69
470.901	99.69
471.12	86.69
471.339	73.69
471.558	70.69
471.777	70.69
471.997	85.69
472.216	79.69
472.435	82.69
472.654	92.69
472.873	93.69
473.092	68.69
473.311	79.69
473.53	78.69
473.749	88.69
473.968	85.69
474.187	81.69
474.406	80.69
474.625	70.69
474.844	90.69
475.063	84.69
475.282	79.69
475.501	69.69
475.72	76.69
475.939	80.69
476.158	80.69
476.377	78.69
476.596	74.69
476.814	76.69
477.033	67.69
477.252	75.69
477.471	88.69
477.69	87.69
477.908	79.69
478.127	86.69
478.346	88.69
478.564	95.69
478.783	85.69
479.002	95.69
479.22	87.69
479.439	85.69
479.658	94.69
479.876	68.69
480.095	82.69
480.313	83.69
480.532	86.69
480.751	75.69
480.969	93.69
481.188	78.69
481.406	91.69
481.624	89.69
481.843	76.69
482.061	72.69
482.28	81.69
482.498	86.69
482.717	77.69
482.935	75.69
483.153	87.69
483.372	77.69
483.59	84.69
483.808	79.69
484.027	77.69
484.245	78.69
484.463	81.69
484.681	92.69
484.9	72.69
485.118	81.69
485.336	70.69
485.554	83.69
485.772	90.69
485.99	84.69
486.209	85.69
486.427	87.69
486.645	85.69
486.863	88.69
487.081	86.69
487.299	92.69
487.517	74.69
487.735	66.69
487.953	85.69
488.171	69.69
488.389	73.69
488.607	72.69
488.825	78.69
489.043	90.69
489.261	87.69
489.479	82.69
489.696	85.69
489.914	73.69
490.132	62.69
490.35	83.69
490.568	76.69
490.786	73.69
491.003	85.69
491.221	81.69
491.439	84.69
491.657	91.69
491.874	87.69
492.092	79.69
492.31	106.69
492.527	82.69
492.745	85.69
492.963	81.69
493.18	84.69
493.398	78.69
493.615	87.69
493.833	79.69
494.05	72.69
494.268	93.69
494.485	86.69
494.703	83.69
494.92	82.69
495.138	70.69
495.355	96.69
495.573	91.69
495.79	89.69
496.008	87.69
496.225	88.69
496.442	94.69
496.66	86.69
496.877	90.69
497.094	76.69
497.312	72.69
497.529	85.69
497.746	76.69
497.963	65.69
498.181	89.69
498.398	88.69
498.615	74.69
498.832	79.69
499.049	90.69
499.267	90.69
499.484	83.69
499.701	84.69
499.918	75.69
500.135	88.69
500.352	85.69
500.569	101.69
500.786	121.69
501.003	101.69
501.22	77.69
501.437	78.69
501.654	85.69
501.871	84.69
502.088	79.69
502.305	84.69
502.522	71.69
502.739	71.69
502.956	62.69
503.172	88.69
503.389	92.69
503.606	91.69
503.823	90.69
504.04	75.69
504.256	91.69
504.473	86.69
504.69	82.69
504.907	92.69
505.123	81.69
505.34	82.69
505.557	89.69
505.773	83.69
505.99	87.69
506.207	91.69
506.423	78.69
506.64	85.69
506.856	86.69
507.073	77.69
507.289	71.69
507.506	81.69
507.722	81.69
507.939	90.69
508.155	88.69
508.372	69.69
508.588	69.69
508.805	76.69
509.021	93.69
509.238	83.69
509.454	81.69
509.67	73.69
509.887	96.69
510.103	87.69
510.319	75.69
510.536	75.69
510.752	76.69
510.968	79.69
511.184	94.69
511.401	89.69
511.617	89.69
511.833	78.69
512.049	84.69
512.265	78.69
512.481	83.69
512.698	62.69
512.914	94.69
513.13	92.69
513.346	87.69
513.562	93.69
513.778	94.69
513.994	90.69
514.21	100.69
514.426	94.69
514.642	63.69
514.858	81.69
515.074	73.69
515.29	93.69
515.506	69.69
515.721	74.69
515.937	84.69
516.153	66.69
516.369	81.69
516.585	88.69
516.801	81.69
517.016	90.69
517.232	79.69
517.448	79.69
517.664	76.69
517.879	81.69
518.095	75.69
518.311	82.69
518.527	75.69
518.742	63.69
518.958	76.69
519.173	75.69
519.389	79.69
519.605	80.69
