Data from StdB_HRD10591_042.txt Node
Date: Fri May 16 15:25:07 EDT 2025
User: Yrep
Spectrometer: HR+D1059
Trigger mode: 1
Integration Time (sec): 1.000000E-1
Scans to average: 1
Electric dark correction enabled: true
Nonlinearity correction enabled: false
Boxcar width: 0
XAxis mode: Wavelengths
Number of Pixels in Spectrum: 2048
>>>>>Begin Spectral Data<<<<<
223.165	-10
223.4	-10
223.635	-10
223.869	-33
224.104	-27
224.338	-16
224.573	-16
224.808	-7
225.042	-4
225.277	5
225.511	-4
225.746	3
225.98	6
226.215	10
226.449	23
226.683	23
226.918	8
227.152	39
227.387	41
227.621	33
227.856	50
228.09	44
228.324	41
228.559	55
228.793	63
229.027	57
229.262	64
229.496	70
229.73	66
229.964	73
230.199	67
230.433	68
230.667	67
230.901	83
231.136	86
231.37	80
231.604	84
231.838	67
232.072	76
232.306	93
232.541	66
232.775	79
233.009	88
233.243	83
233.477	74
233.711	68
233.945	77
234.179	69
234.413	86
234.647	70
234.881	66
235.115	76
235.349	82
235.583	69
235.817	71
236.051	84
236.285	79
236.519	80
236.753	80
236.987	79
237.221	70
237.455	88
237.689	72
237.922	69
238.156	75
238.39	72
238.624	79
238.858	80
239.091	82
239.325	68
239.559	96
239.793	72
240.027	67
240.26	65
240.494	68
240.728	72
240.961	82
241.195	80
241.429	67
241.662	85
241.896	60
242.13	70
242.363	74
242.597	63
242.83	62
243.064	77
243.298	81
243.531	82
243.765	82
243.998	70
244.232	78
244.465	83
244.699	87
244.932	80
245.166	74
245.399	64
245.633	84
245.866	75
246.099	76
246.333	78
246.566	81
246.8	84
247.033	72
247.266	68
247.5	81
247.733	80
247.966	78
248.2	79
248.433	79
248.666	74
248.899	82
249.133	68
249.366	72
249.599	73
249.832	78
250.066	77
250.299	70
250.532	84
250.765	71
250.998	69
251.231	78
251.465	78
251.698	60
251.931	75
252.164	72
252.397	84
252.63	79
252.863	75
253.096	69
253.329	70
253.562	84
253.795	99
254.028	74
254.261	70
254.494	98
254.727	79
254.96	90
255.193	68
255.426	82
255.659	86
255.892	98
256.124	76
256.357	75
256.59	90
256.823	79
257.056	83
257.289	69
257.521	74
257.754	79
257.987	92
258.22	79
258.452	82
258.685	79
258.918	82
259.151	75
259.383	70
259.616	81
259.849	88
260.081	78
260.314	75
260.547	74
260.779	67
261.012	79
261.244	88
261.477	110
261.71	107
261.942	100
262.175	79
262.407	80
262.64	90
262.872	93
263.105	80
263.337	84
263.57	84
263.802	77
264.035	92
264.267	80
264.499	90
264.732	83
264.964	84
265.197	80
265.429	84
265.661	81
265.894	94
266.126	89
266.358	94
266.591	91
266.823	66
267.055	69
267.287	80
267.52	78
267.752	80
267.984	93
268.216	83
268.448	80
268.681	75
268.913	76
269.145	82
269.377	76
269.609	68
269.841	75
270.073	84
270.306	83
270.538	85
270.77	79
271.002	71
271.234	73
271.466	89
271.698	90
271.93	85
272.162	79
272.394	84
272.626	76
272.858	77
273.09	86
273.322	80
273.553	92
273.785	87
274.017	69
274.249	77
274.481	90
274.713	86
274.945	81
275.176	89
275.408	71
275.64	75
275.872	75
276.104	86
276.335	94
276.567	86
276.799	88
277.031	86
277.262	82
277.494	84
277.726	86
277.957	97
278.189	74
278.421	83
278.652	74
278.884	76
279.115	77
279.347	81
279.579	87
279.81	99
280.042	106
280.273	110
280.505	126
280.736	89
280.968	66
281.199	84
281.431	74
281.662	78
281.894	79
282.125	86
282.356	104
282.588	94
282.819	90
283.051	90
283.282	122
283.513	117
283.745	102
283.976	88
284.207	68
284.439	87
284.67	82
284.901	95
285.132	81
285.364	87
285.595	70
285.826	68
286.057	84
286.288	81
286.52	83
286.751	75
286.982	104
287.213	104
287.444	114
287.675	101
287.906	79
288.138	77
288.369	83
288.6	89
288.831	71
289.062	71
289.293	74
289.524	87
289.755	82
289.986	73
290.217	77
290.448	92
290.679	90
290.91	83
291.141	76
291.371	82
291.602	79
291.833	79
292.064	84
292.295	78
292.526	82
292.757	82
292.987	80
293.218	82
293.449	84
293.68	76
293.91	77
294.141	86
294.372	86
294.603	83
294.833	74
295.064	79
295.295	82
295.525	62
295.756	79
295.987	91
296.217	73
296.448	84
296.679	88
296.909	66
297.14	84
297.37	88
297.601	85
297.831	83
298.062	82
298.292	84
298.523	78
298.753	96
298.984	80
299.214	71
299.445	92
299.675	79
299.905	85
300.136	83
300.366	77
300.597	74
300.827	86
301.057	89
301.288	80
301.518	88
301.748	91
301.979	100
302.209	75
302.439	68
302.669	77
302.9	70
303.13	80
303.36	71
303.59	75
303.82	84
304.051	81
304.281	75
304.511	88
304.741	80
304.971	84
305.201	94
305.431	86
305.661	74
305.891	86
306.121	68
306.352	90
306.582	76
306.812	73
307.042	75
307.272	92
307.502	75
307.731	75
307.961	75
308.191	77
308.421	74
308.651	79
308.881	78
309.111	78
309.341	78
309.571	81
309.8	60
310.03	83
310.26	80
310.49	82
310.72	84
310.949	85
311.179	86
311.409	89
311.639	84
311.868	81
312.098	74
312.328	75
312.557	68
312.787	108
313.017	89
313.246	83
313.476	85
313.706	59
313.935	78
314.165	90
314.394	88
314.624	94
314.853	85
315.083	77
315.312	86
315.542	84
315.771	79
316.001	69
316.23	95
316.46	68
316.689	99
316.919	75
317.148	88
317.377	83
317.607	71
317.836	85
318.065	72
318.295	87
318.524	69
318.753	71
318.983	76
319.212	80
319.441	79
319.67	88
319.9	84
320.129	88
320.358	70
320.587	85
320.816	77
321.046	80
321.275	82
321.504	73
321.733	85
321.962	96
322.191	89
322.42	84
322.649	83
322.878	87
323.108	85
323.337	86
323.566	79
323.795	84
324.024	76
324.253	77
324.482	75
324.71	75
324.939	87
325.168	88
325.397	88
325.626	73
325.855	75
326.084	83
326.313	93
326.542	81
326.77	75
326.999	87
327.228	83
327.457	87
327.686	88
327.914	84
328.143	70
328.372	78
328.6	82
328.829	77
329.058	76
329.287	88
329.515	84
329.744	70
329.972	98
330.201	81
330.43	74
330.658	81
330.887	81
331.115	82
331.344	78
331.572	84
331.801	93
332.03	72
332.258	82
332.486	66
332.715	83
332.943	91
333.172	74
333.4	83
333.629	79
333.857	71
334.085	75
334.314	86
334.542	77
334.771	76
334.999	80
335.227	83
335.455	89
335.684	80
335.912	86
336.14	76
336.369	73
336.597	85
336.825	76
337.053	74
337.281	98
337.51	82
337.738	92
337.966	86
338.194	92
338.422	76
338.65	70
338.878	85
339.106	73
339.334	87
339.562	98
339.79	74
340.018	87
340.246	80
340.474	70
340.702	82
340.93	77
341.158	93
341.386	83
341.614	94
341.842	83
342.07	68
342.298	79
342.526	72
342.754	68
342.981	83
343.209	84
343.437	79
343.665	76
343.893	84
344.12	78
344.348	74
344.576	77
344.804	78
345.031	79
345.259	74
345.487	78
345.714	93
345.942	76
346.17	84
346.397	82
346.625	83
346.853	99
347.08	75
347.308	84
347.535	73
347.763	83
347.99	82
348.218	87
348.445	76
348.673	77
348.9	64
349.128	81
349.355	62
349.583	83
349.81	84
350.037	72
350.265	78
350.492	71
350.72	86
350.947	71
351.174	82
351.402	78
351.629	70
351.856	78
352.083	84
352.311	83
352.538	62
352.765	83
352.992	75
353.22	63
353.447	76
353.674	87
353.901	87
354.128	87
354.355	75
354.583	70
354.81	86
355.037	86
355.264	72
355.491	76
355.718	75
355.945	94
356.172	79
356.399	89
356.626	84
356.853	81
357.08	131
357.307	153
357.534	149
357.761	94
357.988	83
358.215	82
358.441	91
358.668	79
358.895	78
359.122	74
359.349	75
359.576	77
359.802	75
360.029	92
360.256	75
360.483	84
360.709	78
360.936	90
361.163	83
361.39	86
361.616	88
361.843	92
362.07	69
362.296	86
362.523	76
362.749	84
362.976	78
363.203	83
363.429	89
363.656	133
363.882	196
364.109	213
364.335	127
364.562	95
364.788	110
365.015	91
365.241	75
365.468	82
365.694	68
365.92	75
366.147	65
366.373	74
366.599	90
366.826	111
367.052	123
367.278	124
367.505	124
367.731	111
367.957	128
368.184	203
368.41	276
368.636	180
368.862	111
369.089	92
369.315	79
369.541	84
369.767	91
369.993	84
370.219	99
370.445	87
370.672	83
370.898	94
371.124	84
371.35	71
371.576	79
371.802	75
372.028	87
372.254	90
372.48	84
372.706	89
372.932	72
373.158	78
373.384	87
373.61	100
373.835	112
374.061	146
374.287	113
374.513	93
374.739	84
374.965	73
375.191	75
375.416	76
375.642	81
375.868	83
376.094	85
376.319	82
376.545	80
376.771	74
376.997	80
377.222	83
377.448	78
377.674	88
377.899	91
378.125	68
378.35	84
378.576	87
378.802	79
379.027	73
379.253	67
379.478	72
379.704	81
379.929	75
380.155	76
380.38	79
380.606	82
380.831	86
381.057	87
381.282	89
381.507	78
381.733	83
381.958	92
382.184	73
382.409	71
382.634	91
382.86	80
383.085	81
383.31	57
383.535	77
383.761	73
383.986	86
384.211	79
384.436	80
384.662	79
384.887	88
385.112	84
385.337	76
385.562	82
385.787	77
386.013	78
386.238	80
386.463	79
386.688	79
386.913	91
387.138	82
387.363	82
387.588	76
387.813	70
388.038	78
388.263	91
388.488	84
388.713	76
388.938	81
389.163	78
389.387	77
389.612	76
389.837	79
390.062	82
390.287	70
390.512	84
390.736	74
390.961	84
391.186	81
391.411	79
391.636	91
391.86	76
392.085	69
392.31	85
392.534	77
392.759	94
392.984	89
393.208	74
393.433	87
393.658	74
393.882	89
394.107	79
394.331	92
394.556	90
394.78	86
395.005	64
395.229	69
395.454	80
395.678	68
395.903	68
396.127	87
396.352	68
396.576	90
396.801	84
397.025	72
397.249	81
397.474	63
397.698	74
397.922	72
398.147	81
398.371	70
398.595	89
398.82	75
399.044	73
399.268	75
399.492	83
399.717	95
399.941	84
400.165	72
400.389	73
400.613	86
400.837	86
401.062	82
401.286	77
401.51	91
401.734	89
401.958	112
402.182	111
402.406	90
402.63	80
402.854	75
403.078	91
403.302	79
403.526	87
403.75	80
403.974	78
404.198	74
404.422	90
404.645	75
404.869	84
405.093	97
405.317	123
405.541	226
405.765	395
405.988	418
406.212	223
406.436	139
406.66	104
406.883	84
407.107	103
407.331	75
407.555	86
407.778	64
408.002	61
408.226	91
408.449	75
408.673	58
408.896	84
409.12	77
409.344	80
409.567	80
409.791	82
410.014	86
410.238	87
410.461	74
410.685	86
410.908	90
411.132	90
411.355	68
411.578	77
411.802	76
412.025	79
412.249	73
412.472	81
412.695	74
412.919	75
413.142	67
413.365	67
413.589	85
413.812	73
414.035	81
414.258	71
414.482	93
414.705	78
414.928	96
415.151	100
415.374	84
415.597	79
415.821	83
416.044	76
416.267	68
416.49	87
416.713	91
416.936	92
417.159	73
417.382	74
417.605	74
417.828	75
418.051	77
418.274	74
418.497	80
418.72	67
418.943	82
419.166	86
419.389	77
419.611	97
419.834	88
420.057	78
420.28	66
420.503	89
420.726	83
420.948	80
421.171	84
421.394	71
421.617	73
421.839	66
422.062	89
422.285	72
422.507	82
422.73	78
422.953	77
423.175	72
423.398	83
423.621	79
423.843	83
424.066	74
424.288	82
424.511	71
424.733	73
424.956	65
425.178	75
425.401	78
425.623	72
425.846	86
426.068	80
426.291	59
426.513	72
426.735	74
426.958	87
427.18	84
427.402	70
427.625	95
427.847	91
428.069	77
428.292	72
428.514	86
428.736	75
428.958	81
429.181	74
429.403	69
429.625	73
429.847	86
430.069	78
430.292	82
430.514	80
430.736	88
430.958	84
431.18	88
431.402	82
431.624	82
431.846	80
432.068	72
432.29	74
432.512	84
432.734	77
432.956	75
433.178	82
433.4	82
433.622	76
433.844	78
434.066	73
434.287	73
434.509	82
434.731	84
434.953	74
435.175	78
435.397	82
435.618	70
435.84	76
436.062	82
436.284	73
436.505	70
436.727	78
436.949	84
437.17	87
437.392	71
437.614	79
437.835	69
438.057	83
438.278	77
438.5	78
438.721	78
438.943	79
439.165	78
439.386	77
439.608	79
439.829	82
440.05	92
440.272	79
440.493	93
440.715	84
440.936	69
441.158	88
441.379	87
441.6	63
441.822	76
442.043	85
442.264	77
442.486	78
442.707	75
442.928	82
443.149	84
443.371	86
443.592	75
443.813	64
444.034	81
444.255	79
444.476	82
444.698	69
444.919	70
445.14	143
445.361	111
445.582	86
445.803	83
446.024	86
446.245	93
446.466	78
446.687	82
446.908	78
447.129	69
447.35	79
447.571	77
447.792	86
448.013	84
448.234	99
448.455	84
448.675	74
448.896	88
449.117	86
449.338	84
449.559	80
449.779	81
450	93
450.221	84
450.442	76
450.662	73
450.883	62
451.104	96
451.324	73
451.545	87
451.766	79
451.986	76
452.207	63
452.428	69
452.648	90
452.869	80
453.089	79
453.31	78
453.53	69
453.751	80
453.971	89
454.192	75
454.412	68
454.633	84
454.853	79
455.073	67
455.294	77
455.514	84
455.734	74
455.955	83
456.175	87
456.395	70
456.616	74
456.836	80
457.056	80
457.276	78
457.497	80
457.717	82
457.937	78
458.157	72
458.377	69
458.598	76
458.818	68
459.038	74
459.258	67
459.478	76
459.698	64
459.918	75
460.138	71
460.358	78
460.578	82
460.798	87
461.018	92
461.238	92
461.458	86
461.678	72
461.898	65
462.118	83
462.338	77
462.558	78
462.777	68
462.997	67
463.217	87
463.437	80
463.657	77
463.876	71
464.096	74
464.316	86
464.536	84
464.755	76
464.975	66
465.195	80
465.414	82
465.634	74
465.854	83
466.073	75
466.293	75
466.512	58
466.732	77
466.951	68
467.171	78
467.391	83
467.61	78
467.829	70
468.049	94
468.268	75
468.488	86
468.707	91
468.927	75
469.146	83
469.365	80
469.585	66
469.804	84
470.023	82
470.243	85
470.462	84
470.681	76
470.901	67
471.12	76
471.339	71
471.558	79
471.777	81
471.997	66
472.216	83
472.435	79
472.654	85
472.873	78
473.092	92
473.311	77
473.53	79
473.749	87
473.968	89
474.187	83
474.406	88
474.625	78
474.844	77
475.063	85
475.282	91
475.501	82
475.72	80
475.939	83
476.158	86
476.377	80
476.596	82
476.814	64
477.033	82
477.252	86
477.471	76
477.69	71
477.908	78
478.127	82
478.346	76
478.564	80
478.783	81
479.002	89
479.22	85
479.439	87
479.658	79
479.876	85
480.095	70
480.313	81
480.532	87
480.751	73
480.969	78
481.188	86
481.406	85
481.624	79
481.843	79
482.061	62
482.28	81
482.498	86
482.717	78
482.935	88
483.153	77
483.372	82
483.59	89
483.808	98
484.027	90
484.245	91
484.463	82
484.681	94
484.9	84
485.118	79
485.336	72
485.554	79
485.772	81
485.99	86
486.209	70
486.427	77
486.645	69
486.863	84
487.081	96
487.299	70
487.517	72
487.735	79
487.953	89
488.171	91
488.389	94
488.607	92
488.825	83
489.043	81
489.261	85
489.479	83
489.696	89
489.914	82
490.132	76
490.35	72
490.568	78
490.786	83
491.003	73
491.221	82
491.439	71
491.657	73
491.874	77
492.092	75
492.31	92
492.527	77
492.745	64
492.963	94
493.18	94
493.398	96
493.615	87
493.833	63
494.05	92
494.268	89
494.485	70
494.703	90
494.92	86
495.138	80
495.355	74
495.573	84
495.79	87
496.008	90
496.225	82
496.442	83
496.66	78
496.877	84
497.094	75
497.312	89
497.529	78
497.746	78
497.963	64
498.181	93
498.398	85
498.615	82
498.832	82
499.049	67
499.267	61
499.484	69
499.701	85
499.918	77
500.135	78
500.352	89
500.569	110
500.786	152
501.003	94
501.22	82
501.437	87
501.654	69
501.871	86
502.088	85
502.305	55
502.522	78
502.739	86
502.956	60
503.172	87
503.389	97
503.606	81
503.823	63
504.04	77
504.256	89
504.473	65
504.69	88
504.907	79
505.123	86
505.34	75
505.557	74
505.773	82
505.99	80
506.207	72
506.423	77
506.64	85
506.856	75
507.073	87
507.289	75
507.506	78
507.722	76
507.939	84
508.155	76
508.372	80
508.588	82
508.805	65
509.021	77
509.238	86
509.454	82
509.67	82
509.887	98
510.103	90
510.319	84
510.536	80
510.752	84
510.968	95
511.184	73
511.401	72
511.617	76
511.833	78
512.049	75
512.265	74
512.481	78
512.698	82
512.914	91
513.13	84
513.346	78
513.562	74
513.778	89
513.994	78
514.21	76
514.426	78
514.642	92
514.858	70
515.074	62
515.29	84
515.506	92
515.721	89
515.937	83
516.153	76
516.369	89
516.585	67
516.801	83
517.016	84
517.232	83
517.448	90
517.664	74
517.879	89
518.095	78
518.311	90
518.527	84
518.742	70
518.958	71
519.173	84
519.389	79
519.605	79
519.82	87
520.036	98
520.251	108
520.467	100
520.682	85
520.898	76
521.113	68
521.329	68
521.544	71
521.76	79
521.975	95
522.19	80
522.406	75
522.621	82
522.836	92
523.052	108
523.267	91
523.482	67
523.698	84
523.913	88
524.128	85
524.343	83
524.559	94
524.774	70
524.989	91
525.204	86
525.419	84
525.634	91
525.849	77
526.064	85
526.28	89
526.495	82
526.71	74
526.925	72
527.14	64
527.355	81
527.57	81
527.785	79
527.999	92
528.214	70
528.429	75
528.644	70
528.859	90
529.074	65
529.289	72
529.503	80
529.718	92
529.933	89
530.148	83
530.363	93
530.577	71
530.792	90
531.007	77
531.221	75
531.436	78
531.651	80
531.865	55
532.08	80
532.295	88
532.509	91
532.724	88
532.938	87
533.153	77
533.367	81
533.582	85
533.796	75
534.011	88
534.225	72
534.44	75
534.654	74
534.868	83
535.083	78
535.297	96
535.511	70
535.726	83
535.94	85
536.154	87
536.369	83
536.583	76
536.797	74
537.011	89
537.225	82
537.44	74
537.654	78
537.868	85
538.082	76
538.296	85
538.51	90
538.724	75
538.938	76
539.153	88
539.367	70
539.581	78
539.795	86
540.009	85
540.222	78
540.436	78
540.65	98
540.864	83
541.078	92
541.292	85
541.506	75
541.72	82
541.934	89
542.147	86
542.361	89
542.575	79
542.789	81
543.002	83
543.216	83
543.43	83
543.644	80
543.857	86
544.071	73
544.285	86
544.498	80
544.712	80
544.925	68
545.139	75
545.352	76
545.566	84
545.779	86
545.993	90
546.206	89
546.42	99
546.633	80
546.847	84
547.06	82
547.274	72
547.487	89
547.7	91
547.914	87
548.127	74
548.34	84
548.554	82
548.767	86
548.98	78
549.193	83
549.407	84
549.62	85
549.833	82
550.046	89
550.259	106
550.473	85
550.686	80
550.899	67
551.112	80
551.325	81
551.538	84
551.751	79
551.964	88
552.177	78
552.39	72
552.603	82
552.816	96
553.029	85
553.242	83
553.455	79
553.667	79
553.88	89
554.093	82
554.306	72
554.519	91
554.732	98
554.944	77
555.157	100
555.37	82
555.583	74
555.795	86
556.008	87
556.221	77
556.433	89
556.646	79
556.859	66
557.071	82
557.284	68
557.496	74
557.709	77
557.921	86
558.134	79
558.346	78
558.559	96
558.771	73
558.984	76
559.196	78
559.409	77
559.621	86
559.833	93
560.046	62
560.258	88
560.47	83
560.683	96
560.895	80
561.107	90
561.32	84
561.532	83
561.744	87
561.956	82
562.168	61
562.381	91
562.593	77
562.805	88
563.017	80
563.229	86
563.441	90
563.653	85
563.865	85
564.077	86
564.289	85
564.501	85
564.713	102
564.925	91
565.137	75
565.349	87
565.561	95
565.773	82
565.985	88
566.197	76
566.408	85
566.62	98
566.832	94
567.044	70
567.255	100
567.467	87
567.679	74
567.891	75
568.102	86
568.314	78
568.526	91
568.737	100
568.949	77
569.161	70
569.372	79
569.584	82
569.795	83
570.007	89
570.218	90
570.43	83
570.641	71
570.853	88
571.064	82
571.276	89
571.487	87
571.698	85
571.91	87
572.121	78
572.333	81
572.544	79
572.755	81
572.966	75
573.178	79
573.389	78
573.6	77
573.811	89
574.023	64
574.234	82
574.445	95
574.656	92
574.867	86
575.078	87
575.289	75
575.501	76
575.712	88
575.923	75
576.134	84
576.345	82
576.556	73
576.767	84
576.978	79
577.188	79
577.399	72
577.61	90
577.821	77
578.032	96
578.243	80
578.454	82
578.665	89
578.875	73
579.086	69
579.297	68
579.508	83
579.718	70
579.929	76
580.14	82
580.35	83
580.561	76
580.772	73
580.982	84
581.193	63
581.403	95
581.614	82
581.825	88
582.035	94
582.246	91
582.456	87
582.667	83
582.877	68
583.087	86
583.298	96
583.508	75
583.719	71
583.929	81
584.139	90
584.35	87
584.56	80
584.77	82
584.981	73
585.191	95
585.401	61
585.611	78
585.821	78
586.032	91
586.242	83
586.452	84
586.662	83
586.872	79
587.082	88
587.292	62
587.502	77
587.713	87
587.923	79
588.133	80
588.343	91
588.553	93
588.762	96
588.972	75
589.182	85
589.392	101
589.602	83
589.812	76
590.022	81
590.232	92
