Data from StdB_HRD10591_081.txt Node
Date: Fri May 16 15:25:26 EDT 2025
User: Yrep
Spectrometer: HR+D1059
Trigger mode: 1
Integration Time (sec): 1.000000E-1
Scans to average: 1
Electric dark correction enabled: true
Nonlinearity correction enabled: false
Boxcar width: 0
XAxis mode: Wavelengths
Number of Pixels in Spectrum: 2048
>>>>>Begin Spectral Data<<<<<
223.165	-24.19
223.4	-24.19
223.635	-24.19
223.869	-19.19
224.104	-17.19
224.338	-11.19
224.573	-6.19
224.808	5.81
225.042	-12.19
225.277	-16.19
225.511	-5.19
225.746	4.81
225.98	3.81
226.215	10.81
226.449	14.81
226.683	25.81
226.918	16.81
227.152	28.81
227.387	23.81
227.621	27.81
227.856	55.81
228.09	41.81
228.324	55.81
228.559	71.81
228.793	68.81
229.027	60.81
229.262	81.81
229.496	65.81
229.73	59.81
229.964	80.81
230.199	65.81
230.433	73.81
230.667	75.81
230.901	62.81
231.136	74.81
231.37	76.81
231.604	82.81
231.838	83.81
232.072	89.81
232.306	66.81
232.541	75.81
232.775	64.81
233.009	80.81
233.243	70.81
233.477	87.81
233.711	83.81
233.945	80.81
234.179	82.81
234.413	75.81
234.647	80.81
234.881	88.81
235.115	87.81
235.349	81.81
235.583	63.81
235.817	68.81
236.051	81.81
236.285	83.81
236.519	88.81
236.753	75.81
236.987	79.81
237.221	76.81
237.455	85.81
237.689	75.81
237.922	71.81
238.156	76.81
238.39	75.81
238.624	71.81
238.858	72.81
239.091	65.81
239.325	79.81
239.559	91.81
239.793	76.81
240.027	71.81
240.26	73.81
240.494	79.81
240.728	56.81
240.961	75.81
241.195	77.81
241.429	84.81
241.662	77.81
241.896	77.81
242.13	75.81
242.363	80.81
242.597	76.81
242.83	74.81
243.064	63.81
243.298	90.81
243.531	80.81
243.765	83.81
243.998	77.81
244.232	77.81
244.465	76.81
244.699	84.81
244.932	72.81
245.166	67.81
245.399	75.81
245.633	78.81
245.866	90.81
246.099	67.81
246.333	75.81
246.566	76.81
246.8	72.81
247.033	85.81
247.266	83.81
247.5	79.81
247.733	83.81
247.966	79.81
248.2	83.81
248.433	73.81
248.666	72.81
248.899	80.81
249.133	86.81
249.366	88.81
249.599	59.81
249.832	69.81
250.066	69.81
250.299	93.81
250.532	67.81
250.765	72.81
250.998	67.81
251.231	79.81
251.465	103.81
251.698	85.81
251.931	96.81
252.164	89.81
252.397	78.81
252.63	81.81
252.863	89.81
253.096	87.81
253.329	75.81
253.562	95.81
253.795	64.81
254.028	90.81
254.261	77.81
254.494	73.81
254.727	87.81
254.96	74.81
255.193	78.81
255.426	84.81
255.659	83.81
255.892	81.81
256.124	92.81
256.357	94.81
256.59	91.81
256.823	72.81
257.056	91.81
257.289	71.81
257.521	91.81
257.754	104.81
257.987	75.81
258.22	85.81
258.452	87.81
258.685	77.81
258.918	87.81
259.151	75.81
259.383	89.81
259.616	72.81
259.849	78.81
260.081	87.81
260.314	89.81
260.547	87.81
260.779	73.81
261.012	82.81
261.244	81.81
261.477	88.81
261.71	100.81
261.942	91.81
262.175	70.81
262.407	81.81
262.64	79.81
262.872	95.81
263.105	73.81
263.337	87.81
263.57	93.81
263.802	75.81
264.035	65.81
264.267	82.81
264.499	83.81
264.732	89.81
264.964	92.81
265.197	88.81
265.429	81.81
265.661	76.81
265.894	76.81
266.126	89.81
266.358	76.81
266.591	83.81
266.823	93.81
267.055	81.81
267.287	80.81
267.52	79.81
267.752	88.81
267.984	80.81
268.216	92.81
268.448	89.81
268.681	84.81
268.913	82.81
269.145	88.81
269.377	76.81
269.609	76.81
269.841	79.81
270.073	94.81
270.306	95.81
270.538	86.81
270.77	73.81
271.002	79.81
271.234	79.81
271.466	83.81
271.698	80.81
271.93	80.81
272.162	81.81
272.394	88.81
272.626	95.81
272.858	80.81
273.09	75.81
273.322	89.81
273.553	87.81
273.785	86.81
274.017	84.81
274.249	96.81
274.481	85.81
274.713	86.81
274.945	84.81
275.176	83.81
275.408	78.81
275.64	97.81
275.872	94.81
276.104	77.81
276.335	73.81
276.567	80.81
276.799	85.81
277.031	88.81
277.262	84.81
277.494	84.81
277.726	76.81
277.957	79.81
278.189	85.81
278.421	75.81
278.652	75.81
278.884	76.81
279.115	87.81
279.347	92.81
279.579	80.81
279.81	99.81
280.042	105.81
280.273	105.81
280.505	111.81
280.736	75.81
280.968	88.81
281.199	74.81
281.431	91.81
281.662	90.81
281.894	71.81
282.125	92.81
282.356	78.81
282.588	95.81
282.819	85.81
283.051	89.81
283.282	123.81
283.513	111.81
283.745	102.81
283.976	76.81
284.207	96.81
284.439	100.81
284.67	81.81
284.901	90.81
285.132	86.81
285.364	69.81
285.595	84.81
285.826	98.81
286.057	85.81
286.288	66.81
286.52	73.81
286.751	91.81
286.982	91.81
287.213	99.81
287.444	95.81
287.675	88.81
287.906	88.81
288.138	84.81
288.369	88.81
288.6	81.81
288.831	92.81
289.062	105.81
289.293	95.81
289.524	70.81
289.755	94.81
289.986	83.81
290.217	80.81
290.448	91.81
290.679	91.81
290.91	105.81
291.141	80.81
291.371	81.81
291.602	77.81
291.833	88.81
292.064	89.81
292.295	87.81
292.526	89.81
292.757	103.81
292.987	83.81
293.218	90.81
293.449	84.81
293.68	80.81
293.91	78.81
294.141	78.81
294.372	85.81
294.603	71.81
294.833	103.81
295.064	86.81
295.295	81.81
295.525	85.81
295.756	87.81
295.987	79.81
296.217	88.81
296.448	77.81
296.679	87.81
296.909	96.81
297.14	80.81
297.37	85.81
297.601	84.81
297.831	99.81
298.062	89.81
298.292	100.81
298.523	100.81
298.753	107.81
298.984	97.81
299.214	95.81
299.445	78.81
299.675	83.81
299.905	75.81
300.136	71.81
300.366	85.81
300.597	85.81
300.827	73.81
301.057	74.81
301.288	91.81
301.518	87.81
301.748	77.81
301.979	81.81
302.209	85.81
302.439	81.81
302.669	81.81
302.9	91.81
303.13	90.81
303.36	95.81
303.59	88.81
303.82	88.81
304.051	76.81
304.281	88.81
304.511	83.81
304.741	85.81
304.971	81.81
305.201	79.81
305.431	87.81
305.661	82.81
305.891	84.81
306.121	80.81
306.352	79.81
306.582	85.81
306.812	89.81
307.042	95.81
307.272	78.81
307.502	85.81
307.731	77.81
307.961	90.81
308.191	83.81
308.421	91.81
308.651	77.81
308.881	89.81
309.111	64.81
309.341	88.81
309.571	100.81
309.8	79.81
310.03	83.81
310.26	92.81
310.49	85.81
310.72	78.81
310.949	92.81
311.179	91.81
311.409	71.81
311.639	91.81
311.868	92.81
312.098	87.81
312.328	86.81
312.557	87.81
312.787	91.81
313.017	96.81
313.246	95.81
313.476	83.81
313.706	84.81
313.935	86.81
314.165	87.81
314.394	87.81
314.624	93.81
314.853	78.81
315.083	92.81
315.312	90.81
315.542	94.81
315.771	103.81
316.001	82.81
316.23	79.81
316.46	73.81
316.689	94.81
316.919	83.81
317.148	94.81
317.377	86.81
317.607	87.81
317.836	82.81
318.065	82.81
318.295	87.81
318.524	78.81
318.753	83.81
318.983	83.81
319.212	96.81
319.441	87.81
319.67	89.81
319.9	84.81
320.129	78.81
320.358	71.81
320.587	90.81
320.816	78.81
321.046	94.81
321.275	84.81
321.504	83.81
321.733	92.81
321.962	84.81
322.191	73.81
322.42	88.81
322.649	76.81
322.878	75.81
323.108	85.81
323.337	92.81
323.566	83.81
323.795	80.81
324.024	81.81
324.253	93.81
324.482	84.81
324.71	83.81
324.939	69.81
325.168	77.81
325.397	79.81
325.626	102.81
325.855	81.81
326.084	71.81
326.313	83.81
326.542	78.81
326.77	79.81
326.999	90.81
327.228	87.81
327.457	75.81
327.686	93.81
327.914	93.81
328.143	84.81
328.372	95.81
328.6	96.81
328.829	84.81
329.058	64.81
329.287	86.81
329.515	95.81
329.744	88.81
329.972	86.81
330.201	92.81
330.43	82.81
330.658	89.81
330.887	86.81
331.115	64.81
331.344	80.81
331.572	91.81
331.801	73.81
332.03	93.81
332.258	75.81
332.486	77.81
332.715	87.81
332.943	82.81
333.172	71.81
333.4	75.81
333.629	85.81
333.857	79.81
334.085	79.81
334.314	79.81
334.542	75.81
334.771	90.81
334.999	89.81
335.227	77.81
335.455	89.81
335.684	86.81
335.912	78.81
336.14	74.81
336.369	84.81
336.597	81.81
336.825	88.81
337.053	96.81
337.281	99.81
337.51	78.81
337.738	88.81
337.966	71.81
338.194	92.81
338.422	94.81
338.65	85.81
338.878	85.81
339.106	86.81
339.334	89.81
339.562	85.81
339.79	86.81
340.018	81.81
340.246	85.81
340.474	84.81
340.702	73.81
340.93	75.81
341.158	85.81
341.386	90.81
341.614	96.81
341.842	90.81
342.07	80.81
342.298	94.81
342.526	79.81
342.754	94.81
342.981	92.81
343.209	88.81
343.437	90.81
343.665	69.81
343.893	84.81
344.12	84.81
344.348	83.81
344.576	92.81
344.804	83.81
345.031	78.81
345.259	99.81
345.487	85.81
345.714	83.81
345.942	83.81
346.17	88.81
346.397	86.81
346.625	87.81
346.853	96.81
347.08	89.81
347.308	80.81
347.535	94.81
347.763	87.81
347.99	93.81
348.218	83.81
348.445	88.81
348.673	88.81
348.9	79.81
349.128	88.81
349.355	91.81
349.583	81.81
349.81	84.81
350.037	79.81
350.265	80.81
350.492	87.81
350.72	83.81
350.947	95.81
351.174	76.81
351.402	82.81
351.629	88.81
351.856	86.81
352.083	79.81
352.311	91.81
352.538	84.81
352.765	83.81
352.992	93.81
353.22	95.81
353.447	87.81
353.674	65.81
353.901	95.81
354.128	91.81
354.355	84.81
354.583	78.81
354.81	93.81
355.037	83.81
355.264	77.81
355.491	80.81
355.718	96.81
355.945	100.81
356.172	79.81
356.399	75.81
356.626	89.81
356.853	105.81
357.08	112.81
357.307	139.81
357.534	131.81
357.761	91.81
357.988	77.81
358.215	90.81
358.441	73.81
358.668	83.81
358.895	80.81
359.122	83.81
359.349	60.81
359.576	79.81
359.802	68.81
360.029	85.81
360.256	82.81
360.483	91.81
360.709	83.81
360.936	93.81
361.163	97.81
361.39	91.81
361.616	85.81
361.843	83.81
362.07	76.81
362.296	85.81
362.523	83.81
362.749	92.81
362.976	88.81
363.203	88.81
363.429	90.81
363.656	124.81
363.882	181.81
364.109	174.81
364.335	126.81
364.562	93.81
364.788	66.81
365.015	88.81
365.241	88.81
365.468	85.81
365.694	82.81
365.92	96.81
366.147	79.81
366.373	97.81
366.599	78.81
366.826	77.81
367.052	106.81
367.278	126.81
367.505	86.81
367.731	102.81
367.957	128.81
368.184	185.81
368.41	235.81
368.636	163.81
368.862	89.81
369.089	105.81
369.315	87.81
369.541	86.81
369.767	88.81
369.993	87.81
370.219	79.81
370.445	93.81
370.672	81.81
370.898	79.81
371.124	71.81
371.35	78.81
371.576	71.81
371.802	81.81
372.028	80.81
372.254	81.81
372.48	94.81
372.706	92.81
372.932	88.81
373.158	87.81
373.384	85.81
373.61	104.81
373.835	128.81
374.061	129.81
374.287	108.81
374.513	93.81
374.739	85.81
374.965	81.81
375.191	81.81
375.416	85.81
375.642	78.81
375.868	93.81
376.094	84.81
376.319	79.81
376.545	83.81
376.771	83.81
376.997	78.81
377.222	85.81
377.448	89.81
377.674	92.81
377.899	83.81
378.125	84.81
378.35	91.81
378.576	96.81
378.802	83.81
379.027	92.81
379.253	83.81
379.478	73.81
379.704	81.81
379.929	74.81
380.155	81.81
380.38	71.81
380.606	80.81
380.831	89.81
381.057	85.81
381.282	94.81
381.507	83.81
381.733	83.81
381.958	87.81
382.184	72.81
382.409	83.81
382.634	81.81
382.86	84.81
383.085	74.81
383.31	84.81
383.535	68.81
383.761	81.81
383.986	83.81
384.211	78.81
384.436	68.81
384.662	87.81
384.887	92.81
385.112	86.81
385.337	79.81
385.562	83.81
385.787	101.81
386.013	85.81
386.238	91.81
386.463	75.81
386.688	88.81
386.913	85.81
387.138	63.81
387.363	85.81
387.588	85.81
387.813	79.81
388.038	85.81
388.263	89.81
388.488	85.81
388.713	89.81
388.938	80.81
389.163	71.81
389.387	80.81
389.612	78.81
389.837	83.81
390.062	81.81
390.287	91.81
390.512	85.81
390.736	76.81
390.961	95.81
391.186	95.81
391.411	86.81
391.636	73.81
391.86	86.81
392.085	95.81
392.31	80.81
392.534	84.81
392.759	80.81
392.984	74.81
393.208	78.81
393.433	64.81
393.658	77.81
393.882	83.81
394.107	81.81
394.331	72.81
394.556	71.81
394.78	60.81
395.005	90.81
395.229	106.81
395.454	81.81
395.678	77.81
395.903	74.81
396.127	81.81
396.352	77.81
396.576	83.81
396.801	87.81
397.025	92.81
397.249	69.81
397.474	87.81
397.698	89.81
397.922	88.81
398.147	76.81
398.371	76.81
398.595	75.81
398.82	83.81
399.044	68.81
399.268	90.81
399.492	90.81
399.717	80.81
399.941	81.81
400.165	84.81
400.389	79.81
400.613	80.81
400.837	92.81
401.062	85.81
401.286	76.81
401.51	76.81
401.734	107.81
401.958	95.81
402.182	91.81
402.406	80.81
402.63	89.81
402.854	71.81
403.078	90.81
403.302	85.81
403.526	78.81
403.75	96.81
403.974	84.81
404.198	84.81
404.422	84.81
404.645	100.81
404.869	78.81
405.093	101.81
405.317	115.81
405.541	201.81
405.765	320.81
405.988	325.81
406.212	200.81
406.436	126.81
406.66	84.81
406.883	75.81
407.107	83.81
407.331	91.81
407.555	73.81
407.778	91.81
408.002	75.81
408.226	87.81
408.449	77.81
408.673	83.81
408.896	92.81
409.12	88.81
409.344	74.81
409.567	77.81
409.791	74.81
410.014	80.81
410.238	84.81
410.461	73.81
410.685	73.81
410.908	84.81
411.132	83.81
411.355	84.81
411.578	77.81
411.802	88.81
412.025	82.81
412.249	79.81
412.472	86.81
412.695	79.81
412.919	88.81
413.142	74.81
413.365	84.81
413.589	89.81
413.812	77.81
414.035	77.81
414.258	79.81
414.482	80.81
414.705	87.81
414.928	88.81
415.151	89.81
415.374	81.81
415.597	75.81
415.821	76.81
416.044	79.81
416.267	89.81
416.49	86.81
416.713	91.81
416.936	96.81
417.159	86.81
417.382	78.81
417.605	79.81
417.828	83.81
418.051	91.81
418.274	75.81
418.497	79.81
418.72	96.81
418.943	72.81
419.166	83.81
419.389	85.81
419.611	84.81
419.834	71.81
420.057	78.81
420.28	76.81
420.503	87.81
420.726	84.81
420.948	87.81
421.171	84.81
421.394	69.81
421.617	83.81
421.839	85.81
422.062	70.81
422.285	64.81
422.507	89.81
422.73	94.81
422.953	73.81
423.175	65.81
423.398	92.81
423.621	94.81
423.843	79.81
424.066	83.81
424.288	80.81
424.511	89.81
424.733	91.81
424.956	87.81
425.178	75.81
425.401	92.81
425.623	77.81
425.846	71.81
426.068	86.81
426.291	88.81
426.513	78.81
426.735	88.81
426.958	69.81
427.18	78.81
427.402	91.81
427.625	86.81
427.847	80.81
428.069	90.81
428.292	72.81
428.514	85.81
428.736	86.81
428.958	79.81
429.181	83.81
429.403	89.81
429.625	75.81
429.847	70.81
430.069	70.81
430.292	83.81
430.514	84.81
430.736	89.81
430.958	80.81
431.18	73.81
431.402	71.81
431.624	89.81
431.846	87.81
432.068	94.81
432.29	84.81
432.512	85.81
432.734	75.81
432.956	87.81
433.178	83.81
433.4	89.81
433.622	83.81
433.844	86.81
434.066	88.81
434.287	85.81
434.509	85.81
434.731	87.81
434.953	75.81
435.175	86.81
435.397	82.81
435.618	71.81
435.84	72.81
436.062	90.81
436.284	72.81
436.505	85.81
436.727	88.81
436.949	73.81
437.17	88.81
437.392	84.81
437.614	91.81
437.835	81.81
438.057	74.81
438.278	73.81
438.5	94.81
438.721	85.81
438.943	88.81
439.165	79.81
439.386	95.81
439.608	83.81
439.829	96.81
440.05	77.81
440.272	83.81
440.493	80.81
440.715	89.81
440.936	95.81
441.158	82.81
441.379	90.81
441.6	88.81
441.822	74.81
442.043	79.81
442.264	83.81
442.486	81.81
442.707	77.81
442.928	69.81
443.149	92.81
443.371	83.81
443.592	77.81
443.813	77.81
444.034	80.81
444.255	83.81
444.476	78.81
444.698	85.81
444.919	75.81
445.14	141.81
445.361	113.81
445.582	77.81
445.803	77.81
446.024	73.81
446.245	83.81
446.466	71.81
446.687	89.81
446.908	83.81
447.129	93.81
447.35	82.81
447.571	66.81
447.792	80.81
448.013	94.81
448.234	67.81
448.455	75.81
448.675	72.81
448.896	71.81
449.117	76.81
449.338	74.81
449.559	79.81
449.779	89.81
450	89.81
450.221	75.81
450.442	89.81
450.662	76.81
450.883	77.81
451.104	78.81
451.324	81.81
451.545	73.81
451.766	78.81
451.986	68.81
452.207	84.81
452.428	63.81
452.648	88.81
452.869	100.81
453.089	73.81
453.31	77.81
453.53	72.81
453.751	82.81
453.971	75.81
454.192	80.81
454.412	77.81
454.633	95.81
454.853	81.81
455.073	69.81
455.294	56.81
455.514	80.81
455.734	81.81
455.955	74.81
456.175	82.81
456.395	94.81
456.616	98.81
456.836	86.81
457.056	84.81
457.276	77.81
457.497	75.81
457.717	83.81
457.937	98.81
458.157	75.81
458.377	79.81
458.598	76.81
458.818	84.81
459.038	91.81
459.258	69.81
459.478	71.81
459.698	65.81
459.918	79.81
460.138	68.81
460.358	76.81
460.578	82.81
460.798	75.81
461.018	86.81
461.238	84.81
461.458	83.81
461.678	92.81
461.898	102.81
462.118	92.81
462.338	85.81
462.558	89.81
462.777	88.81
462.997	72.81
463.217	78.81
463.437	78.81
463.657	89.81
463.876	88.81
464.096	95.81
464.316	77.81
464.536	75.81
464.755	84.81
464.975	89.81
465.195	90.81
465.414	83.81
465.634	70.81
465.854	78.81
466.073	77.81
466.293	82.81
466.512	77.81
466.732	81.81
466.951	68.81
467.171	84.81
467.391	84.81
467.61	70.81
467.829	79.81
468.049	89.81
468.268	75.81
468.488	71.81
468.707	71.81
468.927	80.81
469.146	89.81
469.365	96.81
469.585	72.81
469.804	84.81
470.023	84.81
470.243	82.81
470.462	82.81
470.681	82.81
470.901	68.81
471.12	72.81
471.339	74.81
471.558	89.81
471.777	92.81
471.997	77.81
472.216	83.81
472.435	88.81
472.654	82.81
472.873	80.81
473.092	81.81
473.311	81.81
473.53	70.81
473.749	80.81
473.968	80.81
474.187	94.81
474.406	85.81
474.625	103.81
474.844	76.81
475.063	69.81
475.282	83.81
475.501	84.81
475.72	82.81
475.939	81.81
476.158	74.81
476.377	83.81
476.596	89.81
476.814	80.81
477.033	91.81
477.252	72.81
477.471	71.81
477.69	66.81
477.908	73.81
478.127	84.81
478.346	76.81
478.564	78.81
478.783	91.81
479.002	72.81
479.22	89.81
479.439	102.81
479.658	87.81
479.876	82.81
480.095	72.81
480.313	73.81
480.532	77.81
480.751	95.81
480.969	83.81
481.188	91.81
481.406	69.81
481.624	79.81
481.843	82.81
482.061	74.81
482.28	75.81
482.498	83.81
482.717	91.81
482.935	72.81
483.153	85.81
483.372	83.81
483.59	71.81
483.808	85.81
484.027	70.81
484.245	79.81
484.463	74.81
484.681	94.81
484.9	101.81
485.118	67.81
485.336	76.81
485.554	88.81
485.772	99.81
485.99	83.81
486.209	72.81
486.427	81.81
486.645	81.81
486.863	73.81
487.081	88.81
487.299	92.81
487.517	92.81
487.735	85.81
487.953	77.81
488.171	74.81
488.389	80.81
488.607	86.81
488.825	77.81
489.043	85.81
489.261	80.81
489.479	84.81
489.696	83.81
489.914	73.81
490.132	75.81
490.35	84.81
490.568	72.81
490.786	89.81
491.003	99.81
491.221	83.81
491.439	65.81
491.657	89.81
491.874	84.81
492.092	76.81
492.31	80.81
492.527	77.81
492.745	81.81
492.963	117.81
493.18	84.81
493.398	95.81
493.615	88.81
493.833	87.81
494.05	75.81
494.268	75.81
494.485	95.81
494.703	83.81
494.92	91.81
495.138	77.81
495.355	72.81
495.573	89.81
495.79	80.81
496.008	97.81
496.225	83.81
496.442	73.81
496.66	99.81
496.877	66.81
497.094	92.81
497.312	80.81
497.529	89.81
497.746	80.81
497.963	82.81
498.181	84.81
498.398	90.81
498.615	75.81
498.832	82.81
499.049	92.81
499.267	78.81
499.484	90.81
499.701	77.81
499.918	77.81
500.135	90.81
500.352	86.81
500.569	92.81
500.786	137.81
501.003	85.81
501.22	90.81
501.437	86.81
501.654	94.81
501.871	79.81
502.088	86.81
502.305	84.81
502.522	86.81
502.739	85.81
502.956	90.81
503.172	82.81
503.389	73.81
503.606	74.81
503.823	77.81
504.04	81.81
504.256	81.81
504.473	87.81
504.69	88.81
504.907	83.81
505.123	80.81
505.34	89.81
505.557	92.81
505.773	93.81
505.99	78.81
506.207	87.81
506.423	89.81
506.64	72.81
506.856	70.81
507.073	85.81
507.289	83.81
507.506	97.81
507.722	77.81
507.939	77.81
508.155	88.81
508.372	83.81
508.588	81.81
508.805	89.81
509.021	85.81
509.238	95.81
509.454	92.81
509.67	73.81
509.887	68.81
510.103	78.81
510.319	87.81
510.536	78.81
510.752	73.81
510.968	79.81
511.184	91.81
511.401	70.81
511.617	75.81
511.833	69.81
512.049	96.81
512.265	92.81
512.481	68.81
512.698	93.81
512.914	69.81
513.13	79.81
513.346	81.81
513.562	89.81
513.778	81.81
513.994	84.81
514.21	83.81
514.426	95.81
514.642	77.81
514.858	77.81
515.074	70.81
515.29	91.81
515.506	84.81
515.721	74.81
515.937	82.81
516.153	90.81
516.369	88.81
516.585	93.81
516.801	94.81
517.016	87.81
517.232	87.81
517.448	80.81
517.664	92.81
517.879	92.81
518.095	86.81
518.311	83.81
518.527	97.81
518.742	91.81
518.958	70.81
519.173	94.81
519.389	82.81
519.605	93.81
