Data from StdB_HRD10591_025.txt Node
Date: Fri May 16 15:24:58 EDT 2025
User: Yrep
Spectrometer: HR+D1059
Trigger mode: 1
Integration Time (sec): 1.000000E-1
Scans to average: 1
Electric dark correction enabled: true
Nonlinearity correction enabled: false
Boxcar width: 0
XAxis mode: Wavelengths
Number of Pixels in Spectrum: 2048
>>>>>Begin Spectral Data<<<<<
223.165	4.19
223.4	4.19
223.635	4.19
223.869	-8.81
224.104	-20.81
224.338	-8.81
224.573	-22.81
224.808	-15.81
225.042	-6.81
225.277	0.19
225.511	-9.81
225.746	-16.81
225.98	3.19
226.215	13.19
226.449	18.19
226.683	20.19
226.918	30.19
227.152	21.19
227.387	41.19
227.621	37.19
227.856	45.19
228.09	44.19
228.324	52.19
228.559	65.19
228.793	71.19
229.027	65.19
229.262	54.19
229.496	70.19
229.73	88.19
229.964	95.19
230.199	88.19
230.433	66.19
230.667	62.19
230.901	76.19
231.136	77.19
231.37	77.19
231.604	66.19
231.838	69.19
232.072	74.19
232.306	93.19
232.541	77.19
232.775	75.19
233.009	88.19
233.243	79.19
233.477	74.19
233.711	78.19
233.945	86.19
234.179	70.19
234.413	82.19
234.647	79.19
234.881	76.19
235.115	87.19
235.349	70.19
235.583	74.19
235.817	81.19
236.051	89.19
236.285	76.19
236.519	84.19
236.753	87.19
236.987	80.19
237.221	72.19
237.455	82.19
237.689	63.19
237.922	78.19
238.156	72.19
238.39	77.19
238.624	68.19
238.858	84.19
239.091	75.19
239.325	75.19
239.559	81.19
239.793	84.19
240.027	72.19
240.26	61.19
240.494	77.19
240.728	79.19
240.961	71.19
241.195	78.19
241.429	81.19
241.662	81.19
241.896	78.19
242.13	70.19
242.363	75.19
242.597	64.19
242.83	84.19
243.064	91.19
243.298	78.19
243.531	69.19
243.765	83.19
243.998	84.19
244.232	72.19
244.465	83.19
244.699	69.19
244.932	73.19
245.166	67.19
245.399	85.19
245.633	73.19
245.866	82.19
246.099	73.19
246.333	69.19
246.566	73.19
246.8	85.19
247.033	92.19
247.266	68.19
247.5	72.19
247.733	89.19
247.966	71.19
248.2	72.19
248.433	64.19
248.666	87.19
248.899	85.19
249.133	86.19
249.366	89.19
249.599	73.19
249.832	67.19
250.066	78.19
250.299	80.19
250.532	84.19
250.765	78.19
250.998	80.19
251.231	75.19
251.465	79.19
251.698	81.19
251.931	75.19
252.164	82.19
252.397	91.19
252.63	75.19
252.863	81.19
253.096	81.19
253.329	82.19
253.562	92.19
253.795	78.19
254.028	85.19
254.261	82.19
254.494	72.19
254.727	84.19
254.96	80.19
255.193	72.19
255.426	76.19
255.659	82.19
255.892	95.19
256.124	90.19
256.357	81.19
256.59	76.19
256.823	84.19
257.056	93.19
257.289	79.19
257.521	90.19
257.754	85.19
257.987	95.19
258.22	92.19
258.452	81.19
258.685	96.19
258.918	74.19
259.151	90.19
259.383	88.19
259.616	81.19
259.849	79.19
260.081	82.19
260.314	78.19
260.547	94.19
260.779	89.19
261.012	74.19
261.244	81.19
261.477	105.19
261.71	106.19
261.942	92.19
262.175	87.19
262.407	81.19
262.64	93.19
262.872	81.19
263.105	83.19
263.337	74.19
263.57	87.19
263.802	85.19
264.035	91.19
264.267	78.19
264.499	82.19
264.732	94.19
264.964	112.19
265.197	94.19
265.429	87.19
265.661	77.19
265.894	80.19
266.126	89.19
266.358	91.19
266.591	87.19
266.823	75.19
267.055	82.19
267.287	86.19
267.52	66.19
267.752	78.19
267.984	88.19
268.216	83.19
268.448	87.19
268.681	85.19
268.913	82.19
269.145	83.19
269.377	76.19
269.609	76.19
269.841	86.19
270.073	87.19
270.306	80.19
270.538	100.19
270.77	69.19
271.002	88.19
271.234	89.19
271.466	80.19
271.698	85.19
271.93	77.19
272.162	89.19
272.394	96.19
272.626	87.19
272.858	85.19
273.09	90.19
273.322	72.19
273.553	80.19
273.785	76.19
274.017	90.19
274.249	91.19
274.481	85.19
274.713	86.19
274.945	86.19
275.176	82.19
275.408	91.19
275.64	70.19
275.872	92.19
276.104	94.19
276.335	76.19
276.567	84.19
276.799	85.19
277.031	73.19
277.262	83.19
277.494	89.19
277.726	84.19
277.957	82.19
278.189	83.19
278.421	72.19
278.652	90.19
278.884	88.19
279.115	80.19
279.347	89.19
279.579	85.19
279.81	95.19
280.042	106.19
280.273	120.19
280.505	121.19
280.736	93.19
280.968	92.19
281.199	77.19
281.431	80.19
281.662	95.19
281.894	104.19
282.125	98.19
282.356	117.19
282.588	108.19
282.819	100.19
283.051	94.19
283.282	113.19
283.513	120.19
283.745	98.19
283.976	95.19
284.207	77.19
284.439	93.19
284.67	93.19
284.901	83.19
285.132	80.19
285.364	78.19
285.595	73.19
285.826	82.19
286.057	90.19
286.288	71.19
286.52	83.19
286.751	84.19
286.982	95.19
287.213	117.19
287.444	118.19
287.675	96.19
287.906	82.19
288.138	77.19
288.369	85.19
288.6	84.19
288.831	90.19
289.062	92.19
289.293	77.19
289.524	87.19
289.755	89.19
289.986	91.19
290.217	85.19
290.448	74.19
290.679	93.19
290.91	89.19
291.141	81.19
291.371	80.19
291.602	76.19
291.833	100.19
292.064	76.19
292.295	88.19
292.526	81.19
292.757	72.19
292.987	94.19
293.218	79.19
293.449	76.19
293.68	75.19
293.91	88.19
294.141	73.19
294.372	65.19
294.603	94.19
294.833	83.19
295.064	74.19
295.295	96.19
295.525	84.19
295.756	97.19
295.987	76.19
296.217	76.19
296.448	79.19
296.679	86.19
296.909	72.19
297.14	81.19
297.37	86.19
297.601	76.19
297.831	70.19
298.062	81.19
298.292	73.19
298.523	75.19
298.753	81.19
298.984	88.19
299.214	98.19
299.445	79.19
299.675	86.19
299.905	87.19
300.136	82.19
300.366	90.19
300.597	100.19
300.827	91.19
301.057	85.19
301.288	73.19
301.518	84.19
301.748	90.19
301.979	97.19
302.209	87.19
302.439	74.19
302.669	71.19
302.9	82.19
303.13	79.19
303.36	90.19
303.59	88.19
303.82	71.19
304.051	89.19
304.281	93.19
304.511	92.19
304.741	78.19
304.971	87.19
305.201	83.19
305.431	85.19
305.661	72.19
305.891	95.19
306.121	83.19
306.352	76.19
306.582	73.19
306.812	86.19
307.042	87.19
307.272	83.19
307.502	86.19
307.731	78.19
307.961	82.19
308.191	81.19
308.421	96.19
308.651	80.19
308.881	81.19
309.111	88.19
309.341	84.19
309.571	101.19
309.8	98.19
310.03	81.19
310.26	82.19
310.49	91.19
310.72	90.19
310.949	80.19
311.179	92.19
311.409	76.19
311.639	92.19
311.868	97.19
312.098	75.19
312.328	80.19
312.557	74.19
312.787	97.19
313.017	82.19
313.246	87.19
313.476	74.19
313.706	84.19
313.935	90.19
314.165	104.19
314.394	96.19
314.624	81.19
314.853	97.19
315.083	90.19
315.312	88.19
315.542	82.19
315.771	82.19
316.001	69.19
316.23	89.19
316.46	84.19
316.689	96.19
316.919	94.19
317.148	85.19
317.377	88.19
317.607	70.19
317.836	96.19
318.065	88.19
318.295	86.19
318.524	91.19
318.753	77.19
318.983	82.19
319.212	94.19
319.441	92.19
319.67	78.19
319.9	78.19
320.129	83.19
320.358	92.19
320.587	90.19
320.816	88.19
321.046	84.19
321.275	82.19
321.504	79.19
321.733	76.19
321.962	84.19
322.191	86.19
322.42	86.19
322.649	96.19
322.878	70.19
323.108	92.19
323.337	94.19
323.566	94.19
323.795	85.19
324.024	77.19
324.253	87.19
324.482	89.19
324.71	76.19
324.939	80.19
325.168	88.19
325.397	80.19
325.626	90.19
325.855	84.19
326.084	86.19
326.313	86.19
326.542	70.19
326.77	79.19
326.999	88.19
327.228	87.19
327.457	101.19
327.686	98.19
327.914	93.19
328.143	104.19
328.372	80.19
328.6	73.19
328.829	71.19
329.058	90.19
329.287	73.19
329.515	76.19
329.744	72.19
329.972	77.19
330.201	84.19
330.43	72.19
330.658	80.19
330.887	75.19
331.115	85.19
331.344	92.19
331.572	86.19
331.801	82.19
332.03	81.19
332.258	82.19
332.486	92.19
332.715	82.19
332.943	82.19
333.172	94.19
333.4	76.19
333.629	97.19
333.857	74.19
334.085	83.19
334.314	82.19
334.542	84.19
334.771	80.19
334.999	85.19
335.227	79.19
335.455	75.19
335.684	86.19
335.912	76.19
336.14	80.19
336.369	77.19
336.597	96.19
336.825	100.19
337.053	76.19
337.281	82.19
337.51	89.19
337.738	86.19
337.966	86.19
338.194	77.19
338.422	80.19
338.65	85.19
338.878	84.19
339.106	89.19
339.334	94.19
339.562	96.19
339.79	84.19
340.018	82.19
340.246	79.19
340.474	90.19
340.702	97.19
340.93	87.19
341.158	88.19
341.386	76.19
341.614	77.19
341.842	100.19
342.07	77.19
342.298	90.19
342.526	88.19
342.754	88.19
342.981	97.19
343.209	94.19
343.437	80.19
343.665	71.19
343.893	78.19
344.12	80.19
344.348	81.19
344.576	77.19
344.804	86.19
345.031	80.19
345.259	96.19
345.487	100.19
345.714	105.19
345.942	76.19
346.17	84.19
346.397	70.19
346.625	77.19
346.853	94.19
347.08	95.19
347.308	66.19
347.535	70.19
347.763	77.19
347.99	95.19
348.218	77.19
348.445	84.19
348.673	79.19
348.9	100.19
349.128	88.19
349.355	79.19
349.583	81.19
349.81	76.19
350.037	102.19
350.265	94.19
350.492	89.19
350.72	88.19
350.947	78.19
351.174	76.19
351.402	89.19
351.629	92.19
351.856	109.19
352.083	68.19
352.311	72.19
352.538	86.19
352.765	90.19
352.992	86.19
353.22	83.19
353.447	87.19
353.674	101.19
353.901	81.19
354.128	95.19
354.355	88.19
354.583	83.19
354.81	69.19
355.037	86.19
355.264	73.19
355.491	92.19
355.718	86.19
355.945	80.19
356.172	87.19
356.399	87.19
356.626	91.19
356.853	112.19
357.08	130.19
357.307	175.19
357.534	142.19
357.761	94.19
357.988	93.19
358.215	79.19
358.441	90.19
358.668	88.19
358.895	78.19
359.122	83.19
359.349	88.19
359.576	80.19
359.802	86.19
360.029	93.19
360.256	101.19
360.483	80.19
360.709	84.19
360.936	79.19
361.163	85.19
361.39	81.19
361.616	81.19
361.843	84.19
362.07	85.19
362.296	94.19
362.523	95.19
362.749	100.19
362.976	78.19
363.203	96.19
363.429	106.19
363.656	146.19
363.882	201.19
364.109	225.19
364.335	138.19
364.562	104.19
364.788	102.19
365.015	76.19
365.241	84.19
365.468	98.19
365.694	81.19
365.92	79.19
366.147	86.19
366.373	90.19
366.599	92.19
366.826	108.19
367.052	127.19
367.278	136.19
367.505	133.19
367.731	128.19
367.957	141.19
368.184	218.19
368.41	300.19
368.636	221.19
368.862	112.19
369.089	83.19
369.315	76.19
369.541	95.19
369.767	84.19
369.993	72.19
370.219	69.19
370.445	65.19
370.672	71.19
370.898	84.19
371.124	80.19
371.35	88.19
371.576	88.19
371.802	84.19
372.028	73.19
372.254	92.19
372.48	97.19
372.706	90.19
372.932	87.19
373.158	87.19
373.384	79.19
373.61	90.19
373.835	140.19
374.061	169.19
374.287	129.19
374.513	93.19
374.739	88.19
374.965	85.19
375.191	88.19
375.416	88.19
375.642	77.19
375.868	92.19
376.094	80.19
376.319	76.19
376.545	90.19
376.771	86.19
376.997	87.19
377.222	71.19
377.448	96.19
377.674	80.19
377.899	65.19
378.125	86.19
378.35	77.19
378.576	81.19
378.802	83.19
379.027	90.19
379.253	78.19
379.478	94.19
379.704	95.19
379.929	79.19
380.155	99.19
380.38	91.19
380.606	82.19
380.831	86.19
381.057	89.19
381.282	94.19
381.507	94.19
381.733	85.19
381.958	87.19
382.184	79.19
382.409	82.19
382.634	72.19
382.86	92.19
383.085	89.19
383.31	84.19
383.535	80.19
383.761	77.19
383.986	80.19
384.211	97.19
384.436	68.19
384.662	93.19
384.887	80.19
385.112	87.19
385.337	74.19
385.562	90.19
385.787	89.19
386.013	92.19
386.238	76.19
386.463	80.19
386.688	100.19
386.913	80.19
387.138	82.19
387.363	76.19
387.588	87.19
387.813	85.19
388.038	70.19
388.263	77.19
388.488	85.19
388.713	95.19
388.938	92.19
389.163	90.19
389.387	69.19
389.612	98.19
389.837	86.19
390.062	82.19
390.287	92.19
390.512	79.19
390.736	78.19
390.961	84.19
391.186	94.19
391.411	71.19
391.636	72.19
391.86	67.19
392.085	79.19
392.31	84.19
392.534	77.19
392.759	72.19
392.984	88.19
393.208	87.19
393.433	74.19
393.658	90.19
393.882	89.19
394.107	91.19
394.331	76.19
394.556	83.19
394.78	82.19
395.005	92.19
395.229	77.19
395.454	84.19
395.678	92.19
395.903	86.19
396.127	80.19
396.352	77.19
396.576	79.19
396.801	88.19
397.025	81.19
397.249	85.19
397.474	90.19
397.698	86.19
397.922	86.19
398.147	80.19
398.371	73.19
398.595	93.19
398.82	85.19
399.044	90.19
399.268	74.19
399.492	85.19
399.717	96.19
399.941	91.19
400.165	94.19
400.389	83.19
400.613	76.19
400.837	90.19
401.062	83.19
401.286	105.19
401.51	91.19
401.734	93.19
401.958	113.19
402.182	112.19
402.406	96.19
402.63	92.19
402.854	76.19
403.078	83.19
403.302	75.19
403.526	86.19
403.75	81.19
403.974	108.19
404.198	88.19
404.422	96.19
404.645	95.19
404.869	105.19
405.093	121.19
405.317	136.19
405.541	251.19
405.765	440.19
405.988	464.19
406.212	253.19
406.436	175.19
406.66	104.19
406.883	91.19
407.107	90.19
407.331	95.19
407.555	85.19
407.778	94.19
408.002	92.19
408.226	87.19
408.449	93.19
408.673	87.19
408.896	93.19
409.12	70.19
409.344	80.19
409.567	59.19
409.791	76.19
410.014	93.19
410.238	87.19
410.461	87.19
410.685	80.19
410.908	79.19
411.132	77.19
411.355	82.19
411.578	90.19
411.802	90.19
412.025	79.19
412.249	92.19
412.472	94.19
412.695	88.19
412.919	80.19
413.142	85.19
413.365	73.19
413.589	85.19
413.812	83.19
414.035	87.19
414.258	84.19
414.482	86.19
414.705	88.19
414.928	68.19
415.151	84.19
415.374	93.19
415.597	84.19
415.821	83.19
416.044	84.19
416.267	88.19
416.49	73.19
416.713	106.19
416.936	90.19
417.159	90.19
417.382	80.19
417.605	86.19
417.828	95.19
418.051	95.19
418.274	80.19
418.497	82.19
418.72	80.19
418.943	88.19
419.166	74.19
419.389	83.19
419.611	84.19
419.834	75.19
420.057	76.19
420.28	67.19
420.503	81.19
420.726	94.19
420.948	84.19
421.171	72.19
421.394	84.19
421.617	78.19
421.839	76.19
422.062	91.19
422.285	88.19
422.507	76.19
422.73	78.19
422.953	86.19
423.175	87.19
423.398	80.19
423.621	86.19
423.843	76.19
424.066	85.19
424.288	84.19
424.511	85.19
424.733	81.19
424.956	87.19
425.178	86.19
425.401	83.19
425.623	88.19
425.846	84.19
426.068	86.19
426.291	89.19
426.513	84.19
426.735	93.19
426.958	80.19
427.18	80.19
427.402	85.19
427.625	81.19
427.847	82.19
428.069	82.19
428.292	81.19
428.514	77.19
428.736	67.19
428.958	95.19
429.181	80.19
429.403	86.19
429.625	74.19
429.847	78.19
430.069	89.19
430.292	86.19
430.514	85.19
430.736	81.19
430.958	72.19
431.18	78.19
431.402	92.19
431.624	78.19
431.846	73.19
432.068	88.19
432.29	67.19
432.512	78.19
432.734	70.19
432.956	88.19
433.178	88.19
433.4	91.19
433.622	93.19
433.844	82.19
434.066	83.19
434.287	88.19
434.509	79.19
434.731	98.19
434.953	88.19
435.175	102.19
435.397	82.19
435.618	91.19
435.84	88.19
436.062	93.19
436.284	89.19
436.505	87.19
436.727	77.19
436.949	89.19
437.17	74.19
437.392	87.19
437.614	66.19
437.835	89.19
438.057	94.19
438.278	82.19
438.5	87.19
438.721	84.19
438.943	79.19
439.165	74.19
439.386	93.19
439.608	79.19
439.829	76.19
440.05	74.19
440.272	81.19
440.493	72.19
440.715	79.19
440.936	82.19
441.158	82.19
441.379	75.19
441.6	93.19
441.822	100.19
442.043	86.19
442.264	86.19
442.486	95.19
442.707	72.19
442.928	73.19
443.149	82.19
443.371	89.19
443.592	72.19
443.813	93.19
444.034	75.19
444.255	91.19
444.476	84.19
444.698	98.19
444.919	72.19
445.14	133.19
445.361	104.19
445.582	81.19
445.803	65.19
446.024	90.19
446.245	79.19
446.466	95.19
446.687	89.19
446.908	73.19
447.129	73.19
447.35	80.19
447.571	76.19
447.792	74.19
448.013	85.19
448.234	84.19
448.455	89.19
448.675	81.19
448.896	92.19
449.117	95.19
449.338	73.19
449.559	86.19
449.779	100.19
450	102.19
450.221	84.19
450.442	87.19
450.662	80.19
450.883	94.19
451.104	94.19
451.324	69.19
451.545	72.19
451.766	86.19
451.986	76.19
452.207	76.19
452.428	74.19
452.648	74.19
452.869	81.19
453.089	83.19
453.31	90.19
453.53	78.19
453.751	76.19
453.971	73.19
454.192	81.19
454.412	93.19
454.633	94.19
454.853	80.19
455.073	75.19
455.294	92.19
455.514	91.19
455.734	72.19
455.955	90.19
456.175	81.19
456.395	75.19
456.616	87.19
456.836	82.19
457.056	85.19
457.276	88.19
457.497	91.19
457.717	86.19
457.937	76.19
458.157	70.19
458.377	97.19
458.598	85.19
458.818	62.19
459.038	70.19
459.258	75.19
459.478	76.19
459.698	81.19
459.918	77.19
460.138	68.19
460.358	76.19
460.578	78.19
460.798	78.19
461.018	72.19
461.238	72.19
461.458	82.19
461.678	83.19
461.898	78.19
462.118	88.19
462.338	96.19
462.558	93.19
462.777	93.19
462.997	89.19
463.217	84.19
463.437	86.19
463.657	82.19
463.876	81.19
464.096	86.19
464.316	74.19
464.536	80.19
464.755	84.19
464.975	86.19
465.195	93.19
465.414	96.19
465.634	77.19
465.854	88.19
466.073	70.19
466.293	91.19
466.512	90.19
466.732	80.19
466.951	82.19
467.171	68.19
467.391	76.19
467.61	95.19
467.829	76.19
468.049	78.19
468.268	81.19
468.488	80.19
468.707	96.19
468.927	79.19
469.146	83.19
469.365	71.19
469.585	84.19
469.804	81.19
470.023	84.19
470.243	83.19
470.462	88.19
470.681	88.19
470.901	89.19
471.12	71.19
471.339	88.19
471.558	85.19
471.777	80.19
471.997	94.19
472.216	76.19
472.435	75.19
472.654	80.19
472.873	92.19
473.092	81.19
473.311	78.19
473.53	92.19
473.749	81.19
473.968	77.19
474.187	88.19
474.406	86.19
474.625	87.19
474.844	92.19
475.063	86.19
475.282	89.19
475.501	86.19
475.72	92.19
475.939	91.19
476.158	89.19
476.377	84.19
476.596	68.19
476.814	73.19
477.033	91.19
477.252	90.19
477.471	81.19
477.69	79.19
477.908	92.19
478.127	84.19
478.346	90.19
478.564	74.19
478.783	88.19
479.002	86.19
479.22	88.19
479.439	80.19
479.658	83.19
479.876	91.19
480.095	85.19
480.313	79.19
480.532	86.19
480.751	76.19
480.969	75.19
481.188	84.19
481.406	96.19
481.624	78.19
481.843	73.19
482.061	67.19
482.28	82.19
482.498	91.19
482.717	86.19
482.935	80.19
483.153	101.19
483.372	79.19
483.59	79.19
483.808	94.19
484.027	82.19
484.245	79.19
484.463	84.19
484.681	89.19
484.9	88.19
485.118	84.19
485.336	94.19
485.554	89.19
485.772	88.19
485.99	80.19
486.209	87.19
486.427	90.19
486.645	74.19
486.863	88.19
487.081	74.19
487.299	84.19
487.517	85.19
487.735	88.19
487.953	83.19
488.171	78.19
488.389	79.19
488.607	89.19
488.825	86.19
489.043	73.19
489.261	89.19
489.479	83.19
489.696	80.19
489.914	104.19
490.132	84.19
490.35	82.19
490.568	84.19
490.786	90.19
491.003	77.19
491.221	84.19
491.439	78.19
491.657	84.19
491.874	86.19
492.092	88.19
492.31	89.19
492.527	81.19
492.745	93.19
492.963	96.19
493.18	93.19
493.398	89.19
493.615	82.19
493.833	84.19
494.05	80.19
494.268	82.19
494.485	93.19
494.703	92.19
494.92	82.19
495.138	82.19
495.355	92.19
495.573	89.19
495.79	80.19
496.008	98.19
496.225	89.19
496.442	72.19
496.66	87.19
496.877	99.19
497.094	96.19
497.312	84.19
497.529	87.19
497.746	93.19
497.963	68.19
498.181	86.19
498.398	96.19
498.615	89.19
498.832	97.19
499.049	71.19
499.267	84.19
499.484	94.19
499.701	88.19
499.918	82.19
500.135	82.19
500.352	85.19
500.569	129.19
500.786	157.19
501.003	91.19
501.22	88.19
501.437	76.19
501.654	78.19
501.871	66.19
502.088	85.19
502.305	84.19
502.522	74.19
502.739	88.19
502.956	96.19
503.172	86.19
503.389	77.19
503.606	75.19
503.823	74.19
504.04	80.19
504.256	78.19
504.473	76.19
504.69	75.19
504.907	86.19
505.123	87.19
505.34	78.19
505.557	88.19
505.773	80.19
505.99	93.19
506.207	81.19
506.423	86.19
506.64	95.19
506.856	97.19
507.073	89.19
507.289	74.19
507.506	93.19
507.722	76.19
507.939	74.19
508.155	78.19
508.372	78.19
508.588	80.19
508.805	100.19
509.021	82.19
509.238	76.19
509.454	78.19
509.67	80.19
509.887	87.19
510.103	89.19
510.319	80.19
510.536	89.19
510.752	82.19
510.968	83.19
511.184	79.19
511.401	75.19
511.617	80.19
511.833	83.19
512.049	92.19
512.265	92.19
512.481	89.19
512.698	91.19
512.914	86.19
513.13	77.19
513.346	73.19
513.562	76.19
513.778	83.19
513.994	83.19
514.21	72.19
514.426	77.19
514.642	89.19
514.858	82.19
515.074	81.19
515.29	69.19
515.506	85.19
515.721	89.19
515.937	89.19
516.153	90.19
516.369	89.19
516.585	90.19
516.801	96.19
517.016	80.19
517.232	66.19
517.448	88.19
517.664	82.19
517.879	89.19
518.095	98.19
518.311	80.19
518.527	79.19
518.742	86.19
518.958	66.19
519.173	77.19
519.389	92.19
