Data from StdB_HRD10591_094.txt Node
Date: Fri May 16 15:25:33 EDT 2025
User: Yrep
Spectrometer: HR+D1059
Trigger mode: 1
Integration Time (sec): 1.000000E-1
Scans to average: 1
Electric dark correction enabled: true
Nonlinearity correction enabled: false
Boxcar width: 0
XAxis mode: Wavelengths
Number of Pixels in Spectrum: 2048
>>>>>Begin Spectral Data<<<<<
223.165	-28.44
223.4	-28.44
223.635	-28.44
223.869	-9.44
224.104	-20.44
224.338	0.56
224.573	-27.44
224.808	-24.44
225.042	-16.44
225.277	-17.44
225.511	2.56
225.746	3.56
225.98	5.56
226.215	12.56
226.449	16.56
226.683	25.56
226.918	37.56
227.152	39.56
227.387	40.56
227.621	33.56
227.856	44.56
228.09	46.56
228.324	42.56
228.559	71.56
228.793	53.56
229.027	70.56
229.262	63.56
229.496	75.56
229.73	77.56
229.964	81.56
230.199	79.56
230.433	78.56
230.667	94.56
230.901	92.56
231.136	78.56
231.37	80.56
231.604	84.56
231.838	89.56
232.072	96.56
232.306	77.56
232.541	93.56
232.775	94.56
233.009	89.56
233.243	91.56
233.477	106.56
233.711	101.56
233.945	84.56
234.179	94.56
234.413	95.56
234.647	90.56
234.881	102.56
235.115	88.56
235.349	97.56
235.583	91.56
235.817	91.56
236.051	89.56
236.285	79.56
236.519	86.56
236.753	73.56
236.987	77.56
237.221	86.56
237.455	91.56
237.689	89.56
237.922	83.56
238.156	89.56
238.39	89.56
238.624	88.56
238.858	108.56
239.091	107.56
239.325	102.56
239.559	99.56
239.793	95.56
240.027	107.56
240.26	93.56
240.494	120.56
240.728	94.56
240.961	93.56
241.195	87.56
241.429	95.56
241.662	88.56
241.896	89.56
242.13	95.56
242.363	88.56
242.597	103.56
242.83	106.56
243.064	98.56
243.298	93.56
243.531	104.56
243.765	90.56
243.998	86.56
244.232	100.56
244.465	104.56
244.699	99.56
244.932	119.56
245.166	108.56
245.399	99.56
245.633	85.56
245.866	104.56
246.099	109.56
246.333	93.56
246.566	107.56
246.8	90.56
247.033	100.56
247.266	108.56
247.5	109.56
247.733	117.56
247.966	123.56
248.2	125.56
248.433	121.56
248.666	104.56
248.899	106.56
249.133	115.56
249.366	111.56
249.599	107.56
249.832	106.56
250.066	113.56
250.299	124.56
250.532	115.56
250.765	110.56
250.998	111.56
251.231	116.56
251.465	125.56
251.698	105.56
251.931	122.56
252.164	132.56
252.397	124.56
252.63	140.56
252.863	135.56
253.096	133.56
253.329	137.56
253.562	139.56
253.795	133.56
254.028	128.56
254.261	133.56
254.494	129.56
254.727	127.56
254.96	134.56
255.193	137.56
255.426	150.56
255.659	140.56
255.892	134.56
256.124	132.56
256.357	126.56
256.59	127.56
256.823	129.56
257.056	148.56
257.289	139.56
257.521	148.56
257.754	173.56
257.987	174.56
258.22	158.56
258.452	145.56
258.685	143.56
258.918	134.56
259.151	139.56
259.383	149.56
259.616	153.56
259.849	147.56
260.081	164.56
260.314	165.56
260.547	167.56
260.779	172.56
261.012	192.56
261.244	253.56
261.477	306.56
261.71	291.56
261.942	231.56
262.175	185.56
262.407	163.56
262.64	177.56
262.872	166.56
263.105	158.56
263.337	145.56
263.57	148.56
263.802	148.56
264.035	139.56
264.267	147.56
264.499	155.56
264.732	166.56
264.964	165.56
265.197	184.56
265.429	180.56
265.661	165.56
265.894	173.56
266.126	176.56
266.358	199.56
266.591	224.56
266.823	192.56
267.055	148.56
267.287	149.56
267.52	131.56
267.752	120.56
267.984	137.56
268.216	133.56
268.448	138.56
268.681	138.56
268.913	132.56
269.145	147.56
269.377	126.56
269.609	128.56
269.841	140.56
270.073	143.56
270.306	136.56
270.538	135.56
270.77	147.56
271.002	136.56
271.234	130.56
271.466	140.56
271.698	131.56
271.93	148.56
272.162	148.56
272.394	136.56
272.626	153.56
272.858	149.56
273.09	139.56
273.322	133.56
273.553	120.56
273.785	142.56
274.017	142.56
274.249	134.56
274.481	155.56
274.713	152.56
274.945	142.56
275.176	144.56
275.408	144.56
275.64	139.56
275.872	136.56
276.104	155.56
276.335	164.56
276.567	150.56
276.799	154.56
277.031	159.56
277.262	147.56
277.494	159.56
277.726	137.56
277.957	170.56
278.189	160.56
278.421	181.56
278.652	174.56
278.884	186.56
279.115	203.56
279.347	240.56
279.579	250.56
279.81	312.56
280.042	380.56
280.273	455.56
280.505	402.56
280.736	296.56
280.968	243.56
281.199	215.56
281.431	215.56
281.662	211.56
281.894	220.56
282.125	233.56
282.356	267.56
282.588	262.56
282.819	242.56
283.051	272.56
283.282	325.56
283.513	366.56
283.745	303.56
283.976	235.56
284.207	190.56
284.439	194.56
284.67	179.56
284.901	183.56
285.132	175.56
285.364	188.56
285.595	169.56
285.826	185.56
286.057	177.56
286.288	180.56
286.52	193.56
286.751	224.56
286.982	237.56
287.213	277.56
287.444	311.56
287.675	254.56
287.906	198.56
288.138	161.56
288.369	161.56
288.6	168.56
288.831	172.56
289.062	159.56
289.293	152.56
289.524	156.56
289.755	158.56
289.986	160.56
290.217	160.56
290.448	151.56
290.679	169.56
290.91	179.56
291.141	147.56
291.371	179.56
291.602	156.56
291.833	150.56
292.064	165.56
292.295	158.56
292.526	161.56
292.757	167.56
292.987	168.56
293.218	152.56
293.449	174.56
293.68	163.56
293.91	157.56
294.141	158.56
294.372	173.56
294.603	167.56
294.833	187.56
295.064	179.56
295.295	186.56
295.525	179.56
295.756	169.56
295.987	169.56
296.217	162.56
296.448	156.56
296.679	171.56
296.909	159.56
297.14	183.56
297.37	165.56
297.601	166.56
297.831	151.56
298.062	157.56
298.292	165.56
298.523	185.56
298.753	169.56
298.984	160.56
299.214	180.56
299.445	168.56
299.675	159.56
299.905	179.56
300.136	177.56
300.366	181.56
300.597	161.56
300.827	171.56
301.057	170.56
301.288	186.56
301.518	176.56
301.748	166.56
301.979	191.56
302.209	177.56
302.439	173.56
302.669	202.56
302.9	180.56
303.13	194.56
303.36	172.56
303.59	190.56
303.82	170.56
304.051	187.56
304.281	192.56
304.511	190.56
304.741	184.56
304.971	180.56
305.201	191.56
305.431	191.56
305.661	167.56
305.891	189.56
306.121	196.56
306.352	175.56
306.582	174.56
306.812	160.56
307.042	184.56
307.272	180.56
307.502	190.56
307.731	169.56
307.961	183.56
308.191	189.56
308.421	175.56
308.651	197.56
308.881	178.56
309.111	177.56
309.341	189.56
309.571	187.56
309.8	167.56
310.03	186.56
310.26	171.56
310.49	165.56
310.72	201.56
310.949	182.56
311.179	191.56
311.409	199.56
311.639	182.56
311.868	177.56
312.098	200.56
312.328	192.56
312.557	181.56
312.787	201.56
313.017	205.56
313.246	213.56
313.476	207.56
313.706	213.56
313.935	203.56
314.165	205.56
314.394	195.56
314.624	209.56
314.853	206.56
315.083	229.56
315.312	224.56
315.542	210.56
315.771	216.56
316.001	221.56
316.23	219.56
316.46	222.56
316.689	202.56
316.919	206.56
317.148	205.56
317.377	211.56
317.607	205.56
317.836	207.56
318.065	200.56
318.295	211.56
318.524	201.56
318.753	211.56
318.983	192.56
319.212	201.56
319.441	199.56
319.67	193.56
319.9	197.56
320.129	184.56
320.358	201.56
320.587	189.56
320.816	183.56
321.046	180.56
321.275	207.56
321.504	173.56
321.733	190.56
321.962	181.56
322.191	197.56
322.42	188.56
322.649	191.56
322.878	185.56
323.108	190.56
323.337	206.56
323.566	191.56
323.795	181.56
324.024	195.56
324.253	193.56
324.482	192.56
324.71	190.56
324.939	199.56
325.168	183.56
325.397	207.56
325.626	188.56
325.855	184.56
326.084	192.56
326.313	196.56
326.542	211.56
326.77	208.56
326.999	178.56
327.228	186.56
327.457	189.56
327.686	204.56
327.914	190.56
328.143	205.56
328.372	196.56
328.6	183.56
328.829	194.56
329.058	196.56
329.287	195.56
329.515	200.56
329.744	191.56
329.972	211.56
330.201	194.56
330.43	202.56
330.658	194.56
330.887	203.56
331.115	206.56
331.344	193.56
331.572	204.56
331.801	216.56
332.03	195.56
332.258	196.56
332.486	192.56
332.715	199.56
332.943	201.56
333.172	197.56
333.4	206.56
333.629	198.56
333.857	207.56
334.085	180.56
334.314	200.56
334.542	205.56
334.771	181.56
334.999	203.56
335.227	215.56
335.455	202.56
335.684	200.56
335.912	199.56
336.14	201.56
336.369	191.56
336.597	199.56
336.825	192.56
337.053	197.56
337.281	197.56
337.51	199.56
337.738	187.56
337.966	204.56
338.194	204.56
338.422	207.56
338.65	191.56
338.878	194.56
339.106	195.56
339.334	221.56
339.562	203.56
339.79	189.56
340.018	199.56
340.246	189.56
340.474	190.56
340.702	191.56
340.93	187.56
341.158	194.56
341.386	193.56
341.614	193.56
341.842	190.56
342.07	175.56
342.298	205.56
342.526	195.56
342.754	204.56
342.981	213.56
343.209	212.56
343.437	218.56
343.665	198.56
343.893	207.56
344.12	213.56
344.348	192.56
344.576	195.56
344.804	204.56
345.031	213.56
345.259	203.56
345.487	201.56
345.714	173.56
345.942	191.56
346.17	207.56
346.397	198.56
346.625	193.56
346.853	188.56
347.08	186.56
347.308	177.56
347.535	189.56
347.763	166.56
347.99	196.56
348.218	225.56
348.445	193.56
348.673	201.56
348.9	188.56
349.128	204.56
349.355	192.56
349.583	183.56
349.81	197.56
350.037	213.56
350.265	212.56
350.492	191.56
350.72	203.56
350.947	188.56
351.174	187.56
351.402	203.56
351.629	199.56
351.856	207.56
352.083	200.56
352.311	189.56
352.538	189.56
352.765	193.56
352.992	208.56
353.22	199.56
353.447	208.56
353.674	187.56
353.901	184.56
354.128	203.56
354.355	199.56
354.583	204.56
354.81	233.56
355.037	207.56
355.264	209.56
355.491	204.56
355.718	211.56
355.945	215.56
356.172	227.56
356.399	247.56
356.626	254.56
356.853	309.56
357.08	387.56
357.307	509.56
357.534	500.56
357.761	403.56
357.988	333.56
358.215	287.56
358.441	281.56
358.668	269.56
358.895	242.56
359.122	238.56
359.349	242.56
359.576	233.56
359.802	219.56
360.029	221.56
360.256	212.56
360.483	220.56
360.709	218.56
360.936	219.56
361.163	222.56
361.39	208.56
361.616	204.56
361.843	201.56
362.07	227.56
362.296	219.56
362.523	207.56
362.749	237.56
362.976	242.56
363.203	265.56
363.429	275.56
363.656	401.56
363.882	559.56
364.109	649.56
364.335	489.56
364.562	341.56
364.788	286.56
365.015	279.56
365.241	256.56
365.468	253.56
365.694	240.56
365.92	238.56
366.147	240.56
366.373	230.56
366.599	262.56
366.826	267.56
367.052	311.56
367.278	349.56
367.505	313.56
367.731	352.56
367.957	445.56
368.184	653.56
368.41	873.56
368.636	756.56
368.862	509.56
369.089	381.56
369.315	297.56
369.541	290.56
369.767	277.56
369.993	256.56
370.219	240.56
370.445	241.56
370.672	256.56
370.898	232.56
371.124	228.56
371.35	215.56
371.576	231.56
371.802	217.56
372.028	228.56
372.254	232.56
372.48	230.56
372.706	239.56
372.932	244.56
373.158	245.56
373.384	279.56
373.61	310.56
373.835	465.56
374.061	607.56
374.287	546.56
374.513	381.56
374.739	309.56
374.965	291.56
375.191	253.56
375.416	252.56
375.642	234.56
375.868	225.56
376.094	218.56
376.319	216.56
376.545	211.56
376.771	221.56
376.997	217.56
377.222	208.56
377.448	209.56
377.674	218.56
377.899	200.56
378.125	217.56
378.35	215.56
378.576	231.56
378.802	229.56
379.027	211.56
379.253	228.56
379.478	216.56
379.704	228.56
379.929	214.56
380.155	204.56
380.38	200.56
380.606	221.56
380.831	217.56
381.057	222.56
381.282	208.56
381.507	213.56
381.733	210.56
381.958	225.56
382.184	199.56
382.409	208.56
382.634	213.56
382.86	216.56
383.085	220.56
383.31	238.56
383.535	212.56
383.761	224.56
383.986	220.56
384.211	205.56
384.436	224.56
384.662	229.56
384.887	223.56
385.112	220.56
385.337	229.56
385.562	225.56
385.787	226.56
386.013	227.56
386.238	221.56
386.463	229.56
386.688	243.56
386.913	230.56
387.138	215.56
387.363	223.56
387.588	220.56
387.813	228.56
388.038	207.56
388.263	210.56
388.488	222.56
388.713	221.56
388.938	196.56
389.163	214.56
389.387	200.56
389.612	209.56
389.837	218.56
390.062	224.56
390.287	208.56
390.512	217.56
390.736	216.56
390.961	192.56
391.186	208.56
391.411	220.56
391.636	213.56
391.86	232.56
392.085	235.56
392.31	213.56
392.534	220.56
392.759	231.56
392.984	221.56
393.208	238.56
393.433	217.56
393.658	218.56
393.882	222.56
394.107	214.56
394.331	222.56
394.556	201.56
394.78	217.56
395.005	228.56
395.229	224.56
395.454	208.56
395.678	218.56
395.903	217.56
396.127	213.56
396.352	213.56
396.576	231.56
396.801	214.56
397.025	232.56
397.249	246.56
397.474	233.56
397.698	254.56
397.922	225.56
398.147	239.56
398.371	231.56
398.595	245.56
398.82	252.56
399.044	231.56
399.268	256.56
399.492	262.56
399.717	263.56
399.941	260.56
400.165	261.56
400.389	251.56
400.613	242.56
400.837	252.56
401.062	248.56
401.286	240.56
401.51	235.56
401.734	269.56
401.958	296.56
402.182	299.56
402.406	248.56
402.63	251.56
402.854	246.56
403.078	245.56
403.302	269.56
403.526	263.56
403.75	255.56
403.974	274.56
404.198	264.56
404.422	300.56
404.645	295.56
404.869	336.56
405.093	371.56
405.317	472.56
405.541	710.56
405.765	1135.56
405.988	1281.56
406.212	895.56
406.436	625.56
406.66	462.56
406.883	393.56
407.107	366.56
407.331	343.56
407.555	309.56
407.778	317.56
408.002	300.56
408.226	275.56
408.449	288.56
408.673	279.56
408.896	281.56
409.12	242.56
409.344	257.56
409.567	249.56
409.791	262.56
410.014	260.56
410.238	248.56
410.461	252.56
410.685	241.56
410.908	229.56
411.132	246.56
411.355	229.56
411.578	242.56
411.802	234.56
412.025	251.56
412.249	270.56
412.472	250.56
412.695	233.56
412.919	247.56
413.142	236.56
413.365	248.56
413.589	220.56
413.812	224.56
414.035	242.56
414.258	235.56
414.482	248.56
414.705	242.56
414.928	234.56
415.151	247.56
415.374	237.56
415.597	231.56
415.821	240.56
416.044	248.56
416.267	238.56
416.49	247.56
416.713	251.56
416.936	281.56
417.159	251.56
417.382	223.56
417.605	223.56
417.828	245.56
418.051	216.56
418.274	241.56
418.497	243.56
418.72	241.56
418.943	246.56
419.166	239.56
419.389	252.56
419.611	259.56
419.834	261.56
420.057	260.56
420.28	245.56
420.503	251.56
420.726	251.56
420.948	230.56
421.171	272.56
421.394	266.56
421.617	243.56
421.839	271.56
422.062	261.56
422.285	264.56
422.507	275.56
422.73	277.56
422.953	280.56
423.175	297.56
423.398	339.56
423.621	324.56
423.843	369.56
424.066	396.56
424.288	449.56
424.511	591.56
424.733	623.56
424.956	574.56
425.178	493.56
425.401	439.56
425.623	394.56
425.846	364.56
426.068	364.56
426.291	334.56
426.513	350.56
426.735	313.56
426.958	305.56
427.18	292.56
427.402	284.56
427.625	271.56
427.847	267.56
428.069	276.56
428.292	277.56
428.514	263.56
428.736	262.56
428.958	249.56
429.181	244.56
429.403	249.56
429.625	260.56
429.847	248.56
430.069	257.56
430.292	235.56
430.514	244.56
430.736	237.56
430.958	256.56
431.18	235.56
431.402	256.56
431.624	225.56
431.846	230.56
432.068	237.56
432.29	254.56
432.512	233.56
432.734	245.56
432.956	244.56
433.178	245.56
433.4	231.56
433.622	252.56
433.844	263.56
434.066	267.56
434.287	271.56
434.509	263.56
434.731	254.56
434.953	248.56
435.175	263.56
435.397	251.56
435.618	260.56
435.84	249.56
436.062	251.56
436.284	256.56
436.505	262.56
436.727	276.56
436.949	265.56
437.17	276.56
437.392	283.56
437.614	299.56
437.835	314.56
438.057	329.56
438.278	376.56
438.5	456.56
438.721	559.56
438.943	576.56
439.165	530.56
439.386	459.56
439.608	436.56
439.829	408.56
440.05	361.56
440.272	370.56
440.493	371.56
440.715	408.56
440.936	416.56
441.158	422.56
441.379	361.56
441.6	379.56
441.822	331.56
442.043	309.56
442.264	295.56
442.486	276.56
442.707	287.56
442.928	262.56
443.149	279.56
443.371	284.56
443.592	265.56
443.813	276.56
444.034	272.56
444.255	269.56
444.476	261.56
444.698	262.56
444.919	258.56
445.14	334.56
445.361	292.56
445.582	272.56
445.803	243.56
446.024	247.56
446.245	249.56
446.466	257.56
446.687	252.56
446.908	249.56
447.129	229.56
447.35	217.56
447.571	230.56
447.792	227.56
448.013	215.56
448.234	247.56
448.455	239.56
448.675	243.56
448.896	219.56
449.117	215.56
449.338	229.56
449.559	222.56
449.779	229.56
450	226.56
450.221	230.56
450.442	218.56
450.662	222.56
450.883	204.56
451.104	224.56
451.324	229.56
451.545	214.56
451.766	217.56
451.986	232.56
452.207	201.56
452.428	230.56
452.648	204.56
452.869	190.56
453.089	175.56
453.31	209.56
453.53	215.56
453.751	199.56
453.971	211.56
454.192	195.56
454.412	192.56
454.633	227.56
454.853	193.56
455.073	183.56
455.294	214.56
455.514	198.56
455.734	199.56
455.955	214.56
456.175	201.56
456.395	202.56
456.616	196.56
456.836	203.56
457.056	208.56
457.276	193.56
457.497	201.56
457.717	203.56
457.937	201.56
458.157	209.56
458.377	223.56
458.598	203.56
458.818	219.56
459.038	203.56
459.258	209.56
459.478	197.56
459.698	220.56
459.918	215.56
460.138	221.56
460.358	200.56
460.578	216.56
460.798	230.56
461.018	211.56
461.238	226.56
461.458	221.56
461.678	218.56
461.898	235.56
462.118	209.56
462.338	228.56
462.558	227.56
462.777	230.56
462.997	232.56
463.217	249.56
463.437	250.56
463.657	236.56
463.876	237.56
464.096	229.56
464.316	227.56
464.536	232.56
464.755	229.56
464.975	225.56
465.195	228.56
465.414	207.56
465.634	222.56
465.854	225.56
466.073	235.56
466.293	218.56
466.512	201.56
466.732	224.56
466.951	198.56
467.171	209.56
467.391	209.56
467.61	198.56
467.829	220.56
468.049	212.56
468.268	188.56
468.488	198.56
468.707	214.56
468.927	218.56
469.146	204.56
469.365	214.56
469.585	214.56
469.804	208.56
470.023	206.56
470.243	207.56
470.462	200.56
470.681	207.56
470.901	200.56
471.12	202.56
471.339	204.56
471.558	210.56
471.777	193.56
471.997	217.56
472.216	214.56
472.435	241.56
472.654	221.56
472.873	203.56
473.092	220.56
473.311	216.56
473.53	215.56
473.749	217.56
473.968	221.56
474.187	194.56
474.406	214.56
474.625	216.56
474.844	223.56
475.063	220.56
475.282	221.56
475.501	216.56
475.72	232.56
475.939	209.56
476.158	213.56
476.377	216.56
476.596	218.56
476.814	247.56
477.033	227.56
477.252	225.56
477.471	227.56
477.69	237.56
477.908	226.56
478.127	243.56
478.346	243.56
478.564	228.56
478.783	247.56
479.002	244.56
479.22	259.56
479.439	247.56
479.658	253.56
479.876	263.56
480.095	243.56
480.313	245.56
480.532	256.56
480.751	245.56
480.969	257.56
481.188	273.56
481.406	245.56
481.624	241.56
481.843	248.56
482.061	237.56
482.28	248.56
482.498	235.56
482.717	247.56
482.935	225.56
483.153	241.56
483.372	240.56
483.59	251.56
483.808	237.56
484.027	236.56
484.245	238.56
484.463	227.56
484.681	261.56
484.9	255.56
485.118	231.56
485.336	253.56
485.554	239.56
485.772	248.56
485.99	238.56
486.209	236.56
486.427	232.56
486.645	246.56
486.863	247.56
487.081	232.56
487.299	237.56
487.517	248.56
487.735	244.56
487.953	240.56
488.171	248.56
488.389	249.56
488.607	248.56
488.825	253.56
489.043	239.56
489.261	248.56
489.479	268.56
489.696	262.56
489.914	251.56
490.132	255.56
490.35	250.56
490.568	239.56
490.786	259.56
491.003	254.56
491.221	251.56
491.439	248.56
491.657	246.56
491.874	258.56
492.092	238.56
492.31	248.56
492.527	251.56
492.745	257.56
492.963	248.56
493.18	247.56
493.398	257.56
493.615	261.56
493.833	249.56
494.05	254.56
494.268	254.56
494.485	238.56
494.703	267.56
494.92	269.56
495.138	255.56
495.355	268.56
495.573	297.56
495.79	269.56
496.008	277.56
496.225	274.56
496.442	257.56
496.66	262.56
496.877	274.56
497.094	272.56
497.312	276.56
497.529	263.56
497.746	278.56
497.963	283.56
498.181	281.56
498.398	292.56
498.615	279.56
498.832	295.56
499.049	315.56
499.267	305.56
499.484	312.56
499.701	362.56
499.918	372.56
500.135	388.56
500.352	409.56
500.569	462.56
500.786	485.56
501.003	426.56
501.22	384.56
501.437	365.56
501.654	344.56
501.871	349.56
502.088	334.56
502.305	318.56
502.522	327.56
502.739	343.56
502.956	329.56
503.172	329.56
503.389	311.56
503.606	307.56
