Data from StdB_HRD10591_007.txt Node
Date: Fri May 16 15:24:49 EDT 2025
User: Yrep
Spectrometer: HR+D1059
Trigger mode: 1
Integration Time (sec): 1.000000E-1
Scans to average: 1
Electric dark correction enabled: true
Nonlinearity correction enabled: false
Boxcar width: 0
XAxis mode: Wavelengths
Number of Pixels in Spectrum: 2048
>>>>>Begin Spectral Data<<<<<
223.165	-19.94
223.4	-19.94
223.635	-19.94
223.869	-8.94
224.104	-20.94
224.338	-23.94
224.573	-13.94
224.808	-25.94
225.042	-1.94
225.277	5.06
225.511	7.06
225.746	9.06
225.98	6.06
226.215	13.06
226.449	4.06
226.683	25.06
226.918	26.06
227.152	20.06
227.387	51.06
227.621	48.06
227.856	50.06
228.09	50.06
228.324	58.06
228.559	52.06
228.793	54.06
229.027	76.06
229.262	62.06
229.496	72.06
229.73	91.06
229.964	82.06
230.199	88.06
230.433	76.06
230.667	82.06
230.901	85.06
231.136	92.06
231.37	85.06
231.604	86.06
231.838	89.06
232.072	95.06
232.306	93.06
232.541	86.06
232.775	92.06
233.009	86.06
233.243	89.06
233.477	70.06
233.711	95.06
233.945	97.06
234.179	74.06
234.413	81.06
234.647	88.06
234.881	81.06
235.115	88.06
235.349	90.06
235.583	91.06
235.817	89.06
236.051	102.06
236.285	92.06
236.519	82.06
236.753	91.06
236.987	77.06
237.221	78.06
237.455	98.06
237.689	93.06
237.922	88.06
238.156	89.06
238.39	78.06
238.624	83.06
238.858	93.06
239.091	95.06
239.325	114.06
239.559	106.06
239.793	102.06
240.027	98.06
240.26	90.06
240.494	102.06
240.728	99.06
240.961	90.06
241.195	100.06
241.429	97.06
241.662	99.06
241.896	99.06
242.13	95.06
242.363	102.06
242.597	95.06
242.83	115.06
243.064	87.06
243.298	92.06
243.531	102.06
243.765	85.06
243.998	115.06
244.232	93.06
244.465	91.06
244.699	91.06
244.932	106.06
245.166	101.06
245.399	110.06
245.633	101.06
245.866	91.06
246.099	106.06
246.333	111.06
246.566	112.06
246.8	107.06
247.033	106.06
247.266	104.06
247.5	102.06
247.733	115.06
247.966	128.06
248.2	130.06
248.433	117.06
248.666	109.06
248.899	100.06
249.133	108.06
249.366	115.06
249.599	118.06
249.832	103.06
250.066	97.06
250.299	101.06
250.532	110.06
250.765	115.06
250.998	106.06
251.231	117.06
251.465	126.06
251.698	108.06
251.931	124.06
252.164	124.06
252.397	121.06
252.63	132.06
252.863	124.06
253.096	133.06
253.329	127.06
253.562	151.06
253.795	126.06
254.028	139.06
254.261	139.06
254.494	125.06
254.727	125.06
254.96	138.06
255.193	133.06
255.426	138.06
255.659	115.06
255.892	130.06
256.124	131.06
256.357	146.06
256.59	130.06
256.823	123.06
257.056	141.06
257.289	143.06
257.521	148.06
257.754	167.06
257.987	188.06
258.22	184.06
258.452	132.06
258.685	149.06
258.918	142.06
259.151	153.06
259.383	157.06
259.616	148.06
259.849	139.06
260.081	153.06
260.314	149.06
260.547	160.06
260.779	162.06
261.012	218.06
261.244	272.06
261.477	318.06
261.71	324.06
261.942	248.06
262.175	201.06
262.407	163.06
262.64	154.06
262.872	152.06
263.105	151.06
263.337	153.06
263.57	157.06
263.802	123.06
264.035	152.06
264.267	133.06
264.499	152.06
264.732	170.06
264.964	197.06
265.197	194.06
265.429	188.06
265.661	145.06
265.894	152.06
266.126	175.06
266.358	199.06
266.591	236.06
266.823	208.06
267.055	170.06
267.287	140.06
267.52	130.06
267.752	146.06
267.984	128.06
268.216	142.06
268.448	149.06
268.681	139.06
268.913	130.06
269.145	138.06
269.377	126.06
269.609	133.06
269.841	162.06
270.073	146.06
270.306	134.06
270.538	131.06
270.77	137.06
271.002	126.06
271.234	132.06
271.466	148.06
271.698	140.06
271.93	144.06
272.162	143.06
272.394	149.06
272.626	135.06
272.858	132.06
273.09	154.06
273.322	146.06
273.553	150.06
273.785	141.06
274.017	135.06
274.249	141.06
274.481	143.06
274.713	153.06
274.945	147.06
275.176	148.06
275.408	139.06
275.64	141.06
275.872	156.06
276.104	142.06
276.335	150.06
276.567	148.06
276.799	141.06
277.031	150.06
277.262	148.06
277.494	148.06
277.726	157.06
277.957	170.06
278.189	160.06
278.421	172.06
278.652	162.06
278.884	194.06
279.115	191.06
279.347	232.06
279.579	260.06
279.81	326.06
280.042	438.06
280.273	510.06
280.505	449.06
280.736	296.06
280.968	220.06
281.199	210.06
281.431	210.06
281.662	212.06
281.894	230.06
282.125	245.06
282.356	265.06
282.588	276.06
282.819	247.06
283.051	264.06
283.282	349.06
283.513	394.06
283.745	301.06
283.976	230.06
284.207	201.06
284.439	192.06
284.67	168.06
284.901	166.06
285.132	158.06
285.364	158.06
285.595	180.06
285.826	193.06
286.057	178.06
286.288	183.06
286.52	176.06
286.751	184.06
286.982	227.06
287.213	270.06
287.444	307.06
287.675	279.06
287.906	217.06
288.138	178.06
288.369	182.06
288.6	158.06
288.831	170.06
289.062	167.06
289.293	151.06
289.524	151.06
289.755	158.06
289.986	153.06
290.217	164.06
290.448	164.06
290.679	149.06
290.91	158.06
291.141	141.06
291.371	154.06
291.602	158.06
291.833	153.06
292.064	162.06
292.295	156.06
292.526	159.06
292.757	151.06
292.987	147.06
293.218	151.06
293.449	151.06
293.68	163.06
293.91	162.06
294.141	178.06
294.372	160.06
294.603	169.06
294.833	178.06
295.064	172.06
295.295	169.06
295.525	167.06
295.756	169.06
295.987	165.06
296.217	173.06
296.448	159.06
296.679	149.06
296.909	167.06
297.14	156.06
297.37	160.06
297.601	163.06
297.831	164.06
298.062	162.06
298.292	172.06
298.523	156.06
298.753	160.06
298.984	166.06
299.214	155.06
299.445	159.06
299.675	160.06
299.905	167.06
300.136	166.06
300.366	165.06
300.597	155.06
300.827	178.06
301.057	166.06
301.288	163.06
301.518	167.06
301.748	174.06
301.979	157.06
302.209	182.06
302.439	166.06
302.669	170.06
302.9	175.06
303.13	162.06
303.36	163.06
303.59	178.06
303.82	178.06
304.051	180.06
304.281	171.06
304.511	174.06
304.741	169.06
304.971	168.06
305.201	182.06
305.431	182.06
305.661	176.06
305.891	158.06
306.121	173.06
306.352	192.06
306.582	185.06
306.812	183.06
307.042	169.06
307.272	181.06
307.502	175.06
307.731	178.06
307.961	183.06
308.191	165.06
308.421	191.06
308.651	168.06
308.881	182.06
309.111	163.06
309.341	175.06
309.571	157.06
309.8	167.06
310.03	179.06
310.26	178.06
310.49	173.06
310.72	173.06
310.949	166.06
311.179	180.06
311.409	170.06
311.639	188.06
311.868	201.06
312.098	179.06
312.328	186.06
312.557	199.06
312.787	198.06
313.017	182.06
313.246	202.06
313.476	200.06
313.706	194.06
313.935	201.06
314.165	207.06
314.394	210.06
314.624	213.06
314.853	219.06
315.083	207.06
315.312	220.06
315.542	214.06
315.771	205.06
316.001	212.06
316.23	214.06
316.46	208.06
316.689	188.06
316.919	207.06
317.148	203.06
317.377	191.06
317.607	204.06
317.836	200.06
318.065	203.06
318.295	205.06
318.524	187.06
318.753	185.06
318.983	200.06
319.212	182.06
319.441	191.06
319.67	190.06
319.9	190.06
320.129	176.06
320.358	207.06
320.587	185.06
320.816	187.06
321.046	186.06
321.275	192.06
321.504	170.06
321.733	188.06
321.962	186.06
322.191	182.06
322.42	189.06
322.649	173.06
322.878	181.06
323.108	184.06
323.337	178.06
323.566	186.06
323.795	192.06
324.024	194.06
324.253	199.06
324.482	183.06
324.71	200.06
324.939	182.06
325.168	189.06
325.397	183.06
325.626	174.06
325.855	196.06
326.084	169.06
326.313	181.06
326.542	189.06
326.77	193.06
326.999	185.06
327.228	190.06
327.457	189.06
327.686	192.06
327.914	178.06
328.143	183.06
328.372	192.06
328.6	198.06
328.829	203.06
329.058	188.06
329.287	208.06
329.515	182.06
329.744	194.06
329.972	192.06
330.201	171.06
330.43	198.06
330.658	190.06
330.887	187.06
331.115	189.06
331.344	213.06
331.572	194.06
331.801	183.06
332.03	198.06
332.258	203.06
332.486	180.06
332.715	177.06
332.943	191.06
333.172	197.06
333.4	193.06
333.629	189.06
333.857	200.06
334.085	190.06
334.314	187.06
334.542	192.06
334.771	200.06
334.999	221.06
335.227	180.06
335.455	196.06
335.684	189.06
335.912	184.06
336.14	196.06
336.369	198.06
336.597	199.06
336.825	190.06
337.053	192.06
337.281	184.06
337.51	190.06
337.738	202.06
337.966	187.06
338.194	195.06
338.422	202.06
338.65	184.06
338.878	191.06
339.106	193.06
339.334	192.06
339.562	188.06
339.79	182.06
340.018	185.06
340.246	174.06
340.474	181.06
340.702	191.06
340.93	193.06
341.158	186.06
341.386	186.06
341.614	176.06
341.842	181.06
342.07	174.06
342.298	188.06
342.526	198.06
342.754	193.06
342.981	199.06
343.209	179.06
343.437	186.06
343.665	184.06
343.893	189.06
344.12	201.06
344.348	195.06
344.576	210.06
344.804	187.06
345.031	190.06
345.259	207.06
345.487	202.06
345.714	203.06
345.942	207.06
346.17	188.06
346.397	191.06
346.625	183.06
346.853	181.06
347.08	192.06
347.308	195.06
347.535	174.06
347.763	197.06
347.99	192.06
348.218	178.06
348.445	192.06
348.673	184.06
348.9	170.06
349.128	194.06
349.355	182.06
349.583	192.06
349.81	190.06
350.037	201.06
350.265	178.06
350.492	188.06
350.72	187.06
350.947	182.06
351.174	185.06
351.402	186.06
351.629	187.06
351.856	193.06
352.083	203.06
352.311	196.06
352.538	172.06
352.765	180.06
352.992	177.06
353.22	199.06
353.447	182.06
353.674	168.06
353.901	192.06
354.128	187.06
354.355	185.06
354.583	196.06
354.81	196.06
355.037	194.06
355.264	198.06
355.491	175.06
355.718	203.06
355.945	204.06
356.172	220.06
356.399	227.06
356.626	254.06
356.853	311.06
357.08	418.06
357.307	580.06
357.534	584.06
357.761	394.06
357.988	312.06
358.215	265.06
358.441	264.06
358.668	246.06
358.895	246.06
359.122	233.06
359.349	222.06
359.576	214.06
359.802	217.06
360.029	217.06
360.256	206.06
360.483	212.06
360.709	213.06
360.936	207.06
361.163	203.06
361.39	207.06
361.616	196.06
361.843	191.06
362.07	218.06
362.296	211.06
362.523	233.06
362.749	219.06
362.976	231.06
363.203	283.06
363.429	297.06
363.656	434.06
363.882	651.06
364.109	745.06
364.335	504.06
364.562	349.06
364.788	283.06
365.015	263.06
365.241	245.06
365.468	238.06
365.694	238.06
365.92	236.06
366.147	231.06
366.373	226.06
366.599	243.06
366.826	243.06
367.052	310.06
367.278	354.06
367.505	336.06
367.731	368.06
367.957	492.06
368.184	763.06
368.41	998.06
368.636	832.06
368.862	523.06
369.089	384.06
369.315	285.06
369.541	291.06
369.767	254.06
369.993	263.06
370.219	240.06
370.445	244.06
370.672	232.06
370.898	234.06
371.124	227.06
371.35	218.06
371.576	222.06
371.802	223.06
372.028	232.06
372.254	222.06
372.48	234.06
372.706	230.06
372.932	234.06
373.158	245.06
373.384	281.06
373.61	335.06
373.835	488.06
374.061	649.06
374.287	547.06
374.513	367.06
374.739	286.06
374.965	270.06
375.191	243.06
375.416	232.06
375.642	231.06
375.868	233.06
376.094	218.06
376.319	208.06
376.545	195.06
376.771	216.06
376.997	212.06
377.222	209.06
377.448	194.06
377.674	206.06
377.899	223.06
378.125	205.06
378.35	195.06
378.576	213.06
378.802	223.06
379.027	226.06
379.253	235.06
379.478	207.06
379.704	212.06
379.929	222.06
380.155	203.06
380.38	218.06
380.606	214.06
380.831	204.06
381.057	205.06
381.282	211.06
381.507	212.06
381.733	208.06
381.958	216.06
382.184	205.06
382.409	207.06
382.634	218.06
382.86	207.06
383.085	212.06
383.31	214.06
383.535	227.06
383.761	218.06
383.986	206.06
384.211	226.06
384.436	189.06
384.662	235.06
384.887	220.06
385.112	210.06
385.337	231.06
385.562	222.06
385.787	220.06
386.013	212.06
386.238	228.06
386.463	220.06
386.688	238.06
386.913	226.06
387.138	209.06
387.363	206.06
387.588	219.06
387.813	228.06
388.038	212.06
388.263	202.06
388.488	201.06
388.713	205.06
388.938	200.06
389.163	215.06
389.387	207.06
389.612	218.06
389.837	221.06
390.062	208.06
390.287	196.06
390.512	215.06
390.736	204.06
390.961	217.06
391.186	211.06
391.411	205.06
391.636	220.06
391.86	230.06
392.085	220.06
392.31	215.06
392.534	219.06
392.759	223.06
392.984	207.06
393.208	240.06
393.433	228.06
393.658	230.06
393.882	213.06
394.107	217.06
394.331	220.06
394.556	216.06
394.78	222.06
395.005	230.06
395.229	210.06
395.454	226.06
395.678	208.06
395.903	224.06
396.127	224.06
396.352	218.06
396.576	211.06
396.801	210.06
397.025	220.06
397.249	227.06
397.474	247.06
397.698	241.06
397.922	210.06
398.147	222.06
398.371	229.06
398.595	222.06
398.82	223.06
399.044	231.06
399.268	257.06
399.492	259.06
399.717	264.06
399.941	253.06
400.165	254.06
400.389	268.06
400.613	261.06
400.837	236.06
401.062	243.06
401.286	261.06
401.51	265.06
401.734	276.06
401.958	320.06
402.182	286.06
402.406	268.06
402.63	253.06
402.854	240.06
403.078	254.06
403.302	238.06
403.526	255.06
403.75	271.06
403.974	290.06
404.198	266.06
404.422	296.06
404.645	310.06
404.869	328.06
405.093	382.06
405.317	493.06
405.541	815.06
405.765	1352.06
405.988	1542.06
406.212	1002.06
406.436	690.06
406.66	477.06
406.883	388.06
407.107	363.06
407.331	330.06
407.555	310.06
407.778	320.06
408.002	298.06
408.226	290.06
408.449	286.06
408.673	273.06
408.896	266.06
409.12	258.06
409.344	275.06
409.567	243.06
409.791	269.06
410.014	246.06
410.238	261.06
410.461	253.06
410.685	253.06
410.908	232.06
411.132	240.06
411.355	249.06
411.578	249.06
411.802	247.06
412.025	256.06
412.249	241.06
412.472	240.06
412.695	244.06
412.919	240.06
413.142	230.06
413.365	248.06
413.589	236.06
413.812	227.06
414.035	242.06
414.258	250.06
414.482	215.06
414.705	226.06
414.928	256.06
415.151	254.06
415.374	247.06
415.597	237.06
415.821	232.06
416.044	238.06
416.267	237.06
416.49	220.06
416.713	243.06
416.936	278.06
417.159	240.06
417.382	252.06
417.605	251.06
417.828	259.06
418.051	232.06
418.274	241.06
418.497	226.06
418.72	232.06
418.943	237.06
419.166	228.06
419.389	242.06
419.611	250.06
419.834	239.06
420.057	231.06
420.28	214.06
420.503	244.06
420.726	244.06
420.948	229.06
421.171	247.06
421.394	249.06
421.617	248.06
421.839	268.06
422.062	250.06
422.285	264.06
422.507	258.06
422.73	283.06
422.953	291.06
423.175	301.06
423.398	322.06
423.621	336.06
423.843	369.06
424.066	408.06
424.288	494.06
424.511	608.06
424.733	688.06
424.956	609.06
425.178	505.06
425.401	431.06
425.623	416.06
425.846	395.06
426.068	362.06
426.291	330.06
426.513	322.06
426.735	283.06
426.958	318.06
427.18	290.06
427.402	302.06
427.625	299.06
427.847	291.06
428.069	275.06
428.292	287.06
428.514	268.06
428.736	260.06
428.958	251.06
429.181	255.06
429.403	235.06
429.625	249.06
429.847	252.06
430.069	247.06
430.292	240.06
430.514	235.06
430.736	242.06
430.958	244.06
431.18	240.06
431.402	258.06
431.624	251.06
431.846	227.06
432.068	240.06
432.29	227.06
432.512	224.06
432.734	228.06
432.956	237.06
433.178	256.06
433.4	242.06
433.622	256.06
433.844	256.06
434.066	275.06
434.287	255.06
434.509	255.06
434.731	272.06
434.953	267.06
435.175	235.06
435.397	255.06
435.618	244.06
435.84	271.06
436.062	256.06
436.284	244.06
436.505	268.06
436.727	265.06
436.949	274.06
437.17	278.06
437.392	302.06
437.614	300.06
437.835	283.06
438.057	348.06
438.278	380.06
438.5	479.06
438.721	576.06
438.943	643.06
439.165	546.06
439.386	470.06
439.608	431.06
439.829	392.06
440.05	403.06
440.272	377.06
440.493	372.06
440.715	404.06
440.936	444.06
441.158	436.06
441.379	382.06
441.6	356.06
441.822	320.06
442.043	305.06
442.264	298.06
442.486	292.06
442.707	301.06
442.928	281.06
443.149	275.06
443.371	281.06
443.592	256.06
443.813	267.06
444.034	256.06
444.255	264.06
444.476	264.06
444.698	268.06
444.919	250.06
445.14	320.06
445.361	287.06
445.582	264.06
445.803	247.06
446.024	253.06
446.245	261.06
446.466	249.06
446.687	244.06
446.908	236.06
447.129	231.06
447.35	235.06
447.571	227.06
447.792	229.06
448.013	211.06
448.234	207.06
448.455	222.06
448.675	208.06
448.896	207.06
449.117	218.06
449.338	233.06
449.559	239.06
449.779	224.06
450	208.06
450.221	208.06
450.442	205.06
450.662	216.06
450.883	209.06
451.104	216.06
451.324	211.06
451.545	191.06
451.766	209.06
451.986	218.06
452.207	216.06
452.428	215.06
452.648	219.06
452.869	196.06
453.089	222.06
453.31	213.06
453.53	215.06
453.751	218.06
453.971	216.06
454.192	190.06
454.412	200.06
454.633	208.06
454.853	204.06
455.073	215.06
455.294	206.06
455.514	200.06
455.734	201.06
455.955	197.06
456.175	205.06
456.395	191.06
456.616	200.06
456.836	202.06
457.056	195.06
457.276	203.06
457.497	212.06
457.717	193.06
457.937	205.06
458.157	187.06
458.377	201.06
458.598	208.06
458.818	205.06
459.038	203.06
459.258	210.06
459.478	201.06
459.698	228.06
459.918	218.06
460.138	228.06
460.358	226.06
460.578	202.06
460.798	204.06
461.018	223.06
461.238	220.06
461.458	223.06
461.678	221.06
461.898	230.06
462.118	210.06
462.338	234.06
462.558	246.06
462.777	241.06
462.997	254.06
463.217	246.06
463.437	229.06
463.657	216.06
463.876	237.06
464.096	223.06
464.316	210.06
464.536	234.06
464.755	238.06
464.975	230.06
465.195	223.06
465.414	218.06
465.634	225.06
465.854	212.06
466.073	200.06
466.293	201.06
466.512	215.06
466.732	213.06
466.951	210.06
467.171	209.06
467.391	215.06
467.61	209.06
467.829	206.06
468.049	206.06
468.268	210.06
468.488	213.06
468.707	215.06
468.927	197.06
469.146	202.06
469.365	223.06
469.585	216.06
469.804	198.06
470.023	219.06
470.243	213.06
470.462	217.06
470.681	216.06
470.901	206.06
471.12	212.06
471.339	219.06
471.558	200.06
471.777	223.06
471.997	218.06
472.216	220.06
472.435	204.06
472.654	206.06
472.873	182.06
473.092	196.06
473.311	207.06
473.53	222.06
473.749	207.06
473.968	207.06
474.187	211.06
474.406	210.06
474.625	213.06
474.844	226.06
475.063	207.06
475.282	213.06
475.501	212.06
475.72	224.06
475.939	216.06
476.158	236.06
476.377	232.06
476.596	240.06
476.814	218.06
477.033	231.06
477.252	238.06
477.471	229.06
477.69	253.06
477.908	225.06
478.127	237.06
478.346	242.06
478.564	250.06
478.783	251.06
479.002	258.06
479.22	255.06
479.439	246.06
479.658	262.06
479.876	231.06
480.095	253.06
480.313	252.06
480.532	247.06
480.751	250.06
480.969	245.06
481.188	232.06
481.406	248.06
481.624	235.06
481.843	243.06
482.061	239.06
482.28	245.06
482.498	259.06
482.717	251.06
482.935	251.06
483.153	241.06
483.372	245.06
483.59	254.06
483.808	238.06
484.027	232.06
484.245	240.06
484.463	236.06
484.681	236.06
484.9	226.06
485.118	237.06
485.336	230.06
485.554	247.06
485.772	238.06
485.99	246.06
486.209	243.06
486.427	222.06
486.645	255.06
486.863	230.06
487.081	232.06
487.299	239.06
487.517	242.06
487.735	230.06
487.953	240.06
488.171	254.06
488.389	236.06
488.607	239.06
488.825	253.06
489.043	255.06
489.261	253.06
489.479	264.06
489.696	231.06
489.914	253.06
490.132	252.06
490.35	252.06
490.568	235.06
490.786	244.06
491.003	249.06
491.221	254.06
491.439	248.06
491.657	247.06
491.874	248.06
492.092	246.06
492.31	254.06
492.527	247.06
492.745	269.06
492.963	267.06
493.18	254.06
493.398	260.06
493.615	277.06
493.833	267.06
494.05	255.06
494.268	253.06
494.485	246.06
494.703	245.06
494.92	264.06
495.138	277.06
495.355	255.06
495.573	293.06
495.79	280.06
496.008	263.06
496.225	270.06
496.442	271.06
496.66	282.06
496.877	265.06
497.094	274.06
497.312	267.06
497.529	282.06
497.746	271.06
497.963	275.06
498.181	270.06
498.398	284.06
498.615	302.06
498.832	306.06
499.049	308.06
499.267	319.06
499.484	339.06
499.701	347.06
499.918	362.06
500.135	374.06
500.352	396.06
500.569	469.06
500.786	520.06
501.003	430.06
501.22	384.06
501.437	374.06
501.654	365.06
501.871	342.06
502.088	335.06
502.305	324.06
502.522	341.06
502.739	331.06
502.956	314.06
503.172	328.06
503.389	320.06
503.606	306.06
