Data from StdB_HRD10591_070.txt Node
Date: Fri May 16 15:25:21 EDT 2025
User: Yrep
Spectrometer: HR+D1059
Trigger mode: 1
Integration Time (sec): 1.000000E-1
Scans to average: 1
Electric dark correction enabled: true
Nonlinearity correction enabled: false
Boxcar width: 0
XAxis mode: Wavelengths
Number of Pixels in Spectrum: 2048
>>>>>Begin Spectral Data<<<<<
223.165	-28.31
223.4	-28.31
223.635	-28.31
223.869	-32.31
224.104	-23.31
224.338	-5.31
224.573	-15.31
224.808	-26.31
225.042	-9.31
225.277	-10.31
225.511	8.69
225.746	2.69
225.98	10.69
226.215	24.69
226.449	20.69
226.683	21.69
226.918	26.69
227.152	34.69
227.387	37.69
227.621	39.69
227.856	53.69
228.09	34.69
228.324	53.69
228.559	41.69
228.793	61.69
229.027	61.69
229.262	59.69
229.496	64.69
229.73	61.69
229.964	82.69
230.199	61.69
230.433	67.69
230.667	57.69
230.901	84.69
231.136	65.69
231.37	67.69
231.604	65.69
231.838	62.69
232.072	67.69
232.306	74.69
232.541	88.69
232.775	88.69
233.009	89.69
233.243	72.69
233.477	90.69
233.711	74.69
233.945	85.69
234.179	91.69
234.413	71.69
234.647	75.69
234.881	68.69
235.115	81.69
235.349	72.69
235.583	74.69
235.817	62.69
236.051	81.69
236.285	74.69
236.519	74.69
236.753	81.69
236.987	75.69
237.221	71.69
237.455	73.69
237.689	74.69
237.922	67.69
238.156	67.69
238.39	68.69
238.624	72.69
238.858	89.69
239.091	75.69
239.325	66.69
239.559	72.69
239.793	71.69
240.027	66.69
240.26	62.69
240.494	82.69
240.728	67.69
240.961	73.69
241.195	66.69
241.429	79.69
241.662	67.69
241.896	69.69
242.13	75.69
242.363	73.69
242.597	68.69
242.83	69.69
243.064	65.69
243.298	67.69
243.531	58.69
243.765	80.69
243.998	80.69
244.232	74.69
244.465	76.69
244.699	68.69
244.932	73.69
245.166	76.69
245.399	72.69
245.633	61.69
245.866	74.69
246.099	81.69
246.333	76.69
246.566	74.69
246.8	81.69
247.033	67.69
247.266	81.69
247.5	76.69
247.733	63.69
247.966	65.69
248.2	73.69
248.433	72.69
248.666	73.69
248.899	73.69
249.133	67.69
249.366	80.69
249.599	79.69
249.832	65.69
250.066	64.69
250.299	68.69
250.532	69.69
250.765	77.69
250.998	89.69
251.231	96.69
251.465	90.69
251.698	85.69
251.931	72.69
252.164	81.69
252.397	72.69
252.63	75.69
252.863	82.69
253.096	79.69
253.329	84.69
253.562	73.69
253.795	72.69
254.028	79.69
254.261	74.69
254.494	88.69
254.727	75.69
254.96	73.69
255.193	85.69
255.426	76.69
255.659	69.69
255.892	77.69
256.124	89.69
256.357	70.69
256.59	72.69
256.823	73.69
257.056	67.69
257.289	82.69
257.521	76.69
257.754	84.69
257.987	85.69
258.22	71.69
258.452	74.69
258.685	83.69
258.918	69.69
259.151	84.69
259.383	74.69
259.616	76.69
259.849	84.69
260.081	79.69
260.314	66.69
260.547	67.69
260.779	64.69
261.012	67.69
261.244	88.69
261.477	100.69
261.71	97.69
261.942	95.69
262.175	82.69
262.407	69.69
262.64	78.69
262.872	87.69
263.105	79.69
263.337	85.69
263.57	92.69
263.802	84.69
264.035	81.69
264.267	78.69
264.499	73.69
264.732	74.69
264.964	91.69
265.197	71.69
265.429	87.69
265.661	75.69
265.894	74.69
266.126	85.69
266.358	87.69
266.591	91.69
266.823	84.69
267.055	80.69
267.287	70.69
267.52	69.69
267.752	85.69
267.984	73.69
268.216	66.69
268.448	75.69
268.681	81.69
268.913	72.69
269.145	68.69
269.377	67.69
269.609	68.69
269.841	90.69
270.073	60.69
270.306	62.69
270.538	73.69
270.77	83.69
271.002	67.69
271.234	84.69
271.466	64.69
271.698	73.69
271.93	80.69
272.162	83.69
272.394	82.69
272.626	75.69
272.858	78.69
273.09	82.69
273.322	91.69
273.553	77.69
273.785	62.69
274.017	67.69
274.249	75.69
274.481	88.69
274.713	72.69
274.945	79.69
275.176	79.69
275.408	74.69
275.64	84.69
275.872	69.69
276.104	82.69
276.335	73.69
276.567	71.69
276.799	82.69
277.031	74.69
277.262	81.69
277.494	71.69
277.726	69.69
277.957	76.69
278.189	79.69
278.421	71.69
278.652	72.69
278.884	67.69
279.115	83.69
279.347	74.69
279.579	72.69
279.81	93.69
280.042	86.69
280.273	106.69
280.505	118.69
280.736	104.69
280.968	77.69
281.199	88.69
281.431	83.69
281.662	84.69
281.894	98.69
282.125	101.69
282.356	91.69
282.588	77.69
282.819	69.69
283.051	84.69
283.282	92.69
283.513	95.69
283.745	93.69
283.976	81.69
284.207	80.69
284.439	74.69
284.67	95.69
284.901	93.69
285.132	84.69
285.364	91.69
285.595	60.69
285.826	68.69
286.057	75.69
286.288	79.69
286.52	83.69
286.751	87.69
286.982	89.69
287.213	98.69
287.444	99.69
287.675	90.69
287.906	73.69
288.138	91.69
288.369	82.69
288.6	83.69
288.831	86.69
289.062	87.69
289.293	80.69
289.524	67.69
289.755	75.69
289.986	83.69
290.217	91.69
290.448	80.69
290.679	76.69
290.91	81.69
291.141	67.69
291.371	67.69
291.602	78.69
291.833	86.69
292.064	78.69
292.295	79.69
292.526	77.69
292.757	70.69
292.987	91.69
293.218	90.69
293.449	104.69
293.68	83.69
293.91	85.69
294.141	92.69
294.372	79.69
294.603	79.69
294.833	77.69
295.064	78.69
295.295	67.69
295.525	86.69
295.756	82.69
295.987	72.69
296.217	73.69
296.448	76.69
296.679	74.69
296.909	90.69
297.14	84.69
297.37	71.69
297.601	86.69
297.831	81.69
298.062	80.69
298.292	90.69
298.523	88.69
298.753	75.69
298.984	79.69
299.214	81.69
299.445	71.69
299.675	86.69
299.905	73.69
300.136	81.69
300.366	87.69
300.597	84.69
300.827	76.69
301.057	67.69
301.288	72.69
301.518	86.69
301.748	76.69
301.979	97.69
302.209	70.69
302.439	89.69
302.669	76.69
302.9	67.69
303.13	87.69
303.36	79.69
303.59	87.69
303.82	84.69
304.051	90.69
304.281	87.69
304.511	92.69
304.741	78.69
304.971	82.69
305.201	91.69
305.431	74.69
305.661	80.69
305.891	95.69
306.121	90.69
306.352	79.69
306.582	79.69
306.812	81.69
307.042	75.69
307.272	84.69
307.502	76.69
307.731	71.69
307.961	79.69
308.191	70.69
308.421	97.69
308.651	77.69
308.881	73.69
309.111	64.69
309.341	74.69
309.571	83.69
309.8	74.69
310.03	81.69
310.26	83.69
310.49	85.69
310.72	78.69
310.949	76.69
311.179	70.69
311.409	84.69
311.639	90.69
311.868	77.69
312.098	84.69
312.328	96.69
312.557	79.69
312.787	92.69
313.017	77.69
313.246	84.69
313.476	81.69
313.706	84.69
313.935	81.69
314.165	81.69
314.394	81.69
314.624	92.69
314.853	84.69
315.083	92.69
315.312	81.69
315.542	88.69
315.771	79.69
316.001	81.69
316.23	75.69
316.46	85.69
316.689	74.69
316.919	85.69
317.148	74.69
317.377	73.69
317.607	73.69
317.836	64.69
318.065	65.69
318.295	79.69
318.524	71.69
318.753	79.69
318.983	73.69
319.212	77.69
319.441	76.69
319.67	72.69
319.9	64.69
320.129	71.69
320.358	73.69
320.587	77.69
320.816	79.69
321.046	87.69
321.275	80.69
321.504	83.69
321.733	71.69
321.962	78.69
322.191	68.69
322.42	79.69
322.649	75.69
322.878	79.69
323.108	87.69
323.337	80.69
323.566	80.69
323.795	80.69
324.024	74.69
324.253	83.69
324.482	67.69
324.71	74.69
324.939	81.69
325.168	100.69
325.397	84.69
325.626	90.69
325.855	74.69
326.084	67.69
326.313	91.69
326.542	85.69
326.77	76.69
326.999	81.69
327.228	81.69
327.457	85.69
327.686	61.69
327.914	61.69
328.143	76.69
328.372	60.69
328.6	85.69
328.829	84.69
329.058	93.69
329.287	85.69
329.515	77.69
329.744	74.69
329.972	69.69
330.201	89.69
330.43	82.69
330.658	90.69
330.887	81.69
331.115	86.69
331.344	78.69
331.572	84.69
331.801	80.69
332.03	75.69
332.258	82.69
332.486	85.69
332.715	79.69
332.943	70.69
333.172	79.69
333.4	76.69
333.629	84.69
333.857	77.69
334.085	81.69
334.314	78.69
334.542	74.69
334.771	79.69
334.999	74.69
335.227	82.69
335.455	75.69
335.684	84.69
335.912	88.69
336.14	83.69
336.369	99.69
336.597	77.69
336.825	85.69
337.053	101.69
337.281	75.69
337.51	65.69
337.738	75.69
337.966	65.69
338.194	79.69
338.422	73.69
338.65	73.69
338.878	77.69
339.106	88.69
339.334	83.69
339.562	77.69
339.79	81.69
340.018	87.69
340.246	83.69
340.474	82.69
340.702	76.69
340.93	88.69
341.158	76.69
341.386	82.69
341.614	79.69
341.842	82.69
342.07	76.69
342.298	76.69
342.526	76.69
342.754	71.69
342.981	83.69
343.209	64.69
343.437	90.69
343.665	77.69
343.893	88.69
344.12	91.69
344.348	71.69
344.576	78.69
344.804	85.69
345.031	78.69
345.259	86.69
345.487	84.69
345.714	86.69
345.942	67.69
346.17	88.69
346.397	76.69
346.625	64.69
346.853	74.69
347.08	89.69
347.308	74.69
347.535	52.69
347.763	67.69
347.99	68.69
348.218	70.69
348.445	84.69
348.673	84.69
348.9	80.69
349.128	79.69
349.355	78.69
349.583	88.69
349.81	80.69
350.037	76.69
350.265	81.69
350.492	69.69
350.72	69.69
350.947	83.69
351.174	80.69
351.402	84.69
351.629	84.69
351.856	90.69
352.083	81.69
352.311	83.69
352.538	77.69
352.765	86.69
352.992	83.69
353.22	73.69
353.447	66.69
353.674	87.69
353.901	79.69
354.128	75.69
354.355	71.69
354.583	86.69
354.81	81.69
355.037	69.69
355.264	84.69
355.491	72.69
355.718	67.69
355.945	87.69
356.172	77.69
356.399	74.69
356.626	77.69
356.853	100.69
357.08	122.69
357.307	137.69
357.534	109.69
357.761	81.69
357.988	97.69
358.215	66.69
358.441	84.69
358.668	60.69
358.895	66.69
359.122	75.69
359.349	78.69
359.576	69.69
359.802	69.69
360.029	75.69
360.256	67.69
360.483	89.69
360.709	79.69
360.936	93.69
361.163	85.69
361.39	84.69
361.616	80.69
361.843	79.69
362.07	71.69
362.296	80.69
362.523	78.69
362.749	97.69
362.976	81.69
363.203	79.69
363.429	93.69
363.656	124.69
363.882	167.69
364.109	162.69
364.335	118.69
364.562	85.69
364.788	76.69
365.015	76.69
365.241	68.69
365.468	93.69
365.694	81.69
365.92	70.69
366.147	69.69
366.373	93.69
366.599	80.69
366.826	96.69
367.052	97.69
367.278	106.69
367.505	107.69
367.731	99.69
367.957	119.69
368.184	162.69
368.41	237.69
368.636	177.69
368.862	96.69
369.089	96.69
369.315	78.69
369.541	80.69
369.767	77.69
369.993	86.69
370.219	81.69
370.445	73.69
370.672	87.69
370.898	85.69
371.124	76.69
371.35	66.69
371.576	80.69
371.802	98.69
372.028	95.69
372.254	76.69
372.48	79.69
372.706	75.69
372.932	61.69
373.158	72.69
373.384	81.69
373.61	96.69
373.835	111.69
374.061	142.69
374.287	113.69
374.513	90.69
374.739	76.69
374.965	82.69
375.191	78.69
375.416	89.69
375.642	81.69
375.868	86.69
376.094	85.69
376.319	69.69
376.545	80.69
376.771	81.69
376.997	76.69
377.222	77.69
377.448	90.69
377.674	76.69
377.899	82.69
378.125	79.69
378.35	76.69
378.576	78.69
378.802	65.69
379.027	71.69
379.253	75.69
379.478	89.69
379.704	97.69
379.929	88.69
380.155	67.69
380.38	80.69
380.606	75.69
380.831	66.69
381.057	65.69
381.282	87.69
381.507	75.69
381.733	77.69
381.958	83.69
382.184	74.69
382.409	74.69
382.634	70.69
382.86	61.69
383.085	66.69
383.31	71.69
383.535	95.69
383.761	85.69
383.986	78.69
384.211	72.69
384.436	75.69
384.662	68.69
384.887	87.69
385.112	73.69
385.337	71.69
385.562	67.69
385.787	84.69
386.013	65.69
386.238	73.69
386.463	75.69
386.688	75.69
386.913	70.69
387.138	74.69
387.363	80.69
387.588	90.69
387.813	85.69
388.038	80.69
388.263	87.69
388.488	71.69
388.713	72.69
388.938	82.69
389.163	77.69
389.387	70.69
389.612	83.69
389.837	100.69
390.062	75.69
390.287	65.69
390.512	83.69
390.736	70.69
390.961	87.69
391.186	79.69
391.411	70.69
391.636	71.69
391.86	84.69
392.085	75.69
392.31	75.69
392.534	87.69
392.759	65.69
392.984	81.69
393.208	67.69
393.433	85.69
393.658	77.69
393.882	84.69
394.107	63.69
394.331	65.69
394.556	75.69
394.78	74.69
395.005	78.69
395.229	79.69
395.454	76.69
395.678	74.69
395.903	82.69
396.127	75.69
396.352	74.69
396.576	81.69
396.801	88.69
397.025	67.69
397.249	71.69
397.474	72.69
397.698	76.69
397.922	82.69
398.147	88.69
398.371	74.69
398.595	71.69
398.82	83.69
399.044	82.69
399.268	72.69
399.492	65.69
399.717	72.69
399.941	71.69
400.165	83.69
400.389	68.69
400.613	75.69
400.837	74.69
401.062	71.69
401.286	76.69
401.51	70.69
401.734	92.69
401.958	72.69
402.182	90.69
402.406	83.69
402.63	64.69
402.854	73.69
403.078	83.69
403.302	97.69
403.526	93.69
403.75	77.69
403.974	74.69
404.198	93.69
404.422	86.69
404.645	88.69
404.869	87.69
405.093	87.69
405.317	102.69
405.541	200.69
405.765	329.69
405.988	367.69
406.212	187.69
406.436	126.69
406.66	96.69
406.883	78.69
407.107	91.69
407.331	87.69
407.555	72.69
407.778	79.69
408.002	71.69
408.226	78.69
408.449	78.69
408.673	73.69
408.896	83.69
409.12	67.69
409.344	82.69
409.567	75.69
409.791	76.69
410.014	79.69
410.238	72.69
410.461	85.69
410.685	67.69
410.908	82.69
411.132	75.69
411.355	86.69
411.578	68.69
411.802	81.69
412.025	81.69
412.249	76.69
412.472	89.69
412.695	84.69
412.919	65.69
413.142	64.69
413.365	77.69
413.589	83.69
413.812	72.69
414.035	85.69
414.258	71.69
414.482	76.69
414.705	59.69
414.928	68.69
415.151	72.69
415.374	80.69
415.597	66.69
415.821	61.69
416.044	76.69
416.267	74.69
416.49	64.69
416.713	77.69
416.936	73.69
417.159	89.69
417.382	69.69
417.605	75.69
417.828	75.69
418.051	80.69
418.274	83.69
418.497	49.69
418.72	68.69
418.943	72.69
419.166	75.69
419.389	79.69
419.611	76.69
419.834	74.69
420.057	81.69
420.28	80.69
420.503	74.69
420.726	73.69
420.948	75.69
421.171	84.69
421.394	75.69
421.617	72.69
421.839	82.69
422.062	93.69
422.285	72.69
422.507	71.69
422.73	63.69
422.953	70.69
423.175	84.69
423.398	84.69
423.621	73.69
423.843	69.69
424.066	68.69
424.288	86.69
424.511	69.69
424.733	67.69
424.956	71.69
425.178	60.69
425.401	88.69
425.623	75.69
425.846	84.69
426.068	60.69
426.291	66.69
426.513	67.69
426.735	67.69
426.958	75.69
427.18	69.69
427.402	86.69
427.625	75.69
427.847	78.69
428.069	65.69
428.292	85.69
428.514	78.69
428.736	82.69
428.958	72.69
429.181	69.69
429.403	87.69
429.625	81.69
429.847	65.69
430.069	76.69
430.292	79.69
430.514	77.69
430.736	72.69
430.958	75.69
431.18	83.69
431.402	92.69
431.624	65.69
431.846	77.69
432.068	87.69
432.29	82.69
432.512	76.69
432.734	81.69
432.956	74.69
433.178	70.69
433.4	89.69
433.622	70.69
433.844	75.69
434.066	68.69
434.287	84.69
434.509	67.69
434.731	81.69
434.953	69.69
435.175	80.69
435.397	96.69
435.618	95.69
435.84	67.69
436.062	63.69
436.284	57.69
436.505	67.69
436.727	61.69
436.949	91.69
437.17	73.69
437.392	65.69
437.614	65.69
437.835	71.69
438.057	76.69
438.278	76.69
438.5	70.69
438.721	83.69
438.943	89.69
439.165	74.69
439.386	82.69
439.608	75.69
439.829	62.69
440.05	68.69
440.272	73.69
440.493	79.69
440.715	89.69
440.936	72.69
441.158	80.69
441.379	74.69
441.6	78.69
441.822	63.69
442.043	69.69
442.264	82.69
442.486	68.69
442.707	82.69
442.928	82.69
443.149	91.69
443.371	79.69
443.592	69.69
443.813	78.69
444.034	79.69
444.255	82.69
444.476	85.69
444.698	71.69
444.919	79.69
445.14	131.69
445.361	114.69
445.582	77.69
445.803	73.69
446.024	71.69
446.245	86.69
446.466	73.69
446.687	64.69
446.908	76.69
447.129	76.69
447.35	64.69
447.571	89.69
447.792	83.69
448.013	67.69
448.234	61.69
448.455	71.69
448.675	72.69
448.896	80.69
449.117	74.69
449.338	66.69
449.559	72.69
449.779	82.69
450	71.69
450.221	69.69
450.442	79.69
450.662	66.69
450.883	66.69
451.104	85.69
451.324	71.69
451.545	69.69
451.766	97.69
451.986	67.69
452.207	67.69
452.428	78.69
452.648	78.69
452.869	73.69
453.089	84.69
453.31	77.69
453.53	80.69
453.751	76.69
453.971	80.69
454.192	69.69
454.412	76.69
454.633	87.69
454.853	82.69
455.073	81.69
455.294	83.69
455.514	67.69
455.734	66.69
455.955	81.69
456.175	79.69
456.395	82.69
456.616	80.69
456.836	82.69
457.056	82.69
457.276	69.69
457.497	65.69
457.717	72.69
457.937	76.69
458.157	72.69
458.377	74.69
458.598	70.69
458.818	68.69
459.038	75.69
459.258	61.69
459.478	96.69
459.698	80.69
459.918	79.69
460.138	72.69
460.358	71.69
460.578	80.69
460.798	89.69
461.018	79.69
461.238	68.69
461.458	71.69
461.678	91.69
461.898	84.69
462.118	79.69
462.338	66.69
462.558	66.69
462.777	68.69
462.997	79.69
463.217	68.69
463.437	67.69
463.657	67.69
463.876	80.69
464.096	73.69
464.316	71.69
464.536	79.69
464.755	68.69
464.975	67.69
465.195	85.69
465.414	81.69
465.634	81.69
465.854	70.69
466.073	75.69
466.293	69.69
466.512	80.69
466.732	83.69
466.951	74.69
467.171	79.69
467.391	80.69
467.61	76.69
467.829	83.69
468.049	82.69
468.268	77.69
468.488	62.69
468.707	89.69
468.927	77.69
469.146	60.69
469.365	72.69
469.585	84.69
469.804	83.69
470.023	59.69
470.243	68.69
470.462	67.69
470.681	72.69
470.901	83.69
471.12	72.69
471.339	84.69
471.558	79.69
471.777	74.69
471.997	77.69
472.216	78.69
472.435	84.69
472.654	94.69
472.873	85.69
473.092	77.69
473.311	86.69
473.53	65.69
473.749	76.69
473.968	78.69
474.187	64.69
474.406	73.69
474.625	60.69
474.844	83.69
475.063	81.69
475.282	85.69
475.501	70.69
475.72	85.69
475.939	79.69
476.158	58.69
476.377	84.69
476.596	86.69
476.814	72.69
477.033	80.69
477.252	90.69
477.471	76.69
477.69	80.69
477.908	87.69
478.127	69.69
478.346	82.69
478.564	86.69
478.783	80.69
479.002	83.69
479.22	81.69
479.439	83.69
479.658	74.69
479.876	90.69
480.095	75.69
480.313	88.69
480.532	90.69
480.751	93.69
480.969	76.69
481.188	85.69
481.406	78.69
481.624	64.69
481.843	69.69
482.061	78.69
482.28	65.69
482.498	77.69
482.717	75.69
482.935	88.69
483.153	72.69
483.372	71.69
483.59	69.69
483.808	73.69
484.027	81.69
484.245	70.69
484.463	67.69
484.681	84.69
484.9	76.69
485.118	85.69
485.336	76.69
485.554	66.69
485.772	72.69
485.99	74.69
486.209	67.69
486.427	72.69
486.645	69.69
486.863	57.69
487.081	73.69
487.299	85.69
487.517	79.69
487.735	79.69
487.953	68.69
488.171	84.69
488.389	93.69
488.607	85.69
488.825	88.69
489.043	73.69
489.261	76.69
489.479	83.69
489.696	72.69
489.914	80.69
490.132	77.69
490.35	71.69
490.568	87.69
490.786	74.69
491.003	87.69
491.221	84.69
491.439	73.69
491.657	86.69
491.874	70.69
492.092	72.69
492.31	82.69
492.527	93.69
492.745	79.69
492.963	71.69
493.18	83.69
493.398	88.69
493.615	70.69
493.833	83.69
494.05	69.69
494.268	86.69
494.485	84.69
494.703	69.69
494.92	82.69
495.138	73.69
495.355	76.69
495.573	81.69
495.79	74.69
496.008	73.69
496.225	97.69
496.442	79.69
496.66	66.69
496.877	89.69
497.094	76.69
497.312	71.69
497.529	70.69
497.746	74.69
497.963	76.69
498.181	74.69
498.398	71.69
498.615	83.69
498.832	76.69
499.049	79.69
499.267	88.69
499.484	82.69
499.701	77.69
499.918	72.69
500.135	82.69
500.352	88.69
500.569	99.69
500.786	117.69
501.003	95.69
501.22	78.69
501.437	79.69
501.654	75.69
501.871	76.69
502.088	72.69
502.305	82.69
502.522	75.69
502.739	78.69
502.956	96.69
503.172	96.69
503.389	82.69
503.606	67.69
503.823	66.69
504.04	96.69
504.256	89.69
504.473	83.69
504.69	73.69
504.907	93.69
505.123	68.69
505.34	79.69
505.557	86.69
505.773	79.69
505.99	78.69
506.207	82.69
506.423	70.69
506.64	82.69
506.856	88.69
507.073	78.69
507.289	67.69
507.506	83.69
507.722	92.69
507.939	66.69
508.155	85.69
508.372	79.69
508.588	86.69
508.805	79.69
509.021	68.69
509.238	79.69
509.454	93.69
509.67	75.69
509.887	82.69
510.103	77.69
510.319	73.69
510.536	83.69
510.752	82.69
510.968	87.69
511.184	84.69
511.401	75.69
511.617	87.69
511.833	70.69
512.049	92.69
512.265	79.69
512.481	74.69
512.698	83.69
512.914	75.69
513.13	70.69
513.346	62.69
513.562	73.69
513.778	77.69
513.994	88.69
514.21	70.69
514.426	82.69
514.642	83.69
514.858	79.69
515.074	78.69
515.29	80.69
515.506	85.69
515.721	83.69
515.937	78.69
516.153	73.69
516.369	65.69
516.585	80.69
516.801	59.69
517.016	80.69
517.232	101.69
517.448	75.69
517.664	72.69
517.879	83.69
518.095	85.69
518.311	76.69
518.527	88.69
518.742	73.69
518.958	75.69
519.173	97.69
519.389	90.69
519.605	79.69
519.82	83.69
