Data from StdB_HRD10591_011.txt Node
Date: Fri May 16 15:24:51 EDT 2025
User: Yrep
Spectrometer: HR+D1059
Trigger mode: 1
Integration Time (sec): 1.000000E-1
Scans to average: 1
Electric dark correction enabled: true
Nonlinearity correction enabled: false
Boxcar width: 0
XAxis mode: Wavelengths
Number of Pixels in Spectrum: 2048
>>>>>Begin Spectral Data<<<<<
223.165	-21.38
223.4	-21.38
223.635	-21.38
223.869	-15.38
224.104	-25.38
224.338	-19.38
224.573	-14.38
224.808	-7.38
225.042	-10.38
225.277	-5.38
225.511	-10.38
225.746	4.62
225.98	18.62
226.215	4.62
226.449	18.62
226.683	18.62
226.918	27.62
227.152	36.62
227.387	37.62
227.621	33.62
227.856	40.62
228.09	45.62
228.324	43.62
228.559	53.62
228.793	58.62
229.027	61.62
229.262	75.62
229.496	69.62
229.73	63.62
229.964	75.62
230.199	75.62
230.433	72.62
230.667	83.62
230.901	79.62
231.136	82.62
231.37	74.62
231.604	100.62
231.838	82.62
232.072	85.62
232.306	85.62
232.541	82.62
232.775	81.62
233.009	84.62
233.243	85.62
233.477	87.62
233.711	82.62
233.945	90.62
234.179	75.62
234.413	90.62
234.647	88.62
234.881	85.62
235.115	90.62
235.349	97.62
235.583	85.62
235.817	75.62
236.051	57.62
236.285	76.62
236.519	86.62
236.753	98.62
236.987	94.62
237.221	92.62
237.455	84.62
237.689	83.62
237.922	92.62
238.156	78.62
238.39	82.62
238.624	92.62
238.858	82.62
239.091	93.62
239.325	98.62
239.559	101.62
239.793	110.62
240.027	108.62
240.26	94.62
240.494	95.62
240.728	95.62
240.961	88.62
241.195	99.62
241.429	90.62
241.662	90.62
241.896	102.62
242.13	103.62
242.363	97.62
242.597	91.62
242.83	93.62
243.064	97.62
243.298	95.62
243.531	89.62
243.765	102.62
243.998	95.62
244.232	101.62
244.465	116.62
244.699	102.62
244.932	111.62
245.166	101.62
245.399	98.62
245.633	94.62
245.866	99.62
246.099	98.62
246.333	83.62
246.566	87.62
246.8	109.62
247.033	112.62
247.266	102.62
247.5	106.62
247.733	110.62
247.966	124.62
248.2	114.62
248.433	103.62
248.666	99.62
248.899	106.62
249.133	101.62
249.366	115.62
249.599	100.62
249.832	98.62
250.066	123.62
250.299	117.62
250.532	101.62
250.765	104.62
250.998	99.62
251.231	119.62
251.465	128.62
251.698	116.62
251.931	129.62
252.164	111.62
252.397	108.62
252.63	121.62
252.863	113.62
253.096	134.62
253.329	132.62
253.562	138.62
253.795	155.62
254.028	145.62
254.261	132.62
254.494	126.62
254.727	127.62
254.96	131.62
255.193	142.62
255.426	126.62
255.659	124.62
255.892	131.62
256.124	131.62
256.357	127.62
256.59	128.62
256.823	142.62
257.056	141.62
257.289	125.62
257.521	147.62
257.754	162.62
257.987	185.62
258.22	165.62
258.452	154.62
258.685	146.62
258.918	135.62
259.151	135.62
259.383	126.62
259.616	166.62
259.849	156.62
260.081	146.62
260.314	152.62
260.547	151.62
260.779	181.62
261.012	218.62
261.244	264.62
261.477	339.62
261.71	345.62
261.942	233.62
262.175	193.62
262.407	182.62
262.64	142.62
262.872	139.62
263.105	150.62
263.337	142.62
263.57	155.62
263.802	151.62
264.035	134.62
264.267	151.62
264.499	161.62
264.732	156.62
264.964	156.62
265.197	186.62
265.429	165.62
265.661	160.62
265.894	161.62
266.126	184.62
266.358	220.62
266.591	246.62
266.823	202.62
267.055	170.62
267.287	162.62
267.52	137.62
267.752	144.62
267.984	131.62
268.216	129.62
268.448	131.62
268.681	126.62
268.913	134.62
269.145	117.62
269.377	128.62
269.609	146.62
269.841	146.62
270.073	139.62
270.306	126.62
270.538	138.62
270.77	141.62
271.002	130.62
271.234	131.62
271.466	142.62
271.698	132.62
271.93	139.62
272.162	135.62
272.394	138.62
272.626	135.62
272.858	120.62
273.09	133.62
273.322	140.62
273.553	149.62
273.785	133.62
274.017	129.62
274.249	146.62
274.481	138.62
274.713	140.62
274.945	124.62
275.176	139.62
275.408	119.62
275.64	129.62
275.872	139.62
276.104	146.62
276.335	141.62
276.567	146.62
276.799	140.62
277.031	137.62
277.262	152.62
277.494	156.62
277.726	161.62
277.957	163.62
278.189	147.62
278.421	177.62
278.652	167.62
278.884	183.62
279.115	197.62
279.347	228.62
279.579	251.62
279.81	340.62
280.042	439.62
280.273	525.62
280.505	468.62
280.736	286.62
280.968	235.62
281.199	209.62
281.431	199.62
281.662	201.62
281.894	221.62
282.125	232.62
282.356	267.62
282.588	282.62
282.819	244.62
283.051	272.62
283.282	345.62
283.513	408.62
283.745	315.62
283.976	233.62
284.207	191.62
284.439	200.62
284.67	158.62
284.901	163.62
285.132	167.62
285.364	175.62
285.595	181.62
285.826	162.62
286.057	173.62
286.288	162.62
286.52	170.62
286.751	181.62
286.982	229.62
287.213	284.62
287.444	303.62
287.675	269.62
287.906	197.62
288.138	168.62
288.369	153.62
288.6	153.62
288.831	151.62
289.062	165.62
289.293	143.62
289.524	139.62
289.755	166.62
289.986	142.62
290.217	141.62
290.448	176.62
290.679	151.62
290.91	148.62
291.141	158.62
291.371	142.62
291.602	152.62
291.833	153.62
292.064	141.62
292.295	166.62
292.526	159.62
292.757	153.62
292.987	150.62
293.218	160.62
293.449	147.62
293.68	149.62
293.91	151.62
294.141	158.62
294.372	172.62
294.603	179.62
294.833	169.62
295.064	167.62
295.295	167.62
295.525	173.62
295.756	158.62
295.987	157.62
296.217	159.62
296.448	169.62
296.679	170.62
296.909	163.62
297.14	160.62
297.37	182.62
297.601	147.62
297.831	181.62
298.062	168.62
298.292	168.62
298.523	158.62
298.753	173.62
298.984	169.62
299.214	165.62
299.445	181.62
299.675	166.62
299.905	154.62
300.136	154.62
300.366	148.62
300.597	163.62
300.827	165.62
301.057	162.62
301.288	154.62
301.518	161.62
301.748	177.62
301.979	188.62
302.209	181.62
302.439	167.62
302.669	165.62
302.9	183.62
303.13	174.62
303.36	163.62
303.59	177.62
303.82	166.62
304.051	190.62
304.281	188.62
304.511	169.62
304.741	184.62
304.971	171.62
305.201	172.62
305.431	165.62
305.661	169.62
305.891	190.62
306.121	183.62
306.352	157.62
306.582	173.62
306.812	180.62
307.042	177.62
307.272	161.62
307.502	155.62
307.731	166.62
307.961	164.62
308.191	165.62
308.421	171.62
308.651	185.62
308.881	155.62
309.111	191.62
309.341	175.62
309.571	179.62
309.8	166.62
310.03	165.62
310.26	145.62
310.49	174.62
310.72	177.62
310.949	181.62
311.179	178.62
311.409	165.62
311.639	171.62
311.868	165.62
312.098	190.62
312.328	180.62
312.557	203.62
312.787	195.62
313.017	190.62
313.246	199.62
313.476	190.62
313.706	209.62
313.935	225.62
314.165	182.62
314.394	202.62
314.624	208.62
314.853	233.62
315.083	211.62
315.312	195.62
315.542	222.62
315.771	213.62
316.001	219.62
316.23	220.62
316.46	205.62
316.689	190.62
316.919	207.62
317.148	207.62
317.377	190.62
317.607	196.62
317.836	205.62
318.065	213.62
318.295	202.62
318.524	182.62
318.753	191.62
318.983	173.62
319.212	185.62
319.441	194.62
319.67	201.62
319.9	179.62
320.129	182.62
320.358	212.62
320.587	179.62
320.816	201.62
321.046	185.62
321.275	182.62
321.504	184.62
321.733	186.62
321.962	177.62
322.191	185.62
322.42	189.62
322.649	184.62
322.878	182.62
323.108	174.62
323.337	189.62
323.566	172.62
323.795	185.62
324.024	184.62
324.253	177.62
324.482	194.62
324.71	170.62
324.939	184.62
325.168	195.62
325.397	195.62
325.626	198.62
325.855	205.62
326.084	183.62
326.313	197.62
326.542	188.62
326.77	192.62
326.999	187.62
327.228	188.62
327.457	193.62
327.686	179.62
327.914	198.62
328.143	195.62
328.372	196.62
328.6	198.62
328.829	191.62
329.058	180.62
329.287	187.62
329.515	179.62
329.744	179.62
329.972	189.62
330.201	192.62
330.43	182.62
330.658	191.62
330.887	170.62
331.115	180.62
331.344	193.62
331.572	199.62
331.801	183.62
332.03	199.62
332.258	191.62
332.486	198.62
332.715	194.62
332.943	186.62
333.172	200.62
333.4	191.62
333.629	193.62
333.857	200.62
334.085	197.62
334.314	207.62
334.542	183.62
334.771	202.62
334.999	183.62
335.227	187.62
335.455	191.62
335.684	195.62
335.912	186.62
336.14	176.62
336.369	192.62
336.597	185.62
336.825	195.62
337.053	179.62
337.281	180.62
337.51	186.62
337.738	193.62
337.966	203.62
338.194	192.62
338.422	197.62
338.65	188.62
338.878	191.62
339.106	181.62
339.334	199.62
339.562	196.62
339.79	194.62
340.018	178.62
340.246	176.62
340.474	184.62
340.702	188.62
340.93	180.62
341.158	188.62
341.386	179.62
341.614	181.62
341.842	170.62
342.07	197.62
342.298	201.62
342.526	190.62
342.754	165.62
342.981	185.62
343.209	198.62
343.437	194.62
343.665	192.62
343.893	191.62
344.12	216.62
344.348	188.62
344.576	193.62
344.804	203.62
345.031	195.62
345.259	193.62
345.487	181.62
345.714	198.62
345.942	189.62
346.17	191.62
346.397	195.62
346.625	182.62
346.853	182.62
347.08	189.62
347.308	197.62
347.535	189.62
347.763	183.62
347.99	166.62
348.218	182.62
348.445	198.62
348.673	175.62
348.9	179.62
349.128	178.62
349.355	195.62
349.583	189.62
349.81	179.62
350.037	179.62
350.265	188.62
350.492	184.62
350.72	178.62
350.947	170.62
351.174	191.62
351.402	179.62
351.629	186.62
351.856	175.62
352.083	178.62
352.311	179.62
352.538	179.62
352.765	182.62
352.992	189.62
353.22	169.62
353.447	163.62
353.674	190.62
353.901	201.62
354.128	198.62
354.355	179.62
354.583	193.62
354.81	185.62
355.037	199.62
355.264	211.62
355.491	210.62
355.718	212.62
355.945	212.62
356.172	204.62
356.399	229.62
356.626	257.62
356.853	318.62
357.08	430.62
357.307	563.62
357.534	563.62
357.761	402.62
357.988	300.62
358.215	283.62
358.441	248.62
358.668	234.62
358.895	220.62
359.122	229.62
359.349	212.62
359.576	216.62
359.802	201.62
360.029	200.62
360.256	214.62
360.483	204.62
360.709	206.62
360.936	206.62
361.163	210.62
361.39	209.62
361.616	220.62
361.843	213.62
362.07	209.62
362.296	210.62
362.523	208.62
362.749	195.62
362.976	230.62
363.203	246.62
363.429	291.62
363.656	433.62
363.882	634.62
364.109	739.62
364.335	498.62
364.562	358.62
364.788	294.62
365.015	259.62
365.241	223.62
365.468	229.62
365.694	222.62
365.92	221.62
366.147	226.62
366.373	219.62
366.599	247.62
366.826	268.62
367.052	303.62
367.278	357.62
367.505	343.62
367.731	365.62
367.957	472.62
368.184	748.62
368.41	979.62
368.636	860.62
368.862	526.62
369.089	375.62
369.315	284.62
369.541	280.62
369.767	258.62
369.993	251.62
370.219	229.62
370.445	248.62
370.672	229.62
370.898	222.62
371.124	214.62
371.35	230.62
371.576	219.62
371.802	215.62
372.028	219.62
372.254	227.62
372.48	217.62
372.706	225.62
372.932	237.62
373.158	241.62
373.384	247.62
373.61	329.62
373.835	485.62
374.061	625.62
374.287	553.62
374.513	370.62
374.739	299.62
374.965	259.62
375.191	233.62
375.416	221.62
375.642	215.62
375.868	240.62
376.094	231.62
376.319	217.62
376.545	212.62
376.771	206.62
376.997	207.62
377.222	197.62
377.448	207.62
377.674	216.62
377.899	194.62
378.125	210.62
378.35	215.62
378.576	223.62
378.802	205.62
379.027	232.62
379.253	213.62
379.478	209.62
379.704	188.62
379.929	212.62
380.155	215.62
380.38	216.62
380.606	185.62
380.831	210.62
381.057	203.62
381.282	213.62
381.507	185.62
381.733	223.62
381.958	191.62
382.184	196.62
382.409	201.62
382.634	220.62
382.86	219.62
383.085	203.62
383.31	188.62
383.535	198.62
383.761	217.62
383.986	211.62
384.211	215.62
384.436	212.62
384.662	237.62
384.887	223.62
385.112	221.62
385.337	219.62
385.562	219.62
385.787	210.62
386.013	216.62
386.238	200.62
386.463	227.62
386.688	233.62
386.913	214.62
387.138	205.62
387.363	214.62
387.588	197.62
387.813	218.62
388.038	215.62
388.263	207.62
388.488	203.62
388.713	212.62
388.938	204.62
389.163	197.62
389.387	212.62
389.612	197.62
389.837	210.62
390.062	208.62
390.287	211.62
390.512	212.62
390.736	206.62
390.961	220.62
391.186	193.62
391.411	196.62
391.636	205.62
391.86	223.62
392.085	228.62
392.31	222.62
392.534	209.62
392.759	207.62
392.984	222.62
393.208	225.62
393.433	227.62
393.658	207.62
393.882	208.62
394.107	205.62
394.331	201.62
394.556	217.62
394.78	236.62
395.005	209.62
395.229	195.62
395.454	205.62
395.678	212.62
395.903	217.62
396.127	188.62
396.352	231.62
396.576	219.62
396.801	229.62
397.025	211.62
397.249	233.62
397.474	238.62
397.698	232.62
397.922	232.62
398.147	226.62
398.371	226.62
398.595	231.62
398.82	222.62
399.044	230.62
399.268	235.62
399.492	255.62
399.717	245.62
399.941	256.62
400.165	249.62
400.389	231.62
400.613	231.62
400.837	236.62
401.062	240.62
401.286	259.62
401.51	241.62
401.734	271.62
401.958	303.62
402.182	287.62
402.406	264.62
402.63	244.62
402.854	238.62
403.078	251.62
403.302	245.62
403.526	222.62
403.75	267.62
403.974	258.62
404.198	268.62
404.422	282.62
404.645	282.62
404.869	314.62
405.093	366.62
405.317	494.62
405.541	840.62
405.765	1378.62
405.988	1589.62
406.212	1021.62
406.436	679.62
406.66	462.62
406.883	402.62
407.107	363.62
407.331	309.62
407.555	302.62
407.778	304.62
408.002	308.62
408.226	274.62
408.449	266.62
408.673	252.62
408.896	258.62
409.12	257.62
409.344	279.62
409.567	258.62
409.791	261.62
410.014	229.62
410.238	234.62
410.461	264.62
410.685	242.62
410.908	239.62
411.132	238.62
411.355	230.62
411.578	250.62
411.802	237.62
412.025	240.62
412.249	244.62
412.472	244.62
412.695	234.62
412.919	228.62
413.142	240.62
413.365	237.62
413.589	243.62
413.812	216.62
414.035	232.62
414.258	232.62
414.482	228.62
414.705	219.62
414.928	237.62
415.151	237.62
415.374	221.62
415.597	246.62
415.821	229.62
416.044	222.62
416.267	244.62
416.49	235.62
416.713	249.62
416.936	250.62
417.159	256.62
417.382	226.62
417.605	234.62
417.828	241.62
418.051	233.62
418.274	225.62
418.497	261.62
418.72	220.62
418.943	220.62
419.166	247.62
419.389	250.62
419.611	237.62
419.834	246.62
420.057	219.62
420.28	245.62
420.503	237.62
420.726	253.62
420.948	245.62
421.171	233.62
421.394	255.62
421.617	257.62
421.839	261.62
422.062	264.62
422.285	262.62
422.507	274.62
422.73	269.62
422.953	270.62
423.175	289.62
423.398	301.62
423.621	333.62
423.843	367.62
424.066	407.62
424.288	517.62
424.511	629.62
424.733	700.62
424.956	585.62
425.178	502.62
425.401	443.62
425.623	398.62
425.846	366.62
426.068	356.62
426.291	335.62
426.513	313.62
426.735	299.62
426.958	286.62
427.18	267.62
427.402	282.62
427.625	273.62
427.847	262.62
428.069	253.62
428.292	281.62
428.514	260.62
428.736	271.62
428.958	253.62
429.181	261.62
429.403	262.62
429.625	245.62
429.847	239.62
430.069	237.62
430.292	226.62
430.514	242.62
430.736	239.62
430.958	249.62
431.18	221.62
431.402	241.62
431.624	238.62
431.846	249.62
432.068	226.62
432.29	233.62
432.512	219.62
432.734	224.62
432.956	231.62
433.178	250.62
433.4	230.62
433.622	251.62
433.844	247.62
434.066	264.62
434.287	282.62
434.509	275.62
434.731	252.62
434.953	231.62
435.175	246.62
435.397	252.62
435.618	247.62
435.84	272.62
436.062	258.62
436.284	255.62
436.505	259.62
436.727	263.62
436.949	276.62
437.17	267.62
437.392	272.62
437.614	298.62
437.835	322.62
438.057	319.62
438.278	371.62
438.5	466.62
438.721	563.62
438.943	648.62
439.165	534.62
439.386	451.62
439.608	428.62
439.829	406.62
440.05	381.62
440.272	379.62
440.493	373.62
440.715	403.62
440.936	433.62
441.158	433.62
441.379	372.62
441.6	356.62
441.822	315.62
442.043	305.62
442.264	295.62
442.486	287.62
442.707	283.62
442.928	263.62
443.149	265.62
443.371	268.62
443.592	267.62
443.813	265.62
444.034	252.62
444.255	259.62
444.476	236.62
444.698	251.62
444.919	237.62
445.14	329.62
445.361	290.62
445.582	242.62
445.803	235.62
446.024	239.62
446.245	245.62
446.466	232.62
446.687	229.62
446.908	214.62
447.129	229.62
447.35	231.62
447.571	216.62
447.792	235.62
448.013	217.62
448.234	233.62
448.455	223.62
448.675	219.62
448.896	206.62
449.117	216.62
449.338	221.62
449.559	233.62
449.779	225.62
450	229.62
450.221	218.62
450.442	211.62
450.662	203.62
450.883	205.62
451.104	197.62
451.324	212.62
451.545	183.62
451.766	194.62
451.986	203.62
452.207	210.62
452.428	202.62
452.648	205.62
452.869	203.62
453.089	201.62
453.31	209.62
453.53	190.62
453.751	198.62
453.971	201.62
454.192	211.62
454.412	197.62
454.633	201.62
454.853	201.62
455.073	213.62
455.294	173.62
455.514	205.62
455.734	203.62
455.955	204.62
456.175	193.62
456.395	203.62
456.616	197.62
456.836	186.62
457.056	203.62
457.276	195.62
457.497	193.62
457.717	215.62
457.937	205.62
458.157	177.62
458.377	193.62
458.598	177.62
458.818	185.62
459.038	202.62
459.258	199.62
459.478	190.62
459.698	222.62
459.918	191.62
460.138	219.62
460.358	233.62
460.578	205.62
460.798	197.62
461.018	216.62
461.238	213.62
461.458	229.62
461.678	214.62
461.898	213.62
462.118	207.62
462.338	207.62
462.558	229.62
462.777	206.62
462.997	237.62
463.217	238.62
463.437	236.62
463.657	228.62
463.876	246.62
464.096	225.62
464.316	229.62
464.536	236.62
464.755	229.62
464.975	198.62
465.195	203.62
465.414	199.62
465.634	209.62
465.854	206.62
466.073	210.62
466.293	215.62
466.512	193.62
466.732	217.62
466.951	197.62
467.171	220.62
467.391	203.62
467.61	215.62
467.829	217.62
468.049	185.62
468.268	206.62
468.488	187.62
468.707	193.62
468.927	195.62
469.146	197.62
469.365	181.62
469.585	207.62
469.804	204.62
470.023	230.62
470.243	214.62
470.462	205.62
470.681	207.62
470.901	203.62
471.12	204.62
471.339	213.62
471.558	198.62
471.777	193.62
471.997	204.62
472.216	197.62
472.435	205.62
472.654	216.62
472.873	210.62
473.092	205.62
473.311	217.62
473.53	199.62
473.749	204.62
473.968	206.62
474.187	205.62
474.406	201.62
474.625	210.62
474.844	227.62
475.063	213.62
475.282	206.62
475.501	232.62
475.72	216.62
475.939	213.62
476.158	210.62
476.377	219.62
476.596	205.62
476.814	223.62
477.033	211.62
477.252	224.62
477.471	227.62
477.69	229.62
477.908	215.62
478.127	250.62
478.346	245.62
478.564	219.62
478.783	244.62
479.002	255.62
479.22	253.62
479.439	244.62
479.658	243.62
479.876	237.62
480.095	236.62
480.313	244.62
480.532	252.62
480.751	258.62
480.969	255.62
481.188	250.62
481.406	237.62
481.624	247.62
481.843	223.62
482.061	225.62
482.28	241.62
482.498	265.62
482.717	235.62
482.935	245.62
483.153	218.62
483.372	245.62
483.59	225.62
483.808	223.62
484.027	228.62
484.245	243.62
484.463	217.62
484.681	251.62
484.9	242.62
485.118	245.62
485.336	226.62
485.554	234.62
485.772	240.62
485.99	222.62
486.209	232.62
486.427	220.62
486.645	246.62
486.863	252.62
487.081	242.62
487.299	241.62
487.517	228.62
487.735	235.62
487.953	233.62
488.171	238.62
488.389	216.62
488.607	241.62
488.825	254.62
489.043	242.62
489.261	256.62
489.479	237.62
489.696	253.62
489.914	223.62
490.132	233.62
490.35	235.62
490.568	241.62
490.786	247.62
491.003	264.62
491.221	259.62
491.439	263.62
491.657	245.62
491.874	242.62
492.092	254.62
492.31	245.62
492.527	249.62
492.745	226.62
492.963	253.62
493.18	243.62
493.398	241.62
493.615	242.62
493.833	240.62
494.05	265.62
494.268	234.62
494.485	249.62
494.703	267.62
494.92	261.62
495.138	268.62
495.355	278.62
495.573	276.62
495.79	279.62
496.008	281.62
496.225	256.62
496.442	274.62
496.66	279.62
496.877	253.62
497.094	261.62
497.312	270.62
497.529	275.62
497.746	269.62
497.963	259.62
498.181	274.62
498.398	294.62
498.615	292.62
498.832	285.62
499.049	293.62
499.267	303.62
499.484	329.62
499.701	312.62
499.918	353.62
500.135	357.62
500.352	387.62
500.569	472.62
500.786	551.62
501.003	428.62
501.22	379.62
501.437	344.62
501.654	341.62
501.871	334.62
502.088	327.62
502.305	326.62
502.522	309.62
502.739	327.62
502.956	320.62
503.172	305.62
503.389	309.62
503.606	304.62
