Data from StdB_HRD10591_099.txt Node
Date: Fri May 16 15:25:35 EDT 2025
User: Yrep
Spectrometer: HR+D1059
Trigger mode: 1
Integration Time (sec): 1.000000E-1
Scans to average: 1
Electric dark correction enabled: true
Nonlinearity correction enabled: false
Boxcar width: 0
XAxis mode: Wavelengths
Number of Pixels in Spectrum: 2048
>>>>>Begin Spectral Data<<<<<
223.165	-27.12
223.4	-27.12
223.635	-27.12
223.869	-12.12
224.104	-23.12
224.338	-6.12
224.573	-17.12
224.808	-8.12
225.042	-5.12
225.277	-4.12
225.511	-17.12
225.746	0.88
225.98	0.88
226.215	9.88
226.449	22.88
226.683	29.88
226.918	21.88
227.152	33.88
227.387	36.88
227.621	33.88
227.856	45.88
228.09	47.88
228.324	48.88
228.559	64.88
228.793	60.88
229.027	60.88
229.262	68.88
229.496	72.88
229.73	79.88
229.964	85.88
230.199	77.88
230.433	84.88
230.667	94.88
230.901	74.88
231.136	85.88
231.37	83.88
231.604	83.88
231.838	95.88
232.072	102.88
232.306	101.88
232.541	102.88
232.775	90.88
233.009	99.88
233.243	90.88
233.477	85.88
233.711	102.88
233.945	92.88
234.179	109.88
234.413	105.88
234.647	87.88
234.881	99.88
235.115	93.88
235.349	98.88
235.583	87.88
235.817	99.88
236.051	81.88
236.285	93.88
236.519	101.88
236.753	98.88
236.987	83.88
237.221	88.88
237.455	107.88
237.689	93.88
237.922	89.88
238.156	73.88
238.39	81.88
238.624	107.88
238.858	86.88
239.091	88.88
239.325	99.88
239.559	99.88
239.793	116.88
240.027	103.88
240.26	117.88
240.494	111.88
240.728	102.88
240.961	91.88
241.195	103.88
241.429	96.88
241.662	103.88
241.896	101.88
242.13	99.88
242.363	79.88
242.597	99.88
242.83	104.88
243.064	100.88
243.298	93.88
243.531	92.88
243.765	111.88
243.998	110.88
244.232	99.88
244.465	108.88
244.699	105.88
244.932	97.88
245.166	118.88
245.399	115.88
245.633	94.88
245.866	92.88
246.099	86.88
246.333	103.88
246.566	109.88
246.8	109.88
247.033	105.88
247.266	113.88
247.5	110.88
247.733	117.88
247.966	129.88
248.2	115.88
248.433	126.88
248.666	94.88
248.899	106.88
249.133	103.88
249.366	105.88
249.599	117.88
249.832	119.88
250.066	107.88
250.299	114.88
250.532	121.88
250.765	117.88
250.998	109.88
251.231	108.88
251.465	117.88
251.698	111.88
251.931	114.88
252.164	120.88
252.397	117.88
252.63	134.88
252.863	131.88
253.096	120.88
253.329	149.88
253.562	126.88
253.795	145.88
254.028	148.88
254.261	129.88
254.494	123.88
254.727	145.88
254.96	124.88
255.193	135.88
255.426	128.88
255.659	115.88
255.892	132.88
256.124	127.88
256.357	131.88
256.59	137.88
256.823	127.88
257.056	140.88
257.289	140.88
257.521	151.88
257.754	150.88
257.987	172.88
258.22	177.88
258.452	154.88
258.685	167.88
258.918	147.88
259.151	137.88
259.383	140.88
259.616	156.88
259.849	151.88
260.081	152.88
260.314	158.88
260.547	172.88
260.779	175.88
261.012	208.88
261.244	224.88
261.477	285.88
261.71	289.88
261.942	211.88
262.175	175.88
262.407	169.88
262.64	153.88
262.872	140.88
263.105	158.88
263.337	148.88
263.57	144.88
263.802	162.88
264.035	144.88
264.267	144.88
264.499	148.88
264.732	170.88
264.964	185.88
265.197	185.88
265.429	181.88
265.661	151.88
265.894	153.88
266.126	172.88
266.358	215.88
266.591	230.88
266.823	195.88
267.055	147.88
267.287	142.88
267.52	138.88
267.752	139.88
267.984	135.88
268.216	132.88
268.448	141.88
268.681	128.88
268.913	136.88
269.145	125.88
269.377	141.88
269.609	147.88
269.841	142.88
270.073	149.88
270.306	128.88
270.538	139.88
270.77	137.88
271.002	138.88
271.234	123.88
271.466	139.88
271.698	138.88
271.93	147.88
272.162	128.88
272.394	144.88
272.626	141.88
272.858	136.88
273.09	148.88
273.322	157.88
273.553	148.88
273.785	143.88
274.017	123.88
274.249	156.88
274.481	140.88
274.713	149.88
274.945	135.88
275.176	156.88
275.408	142.88
275.64	141.88
275.872	151.88
276.104	147.88
276.335	149.88
276.567	142.88
276.799	149.88
277.031	151.88
277.262	153.88
277.494	154.88
277.726	148.88
277.957	159.88
278.189	155.88
278.421	172.88
278.652	155.88
278.884	193.88
279.115	198.88
279.347	223.88
279.579	263.88
279.81	315.88
280.042	405.88
280.273	448.88
280.505	417.88
280.736	283.88
280.968	225.88
281.199	227.88
281.431	201.88
281.662	197.88
281.894	211.88
282.125	224.88
282.356	243.88
282.588	247.88
282.819	247.88
283.051	260.88
283.282	309.88
283.513	354.88
283.745	295.88
283.976	250.88
284.207	207.88
284.439	185.88
284.67	181.88
284.901	170.88
285.132	185.88
285.364	164.88
285.595	176.88
285.826	180.88
286.057	180.88
286.288	171.88
286.52	191.88
286.751	197.88
286.982	231.88
287.213	291.88
287.444	286.88
287.675	263.88
287.906	209.88
288.138	164.88
288.369	150.88
288.6	172.88
288.831	165.88
289.062	163.88
289.293	179.88
289.524	153.88
289.755	163.88
289.986	170.88
290.217	164.88
290.448	163.88
290.679	160.88
290.91	148.88
291.141	165.88
291.371	168.88
291.602	162.88
291.833	169.88
292.064	162.88
292.295	142.88
292.526	156.88
292.757	174.88
292.987	176.88
293.218	178.88
293.449	174.88
293.68	157.88
293.91	175.88
294.141	178.88
294.372	159.88
294.603	164.88
294.833	174.88
295.064	163.88
295.295	166.88
295.525	176.88
295.756	183.88
295.987	177.88
296.217	179.88
296.448	175.88
296.679	159.88
296.909	181.88
297.14	167.88
297.37	165.88
297.601	148.88
297.831	152.88
298.062	165.88
298.292	152.88
298.523	167.88
298.753	148.88
298.984	165.88
299.214	157.88
299.445	162.88
299.675	163.88
299.905	175.88
300.136	168.88
300.366	163.88
300.597	171.88
300.827	171.88
301.057	181.88
301.288	152.88
301.518	170.88
301.748	186.88
301.979	197.88
302.209	176.88
302.439	177.88
302.669	189.88
302.9	181.88
303.13	166.88
303.36	175.88
303.59	184.88
303.82	191.88
304.051	170.88
304.281	186.88
304.511	193.88
304.741	187.88
304.971	186.88
305.201	173.88
305.431	173.88
305.661	184.88
305.891	176.88
306.121	165.88
306.352	169.88
306.582	167.88
306.812	184.88
307.042	181.88
307.272	174.88
307.502	166.88
307.731	184.88
307.961	164.88
308.191	172.88
308.421	172.88
308.651	180.88
308.881	177.88
309.111	161.88
309.341	163.88
309.571	169.88
309.8	177.88
310.03	169.88
310.26	151.88
310.49	182.88
310.72	182.88
310.949	187.88
311.179	183.88
311.409	205.88
311.639	190.88
311.868	199.88
312.098	194.88
312.328	184.88
312.557	198.88
312.787	201.88
313.017	184.88
313.246	194.88
313.476	200.88
313.706	204.88
313.935	207.88
314.165	200.88
314.394	213.88
314.624	219.88
314.853	225.88
315.083	212.88
315.312	225.88
315.542	203.88
315.771	211.88
316.001	216.88
316.23	209.88
316.46	197.88
316.689	207.88
316.919	205.88
317.148	196.88
317.377	215.88
317.607	201.88
317.836	213.88
318.065	193.88
318.295	200.88
318.524	205.88
318.753	196.88
318.983	181.88
319.212	208.88
319.441	197.88
319.67	211.88
319.9	196.88
320.129	195.88
320.358	201.88
320.587	201.88
320.816	185.88
321.046	186.88
321.275	194.88
321.504	169.88
321.733	197.88
321.962	186.88
322.191	195.88
322.42	189.88
322.649	207.88
322.878	193.88
323.108	177.88
323.337	183.88
323.566	198.88
323.795	208.88
324.024	203.88
324.253	188.88
324.482	198.88
324.71	195.88
324.939	179.88
325.168	190.88
325.397	189.88
325.626	203.88
325.855	185.88
326.084	193.88
326.313	198.88
326.542	173.88
326.77	195.88
326.999	187.88
327.228	193.88
327.457	187.88
327.686	187.88
327.914	200.88
328.143	192.88
328.372	185.88
328.6	203.88
328.829	208.88
329.058	196.88
329.287	191.88
329.515	181.88
329.744	183.88
329.972	185.88
330.201	184.88
330.43	209.88
330.658	181.88
330.887	186.88
331.115	193.88
331.344	205.88
331.572	205.88
331.801	196.88
332.03	204.88
332.258	207.88
332.486	189.88
332.715	200.88
332.943	207.88
333.172	204.88
333.4	185.88
333.629	183.88
333.857	220.88
334.085	211.88
334.314	198.88
334.542	208.88
334.771	196.88
334.999	204.88
335.227	208.88
335.455	190.88
335.684	203.88
335.912	182.88
336.14	202.88
336.369	200.88
336.597	194.88
336.825	193.88
337.053	194.88
337.281	189.88
337.51	191.88
337.738	195.88
337.966	200.88
338.194	188.88
338.422	175.88
338.65	191.88
338.878	188.88
339.106	193.88
339.334	199.88
339.562	196.88
339.79	175.88
340.018	173.88
340.246	185.88
340.474	190.88
340.702	179.88
340.93	198.88
341.158	186.88
341.386	189.88
341.614	183.88
341.842	189.88
342.07	188.88
342.298	193.88
342.526	187.88
342.754	203.88
342.981	195.88
343.209	200.88
343.437	205.88
343.665	191.88
343.893	205.88
344.12	204.88
344.348	218.88
344.576	196.88
344.804	213.88
345.031	195.88
345.259	211.88
345.487	187.88
345.714	199.88
345.942	203.88
346.17	195.88
346.397	195.88
346.625	210.88
346.853	202.88
347.08	179.88
347.308	178.88
347.535	192.88
347.763	177.88
347.99	189.88
348.218	199.88
348.445	181.88
348.673	193.88
348.9	175.88
349.128	165.88
349.355	196.88
349.583	183.88
349.81	195.88
350.037	198.88
350.265	176.88
350.492	187.88
350.72	196.88
350.947	194.88
351.174	180.88
351.402	180.88
351.629	191.88
351.856	197.88
352.083	183.88
352.311	197.88
352.538	187.88
352.765	185.88
352.992	192.88
353.22	198.88
353.447	194.88
353.674	178.88
353.901	175.88
354.128	193.88
354.355	192.88
354.583	201.88
354.81	181.88
355.037	200.88
355.264	213.88
355.491	205.88
355.718	221.88
355.945	203.88
356.172	225.88
356.399	221.88
356.626	264.88
356.853	294.88
357.08	404.88
357.307	503.88
357.534	509.88
357.761	373.88
357.988	306.88
358.215	276.88
358.441	254.88
358.668	249.88
358.895	236.88
359.122	236.88
359.349	224.88
359.576	219.88
359.802	215.88
360.029	217.88
360.256	200.88
360.483	215.88
360.709	191.88
360.936	204.88
361.163	204.88
361.39	214.88
361.616	204.88
361.843	207.88
362.07	207.88
362.296	215.88
362.523	208.88
362.749	221.88
362.976	235.88
363.203	248.88
363.429	293.88
363.656	397.88
363.882	539.88
364.109	641.88
364.335	470.88
364.562	334.88
364.788	279.88
365.015	275.88
365.241	232.88
365.468	241.88
365.694	244.88
365.92	235.88
366.147	231.88
366.373	244.88
366.599	251.88
366.826	282.88
367.052	301.88
367.278	327.88
367.505	311.88
367.731	341.88
367.957	427.88
368.184	627.88
368.41	842.88
368.636	729.88
368.862	482.88
369.089	360.88
369.315	304.88
369.541	271.88
369.767	272.88
369.993	242.88
370.219	242.88
370.445	234.88
370.672	205.88
370.898	213.88
371.124	231.88
371.35	231.88
371.576	231.88
371.802	213.88
372.028	195.88
372.254	239.88
372.48	232.88
372.706	212.88
372.932	232.88
373.158	255.88
373.384	265.88
373.61	319.88
373.835	441.88
374.061	555.88
374.287	527.88
374.513	359.88
374.739	308.88
374.965	246.88
375.191	246.88
375.416	253.88
375.642	225.88
375.868	213.88
376.094	208.88
376.319	215.88
376.545	220.88
376.771	216.88
376.997	213.88
377.222	205.88
377.448	208.88
377.674	212.88
377.899	214.88
378.125	212.88
378.35	222.88
378.576	210.88
378.802	237.88
379.027	235.88
379.253	220.88
379.478	218.88
379.704	224.88
379.929	197.88
380.155	208.88
380.38	220.88
380.606	201.88
380.831	210.88
381.057	203.88
381.282	210.88
381.507	199.88
381.733	222.88
381.958	201.88
382.184	198.88
382.409	207.88
382.634	197.88
382.86	208.88
383.085	217.88
383.31	228.88
383.535	212.88
383.761	191.88
383.986	216.88
384.211	204.88
384.436	211.88
384.662	231.88
384.887	216.88
385.112	235.88
385.337	217.88
385.562	214.88
385.787	231.88
386.013	214.88
386.238	229.88
386.463	207.88
386.688	227.88
386.913	216.88
387.138	220.88
387.363	218.88
387.588	229.88
387.813	210.88
388.038	221.88
388.263	211.88
388.488	199.88
388.713	212.88
388.938	201.88
389.163	214.88
389.387	201.88
389.612	186.88
389.837	211.88
390.062	206.88
390.287	209.88
390.512	206.88
390.736	208.88
390.961	207.88
391.186	204.88
391.411	217.88
391.636	214.88
391.86	227.88
392.085	213.88
392.31	229.88
392.534	222.88
392.759	221.88
392.984	203.88
393.208	221.88
393.433	224.88
393.658	217.88
393.882	208.88
394.107	208.88
394.331	217.88
394.556	211.88
394.78	219.88
395.005	199.88
395.229	214.88
395.454	227.88
395.678	215.88
395.903	211.88
396.127	207.88
396.352	211.88
396.576	204.88
396.801	225.88
397.025	230.88
397.249	205.88
397.474	235.88
397.698	218.88
397.922	245.88
398.147	218.88
398.371	220.88
398.595	223.88
398.82	235.88
399.044	233.88
399.268	238.88
399.492	264.88
399.717	266.88
399.941	265.88
400.165	249.88
400.389	244.88
400.613	248.88
400.837	247.88
401.062	247.88
401.286	233.88
401.51	249.88
401.734	266.88
401.958	265.88
402.182	287.88
402.406	264.88
402.63	246.88
402.854	255.88
403.078	263.88
403.302	254.88
403.526	256.88
403.75	270.88
403.974	255.88
404.198	256.88
404.422	267.88
404.645	293.88
404.869	299.88
405.093	369.88
405.317	442.88
405.541	691.88
405.765	1107.88
405.988	1261.88
406.212	869.88
406.436	639.88
406.66	451.88
406.883	380.88
407.107	342.88
407.331	344.88
407.555	308.88
407.778	301.88
408.002	294.88
408.226	284.88
408.449	291.88
408.673	265.88
408.896	268.88
409.12	266.88
409.344	247.88
409.567	247.88
409.791	241.88
410.014	245.88
410.238	249.88
410.461	254.88
410.685	241.88
410.908	247.88
411.132	240.88
411.355	237.88
411.578	248.88
411.802	254.88
412.025	249.88
412.249	254.88
412.472	251.88
412.695	234.88
412.919	251.88
413.142	242.88
413.365	238.88
413.589	223.88
413.812	243.88
414.035	235.88
414.258	223.88
414.482	237.88
414.705	248.88
414.928	236.88
415.151	233.88
415.374	224.88
415.597	238.88
415.821	226.88
416.044	231.88
416.267	229.88
416.49	227.88
416.713	259.88
416.936	240.88
417.159	245.88
417.382	223.88
417.605	233.88
417.828	240.88
418.051	235.88
418.274	241.88
418.497	219.88
418.72	221.88
418.943	241.88
419.166	251.88
419.389	250.88
419.611	254.88
419.834	254.88
420.057	245.88
420.28	265.88
420.503	240.88
420.726	232.88
420.948	247.88
421.171	240.88
421.394	252.88
421.617	260.88
421.839	261.88
422.062	254.88
422.285	240.88
422.507	266.88
422.73	278.88
422.953	283.88
423.175	292.88
423.398	301.88
423.621	333.88
423.843	337.88
424.066	403.88
424.288	471.88
424.511	573.88
424.733	640.88
424.956	545.88
425.178	498.88
425.401	440.88
425.623	394.88
425.846	378.88
426.068	329.88
426.291	333.88
426.513	339.88
426.735	301.88
426.958	319.88
427.18	288.88
427.402	267.88
427.625	292.88
427.847	271.88
428.069	279.88
428.292	257.88
428.514	254.88
428.736	248.88
428.958	260.88
429.181	253.88
429.403	246.88
429.625	235.88
429.847	233.88
430.069	235.88
430.292	257.88
430.514	226.88
430.736	238.88
430.958	242.88
431.18	259.88
431.402	231.88
431.624	245.88
431.846	243.88
432.068	227.88
432.29	253.88
432.512	240.88
432.734	241.88
432.956	240.88
433.178	262.88
433.4	243.88
433.622	244.88
433.844	253.88
434.066	251.88
434.287	272.88
434.509	250.88
434.731	243.88
434.953	243.88
435.175	245.88
435.397	240.88
435.618	248.88
435.84	246.88
436.062	254.88
436.284	249.88
436.505	262.88
436.727	270.88
436.949	253.88
437.17	288.88
437.392	277.88
437.614	313.88
437.835	305.88
438.057	335.88
438.278	373.88
438.5	427.88
438.721	505.88
438.943	574.88
439.165	482.88
439.386	438.88
439.608	421.88
439.829	383.88
440.05	387.88
440.272	373.88
440.493	374.88
440.715	390.88
440.936	425.88
441.158	402.88
441.379	363.88
441.6	325.88
441.822	318.88
442.043	297.88
442.264	295.88
442.486	292.88
442.707	275.88
442.928	284.88
443.149	275.88
443.371	267.88
443.592	271.88
443.813	262.88
444.034	250.88
444.255	247.88
444.476	267.88
444.698	261.88
444.919	267.88
445.14	329.88
445.361	291.88
445.582	238.88
445.803	231.88
446.024	226.88
446.245	244.88
446.466	248.88
446.687	234.88
446.908	228.88
447.129	228.88
447.35	227.88
447.571	232.88
447.792	233.88
448.013	207.88
448.234	224.88
448.455	224.88
448.675	219.88
448.896	227.88
449.117	225.88
449.338	239.88
449.559	221.88
449.779	232.88
450	223.88
450.221	224.88
450.442	221.88
450.662	213.88
450.883	225.88
451.104	195.88
451.324	224.88
451.545	219.88
451.766	196.88
451.986	204.88
452.207	219.88
452.428	214.88
452.648	222.88
452.869	201.88
453.089	188.88
453.31	199.88
453.53	206.88
453.751	211.88
453.971	220.88
454.192	203.88
454.412	196.88
454.633	202.88
454.853	214.88
455.073	172.88
455.294	203.88
455.514	207.88
455.734	200.88
455.955	208.88
456.175	205.88
456.395	200.88
456.616	205.88
456.836	192.88
457.056	193.88
457.276	198.88
457.497	207.88
457.717	204.88
457.937	189.88
458.157	189.88
458.377	202.88
458.598	202.88
458.818	204.88
459.038	203.88
459.258	213.88
459.478	196.88
459.698	204.88
459.918	205.88
460.138	201.88
460.358	199.88
460.578	217.88
460.798	227.88
461.018	219.88
461.238	197.88
461.458	219.88
461.678	225.88
461.898	211.88
462.118	224.88
462.338	218.88
462.558	234.88
462.777	234.88
462.997	228.88
463.217	243.88
463.437	227.88
463.657	216.88
463.876	236.88
464.096	224.88
464.316	224.88
464.536	226.88
464.755	235.88
464.975	229.88
465.195	221.88
465.414	227.88
465.634	193.88
465.854	214.88
466.073	213.88
466.293	210.88
466.512	193.88
466.732	205.88
466.951	215.88
467.171	203.88
467.391	223.88
467.61	209.88
467.829	199.88
468.049	216.88
468.268	199.88
468.488	192.88
468.707	229.88
468.927	202.88
469.146	208.88
469.365	203.88
469.585	207.88
469.804	212.88
470.023	207.88
470.243	211.88
470.462	219.88
470.681	201.88
470.901	182.88
471.12	208.88
471.339	219.88
471.558	208.88
471.777	199.88
471.997	212.88
472.216	221.88
472.435	211.88
472.654	208.88
472.873	203.88
473.092	203.88
473.311	201.88
473.53	224.88
473.749	224.88
473.968	210.88
474.187	193.88
474.406	216.88
474.625	211.88
474.844	218.88
475.063	213.88
475.282	199.88
475.501	206.88
475.72	208.88
475.939	212.88
476.158	216.88
476.377	209.88
476.596	222.88
476.814	225.88
477.033	219.88
477.252	225.88
477.471	209.88
477.69	219.88
477.908	233.88
478.127	219.88
478.346	229.88
478.564	244.88
478.783	248.88
479.002	246.88
479.22	254.88
479.439	235.88
479.658	250.88
479.876	247.88
480.095	253.88
480.313	247.88
480.532	248.88
480.751	257.88
480.969	250.88
481.188	242.88
481.406	262.88
481.624	242.88
481.843	239.88
482.061	227.88
482.28	235.88
482.498	226.88
482.717	238.88
482.935	234.88
483.153	242.88
483.372	236.88
483.59	247.88
483.808	245.88
484.027	250.88
484.245	239.88
484.463	224.88
484.681	241.88
484.9	241.88
485.118	247.88
485.336	229.88
485.554	219.88
485.772	240.88
485.99	227.88
486.209	257.88
486.427	248.88
486.645	239.88
486.863	240.88
487.081	239.88
487.299	237.88
487.517	241.88
487.735	243.88
487.953	248.88
488.171	242.88
488.389	250.88
488.607	248.88
488.825	245.88
489.043	237.88
489.261	259.88
489.479	237.88
489.696	257.88
489.914	247.88
490.132	254.88
490.35	236.88
490.568	260.88
490.786	246.88
491.003	249.88
491.221	241.88
491.439	240.88
491.657	230.88
491.874	256.88
492.092	241.88
492.31	257.88
492.527	236.88
492.745	239.88
492.963	245.88
493.18	251.88
493.398	253.88
493.615	258.88
493.833	260.88
494.05	260.88
494.268	260.88
494.485	260.88
494.703	264.88
494.92	240.88
495.138	260.88
495.355	268.88
495.573	284.88
495.79	255.88
496.008	256.88
496.225	272.88
496.442	245.88
496.66	273.88
496.877	257.88
497.094	277.88
497.312	265.88
497.529	276.88
497.746	267.88
497.963	287.88
498.181	262.88
498.398	291.88
498.615	295.88
498.832	296.88
499.049	300.88
499.267	310.88
499.484	345.88
499.701	335.88
499.918	366.88
500.135	366.88
500.352	371.88
500.569	419.88
500.786	487.88
501.003	424.88
501.22	394.88
501.437	335.88
501.654	325.88
501.871	330.88
502.088	325.88
502.305	328.88
502.522	322.88
502.739	316.88
502.956	315.88
503.172	311.88
503.389	321.88
