Data from StdB_HRD10591_058.txt Node
Date: Fri May 16 15:25:15 EDT 2025
User: Yrep
Spectrometer: HR+D1059
Trigger mode: 1
Integration Time (sec): 1.000000E-1
Scans to average: 1
Electric dark correction enabled: true
Nonlinearity correction enabled: false
Boxcar width: 0
XAxis mode: Wavelengths
Number of Pixels in Spectrum: 2048
>>>>>Begin Spectral Data<<<<<
223.165	-32.44
223.4	-32.44
223.635	-32.44
223.869	-21.44
224.104	-19.44
224.338	-15.44
224.573	-13.44
224.808	-26.44
225.042	-11.44
225.277	7.56
225.511	-2.44
225.746	11.56
225.98	9.56
226.215	16.56
226.449	22.56
226.683	9.56
226.918	32.56
227.152	32.56
227.387	29.56
227.621	19.56
227.856	47.56
228.09	46.56
228.324	44.56
228.559	57.56
228.793	63.56
229.027	62.56
229.262	63.56
229.496	57.56
229.73	74.56
229.964	69.56
230.199	82.56
230.433	80.56
230.667	80.56
230.901	67.56
231.136	77.56
231.37	73.56
231.604	78.56
231.838	73.56
232.072	80.56
232.306	66.56
232.541	81.56
232.775	72.56
233.009	95.56
233.243	75.56
233.477	72.56
233.711	77.56
233.945	79.56
234.179	73.56
234.413	81.56
234.647	89.56
234.881	85.56
235.115	65.56
235.349	84.56
235.583	77.56
235.817	81.56
236.051	75.56
236.285	77.56
236.519	94.56
236.753	76.56
236.987	72.56
237.221	79.56
237.455	90.56
237.689	72.56
237.922	58.56
238.156	81.56
238.39	81.56
238.624	67.56
238.858	79.56
239.091	80.56
239.325	81.56
239.559	85.56
239.793	81.56
240.027	63.56
240.26	62.56
240.494	80.56
240.728	72.56
240.961	69.56
241.195	68.56
241.429	68.56
241.662	80.56
241.896	71.56
242.13	78.56
242.363	84.56
242.597	61.56
242.83	79.56
243.064	64.56
243.298	66.56
243.531	68.56
243.765	79.56
243.998	76.56
244.232	76.56
244.465	76.56
244.699	80.56
244.932	76.56
245.166	69.56
245.399	61.56
245.633	79.56
245.866	77.56
246.099	75.56
246.333	57.56
246.566	83.56
246.8	75.56
247.033	76.56
247.266	78.56
247.5	68.56
247.733	82.56
247.966	81.56
248.2	84.56
248.433	68.56
248.666	72.56
248.899	67.56
249.133	74.56
249.366	90.56
249.599	89.56
249.832	78.56
250.066	81.56
250.299	61.56
250.532	77.56
250.765	77.56
250.998	66.56
251.231	81.56
251.465	78.56
251.698	64.56
251.931	81.56
252.164	80.56
252.397	82.56
252.63	79.56
252.863	87.56
253.096	92.56
253.329	82.56
253.562	81.56
253.795	84.56
254.028	84.56
254.261	84.56
254.494	85.56
254.727	79.56
254.96	62.56
255.193	87.56
255.426	82.56
255.659	91.56
255.892	68.56
256.124	76.56
256.357	63.56
256.59	79.56
256.823	87.56
257.056	88.56
257.289	85.56
257.521	83.56
257.754	103.56
257.987	88.56
258.22	82.56
258.452	91.56
258.685	82.56
258.918	74.56
259.151	72.56
259.383	76.56
259.616	80.56
259.849	97.56
260.081	88.56
260.314	72.56
260.547	78.56
260.779	93.56
261.012	90.56
261.244	85.56
261.477	101.56
261.71	85.56
261.942	76.56
262.175	87.56
262.407	78.56
262.64	56.56
262.872	77.56
263.105	84.56
263.337	80.56
263.57	85.56
263.802	85.56
264.035	87.56
264.267	84.56
264.499	79.56
264.732	80.56
264.964	92.56
265.197	81.56
265.429	98.56
265.661	86.56
265.894	82.56
266.126	89.56
266.358	79.56
266.591	81.56
266.823	80.56
267.055	76.56
267.287	84.56
267.52	75.56
267.752	88.56
267.984	78.56
268.216	74.56
268.448	82.56
268.681	71.56
268.913	72.56
269.145	91.56
269.377	86.56
269.609	81.56
269.841	84.56
270.073	90.56
270.306	78.56
270.538	81.56
270.77	77.56
271.002	80.56
271.234	84.56
271.466	83.56
271.698	72.56
271.93	68.56
272.162	77.56
272.394	76.56
272.626	87.56
272.858	77.56
273.09	85.56
273.322	76.56
273.553	95.56
273.785	82.56
274.017	92.56
274.249	76.56
274.481	86.56
274.713	81.56
274.945	90.56
275.176	79.56
275.408	86.56
275.64	95.56
275.872	86.56
276.104	97.56
276.335	79.56
276.567	77.56
276.799	93.56
277.031	81.56
277.262	78.56
277.494	92.56
277.726	87.56
277.957	87.56
278.189	90.56
278.421	70.56
278.652	76.56
278.884	75.56
279.115	90.56
279.347	88.56
279.579	90.56
279.81	103.56
280.042	110.56
280.273	122.56
280.505	95.56
280.736	92.56
280.968	84.56
281.199	82.56
281.431	84.56
281.662	85.56
281.894	78.56
282.125	88.56
282.356	106.56
282.588	97.56
282.819	87.56
283.051	104.56
283.282	110.56
283.513	123.56
283.745	100.56
283.976	93.56
284.207	86.56
284.439	90.56
284.67	84.56
284.901	80.56
285.132	73.56
285.364	93.56
285.595	84.56
285.826	84.56
286.057	93.56
286.288	86.56
286.52	84.56
286.751	74.56
286.982	89.56
287.213	94.56
287.444	102.56
287.675	92.56
287.906	92.56
288.138	83.56
288.369	76.56
288.6	84.56
288.831	79.56
289.062	92.56
289.293	81.56
289.524	84.56
289.755	74.56
289.986	86.56
290.217	96.56
290.448	80.56
290.679	88.56
290.91	78.56
291.141	72.56
291.371	84.56
291.602	91.56
291.833	76.56
292.064	89.56
292.295	81.56
292.526	76.56
292.757	79.56
292.987	92.56
293.218	74.56
293.449	89.56
293.68	94.56
293.91	78.56
294.141	86.56
294.372	88.56
294.603	85.56
294.833	82.56
295.064	74.56
295.295	90.56
295.525	82.56
295.756	89.56
295.987	90.56
296.217	79.56
296.448	74.56
296.679	86.56
296.909	98.56
297.14	84.56
297.37	70.56
297.601	63.56
297.831	78.56
298.062	90.56
298.292	98.56
298.523	77.56
298.753	88.56
298.984	84.56
299.214	82.56
299.445	81.56
299.675	89.56
299.905	86.56
300.136	76.56
300.366	97.56
300.597	73.56
300.827	74.56
301.057	95.56
301.288	70.56
301.518	75.56
301.748	81.56
301.979	94.56
302.209	76.56
302.439	73.56
302.669	100.56
302.9	97.56
303.13	83.56
303.36	76.56
303.59	97.56
303.82	86.56
304.051	84.56
304.281	78.56
304.511	85.56
304.741	82.56
304.971	68.56
305.201	93.56
305.431	79.56
305.661	84.56
305.891	80.56
306.121	76.56
306.352	77.56
306.582	78.56
306.812	86.56
307.042	85.56
307.272	86.56
307.502	89.56
307.731	89.56
307.961	85.56
308.191	94.56
308.421	101.56
308.651	81.56
308.881	77.56
309.111	86.56
309.341	88.56
309.571	74.56
309.8	85.56
310.03	84.56
310.26	87.56
310.49	89.56
310.72	74.56
310.949	80.56
311.179	87.56
311.409	92.56
311.639	88.56
311.868	87.56
312.098	78.56
312.328	92.56
312.557	80.56
312.787	86.56
313.017	91.56
313.246	71.56
313.476	95.56
313.706	79.56
313.935	88.56
314.165	67.56
314.394	75.56
314.624	85.56
314.853	76.56
315.083	96.56
315.312	100.56
315.542	96.56
315.771	84.56
316.001	71.56
316.23	90.56
316.46	84.56
316.689	87.56
316.919	86.56
317.148	90.56
317.377	81.56
317.607	83.56
317.836	86.56
318.065	89.56
318.295	89.56
318.524	97.56
318.753	86.56
318.983	89.56
319.212	80.56
319.441	81.56
319.67	92.56
319.9	66.56
320.129	82.56
320.358	81.56
320.587	97.56
320.816	81.56
321.046	85.56
321.275	93.56
321.504	90.56
321.733	81.56
321.962	87.56
322.191	86.56
322.42	85.56
322.649	85.56
322.878	80.56
323.108	88.56
323.337	93.56
323.566	95.56
323.795	84.56
324.024	84.56
324.253	81.56
324.482	81.56
324.71	88.56
324.939	77.56
325.168	81.56
325.397	77.56
325.626	79.56
325.855	88.56
326.084	94.56
326.313	92.56
326.542	93.56
326.77	79.56
326.999	82.56
327.228	86.56
327.457	86.56
327.686	89.56
327.914	97.56
328.143	93.56
328.372	89.56
328.6	77.56
328.829	99.56
329.058	84.56
329.287	78.56
329.515	80.56
329.744	74.56
329.972	74.56
330.201	84.56
330.43	76.56
330.658	89.56
330.887	92.56
331.115	83.56
331.344	83.56
331.572	94.56
331.801	100.56
332.03	80.56
332.258	88.56
332.486	86.56
332.715	83.56
332.943	87.56
333.172	67.56
333.4	76.56
333.629	91.56
333.857	76.56
334.085	90.56
334.314	80.56
334.542	96.56
334.771	87.56
334.999	89.56
335.227	85.56
335.455	92.56
335.684	83.56
335.912	86.56
336.14	89.56
336.369	90.56
336.597	91.56
336.825	92.56
337.053	82.56
337.281	80.56
337.51	88.56
337.738	76.56
337.966	85.56
338.194	76.56
338.422	74.56
338.65	84.56
338.878	90.56
339.106	72.56
339.334	86.56
339.562	76.56
339.79	84.56
340.018	88.56
340.246	84.56
340.474	84.56
340.702	83.56
340.93	84.56
341.158	74.56
341.386	84.56
341.614	76.56
341.842	79.56
342.07	86.56
342.298	72.56
342.526	86.56
342.754	90.56
342.981	86.56
343.209	70.56
343.437	108.56
343.665	75.56
343.893	86.56
344.12	68.56
344.348	93.56
344.576	92.56
344.804	95.56
345.031	82.56
345.259	80.56
345.487	88.56
345.714	71.56
345.942	93.56
346.17	88.56
346.397	86.56
346.625	86.56
346.853	89.56
347.08	88.56
347.308	89.56
347.535	87.56
347.763	82.56
347.99	76.56
348.218	92.56
348.445	93.56
348.673	81.56
348.9	87.56
349.128	83.56
349.355	87.56
349.583	93.56
349.81	82.56
350.037	92.56
350.265	96.56
350.492	85.56
350.72	79.56
350.947	87.56
351.174	91.56
351.402	73.56
351.629	80.56
351.856	88.56
352.083	82.56
352.311	88.56
352.538	84.56
352.765	78.56
352.992	83.56
353.22	92.56
353.447	84.56
353.674	93.56
353.901	83.56
354.128	76.56
354.355	87.56
354.583	94.56
354.81	84.56
355.037	63.56
355.264	74.56
355.491	87.56
355.718	81.56
355.945	78.56
356.172	89.56
356.399	107.56
356.626	74.56
356.853	120.56
357.08	137.56
357.307	156.56
357.534	116.56
357.761	103.56
357.988	85.56
358.215	92.56
358.441	90.56
358.668	83.56
358.895	78.56
359.122	90.56
359.349	76.56
359.576	87.56
359.802	82.56
360.029	73.56
360.256	94.56
360.483	74.56
360.709	93.56
360.936	102.56
361.163	89.56
361.39	104.56
361.616	81.56
361.843	82.56
362.07	85.56
362.296	84.56
362.523	94.56
362.749	88.56
362.976	84.56
363.203	87.56
363.429	103.56
363.656	133.56
363.882	181.56
364.109	200.56
364.335	126.56
364.562	84.56
364.788	84.56
365.015	91.56
365.241	91.56
365.468	79.56
365.694	92.56
365.92	89.56
366.147	74.56
366.373	85.56
366.599	92.56
366.826	95.56
367.052	106.56
367.278	129.56
367.505	94.56
367.731	104.56
367.957	124.56
368.184	193.56
368.41	252.56
368.636	182.56
368.862	112.56
369.089	104.56
369.315	87.56
369.541	97.56
369.767	86.56
369.993	81.56
370.219	62.56
370.445	85.56
370.672	87.56
370.898	86.56
371.124	83.56
371.35	90.56
371.576	87.56
371.802	80.56
372.028	86.56
372.254	88.56
372.48	80.56
372.706	101.56
372.932	80.56
373.158	90.56
373.384	95.56
373.61	89.56
373.835	132.56
374.061	148.56
374.287	128.56
374.513	84.56
374.739	78.56
374.965	81.56
375.191	67.56
375.416	85.56
375.642	79.56
375.868	82.56
376.094	86.56
376.319	83.56
376.545	93.56
376.771	98.56
376.997	80.56
377.222	89.56
377.448	95.56
377.674	86.56
377.899	72.56
378.125	94.56
378.35	88.56
378.576	68.56
378.802	97.56
379.027	87.56
379.253	74.56
379.478	86.56
379.704	77.56
379.929	85.56
380.155	97.56
380.38	89.56
380.606	91.56
380.831	89.56
381.057	88.56
381.282	75.56
381.507	72.56
381.733	79.56
381.958	81.56
382.184	86.56
382.409	87.56
382.634	84.56
382.86	89.56
383.085	86.56
383.31	86.56
383.535	88.56
383.761	89.56
383.986	74.56
384.211	89.56
384.436	73.56
384.662	77.56
384.887	76.56
385.112	90.56
385.337	85.56
385.562	91.56
385.787	76.56
386.013	74.56
386.238	87.56
386.463	88.56
386.688	94.56
386.913	77.56
387.138	91.56
387.363	90.56
387.588	88.56
387.813	84.56
388.038	95.56
388.263	92.56
388.488	70.56
388.713	88.56
388.938	76.56
389.163	90.56
389.387	89.56
389.612	80.56
389.837	74.56
390.062	72.56
390.287	84.56
390.512	84.56
390.736	86.56
390.961	84.56
391.186	73.56
391.411	86.56
391.636	81.56
391.86	92.56
392.085	81.56
392.31	88.56
392.534	80.56
392.759	96.56
392.984	80.56
393.208	95.56
393.433	87.56
393.658	80.56
393.882	78.56
394.107	81.56
394.331	81.56
394.556	73.56
394.78	89.56
395.005	90.56
395.229	79.56
395.454	72.56
395.678	80.56
395.903	78.56
396.127	92.56
396.352	76.56
396.576	87.56
396.801	88.56
397.025	90.56
397.249	90.56
397.474	107.56
397.698	95.56
397.922	82.56
398.147	88.56
398.371	80.56
398.595	70.56
398.82	88.56
399.044	84.56
399.268	88.56
399.492	80.56
399.717	80.56
399.941	97.56
400.165	81.56
400.389	80.56
400.613	80.56
400.837	88.56
401.062	77.56
401.286	87.56
401.51	88.56
401.734	91.56
401.958	116.56
402.182	91.56
402.406	100.56
402.63	92.56
402.854	92.56
403.078	78.56
403.302	81.56
403.526	94.56
403.75	85.56
403.974	79.56
404.198	91.56
404.422	92.56
404.645	84.56
404.869	100.56
405.093	108.56
405.317	128.56
405.541	213.56
405.765	370.56
405.988	371.56
406.212	222.56
406.436	153.56
406.66	97.56
406.883	96.56
407.107	97.56
407.331	90.56
407.555	79.56
407.778	87.56
408.002	72.56
408.226	88.56
408.449	76.56
408.673	79.56
408.896	88.56
409.12	81.56
409.344	74.56
409.567	81.56
409.791	83.56
410.014	92.56
410.238	90.56
410.461	75.56
410.685	74.56
410.908	88.56
411.132	81.56
411.355	88.56
411.578	76.56
411.802	66.56
412.025	90.56
412.249	75.56
412.472	80.56
412.695	92.56
412.919	81.56
413.142	78.56
413.365	73.56
413.589	74.56
413.812	79.56
414.035	82.56
414.258	93.56
414.482	90.56
414.705	102.56
414.928	84.56
415.151	84.56
415.374	78.56
415.597	93.56
415.821	76.56
416.044	82.56
416.267	70.56
416.49	86.56
416.713	89.56
416.936	101.56
417.159	88.56
417.382	83.56
417.605	77.56
417.828	87.56
418.051	82.56
418.274	84.56
418.497	84.56
418.72	88.56
418.943	85.56
419.166	93.56
419.389	84.56
419.611	78.56
419.834	81.56
420.057	73.56
420.28	80.56
420.503	98.56
420.726	86.56
420.948	80.56
421.171	89.56
421.394	81.56
421.617	73.56
421.839	79.56
422.062	79.56
422.285	93.56
422.507	84.56
422.73	89.56
422.953	84.56
423.175	81.56
423.398	91.56
423.621	90.56
423.843	80.56
424.066	85.56
424.288	89.56
424.511	85.56
424.733	87.56
424.956	81.56
425.178	76.56
425.401	88.56
425.623	79.56
425.846	80.56
426.068	80.56
426.291	86.56
426.513	67.56
426.735	89.56
426.958	85.56
427.18	86.56
427.402	78.56
427.625	81.56
427.847	80.56
428.069	84.56
428.292	81.56
428.514	70.56
428.736	81.56
428.958	76.56
429.181	72.56
429.403	77.56
429.625	74.56
429.847	82.56
430.069	76.56
430.292	78.56
430.514	77.56
430.736	68.56
430.958	101.56
431.18	92.56
431.402	70.56
431.624	88.56
431.846	80.56
432.068	91.56
432.29	82.56
432.512	72.56
432.734	74.56
432.956	88.56
433.178	76.56
433.4	80.56
433.622	86.56
433.844	90.56
434.066	85.56
434.287	76.56
434.509	84.56
434.731	84.56
434.953	84.56
435.175	85.56
435.397	85.56
435.618	84.56
435.84	81.56
436.062	79.56
436.284	89.56
436.505	82.56
436.727	90.56
436.949	85.56
437.17	77.56
437.392	69.56
437.614	86.56
437.835	76.56
438.057	89.56
438.278	73.56
438.5	73.56
438.721	82.56
438.943	92.56
439.165	88.56
439.386	93.56
439.608	79.56
439.829	81.56
440.05	95.56
440.272	71.56
440.493	78.56
440.715	82.56
440.936	88.56
441.158	94.56
441.379	74.56
441.6	74.56
441.822	68.56
442.043	79.56
442.264	101.56
442.486	80.56
442.707	79.56
442.928	92.56
443.149	81.56
443.371	85.56
443.592	86.56
443.813	87.56
444.034	78.56
444.255	92.56
444.476	90.56
444.698	65.56
444.919	76.56
445.14	159.56
445.361	108.56
445.582	86.56
445.803	66.56
446.024	82.56
446.245	86.56
446.466	73.56
446.687	90.56
446.908	86.56
447.129	81.56
447.35	85.56
447.571	90.56
447.792	71.56
448.013	73.56
448.234	71.56
448.455	86.56
448.675	84.56
448.896	87.56
449.117	83.56
449.338	79.56
449.559	86.56
449.779	81.56
450	79.56
450.221	78.56
450.442	80.56
450.662	82.56
450.883	82.56
451.104	80.56
451.324	75.56
451.545	85.56
451.766	90.56
451.986	101.56
452.207	86.56
452.428	89.56
452.648	78.56
452.869	84.56
453.089	88.56
453.31	79.56
453.53	87.56
453.751	82.56
453.971	80.56
454.192	93.56
454.412	90.56
454.633	85.56
454.853	78.56
455.073	89.56
455.294	92.56
455.514	96.56
455.734	88.56
455.955	75.56
456.175	91.56
456.395	88.56
456.616	80.56
456.836	82.56
457.056	88.56
457.276	74.56
457.497	66.56
457.717	86.56
457.937	86.56
458.157	72.56
458.377	82.56
458.598	77.56
458.818	83.56
459.038	82.56
459.258	82.56
459.478	85.56
459.698	70.56
459.918	80.56
460.138	82.56
460.358	77.56
460.578	74.56
460.798	78.56
461.018	87.56
461.238	78.56
461.458	77.56
461.678	81.56
461.898	82.56
462.118	92.56
462.338	78.56
462.558	77.56
462.777	74.56
462.997	84.56
463.217	80.56
463.437	86.56
463.657	85.56
463.876	87.56
464.096	92.56
464.316	83.56
464.536	87.56
464.755	85.56
464.975	90.56
465.195	63.56
465.414	71.56
465.634	87.56
465.854	85.56
466.073	85.56
466.293	80.56
466.512	83.56
466.732	88.56
466.951	79.56
467.171	84.56
467.391	76.56
467.61	100.56
467.829	90.56
468.049	86.56
468.268	82.56
468.488	92.56
468.707	79.56
468.927	74.56
469.146	64.56
469.365	80.56
469.585	78.56
469.804	73.56
470.023	75.56
470.243	86.56
470.462	72.56
470.681	90.56
470.901	77.56
471.12	75.56
471.339	87.56
471.558	79.56
471.777	72.56
471.997	72.56
472.216	95.56
472.435	74.56
472.654	82.56
472.873	91.56
473.092	72.56
473.311	80.56
473.53	84.56
473.749	69.56
473.968	87.56
474.187	84.56
474.406	80.56
474.625	84.56
474.844	81.56
475.063	64.56
475.282	80.56
475.501	82.56
475.72	90.56
475.939	80.56
476.158	76.56
476.377	88.56
476.596	88.56
476.814	82.56
477.033	75.56
477.252	80.56
477.471	74.56
477.69	86.56
477.908	73.56
478.127	83.56
478.346	72.56
478.564	85.56
478.783	86.56
479.002	81.56
479.22	93.56
479.439	89.56
479.658	86.56
479.876	86.56
480.095	81.56
480.313	78.56
480.532	86.56
480.751	78.56
480.969	88.56
481.188	93.56
481.406	77.56
481.624	79.56
481.843	95.56
482.061	83.56
482.28	77.56
482.498	94.56
482.717	85.56
482.935	82.56
483.153	76.56
483.372	83.56
483.59	76.56
483.808	86.56
484.027	84.56
484.245	85.56
484.463	81.56
484.681	88.56
484.9	88.56
485.118	84.56
485.336	71.56
485.554	84.56
485.772	85.56
485.99	81.56
486.209	76.56
486.427	85.56
486.645	77.56
486.863	90.56
487.081	80.56
487.299	84.56
487.517	70.56
487.735	92.56
487.953	89.56
488.171	71.56
488.389	74.56
488.607	80.56
488.825	76.56
489.043	88.56
489.261	100.56
489.479	84.56
489.696	80.56
489.914	81.56
490.132	88.56
490.35	79.56
490.568	80.56
490.786	84.56
491.003	78.56
491.221	90.56
491.439	87.56
491.657	85.56
491.874	81.56
492.092	88.56
492.31	76.56
492.527	92.56
492.745	93.56
492.963	85.56
493.18	88.56
493.398	71.56
493.615	79.56
493.833	81.56
494.05	89.56
494.268	90.56
494.485	84.56
494.703	94.56
494.92	87.56
495.138	79.56
495.355	86.56
495.573	101.56
495.79	80.56
496.008	80.56
496.225	84.56
496.442	98.56
496.66	78.56
496.877	90.56
497.094	88.56
497.312	85.56
497.529	84.56
497.746	89.56
497.963	88.56
498.181	78.56
498.398	79.56
498.615	91.56
498.832	72.56
499.049	85.56
499.267	78.56
499.484	80.56
499.701	86.56
499.918	93.56
500.135	84.56
500.352	66.56
500.569	122.56
500.786	128.56
501.003	90.56
501.22	93.56
501.437	91.56
501.654	84.56
501.871	87.56
502.088	77.56
502.305	64.56
502.522	78.56
502.739	82.56
502.956	85.56
503.172	76.56
503.389	80.56
503.606	81.56
503.823	92.56
504.04	83.56
504.256	92.56
504.473	78.56
504.69	87.56
504.907	89.56
505.123	75.56
505.34	84.56
505.557	95.56
505.773	93.56
505.99	76.56
506.207	85.56
506.423	89.56
506.64	86.56
506.856	78.56
507.073	94.56
507.289	92.56
507.506	92.56
507.722	89.56
507.939	95.56
508.155	86.56
508.372	76.56
508.588	72.56
508.805	61.56
509.021	84.56
509.238	70.56
509.454	88.56
509.67	80.56
509.887	74.56
510.103	95.56
510.319	82.56
510.536	89.56
510.752	75.56
510.968	84.56
511.184	72.56
511.401	80.56
511.617	86.56
511.833	78.56
512.049	87.56
512.265	85.56
512.481	89.56
512.698	91.56
512.914	86.56
513.13	85.56
513.346	79.56
513.562	91.56
513.778	85.56
513.994	86.56
514.21	83.56
514.426	90.56
514.642	92.56
514.858	84.56
515.074	74.56
515.29	89.56
515.506	83.56
515.721	87.56
515.937	94.56
516.153	93.56
516.369	82.56
516.585	84.56
516.801	89.56
517.016	85.56
517.232	79.56
517.448	86.56
517.664	79.56
517.879	76.56
518.095	87.56
518.311	84.56
518.527	80.56
518.742	83.56
518.958	74.56
519.173	76.56
519.389	76.56
