Data from StdB_HRD10591_036.txt Node
Date: Fri May 16 15:25:04 EDT 2025
User: Yrep
Spectrometer: HR+D1059
Trigger mode: 1
Integration Time (sec): 1.000000E-1
Scans to average: 1
Electric dark correction enabled: true
Nonlinearity correction enabled: false
Boxcar width: 0
XAxis mode: Wavelengths
Number of Pixels in Spectrum: 2048
>>>>>Begin Spectral Data<<<<<
223.165	-20
223.4	-20
223.635	-20
223.869	-17
224.104	-34
224.338	-15
224.573	-17
224.808	-9
225.042	1
225.277	8
225.511	-8
225.746	0
225.98	0
226.215	15
226.449	25
226.683	14
226.918	29
227.152	28
227.387	43
227.621	38
227.856	49
228.09	51
228.324	52
228.559	61
228.793	65
229.027	65
229.262	71
229.496	72
229.73	72
229.964	66
230.199	69
230.433	77
230.667	97
230.901	90
231.136	91
231.37	93
231.604	94
231.838	82
232.072	80
232.306	88
232.541	94
232.775	102
233.009	99
233.243	88
233.477	89
233.711	99
233.945	103
234.179	82
234.413	85
234.647	105
234.881	92
235.115	80
235.349	84
235.583	102
235.817	80
236.051	102
236.285	110
236.519	106
236.753	105
236.987	104
237.221	79
237.455	94
237.689	81
237.922	86
238.156	78
238.39	90
238.624	74
238.858	90
239.091	93
239.325	106
239.559	118
239.793	110
240.027	98
240.26	103
240.494	102
240.728	104
240.961	105
241.195	95
241.429	80
241.662	97
241.896	95
242.13	92
242.363	112
242.597	90
242.83	102
243.064	96
243.298	94
243.531	107
243.765	110
243.998	110
244.232	90
244.465	103
244.699	105
244.932	115
245.166	110
245.399	110
245.633	80
245.866	108
246.099	122
246.333	107
246.566	97
246.8	102
247.033	89
247.266	111
247.5	97
247.733	115
247.966	122
248.2	126
248.433	106
248.666	113
248.899	122
249.133	113
249.366	111
249.599	114
249.832	109
250.066	107
250.299	107
250.532	114
250.765	108
250.998	124
251.231	111
251.465	119
251.698	122
251.931	132
252.164	136
252.397	131
252.63	129
252.863	145
253.096	145
253.329	139
253.562	137
253.795	152
254.028	142
254.261	133
254.494	140
254.727	132
254.96	142
255.193	150
255.426	129
255.659	127
255.892	133
256.124	128
256.357	135
256.59	145
256.823	138
257.056	149
257.289	150
257.521	160
257.754	161
257.987	172
258.22	179
258.452	150
258.685	146
258.918	144
259.151	156
259.383	149
259.616	146
259.849	148
260.081	160
260.314	147
260.547	172
260.779	170
261.012	193
261.244	251
261.477	316
261.71	311
261.942	242
262.175	197
262.407	161
262.64	166
262.872	144
263.105	159
263.337	155
263.57	151
263.802	150
264.035	155
264.267	159
264.499	153
264.732	170
264.964	190
265.197	184
265.429	173
265.661	147
265.894	164
266.126	190
266.358	215
266.591	244
266.823	208
267.055	169
267.287	147
267.52	129
267.752	142
267.984	130
268.216	144
268.448	149
268.681	154
268.913	146
269.145	135
269.377	124
269.609	151
269.841	155
270.073	157
270.306	146
270.538	136
270.77	137
271.002	145
271.234	121
271.466	142
271.698	121
271.93	118
272.162	148
272.394	136
272.626	133
272.858	129
273.09	135
273.322	145
273.553	151
273.785	144
274.017	147
274.249	141
274.481	145
274.713	145
274.945	142
275.176	144
275.408	153
275.64	140
275.872	146
276.104	142
276.335	157
276.567	142
276.799	140
277.031	146
277.262	157
277.494	168
277.726	169
277.957	171
278.189	174
278.421	166
278.652	187
278.884	190
279.115	210
279.347	218
279.579	275
279.81	323
280.042	438
280.273	525
280.505	457
280.736	310
280.968	245
281.199	214
281.431	194
281.662	191
281.894	217
282.125	252
282.356	285
282.588	265
282.819	248
283.051	278
283.282	350
283.513	402
283.745	303
283.976	243
284.207	198
284.439	196
284.67	197
284.901	190
285.132	174
285.364	163
285.595	177
285.826	179
286.057	190
286.288	170
286.52	178
286.751	198
286.982	245
287.213	294
287.444	308
287.675	252
287.906	198
288.138	188
288.369	175
288.6	178
288.831	163
289.062	167
289.293	144
289.524	162
289.755	171
289.986	179
290.217	160
290.448	145
290.679	158
290.91	172
291.141	149
291.371	166
291.602	163
291.833	177
292.064	179
292.295	156
292.526	168
292.757	164
292.987	156
293.218	158
293.449	150
293.68	163
293.91	168
294.141	170
294.372	175
294.603	169
294.833	183
295.064	177
295.295	174
295.525	176
295.756	175
295.987	173
296.217	174
296.448	174
296.679	156
296.909	172
297.14	179
297.37	164
297.601	167
297.831	173
298.062	172
298.292	172
298.523	171
298.753	168
298.984	180
299.214	184
299.445	159
299.675	166
299.905	157
300.136	159
300.366	154
300.597	176
300.827	177
301.057	169
301.288	157
301.518	184
301.748	178
301.979	191
302.209	184
302.439	185
302.669	193
302.9	178
303.13	178
303.36	190
303.59	168
303.82	175
304.051	189
304.281	160
304.511	179
304.741	178
304.971	161
305.201	186
305.431	194
305.661	191
305.891	176
306.121	190
306.352	164
306.582	174
306.812	168
307.042	188
307.272	171
307.502	182
307.731	190
307.961	173
308.191	172
308.421	168
308.651	159
308.881	172
309.111	182
309.341	176
309.571	193
309.8	178
310.03	174
310.26	167
310.49	185
310.72	179
310.949	183
311.179	154
311.409	192
311.639	192
311.868	184
312.098	191
312.328	186
312.557	180
312.787	190
313.017	195
313.246	200
313.476	208
313.706	221
313.935	199
314.165	209
314.394	228
314.624	215
314.853	223
315.083	214
315.312	200
315.542	199
315.771	216
316.001	219
316.23	216
316.46	204
316.689	215
316.919	203
317.148	216
317.377	200
317.607	214
317.836	208
318.065	212
318.295	201
318.524	198
318.753	193
318.983	195
319.212	173
319.441	192
319.67	191
319.9	184
320.129	195
320.358	196
320.587	188
320.816	199
321.046	191
321.275	199
321.504	188
321.733	210
321.962	208
322.191	201
322.42	181
322.649	192
322.878	193
323.108	188
323.337	168
323.566	187
323.795	190
324.024	197
324.253	209
324.482	193
324.71	193
324.939	199
325.168	184
325.397	204
325.626	192
325.855	207
326.084	191
326.313	193
326.542	183
326.77	201
326.999	179
327.228	187
327.457	194
327.686	211
327.914	188
328.143	187
328.372	190
328.6	182
328.829	194
329.058	202
329.287	194
329.515	194
329.744	217
329.972	192
330.201	193
330.43	195
330.658	204
330.887	208
331.115	201
331.344	189
331.572	194
331.801	202
332.03	210
332.258	220
332.486	211
332.715	210
332.943	202
333.172	191
333.4	201
333.629	200
333.857	213
334.085	203
334.314	212
334.542	202
334.771	192
334.999	195
335.227	203
335.455	206
335.684	191
335.912	207
336.14	187
336.369	200
336.597	195
336.825	195
337.053	193
337.281	199
337.51	214
337.738	190
337.966	191
338.194	194
338.422	191
338.65	185
338.878	171
339.106	190
339.334	203
339.562	178
339.79	183
340.018	207
340.246	193
340.474	188
340.702	192
340.93	164
341.158	182
341.386	188
341.614	193
341.842	199
342.07	196
342.298	189
342.526	198
342.754	192
342.981	190
343.209	197
343.437	205
343.665	203
343.893	209
344.12	212
344.348	203
344.576	202
344.804	195
345.031	204
345.259	214
345.487	204
345.714	200
345.942	201
346.17	188
346.397	204
346.625	196
346.853	194
347.08	173
347.308	179
347.535	176
347.763	196
347.99	187
348.218	186
348.445	194
348.673	176
348.9	208
349.128	197
349.355	202
349.583	205
349.81	196
350.037	191
350.265	195
350.492	189
350.72	192
350.947	194
351.174	196
351.402	201
351.629	195
351.856	202
352.083	192
352.311	195
352.538	180
352.765	201
352.992	188
353.22	191
353.447	190
353.674	178
353.901	206
354.128	195
354.355	202
354.583	210
354.81	190
355.037	194
355.264	206
355.491	193
355.718	212
355.945	229
356.172	227
356.399	240
356.626	256
356.853	323
357.08	429
357.307	577
357.534	558
357.761	403
357.988	352
358.215	295
358.441	290
358.668	245
358.895	226
359.122	223
359.349	232
359.576	214
359.802	232
360.029	209
360.256	217
360.483	202
360.709	207
360.936	219
361.163	220
361.39	229
361.616	209
361.843	210
362.07	225
362.296	214
362.523	213
362.749	252
362.976	234
363.203	252
363.429	312
363.656	438
363.882	620
364.109	760
364.335	511
364.562	367
364.788	285
365.015	274
365.241	241
365.468	255
365.694	247
365.92	234
366.147	235
366.373	245
366.599	247
366.826	279
367.052	312
367.278	368
367.505	353
367.731	358
367.957	484
368.184	741
368.41	997
368.636	854
368.862	527
369.089	383
369.315	325
369.541	288
369.767	268
369.993	255
370.219	217
370.445	250
370.672	253
370.898	225
371.124	240
371.35	232
371.576	235
371.802	232
372.028	240
372.254	217
372.48	234
372.706	243
372.932	231
373.158	254
373.384	284
373.61	337
373.835	482
374.061	651
374.287	556
374.513	366
374.739	296
374.965	286
375.191	256
375.416	254
375.642	233
375.868	245
376.094	209
376.319	218
376.545	213
376.771	201
376.997	208
377.222	208
377.448	228
377.674	199
377.899	221
378.125	219
378.35	219
378.576	210
378.802	236
379.027	230
379.253	226
379.478	236
379.704	219
379.929	223
380.155	222
380.38	207
380.606	203
380.831	195
381.057	220
381.282	222
381.507	219
381.733	214
381.958	208
382.184	216
382.409	199
382.634	203
382.86	224
383.085	206
383.31	206
383.535	224
383.761	211
383.986	217
384.211	216
384.436	201
384.662	226
384.887	222
385.112	224
385.337	227
385.562	220
385.787	226
386.013	231
386.238	236
386.463	226
386.688	232
386.913	211
387.138	219
387.363	212
387.588	223
387.813	221
388.038	216
388.263	211
388.488	227
388.713	217
388.938	219
389.163	217
389.387	216
389.612	234
389.837	214
390.062	201
390.287	221
390.512	222
390.736	221
390.961	214
391.186	220
391.411	228
391.636	221
391.86	221
392.085	216
392.31	228
392.534	223
392.759	217
392.984	203
393.208	224
393.433	206
393.658	199
393.882	214
394.107	206
394.331	206
394.556	211
394.78	221
395.005	234
395.229	219
395.454	230
395.678	210
395.903	236
396.127	225
396.352	215
396.576	216
396.801	215
397.025	224
397.249	212
397.474	216
397.698	219
397.922	225
398.147	210
398.371	227
398.595	236
398.82	247
399.044	246
399.268	241
399.492	269
399.717	248
399.941	280
400.165	271
400.389	235
400.613	240
400.837	263
401.062	240
401.286	241
401.51	273
401.734	272
401.958	314
402.182	306
402.406	262
402.63	260
402.854	241
403.078	244
403.302	278
403.526	259
403.75	250
403.974	275
404.198	264
404.422	294
404.645	316
404.869	321
405.093	383
405.317	494
405.541	796
405.765	1336
405.988	1532
406.212	975
406.436	680
406.66	500
406.883	410
407.107	365
407.331	348
407.555	310
407.778	305
408.002	300
408.226	270
408.449	279
408.673	283
408.896	279
409.12	275
409.344	257
409.567	242
409.791	265
410.014	231
410.238	271
410.461	277
410.685	250
410.908	261
411.132	254
411.355	260
411.578	241
411.802	261
412.025	257
412.249	255
412.472	250
412.695	259
412.919	243
413.142	232
413.365	235
413.589	240
413.812	242
414.035	247
414.258	238
414.482	234
414.705	202
414.928	248
415.151	240
415.374	232
415.597	241
415.821	252
416.044	238
416.267	248
416.49	251
416.713	244
416.936	276
417.159	238
417.382	236
417.605	236
417.828	242
418.051	239
418.274	238
418.497	240
418.72	255
418.943	255
419.166	248
419.389	268
419.611	250
419.834	252
420.057	247
420.28	247
420.503	247
420.726	256
420.948	246
421.171	234
421.394	255
421.617	255
421.839	256
422.062	276
422.285	253
422.507	276
422.73	285
422.953	291
423.175	299
423.398	284
423.621	338
423.843	382
424.066	418
424.288	520
424.511	634
424.733	703
424.956	594
425.178	492
425.401	482
425.623	414
425.846	372
426.068	353
426.291	348
426.513	324
426.735	331
426.958	316
427.18	302
427.402	266
427.625	276
427.847	279
428.069	281
428.292	270
428.514	254
428.736	241
428.958	263
429.181	263
429.403	253
429.625	238
429.847	256
430.069	235
430.292	251
430.514	247
430.736	227
430.958	240
431.18	226
431.402	231
431.624	250
431.846	227
432.068	250
432.29	257
432.512	236
432.734	231
432.956	239
433.178	270
433.4	240
433.622	230
433.844	267
434.066	256
434.287	265
434.509	273
434.731	241
434.953	259
435.175	266
435.397	242
435.618	254
435.84	248
436.062	243
436.284	264
436.505	258
436.727	275
436.949	276
437.17	266
437.392	283
437.614	298
437.835	306
438.057	344
438.278	385
438.5	456
438.721	563
438.943	642
439.165	528
439.386	480
439.608	422
439.829	402
440.05	383
440.272	392
440.493	389
440.715	422
440.936	430
441.158	431
441.379	399
441.6	359
441.822	327
442.043	320
442.264	304
442.486	299
442.707	274
442.928	252
443.149	249
443.371	270
443.592	270
443.813	281
444.034	261
444.255	278
444.476	253
444.698	257
444.919	255
445.14	303
445.361	302
445.582	267
445.803	240
446.024	260
446.245	235
446.466	232
446.687	243
446.908	238
447.129	227
447.35	243
447.571	241
447.792	224
448.013	252
448.234	230
448.455	232
448.675	219
448.896	204
449.117	219
449.338	233
449.559	207
449.779	215
450	223
450.221	223
450.442	227
450.662	221
450.883	218
451.104	206
451.324	210
451.545	214
451.766	211
451.986	202
452.207	217
452.428	207
452.648	207
452.869	212
453.089	220
453.31	211
453.53	228
453.751	227
453.971	203
454.192	200
454.412	213
454.633	205
454.853	207
455.073	192
455.294	202
455.514	217
455.734	217
455.955	217
456.175	199
456.395	194
456.616	220
456.836	209
457.056	199
457.276	203
457.497	193
457.717	205
457.937	201
458.157	197
458.377	212
458.598	180
458.818	186
459.038	218
459.258	185
459.478	219
459.698	223
459.918	232
460.138	220
460.358	229
460.578	211
460.798	232
461.018	229
461.238	232
461.458	232
461.678	223
461.898	226
462.118	232
462.338	226
462.558	222
462.777	247
462.997	234
463.217	231
463.437	254
463.657	230
463.876	247
464.096	248
464.316	238
464.536	232
464.755	240
464.975	222
465.195	237
465.414	230
465.634	237
465.854	223
466.073	203
466.293	208
466.512	216
466.732	215
466.951	203
467.171	211
467.391	220
467.61	203
467.829	207
468.049	199
468.268	228
468.488	222
468.707	204
468.927	191
469.146	200
469.365	203
469.585	205
469.804	209
470.023	210
470.243	210
470.462	202
470.681	214
470.901	196
471.12	207
471.339	236
471.558	214
471.777	227
471.997	219
472.216	215
472.435	219
472.654	208
472.873	203
473.092	197
473.311	215
473.53	204
473.749	210
473.968	191
474.187	218
474.406	228
474.625	230
474.844	211
475.063	216
475.282	206
475.501	227
475.72	228
475.939	205
476.158	222
476.377	212
476.596	226
476.814	211
477.033	215
477.252	235
477.471	239
477.69	231
477.908	242
478.127	244
478.346	247
478.564	248
478.783	245
479.002	258
479.22	247
479.439	260
479.658	254
479.876	243
480.095	250
480.313	231
480.532	256
480.751	243
480.969	223
481.188	246
481.406	251
481.624	248
481.843	252
482.061	246
482.28	241
482.498	240
482.717	250
482.935	246
483.153	235
483.372	252
483.59	248
483.808	238
484.027	246
484.245	224
484.463	239
484.681	234
484.9	248
485.118	246
485.336	246
485.554	250
485.772	250
485.99	257
486.209	225
486.427	246
486.645	227
486.863	244
487.081	247
487.299	254
487.517	249
487.735	250
487.953	245
488.171	243
488.389	237
488.607	255
488.825	251
489.043	268
489.261	251
489.479	263
489.696	266
489.914	247
490.132	256
490.35	239
490.568	250
490.786	248
491.003	241
491.221	248
491.439	240
491.657	251
491.874	247
492.092	245
492.31	264
492.527	248
492.745	260
492.963	260
493.18	251
493.398	238
493.615	245
493.833	253
494.05	241
494.268	254
494.485	256
494.703	264
494.92	269
495.138	259
495.355	280
495.573	290
495.79	248
496.008	265
496.225	262
496.442	270
496.66	266
496.877	275
497.094	287
497.312	275
497.529	272
497.746	281
497.963	274
498.181	292
498.398	282
498.615	286
498.832	290
499.049	292
499.267	324
499.484	339
499.701	352
499.918	371
500.135	371
500.352	416
500.569	476
500.786	563
501.003	459
501.22	388
501.437	352
501.654	350
501.871	333
502.088	322
502.305	333
502.522	322
502.739	331
502.956	312
503.172	322
503.389	316
503.606	311
503.823	321
504.04	328
504.256	339
504.473	380
504.69	369
504.907	350
505.123	337
505.34	331
505.557	312
505.773	292
505.99	303
506.207	304
506.423	293
506.64	289
506.856	284
507.073	275
507.289	280
507.506	281
507.722	279
507.939	266
508.155	276
508.372	270
508.588	278
508.805	262
509.021	261
509.238	258
509.454	257
509.67	243
509.887	239
510.103	243
510.319	261
510.536	255
510.752	257
510.968	250
511.184	236
511.401	224
511.617	239
511.833	248
512.049	257
512.265	246
512.481	251
512.698	248
512.914	246
513.13	236
513.346	238
513.562	250
513.778	243
513.994	265
514.21	233
514.426	271
514.642	253
514.858	247
515.074	241
515.29	256
515.506	252
515.721	267
515.937	300
516.153	254
516.369	264
516.585	279
516.801	240
517.016	275
517.232	267
517.448	251
517.664	267
517.879	256
518.095	257
518.311	251
518.527	252
518.742	255
518.958	259
519.173	266
519.389	266
519.605	253
519.82	252
520.036	255
520.251	252
520.467	285
520.682	257
520.898	222
521.113	236
521.329	236
521.544	243
521.76	249
521.975	252
522.19	260
522.406	275
522.621	271
522.836	281
523.052	319
523.267	288
523.482	262
523.698	242
523.913	234
524.128	236
524.343	219
524.559	234
524.774	237
524.989	231
525.204	240
525.419	237
525.634	216
525.849	230
526.064	217
526.28	226
526.495	232
526.71	234
526.925	228
527.14	221
527.355	212
527.57	214
527.785	238
527.999	223
528.214	245
528.429	212
528.644	219
528.859	228
529.074	211
529.289	217
529.503	231
529.718	238
529.933	234
530.148	244
530.363	249
530.577	218
530.792	232
531.007	246
531.221	224
531.436	226
531.651	226
531.865	237
532.08	223
532.295	246
532.509	248
532.724	255
532.938	266
533.153	250
533.367	258
533.582	241
533.796	235
534.011	259
534.225	240
534.44	238
534.654	237
534.868	232
535.083	254
535.297	243
535.511	249
535.726	236
535.94	278
536.154	267
536.369	264
536.583	297
536.797	318
537.011	333
537.225	404
537.44	472
537.654	440
537.868	380
538.082	371
538.296	345
538.51	322
538.724	317
538.938	297
539.153	276
539.367	282
539.581	289
539.795	272
540.009	269
540.222	253
540.436	269
540.65	227
540.864	247
541.078	244
541.292	231
541.506	241
541.72	252
541.934	245
542.147	235
542.361	244
542.575	222
542.789	237
543.002	217
543.216	212
543.43	226
543.644	234
543.857	232
544.071	226
544.285	232
544.498	246
544.712	231
544.925	224
545.139	218
545.352	219
545.566	216
545.779	247
545.993	222
546.206	218
546.42	225
546.633	216
546.847	211
547.06	222
547.274	223
547.487	241
547.7	223
547.914	227
548.127	218
548.34	227
548.554	208
548.767	222
548.98	210
549.193	218
549.407	241
549.62	216
549.833	217
550.046	215
550.259	246
550.473	221
550.686	227
550.899	234
551.112	226
551.325	225
551.538	232
551.751	238
551.964	241
552.177	232
552.39	230
552.603	223
552.816	250
553.029	243
553.242	248
553.455	263
553.667	264
553.88	257
554.093	264
554.306	272
554.519	292
554.732	312
554.944	313
555.157	283
555.37	282
555.583	287
555.795	255
556.008	280
556.221	267
556.433	254
556.646	279
556.859	257
557.071	242
557.284	244
557.496	271
557.709	278
557.921	251
558.134	283
558.346	280
558.559	275
558.771	280
558.984	289
559.196	314
559.409	306
559.621	359
559.833	354
560.046	394
560.258	462
560.47	544
560.683	665
560.895	916
561.107	1109
561.32	764
561.532	540
561.744	441
561.956	386
562.168	351
562.381	334
562.593	298
562.805	278
563.017	273
563.229	257
563.441	256
563.653	239
563.865	250
564.077	240
564.289	239
564.501	232
564.713	226
564.925	238
565.137	225
565.349	235
