Data from StdB_HRD10591_097.txt Node
Date: Fri May 16 15:25:34 EDT 2025
User: Yrep
Spectrometer: HR+D1059
Trigger mode: 1
Integration Time (sec): 1.000000E-1
Scans to average: 1
Electric dark correction enabled: true
Nonlinearity correction enabled: false
Boxcar width: 0
XAxis mode: Wavelengths
Number of Pixels in Spectrum: 2048
>>>>>Begin Spectral Data<<<<<
223.165	-10.56
223.4	-10.56
223.635	-10.56
223.869	-19.56
224.104	-7.56
224.338	-16.56
224.573	-25.56
224.808	-12.56
225.042	-14.56
225.277	1.44
225.511	-4.56
225.746	11.44
225.98	10.44
226.215	6.44
226.449	13.44
226.683	26.44
226.918	18.44
227.152	23.44
227.387	34.44
227.621	44.44
227.856	43.44
228.09	47.44
228.324	46.44
228.559	58.44
228.793	48.44
229.027	60.44
229.262	66.44
229.496	74.44
229.73	71.44
229.964	73.44
230.199	84.44
230.433	79.44
230.667	78.44
230.901	89.44
231.136	92.44
231.37	88.44
231.604	90.44
231.838	85.44
232.072	96.44
232.306	91.44
232.541	84.44
232.775	90.44
233.009	89.44
233.243	101.44
233.477	83.44
233.711	97.44
233.945	94.44
234.179	83.44
234.413	89.44
234.647	79.44
234.881	94.44
235.115	91.44
235.349	88.44
235.583	104.44
235.817	104.44
236.051	93.44
236.285	94.44
236.519	76.44
236.753	81.44
236.987	84.44
237.221	93.44
237.455	88.44
237.689	99.44
237.922	87.44
238.156	91.44
238.39	75.44
238.624	95.44
238.858	90.44
239.091	90.44
239.325	91.44
239.559	104.44
239.793	116.44
240.027	113.44
240.26	91.44
240.494	116.44
240.728	103.44
240.961	80.44
241.195	96.44
241.429	86.44
241.662	91.44
241.896	105.44
242.13	103.44
242.363	104.44
242.597	94.44
242.83	94.44
243.064	94.44
243.298	88.44
243.531	85.44
243.765	81.44
243.998	97.44
244.232	95.44
244.465	105.44
244.699	102.44
244.932	112.44
245.166	105.44
245.399	108.44
245.633	96.44
245.866	112.44
246.099	109.44
246.333	110.44
246.566	92.44
246.8	106.44
247.033	112.44
247.266	104.44
247.5	121.44
247.733	125.44
247.966	123.44
248.2	118.44
248.433	110.44
248.666	106.44
248.899	100.44
249.133	98.44
249.366	111.44
249.599	108.44
249.832	108.44
250.066	105.44
250.299	127.44
250.532	112.44
250.765	115.44
250.998	114.44
251.231	115.44
251.465	123.44
251.698	117.44
251.931	125.44
252.164	127.44
252.397	118.44
252.63	133.44
252.863	119.44
253.096	119.44
253.329	137.44
253.562	129.44
253.795	135.44
254.028	144.44
254.261	122.44
254.494	145.44
254.727	120.44
254.96	119.44
255.193	133.44
255.426	132.44
255.659	135.44
255.892	122.44
256.124	130.44
256.357	152.44
256.59	133.44
256.823	149.44
257.056	150.44
257.289	155.44
257.521	154.44
257.754	149.44
257.987	156.44
258.22	172.44
258.452	133.44
258.685	148.44
258.918	135.44
259.151	140.44
259.383	135.44
259.616	154.44
259.849	146.44
260.081	152.44
260.314	163.44
260.547	163.44
260.779	165.44
261.012	173.44
261.244	251.44
261.477	283.44
261.71	284.44
261.942	225.44
262.175	200.44
262.407	159.44
262.64	149.44
262.872	151.44
263.105	158.44
263.337	166.44
263.57	160.44
263.802	140.44
264.035	147.44
264.267	148.44
264.499	160.44
264.732	168.44
264.964	177.44
265.197	183.44
265.429	187.44
265.661	157.44
265.894	178.44
266.126	176.44
266.358	216.44
266.591	234.44
266.823	188.44
267.055	140.44
267.287	139.44
267.52	144.44
267.752	143.44
267.984	135.44
268.216	128.44
268.448	134.44
268.681	130.44
268.913	136.44
269.145	131.44
269.377	132.44
269.609	134.44
269.841	147.44
270.073	142.44
270.306	128.44
270.538	131.44
270.77	140.44
271.002	132.44
271.234	140.44
271.466	148.44
271.698	160.44
271.93	148.44
272.162	143.44
272.394	149.44
272.626	142.44
272.858	145.44
273.09	141.44
273.322	147.44
273.553	139.44
273.785	139.44
274.017	130.44
274.249	159.44
274.481	139.44
274.713	125.44
274.945	141.44
275.176	142.44
275.408	152.44
275.64	140.44
275.872	145.44
276.104	156.44
276.335	140.44
276.567	150.44
276.799	147.44
277.031	158.44
277.262	153.44
277.494	148.44
277.726	169.44
277.957	167.44
278.189	153.44
278.421	180.44
278.652	187.44
278.884	189.44
279.115	215.44
279.347	224.44
279.579	263.44
279.81	323.44
280.042	391.44
280.273	468.44
280.505	397.44
280.736	300.44
280.968	224.44
281.199	212.44
281.431	200.44
281.662	212.44
281.894	223.44
282.125	229.44
282.356	263.44
282.588	236.44
282.819	246.44
283.051	248.44
283.282	321.44
283.513	377.44
283.745	317.44
283.976	215.44
284.207	213.44
284.439	197.44
284.67	176.44
284.901	171.44
285.132	167.44
285.364	186.44
285.595	169.44
285.826	151.44
286.057	177.44
286.288	175.44
286.52	202.44
286.751	188.44
286.982	222.44
287.213	259.44
287.444	270.44
287.675	250.44
287.906	204.44
288.138	181.44
288.369	177.44
288.6	166.44
288.831	154.44
289.062	171.44
289.293	155.44
289.524	179.44
289.755	155.44
289.986	155.44
290.217	169.44
290.448	156.44
290.679	170.44
290.91	165.44
291.141	161.44
291.371	188.44
291.602	159.44
291.833	163.44
292.064	148.44
292.295	171.44
292.526	158.44
292.757	169.44
292.987	156.44
293.218	155.44
293.449	155.44
293.68	158.44
293.91	170.44
294.141	158.44
294.372	157.44
294.603	154.44
294.833	168.44
295.064	184.44
295.295	165.44
295.525	172.44
295.756	179.44
295.987	168.44
296.217	153.44
296.448	163.44
296.679	156.44
296.909	166.44
297.14	159.44
297.37	165.44
297.601	178.44
297.831	157.44
298.062	173.44
298.292	176.44
298.523	169.44
298.753	167.44
298.984	173.44
299.214	161.44
299.445	170.44
299.675	165.44
299.905	172.44
300.136	177.44
300.366	178.44
300.597	179.44
300.827	169.44
301.057	168.44
301.288	169.44
301.518	178.44
301.748	163.44
301.979	200.44
302.209	190.44
302.439	175.44
302.669	177.44
302.9	187.44
303.13	159.44
303.36	159.44
303.59	185.44
303.82	184.44
304.051	176.44
304.281	178.44
304.511	170.44
304.741	174.44
304.971	176.44
305.201	194.44
305.431	168.44
305.661	179.44
305.891	171.44
306.121	184.44
306.352	177.44
306.582	172.44
306.812	185.44
307.042	187.44
307.272	185.44
307.502	182.44
307.731	179.44
307.961	189.44
308.191	182.44
308.421	171.44
308.651	165.44
308.881	179.44
309.111	173.44
309.341	176.44
309.571	182.44
309.8	173.44
310.03	159.44
310.26	185.44
310.49	170.44
310.72	173.44
310.949	173.44
311.179	180.44
311.409	169.44
311.639	184.44
311.868	186.44
312.098	187.44
312.328	184.44
312.557	188.44
312.787	193.44
313.017	192.44
313.246	204.44
313.476	215.44
313.706	205.44
313.935	211.44
314.165	221.44
314.394	206.44
314.624	229.44
314.853	217.44
315.083	235.44
315.312	220.44
315.542	203.44
315.771	209.44
316.001	212.44
316.23	222.44
316.46	198.44
316.689	193.44
316.919	203.44
317.148	189.44
317.377	198.44
317.607	195.44
317.836	184.44
318.065	194.44
318.295	195.44
318.524	210.44
318.753	192.44
318.983	205.44
319.212	191.44
319.441	208.44
319.67	179.44
319.9	183.44
320.129	177.44
320.358	180.44
320.587	182.44
320.816	190.44
321.046	182.44
321.275	190.44
321.504	172.44
321.733	183.44
321.962	208.44
322.191	199.44
322.42	174.44
322.649	190.44
322.878	210.44
323.108	197.44
323.337	179.44
323.566	186.44
323.795	184.44
324.024	183.44
324.253	182.44
324.482	203.44
324.71	190.44
324.939	213.44
325.168	195.44
325.397	183.44
325.626	193.44
325.855	185.44
326.084	186.44
326.313	191.44
326.542	205.44
326.77	206.44
326.999	192.44
327.228	169.44
327.457	192.44
327.686	180.44
327.914	181.44
328.143	184.44
328.372	175.44
328.6	199.44
328.829	183.44
329.058	185.44
329.287	185.44
329.515	191.44
329.744	202.44
329.972	181.44
330.201	198.44
330.43	179.44
330.658	185.44
330.887	200.44
331.115	192.44
331.344	207.44
331.572	195.44
331.801	193.44
332.03	208.44
332.258	189.44
332.486	200.44
332.715	200.44
332.943	196.44
333.172	205.44
333.4	212.44
333.629	201.44
333.857	197.44
334.085	200.44
334.314	195.44
334.542	199.44
334.771	185.44
334.999	211.44
335.227	201.44
335.455	199.44
335.684	211.44
335.912	212.44
336.14	176.44
336.369	175.44
336.597	196.44
336.825	206.44
337.053	183.44
337.281	196.44
337.51	186.44
337.738	209.44
337.966	187.44
338.194	192.44
338.422	201.44
338.65	193.44
338.878	202.44
339.106	187.44
339.334	207.44
339.562	197.44
339.79	190.44
340.018	191.44
340.246	195.44
340.474	201.44
340.702	197.44
340.93	196.44
341.158	191.44
341.386	181.44
341.614	180.44
341.842	188.44
342.07	183.44
342.298	179.44
342.526	189.44
342.754	193.44
342.981	182.44
343.209	189.44
343.437	207.44
343.665	194.44
343.893	193.44
344.12	217.44
344.348	201.44
344.576	208.44
344.804	202.44
345.031	206.44
345.259	192.44
345.487	191.44
345.714	193.44
345.942	200.44
346.17	191.44
346.397	183.44
346.625	185.44
346.853	185.44
347.08	184.44
347.308	187.44
347.535	186.44
347.763	179.44
347.99	206.44
348.218	183.44
348.445	201.44
348.673	187.44
348.9	174.44
349.128	177.44
349.355	197.44
349.583	202.44
349.81	182.44
350.037	185.44
350.265	179.44
350.492	196.44
350.72	173.44
350.947	209.44
351.174	200.44
351.402	182.44
351.629	195.44
351.856	191.44
352.083	189.44
352.311	205.44
352.538	180.44
352.765	204.44
352.992	187.44
353.22	197.44
353.447	201.44
353.674	203.44
353.901	186.44
354.128	197.44
354.355	202.44
354.583	195.44
354.81	206.44
355.037	203.44
355.264	218.44
355.491	196.44
355.718	198.44
355.945	220.44
356.172	227.44
356.399	226.44
356.626	243.44
356.853	298.44
357.08	392.44
357.307	504.44
357.534	528.44
357.761	381.44
357.988	312.44
358.215	279.44
358.441	264.44
358.668	239.44
358.895	219.44
359.122	237.44
359.349	221.44
359.576	222.44
359.802	219.44
360.029	207.44
360.256	208.44
360.483	211.44
360.709	217.44
360.936	222.44
361.163	205.44
361.39	225.44
361.616	194.44
361.843	211.44
362.07	221.44
362.296	216.44
362.523	214.44
362.749	223.44
362.976	223.44
363.203	240.44
363.429	276.44
363.656	397.44
363.882	579.44
364.109	651.44
364.335	471.44
364.562	337.44
364.788	275.44
365.015	259.44
365.241	259.44
365.468	243.44
365.694	224.44
365.92	245.44
366.147	237.44
366.373	221.44
366.599	229.44
366.826	282.44
367.052	292.44
367.278	331.44
367.505	311.44
367.731	350.44
367.957	448.44
368.184	645.44
368.41	839.44
368.636	758.44
368.862	492.44
369.089	364.44
369.315	293.44
369.541	282.44
369.767	256.44
369.993	252.44
370.219	235.44
370.445	217.44
370.672	229.44
370.898	220.44
371.124	214.44
371.35	232.44
371.576	236.44
371.802	222.44
372.028	224.44
372.254	221.44
372.48	248.44
372.706	245.44
372.932	239.44
373.158	254.44
373.384	265.44
373.61	316.44
373.835	464.44
374.061	553.44
374.287	513.44
374.513	360.44
374.739	303.44
374.965	253.44
375.191	247.44
375.416	246.44
375.642	234.44
375.868	227.44
376.094	227.44
376.319	220.44
376.545	194.44
376.771	211.44
376.997	206.44
377.222	215.44
377.448	213.44
377.674	207.44
377.899	215.44
378.125	219.44
378.35	216.44
378.576	231.44
378.802	239.44
379.027	217.44
379.253	234.44
379.478	208.44
379.704	209.44
379.929	214.44
380.155	184.44
380.38	210.44
380.606	201.44
380.831	204.44
381.057	219.44
381.282	209.44
381.507	204.44
381.733	202.44
381.958	209.44
382.184	220.44
382.409	211.44
382.634	193.44
382.86	202.44
383.085	211.44
383.31	190.44
383.535	229.44
383.761	207.44
383.986	227.44
384.211	209.44
384.436	202.44
384.662	210.44
384.887	231.44
385.112	221.44
385.337	217.44
385.562	211.44
385.787	226.44
386.013	216.44
386.238	227.44
386.463	211.44
386.688	218.44
386.913	219.44
387.138	232.44
387.363	213.44
387.588	213.44
387.813	214.44
388.038	217.44
388.263	223.44
388.488	208.44
388.713	212.44
388.938	202.44
389.163	194.44
389.387	221.44
389.612	221.44
389.837	227.44
390.062	212.44
390.287	213.44
390.512	200.44
390.736	207.44
390.961	211.44
391.186	213.44
391.411	215.44
391.636	209.44
391.86	219.44
392.085	218.44
392.31	218.44
392.534	223.44
392.759	219.44
392.984	229.44
393.208	219.44
393.433	215.44
393.658	216.44
393.882	193.44
394.107	220.44
394.331	218.44
394.556	215.44
394.78	219.44
395.005	209.44
395.229	211.44
395.454	211.44
395.678	218.44
395.903	222.44
396.127	217.44
396.352	223.44
396.576	213.44
396.801	217.44
397.025	224.44
397.249	230.44
397.474	231.44
397.698	233.44
397.922	232.44
398.147	222.44
398.371	231.44
398.595	231.44
398.82	242.44
399.044	223.44
399.268	252.44
399.492	256.44
399.717	267.44
399.941	276.44
400.165	270.44
400.389	255.44
400.613	246.44
400.837	250.44
401.062	248.44
401.286	245.44
401.51	243.44
401.734	264.44
401.958	299.44
402.182	285.44
402.406	262.44
402.63	230.44
402.854	243.44
403.078	245.44
403.302	246.44
403.526	268.44
403.75	254.44
403.974	267.44
404.198	272.44
404.422	280.44
404.645	306.44
404.869	308.44
405.093	376.44
405.317	451.44
405.541	681.44
405.765	1084.44
405.988	1255.44
406.212	900.44
406.436	641.44
406.66	456.44
406.883	396.44
407.107	368.44
407.331	317.44
407.555	326.44
407.778	301.44
408.002	301.44
408.226	292.44
408.449	267.44
408.673	249.44
408.896	257.44
409.12	255.44
409.344	260.44
409.567	267.44
409.791	249.44
410.014	248.44
410.238	241.44
410.461	244.44
410.685	256.44
410.908	261.44
411.132	246.44
411.355	256.44
411.578	258.44
411.802	232.44
412.025	254.44
412.249	235.44
412.472	246.44
412.695	225.44
412.919	234.44
413.142	256.44
413.365	233.44
413.589	257.44
413.812	239.44
414.035	230.44
414.258	221.44
414.482	223.44
414.705	229.44
414.928	231.44
415.151	236.44
415.374	252.44
415.597	228.44
415.821	224.44
416.044	247.44
416.267	229.44
416.49	247.44
416.713	247.44
416.936	253.44
417.159	243.44
417.382	232.44
417.605	244.44
417.828	249.44
418.051	241.44
418.274	224.44
418.497	228.44
418.72	222.44
418.943	220.44
419.166	238.44
419.389	266.44
419.611	265.44
419.834	262.44
420.057	240.44
420.28	219.44
420.503	248.44
420.726	236.44
420.948	260.44
421.171	248.44
421.394	221.44
421.617	260.44
421.839	233.44
422.062	249.44
422.285	270.44
422.507	278.44
422.73	276.44
422.953	299.44
423.175	293.44
423.398	283.44
423.621	339.44
423.843	368.44
424.066	383.44
424.288	471.44
424.511	554.44
424.733	625.44
424.956	555.44
425.178	465.44
425.401	423.44
425.623	391.44
425.846	357.44
426.068	343.44
426.291	317.44
426.513	298.44
426.735	299.44
426.958	293.44
427.18	286.44
427.402	282.44
427.625	287.44
427.847	269.44
428.069	265.44
428.292	265.44
428.514	255.44
428.736	253.44
428.958	238.44
429.181	240.44
429.403	252.44
429.625	243.44
429.847	241.44
430.069	239.44
430.292	233.44
430.514	231.44
430.736	241.44
430.958	240.44
431.18	234.44
431.402	237.44
431.624	260.44
431.846	243.44
432.068	257.44
432.29	248.44
432.512	222.44
432.734	231.44
432.956	230.44
433.178	249.44
433.4	243.44
433.622	255.44
433.844	255.44
434.066	279.44
434.287	273.44
434.509	250.44
434.731	248.44
434.953	266.44
435.175	257.44
435.397	255.44
435.618	259.44
435.84	261.44
436.062	256.44
436.284	259.44
436.505	254.44
436.727	270.44
436.949	294.44
437.17	254.44
437.392	298.44
437.614	302.44
437.835	312.44
438.057	341.44
438.278	365.44
438.5	445.44
438.721	524.44
438.943	576.44
439.165	489.44
439.386	459.44
439.608	421.44
439.829	383.44
440.05	371.44
440.272	359.44
440.493	378.44
440.715	390.44
440.936	416.44
441.158	395.44
441.379	352.44
441.6	339.44
441.822	315.44
442.043	314.44
442.264	303.44
442.486	281.44
442.707	287.44
442.928	267.44
443.149	267.44
443.371	267.44
443.592	271.44
443.813	275.44
444.034	244.44
444.255	253.44
444.476	270.44
444.698	232.44
444.919	250.44
445.14	316.44
445.361	267.44
445.582	233.44
445.803	231.44
446.024	233.44
446.245	245.44
446.466	241.44
446.687	245.44
446.908	234.44
447.129	227.44
447.35	248.44
447.571	229.44
447.792	249.44
448.013	221.44
448.234	219.44
448.455	220.44
448.675	208.44
448.896	212.44
449.117	246.44
449.338	217.44
449.559	226.44
449.779	222.44
450	232.44
450.221	240.44
450.442	212.44
450.662	213.44
450.883	178.44
451.104	207.44
451.324	230.44
451.545	204.44
451.766	204.44
451.986	204.44
452.207	209.44
452.428	192.44
452.648	210.44
452.869	215.44
453.089	211.44
453.31	216.44
453.53	197.44
453.751	215.44
453.971	213.44
454.192	192.44
454.412	193.44
454.633	218.44
454.853	211.44
455.073	205.44
455.294	190.44
455.514	193.44
455.734	194.44
455.955	207.44
456.175	205.44
456.395	196.44
456.616	192.44
456.836	204.44
457.056	202.44
457.276	193.44
457.497	211.44
457.717	208.44
457.937	210.44
458.157	209.44
458.377	203.44
458.598	190.44
458.818	206.44
459.038	215.44
459.258	207.44
459.478	203.44
459.698	204.44
459.918	207.44
460.138	207.44
460.358	221.44
460.578	213.44
460.798	219.44
461.018	236.44
461.238	217.44
461.458	220.44
461.678	224.44
461.898	220.44
462.118	217.44
462.338	217.44
462.558	240.44
462.777	229.44
462.997	263.44
463.217	223.44
463.437	229.44
463.657	235.44
463.876	224.44
464.096	215.44
464.316	212.44
464.536	225.44
464.755	231.44
464.975	214.44
465.195	237.44
465.414	222.44
465.634	191.44
465.854	213.44
466.073	215.44
466.293	200.44
466.512	206.44
466.732	215.44
466.951	211.44
467.171	209.44
467.391	211.44
467.61	216.44
467.829	215.44
468.049	211.44
468.268	203.44
468.488	210.44
468.707	187.44
468.927	203.44
469.146	220.44
469.365	191.44
469.585	203.44
469.804	219.44
470.023	211.44
470.243	212.44
470.462	199.44
470.681	205.44
470.901	204.44
471.12	213.44
471.339	233.44
471.558	207.44
471.777	211.44
471.997	197.44
472.216	212.44
472.435	208.44
472.654	195.44
472.873	207.44
473.092	198.44
473.311	195.44
473.53	204.44
473.749	212.44
473.968	208.44
474.187	203.44
474.406	204.44
474.625	202.44
474.844	212.44
475.063	211.44
475.282	221.44
475.501	216.44
475.72	207.44
475.939	227.44
476.158	218.44
476.377	228.44
476.596	218.44
476.814	219.44
477.033	209.44
477.252	216.44
477.471	235.44
477.69	233.44
477.908	229.44
478.127	233.44
478.346	243.44
478.564	241.44
478.783	242.44
479.002	243.44
479.22	237.44
479.439	249.44
479.658	256.44
479.876	248.44
480.095	237.44
480.313	267.44
480.532	257.44
480.751	244.44
480.969	254.44
481.188	230.44
481.406	234.44
481.624	230.44
481.843	230.44
482.061	220.44
482.28	231.44
482.498	235.44
482.717	243.44
482.935	245.44
483.153	245.44
483.372	230.44
483.59	226.44
483.808	241.44
484.027	235.44
484.245	233.44
484.463	242.44
484.681	246.44
484.9	240.44
485.118	231.44
485.336	233.44
485.554	239.44
485.772	225.44
485.99	239.44
486.209	251.44
486.427	233.44
486.645	252.44
486.863	237.44
487.081	243.44
487.299	235.44
487.517	232.44
487.735	233.44
487.953	259.44
488.171	239.44
488.389	238.44
488.607	254.44
488.825	227.44
489.043	227.44
489.261	262.44
489.479	252.44
489.696	235.44
489.914	246.44
490.132	241.44
490.35	227.44
490.568	239.44
490.786	239.44
491.003	261.44
491.221	256.44
491.439	248.44
491.657	230.44
491.874	253.44
492.092	250.44
492.31	254.44
492.527	254.44
492.745	253.44
492.963	256.44
493.18	238.44
493.398	251.44
493.615	250.44
493.833	243.44
494.05	236.44
494.268	248.44
494.485	257.44
494.703	264.44
494.92	250.44
495.138	255.44
495.355	265.44
495.573	289.44
495.79	280.44
496.008	279.44
496.225	287.44
496.442	273.44
496.66	275.44
496.877	262.44
497.094	253.44
497.312	285.44
497.529	277.44
497.746	264.44
497.963	276.44
498.181	283.44
498.398	296.44
498.615	304.44
498.832	289.44
499.049	307.44
499.267	309.44
499.484	326.44
499.701	351.44
499.918	338.44
500.135	383.44
500.352	370.44
500.569	442.44
500.786	491.44
501.003	416.44
501.22	381.44
501.437	374.44
501.654	359.44
501.871	350.44
502.088	327.44
502.305	309.44
502.522	302.44
502.739	304.44
502.956	317.44
503.172	311.44
503.389	305.44
503.606	312.44
