Data from StdB_HRD10591_040.txt Node
Date: Fri May 16 15:25:06 EDT 2025
User: Yrep
Spectrometer: HR+D1059
Trigger mode: 1
Integration Time (sec): 1.000000E-1
Scans to average: 1
Electric dark correction enabled: true
Nonlinearity correction enabled: false
Boxcar width: 0
XAxis mode: Wavelengths
Number of Pixels in Spectrum: 2048
>>>>>Begin Spectral Data<<<<<
223.165	-19.69
223.4	-19.69
223.635	-19.69
223.869	-16.69
224.104	-27.69
224.338	-10.69
224.573	-26.69
224.808	-14.69
225.042	-18.69
225.277	8.31
225.511	7.31
225.746	-2.69
225.98	2.31
226.215	10.31
226.449	28.31
226.683	21.31
226.918	27.31
227.152	32.31
227.387	40.31
227.621	40.31
227.856	67.31
228.09	43.31
228.324	64.31
228.559	65.31
228.793	58.31
229.027	61.31
229.262	83.31
229.496	75.31
229.73	76.31
229.964	85.31
230.199	88.31
230.433	77.31
230.667	81.31
230.901	87.31
231.136	64.31
231.37	78.31
231.604	89.31
231.838	79.31
232.072	80.31
232.306	82.31
232.541	79.31
232.775	94.31
233.009	88.31
233.243	78.31
233.477	81.31
233.711	75.31
233.945	80.31
234.179	81.31
234.413	76.31
234.647	74.31
234.881	74.31
235.115	83.31
235.349	80.31
235.583	72.31
235.817	75.31
236.051	81.31
236.285	82.31
236.519	100.31
236.753	79.31
236.987	83.31
237.221	77.31
237.455	79.31
237.689	79.31
237.922	76.31
238.156	74.31
238.39	69.31
238.624	86.31
238.858	65.31
239.091	76.31
239.325	84.31
239.559	70.31
239.793	91.31
240.027	79.31
240.26	75.31
240.494	64.31
240.728	63.31
240.961	82.31
241.195	82.31
241.429	94.31
241.662	79.31
241.896	79.31
242.13	93.31
242.363	81.31
242.597	78.31
242.83	78.31
243.064	86.31
243.298	78.31
243.531	82.31
243.765	75.31
243.998	82.31
244.232	73.31
244.465	93.31
244.699	93.31
244.932	73.31
245.166	85.31
245.399	74.31
245.633	81.31
245.866	84.31
246.099	75.31
246.333	83.31
246.566	68.31
246.8	73.31
247.033	84.31
247.266	78.31
247.5	83.31
247.733	94.31
247.966	69.31
248.2	85.31
248.433	84.31
248.666	81.31
248.899	85.31
249.133	82.31
249.366	77.31
249.599	70.31
249.832	70.31
250.066	77.31
250.299	72.31
250.532	81.31
250.765	75.31
250.998	86.31
251.231	90.31
251.465	96.31
251.698	84.31
251.931	62.31
252.164	77.31
252.397	87.31
252.63	96.31
252.863	76.31
253.096	83.31
253.329	87.31
253.562	91.31
253.795	75.31
254.028	88.31
254.261	87.31
254.494	70.31
254.727	82.31
254.96	92.31
255.193	91.31
255.426	80.31
255.659	83.31
255.892	96.31
256.124	84.31
256.357	91.31
256.59	87.31
256.823	74.31
257.056	81.31
257.289	82.31
257.521	70.31
257.754	95.31
257.987	83.31
258.22	92.31
258.452	79.31
258.685	84.31
258.918	88.31
259.151	89.31
259.383	93.31
259.616	78.31
259.849	96.31
260.081	94.31
260.314	88.31
260.547	82.31
260.779	96.31
261.012	84.31
261.244	101.31
261.477	113.31
261.71	105.31
261.942	92.31
262.175	81.31
262.407	81.31
262.64	91.31
262.872	77.31
263.105	90.31
263.337	78.31
263.57	80.31
263.802	91.31
264.035	91.31
264.267	82.31
264.499	91.31
264.732	89.31
264.964	73.31
265.197	85.31
265.429	88.31
265.661	96.31
265.894	91.31
266.126	84.31
266.358	76.31
266.591	111.31
266.823	91.31
267.055	83.31
267.287	78.31
267.52	94.31
267.752	79.31
267.984	82.31
268.216	76.31
268.448	79.31
268.681	77.31
268.913	78.31
269.145	93.31
269.377	91.31
269.609	79.31
269.841	84.31
270.073	77.31
270.306	89.31
270.538	80.31
270.77	85.31
271.002	84.31
271.234	75.31
271.466	83.31
271.698	90.31
271.93	88.31
272.162	88.31
272.394	89.31
272.626	86.31
272.858	92.31
273.09	78.31
273.322	89.31
273.553	92.31
273.785	83.31
274.017	97.31
274.249	89.31
274.481	78.31
274.713	76.31
274.945	83.31
275.176	83.31
275.408	82.31
275.64	81.31
275.872	61.31
276.104	69.31
276.335	83.31
276.567	77.31
276.799	83.31
277.031	83.31
277.262	89.31
277.494	79.31
277.726	77.31
277.957	73.31
278.189	79.31
278.421	92.31
278.652	84.31
278.884	101.31
279.115	90.31
279.347	89.31
279.579	87.31
279.81	106.31
280.042	95.31
280.273	125.31
280.505	119.31
280.736	99.31
280.968	95.31
281.199	100.31
281.431	95.31
281.662	94.31
281.894	85.31
282.125	103.31
282.356	90.31
282.588	101.31
282.819	92.31
283.051	88.31
283.282	125.31
283.513	133.31
283.745	101.31
283.976	76.31
284.207	81.31
284.439	87.31
284.67	89.31
284.901	80.31
285.132	93.31
285.364	91.31
285.595	92.31
285.826	82.31
286.057	92.31
286.288	85.31
286.52	74.31
286.751	89.31
286.982	96.31
287.213	106.31
287.444	118.31
287.675	94.31
287.906	103.31
288.138	91.31
288.369	76.31
288.6	77.31
288.831	78.31
289.062	82.31
289.293	94.31
289.524	91.31
289.755	79.31
289.986	75.31
290.217	80.31
290.448	82.31
290.679	74.31
290.91	96.31
291.141	80.31
291.371	91.31
291.602	92.31
291.833	80.31
292.064	98.31
292.295	77.31
292.526	89.31
292.757	92.31
292.987	87.31
293.218	81.31
293.449	84.31
293.68	74.31
293.91	86.31
294.141	77.31
294.372	97.31
294.603	86.31
294.833	88.31
295.064	79.31
295.295	83.31
295.525	88.31
295.756	89.31
295.987	92.31
296.217	86.31
296.448	93.31
296.679	88.31
296.909	83.31
297.14	69.31
297.37	79.31
297.601	82.31
297.831	91.31
298.062	81.31
298.292	87.31
298.523	75.31
298.753	82.31
298.984	81.31
299.214	79.31
299.445	86.31
299.675	79.31
299.905	86.31
300.136	81.31
300.366	85.31
300.597	75.31
300.827	72.31
301.057	84.31
301.288	83.31
301.518	88.31
301.748	93.31
301.979	99.31
302.209	91.31
302.439	80.31
302.669	94.31
302.9	87.31
303.13	76.31
303.36	89.31
303.59	79.31
303.82	77.31
304.051	83.31
304.281	89.31
304.511	85.31
304.741	76.31
304.971	100.31
305.201	82.31
305.431	89.31
305.661	79.31
305.891	96.31
306.121	92.31
306.352	92.31
306.582	84.31
306.812	76.31
307.042	79.31
307.272	83.31
307.502	89.31
307.731	96.31
307.961	81.31
308.191	91.31
308.421	81.31
308.651	90.31
308.881	95.31
309.111	86.31
309.341	82.31
309.571	82.31
309.8	93.31
310.03	91.31
310.26	85.31
310.49	79.31
310.72	84.31
310.949	87.31
311.179	83.31
311.409	79.31
311.639	84.31
311.868	97.31
312.098	92.31
312.328	84.31
312.557	87.31
312.787	94.31
313.017	87.31
313.246	74.31
313.476	87.31
313.706	93.31
313.935	85.31
314.165	100.31
314.394	83.31
314.624	83.31
314.853	95.31
315.083	92.31
315.312	90.31
315.542	96.31
315.771	90.31
316.001	97.31
316.23	81.31
316.46	73.31
316.689	94.31
316.919	84.31
317.148	88.31
317.377	85.31
317.607	84.31
317.836	83.31
318.065	74.31
318.295	80.31
318.524	89.31
318.753	83.31
318.983	88.31
319.212	87.31
319.441	96.31
319.67	77.31
319.9	90.31
320.129	96.31
320.358	84.31
320.587	84.31
320.816	94.31
321.046	87.31
321.275	81.31
321.504	79.31
321.733	85.31
321.962	84.31
322.191	94.31
322.42	84.31
322.649	96.31
322.878	95.31
323.108	91.31
323.337	95.31
323.566	89.31
323.795	85.31
324.024	66.31
324.253	77.31
324.482	75.31
324.71	92.31
324.939	85.31
325.168	76.31
325.397	88.31
325.626	81.31
325.855	91.31
326.084	83.31
326.313	83.31
326.542	93.31
326.77	85.31
326.999	94.31
327.228	80.31
327.457	81.31
327.686	94.31
327.914	82.31
328.143	76.31
328.372	92.31
328.6	80.31
328.829	66.31
329.058	68.31
329.287	89.31
329.515	95.31
329.744	86.31
329.972	92.31
330.201	79.31
330.43	78.31
330.658	86.31
330.887	98.31
331.115	92.31
331.344	104.31
331.572	83.31
331.801	95.31
332.03	87.31
332.258	90.31
332.486	94.31
332.715	84.31
332.943	82.31
333.172	90.31
333.4	74.31
333.629	95.31
333.857	94.31
334.085	82.31
334.314	84.31
334.542	81.31
334.771	82.31
334.999	73.31
335.227	79.31
335.455	83.31
335.684	88.31
335.912	83.31
336.14	77.31
336.369	80.31
336.597	97.31
336.825	95.31
337.053	68.31
337.281	88.31
337.51	89.31
337.738	88.31
337.966	83.31
338.194	89.31
338.422	75.31
338.65	97.31
338.878	79.31
339.106	88.31
339.334	85.31
339.562	72.31
339.79	84.31
340.018	87.31
340.246	74.31
340.474	100.31
340.702	71.31
340.93	89.31
341.158	83.31
341.386	98.31
341.614	75.31
341.842	100.31
342.07	90.31
342.298	89.31
342.526	84.31
342.754	68.31
342.981	104.31
343.209	90.31
343.437	93.31
343.665	91.31
343.893	79.31
344.12	69.31
344.348	80.31
344.576	88.31
344.804	81.31
345.031	88.31
345.259	75.31
345.487	78.31
345.714	83.31
345.942	82.31
346.17	101.31
346.397	91.31
346.625	83.31
346.853	84.31
347.08	87.31
347.308	99.31
347.535	81.31
347.763	85.31
347.99	89.31
348.218	85.31
348.445	80.31
348.673	82.31
348.9	71.31
349.128	84.31
349.355	71.31
349.583	82.31
349.81	78.31
350.037	82.31
350.265	106.31
350.492	89.31
350.72	90.31
350.947	86.31
351.174	84.31
351.402	76.31
351.629	83.31
351.856	82.31
352.083	79.31
352.311	98.31
352.538	92.31
352.765	94.31
352.992	79.31
353.22	72.31
353.447	82.31
353.674	97.31
353.901	87.31
354.128	88.31
354.355	86.31
354.583	77.31
354.81	91.31
355.037	88.31
355.264	76.31
355.491	79.31
355.718	89.31
355.945	98.31
356.172	100.31
356.399	88.31
356.626	94.31
356.853	108.31
357.08	139.31
357.307	154.31
357.534	117.31
357.761	100.31
357.988	100.31
358.215	83.31
358.441	82.31
358.668	89.31
358.895	75.31
359.122	76.31
359.349	84.31
359.576	81.31
359.802	82.31
360.029	89.31
360.256	90.31
360.483	80.31
360.709	89.31
360.936	90.31
361.163	87.31
361.39	81.31
361.616	79.31
361.843	82.31
362.07	90.31
362.296	80.31
362.523	95.31
362.749	84.31
362.976	80.31
363.203	103.31
363.429	119.31
363.656	142.31
363.882	194.31
364.109	218.31
364.335	144.31
364.562	91.31
364.788	83.31
365.015	102.31
365.241	99.31
365.468	92.31
365.694	82.31
365.92	89.31
366.147	80.31
366.373	78.31
366.599	97.31
366.826	109.31
367.052	117.31
367.278	132.31
367.505	112.31
367.731	103.31
367.957	132.31
368.184	232.31
368.41	275.31
368.636	214.31
368.862	118.31
369.089	93.31
369.315	81.31
369.541	98.31
369.767	89.31
369.993	74.31
370.219	94.31
370.445	91.31
370.672	111.31
370.898	79.31
371.124	82.31
371.35	81.31
371.576	80.31
371.802	93.31
372.028	84.31
372.254	78.31
372.48	80.31
372.706	81.31
372.932	91.31
373.158	98.31
373.384	104.31
373.61	106.31
373.835	135.31
374.061	152.31
374.287	134.31
374.513	93.31
374.739	90.31
374.965	81.31
375.191	90.31
375.416	82.31
375.642	85.31
375.868	103.31
376.094	76.31
376.319	89.31
376.545	84.31
376.771	91.31
376.997	91.31
377.222	90.31
377.448	88.31
377.674	88.31
377.899	81.31
378.125	94.31
378.35	80.31
378.576	85.31
378.802	84.31
379.027	81.31
379.253	83.31
379.478	77.31
379.704	95.31
379.929	97.31
380.155	82.31
380.38	82.31
380.606	79.31
380.831	67.31
381.057	98.31
381.282	102.31
381.507	89.31
381.733	85.31
381.958	95.31
382.184	81.31
382.409	72.31
382.634	88.31
382.86	86.31
383.085	90.31
383.31	90.31
383.535	81.31
383.761	67.31
383.986	79.31
384.211	64.31
384.436	83.31
384.662	84.31
384.887	85.31
385.112	93.31
385.337	84.31
385.562	87.31
385.787	79.31
386.013	91.31
386.238	79.31
386.463	85.31
386.688	101.31
386.913	78.31
387.138	97.31
387.363	89.31
387.588	73.31
387.813	99.31
388.038	106.31
388.263	91.31
388.488	100.31
388.713	93.31
388.938	88.31
389.163	83.31
389.387	86.31
389.612	88.31
389.837	87.31
390.062	83.31
390.287	100.31
390.512	91.31
390.736	95.31
390.961	78.31
391.186	95.31
391.411	86.31
391.636	94.31
391.86	75.31
392.085	75.31
392.31	92.31
392.534	96.31
392.759	85.31
392.984	82.31
393.208	80.31
393.433	80.31
393.658	75.31
393.882	85.31
394.107	81.31
394.331	80.31
394.556	81.31
394.78	79.31
395.005	91.31
395.229	81.31
395.454	80.31
395.678	90.31
395.903	74.31
396.127	84.31
396.352	89.31
396.576	81.31
396.801	82.31
397.025	85.31
397.249	96.31
397.474	79.31
397.698	88.31
397.922	88.31
398.147	87.31
398.371	83.31
398.595	95.31
398.82	78.31
399.044	85.31
399.268	83.31
399.492	87.31
399.717	86.31
399.941	95.31
400.165	90.31
400.389	94.31
400.613	86.31
400.837	89.31
401.062	79.31
401.286	90.31
401.51	87.31
401.734	89.31
401.958	107.31
402.182	111.31
402.406	91.31
402.63	84.31
402.854	83.31
403.078	87.31
403.302	105.31
403.526	96.31
403.75	81.31
403.974	81.31
404.198	89.31
404.422	86.31
404.645	79.31
404.869	89.31
405.093	112.31
405.317	129.31
405.541	237.31
405.765	400.31
405.988	426.31
406.212	235.31
406.436	156.31
406.66	111.31
406.883	97.31
407.107	69.31
407.331	79.31
407.555	89.31
407.778	84.31
408.002	73.31
408.226	85.31
408.449	83.31
408.673	78.31
408.896	82.31
409.12	84.31
409.344	77.31
409.567	80.31
409.791	77.31
410.014	88.31
410.238	96.31
410.461	77.31
410.685	89.31
410.908	88.31
411.132	83.31
411.355	85.31
411.578	90.31
411.802	87.31
412.025	83.31
412.249	82.31
412.472	84.31
412.695	85.31
412.919	83.31
413.142	86.31
413.365	84.31
413.589	83.31
413.812	79.31
414.035	85.31
414.258	93.31
414.482	80.31
414.705	65.31
414.928	83.31
415.151	79.31
415.374	84.31
415.597	81.31
415.821	92.31
416.044	79.31
416.267	91.31
416.49	92.31
416.713	103.31
416.936	94.31
417.159	92.31
417.382	81.31
417.605	87.31
417.828	75.31
418.051	88.31
418.274	87.31
418.497	68.31
418.72	72.31
418.943	95.31
419.166	93.31
419.389	83.31
419.611	90.31
419.834	100.31
420.057	81.31
420.28	90.31
420.503	79.31
420.726	74.31
420.948	90.31
421.171	81.31
421.394	76.31
421.617	77.31
421.839	83.31
422.062	78.31
422.285	83.31
422.507	90.31
422.73	74.31
422.953	81.31
423.175	80.31
423.398	77.31
423.621	82.31
423.843	91.31
424.066	79.31
424.288	87.31
424.511	77.31
424.733	82.31
424.956	85.31
425.178	93.31
425.401	83.31
425.623	83.31
425.846	74.31
426.068	69.31
426.291	84.31
426.513	83.31
426.735	67.31
426.958	89.31
427.18	100.31
427.402	91.31
427.625	90.31
427.847	100.31
428.069	96.31
428.292	77.31
428.514	92.31
428.736	94.31
428.958	94.31
429.181	99.31
429.403	88.31
429.625	76.31
429.847	88.31
430.069	90.31
430.292	97.31
430.514	86.31
430.736	80.31
430.958	83.31
431.18	87.31
431.402	83.31
431.624	80.31
431.846	83.31
432.068	89.31
432.29	100.31
432.512	90.31
432.734	108.31
432.956	91.31
433.178	93.31
433.4	89.31
433.622	88.31
433.844	74.31
434.066	94.31
434.287	82.31
434.509	87.31
434.731	79.31
434.953	88.31
435.175	83.31
435.397	96.31
435.618	81.31
435.84	85.31
436.062	78.31
436.284	93.31
436.505	74.31
436.727	80.31
436.949	81.31
437.17	76.31
437.392	78.31
437.614	85.31
437.835	99.31
438.057	82.31
438.278	79.31
438.5	85.31
438.721	77.31
438.943	91.31
439.165	88.31
439.386	82.31
439.608	91.31
439.829	79.31
440.05	88.31
440.272	88.31
440.493	86.31
440.715	82.31
440.936	92.31
441.158	77.31
441.379	83.31
441.6	94.31
441.822	82.31
442.043	76.31
442.264	97.31
442.486	98.31
442.707	65.31
442.928	69.31
443.149	67.31
443.371	79.31
443.592	76.31
443.813	71.31
444.034	84.31
444.255	71.31
444.476	78.31
444.698	90.31
444.919	92.31
445.14	153.31
445.361	121.31
445.582	79.31
445.803	78.31
446.024	92.31
446.245	75.31
446.466	88.31
446.687	89.31
446.908	71.31
447.129	75.31
447.35	89.31
447.571	90.31
447.792	84.31
448.013	67.31
448.234	81.31
448.455	76.31
448.675	93.31
448.896	82.31
449.117	93.31
449.338	73.31
449.559	94.31
449.779	98.31
450	82.31
450.221	84.31
450.442	92.31
450.662	79.31
450.883	74.31
451.104	90.31
451.324	89.31
451.545	81.31
451.766	93.31
451.986	76.31
452.207	84.31
452.428	81.31
452.648	96.31
452.869	85.31
453.089	83.31
453.31	90.31
453.53	87.31
453.751	100.31
453.971	88.31
454.192	85.31
454.412	70.31
454.633	86.31
454.853	87.31
455.073	85.31
455.294	81.31
455.514	71.31
455.734	100.31
455.955	97.31
456.175	86.31
456.395	96.31
456.616	91.31
456.836	81.31
457.056	91.31
457.276	92.31
457.497	83.31
457.717	91.31
457.937	97.31
458.157	89.31
458.377	65.31
458.598	77.31
458.818	85.31
459.038	74.31
459.258	63.31
459.478	92.31
459.698	85.31
459.918	76.31
460.138	82.31
460.358	80.31
460.578	88.31
460.798	84.31
461.018	93.31
461.238	100.31
461.458	95.31
461.678	104.31
461.898	89.31
462.118	88.31
462.338	87.31
462.558	85.31
462.777	73.31
462.997	81.31
463.217	80.31
463.437	84.31
463.657	65.31
463.876	96.31
464.096	80.31
464.316	92.31
464.536	86.31
464.755	85.31
464.975	87.31
465.195	100.31
465.414	87.31
465.634	86.31
465.854	95.31
466.073	87.31
466.293	81.31
466.512	94.31
466.732	74.31
466.951	77.31
467.171	76.31
467.391	80.31
467.61	94.31
467.829	84.31
468.049	69.31
468.268	70.31
468.488	80.31
468.707	85.31
468.927	89.31
469.146	76.31
469.365	82.31
469.585	83.31
469.804	83.31
470.023	85.31
470.243	79.31
470.462	69.31
470.681	87.31
470.901	79.31
471.12	92.31
471.339	84.31
471.558	96.31
471.777	76.31
471.997	87.31
472.216	86.31
472.435	81.31
472.654	78.31
472.873	81.31
473.092	96.31
473.311	74.31
473.53	78.31
473.749	84.31
473.968	87.31
474.187	79.31
474.406	81.31
474.625	89.31
474.844	96.31
475.063	80.31
475.282	106.31
475.501	88.31
475.72	99.31
475.939	91.31
476.158	81.31
476.377	81.31
476.596	80.31
476.814	83.31
477.033	74.31
477.252	87.31
477.471	84.31
477.69	81.31
477.908	87.31
478.127	88.31
478.346	94.31
478.564	86.31
478.783	84.31
479.002	93.31
479.22	90.31
479.439	88.31
479.658	87.31
479.876	88.31
480.095	78.31
480.313	69.31
480.532	91.31
480.751	89.31
480.969	81.31
481.188	89.31
481.406	84.31
481.624	96.31
481.843	83.31
482.061	87.31
482.28	83.31
482.498	100.31
482.717	77.31
482.935	88.31
483.153	84.31
483.372	88.31
483.59	83.31
483.808	90.31
484.027	86.31
484.245	86.31
484.463	75.31
484.681	95.31
484.9	77.31
485.118	98.31
485.336	76.31
485.554	72.31
485.772	83.31
485.99	81.31
486.209	101.31
486.427	80.31
486.645	93.31
486.863	89.31
487.081	89.31
487.299	85.31
487.517	92.31
487.735	81.31
487.953	88.31
488.171	91.31
488.389	89.31
488.607	81.31
488.825	91.31
489.043	85.31
489.261	85.31
489.479	84.31
489.696	73.31
489.914	87.31
490.132	79.31
490.35	76.31
490.568	68.31
490.786	88.31
491.003	83.31
491.221	85.31
491.439	86.31
491.657	88.31
491.874	94.31
492.092	88.31
492.31	101.31
492.527	85.31
492.745	88.31
492.963	88.31
493.18	80.31
493.398	89.31
493.615	86.31
493.833	83.31
494.05	76.31
494.268	94.31
494.485	89.31
494.703	91.31
494.92	94.31
495.138	88.31
495.355	83.31
495.573	85.31
495.79	73.31
496.008	87.31
496.225	94.31
496.442	90.31
496.66	97.31
496.877	79.31
497.094	92.31
497.312	99.31
497.529	86.31
497.746	81.31
497.963	90.31
498.181	75.31
498.398	96.31
498.615	103.31
498.832	90.31
499.049	82.31
499.267	90.31
499.484	86.31
499.701	88.31
499.918	92.31
500.135	77.31
500.352	93.31
500.569	134.31
500.786	153.31
501.003	97.31
501.22	85.31
501.437	84.31
501.654	87.31
501.871	85.31
502.088	89.31
502.305	87.31
502.522	85.31
502.739	87.31
502.956	100.31
503.172	91.31
503.389	95.31
503.606	94.31
503.823	89.31
504.04	84.31
504.256	79.31
504.473	95.31
504.69	84.31
504.907	87.31
505.123	87.31
505.34	79.31
505.557	84.31
505.773	95.31
505.99	87.31
506.207	90.31
506.423	81.31
506.64	91.31
506.856	95.31
507.073	89.31
507.289	91.31
507.506	97.31
507.722	90.31
507.939	79.31
508.155	79.31
508.372	91.31
508.588	92.31
508.805	83.31
509.021	84.31
509.238	96.31
509.454	96.31
509.67	82.31
509.887	104.31
510.103	95.31
510.319	85.31
510.536	91.31
510.752	81.31
510.968	81.31
511.184	100.31
511.401	80.31
511.617	98.31
511.833	78.31
512.049	84.31
512.265	90.31
512.481	91.31
512.698	83.31
512.914	81.31
513.13	98.31
513.346	87.31
513.562	83.31
513.778	82.31
513.994	91.31
514.21	99.31
514.426	82.31
514.642	95.31
514.858	84.31
515.074	79.31
515.29	72.31
515.506	95.31
515.721	82.31
515.937	100.31
516.153	77.31
516.369	87.31
516.585	91.31
516.801	80.31
517.016	91.31
517.232	104.31
517.448	77.31
517.664	97.31
517.879	79.31
518.095	93.31
518.311	93.31
518.527	73.31
518.742	80.31
518.958	78.31
