Data from StdB_HRD10591_092.txt Node
Date: Fri May 16 15:25:32 EDT 2025
User: Yrep
Spectrometer: HR+D1059
Trigger mode: 1
Integration Time (sec): 1.000000E-1
Scans to average: 1
Electric dark correction enabled: true
Nonlinearity correction enabled: false
Boxcar width: 0
XAxis mode: Wavelengths
Number of Pixels in Spectrum: 2048
>>>>>Begin Spectral Data<<<<<
223.165	-11
223.4	-11
223.635	-11
223.869	-12
224.104	-16
224.338	-33
224.573	-18
224.808	-24
225.042	-8
225.277	-3
225.511	1
225.746	-4
225.98	-1
226.215	16
226.449	17
226.683	23
226.918	32
227.152	41
227.387	26
227.621	31
227.856	40
228.09	32
228.324	52
228.559	43
228.793	59
229.027	71
229.262	86
229.496	73
229.73	102
229.964	84
230.199	84
230.433	84
230.667	93
230.901	88
231.136	84
231.37	82
231.604	92
231.838	85
232.072	103
232.306	87
232.541	92
232.775	84
233.009	92
233.243	103
233.477	88
233.711	88
233.945	92
234.179	97
234.413	80
234.647	102
234.881	87
235.115	92
235.349	84
235.583	109
235.817	96
236.051	96
236.285	107
236.519	101
236.753	92
236.987	95
237.221	92
237.455	87
237.689	86
237.922	94
238.156	93
238.39	95
238.624	84
238.858	90
239.091	101
239.325	106
239.559	121
239.793	113
240.027	106
240.26	117
240.494	113
240.728	110
240.961	98
241.195	104
241.429	104
241.662	121
241.896	96
242.13	95
242.363	90
242.597	101
242.83	104
243.064	89
243.298	97
243.531	108
243.765	104
243.998	96
244.232	91
244.465	100
244.699	116
244.932	109
245.166	107
245.399	107
245.633	95
245.866	98
246.099	110
246.333	112
246.566	112
246.8	107
247.033	93
247.266	114
247.5	95
247.733	117
247.966	128
248.2	130
248.433	110
248.666	110
248.899	116
249.133	106
249.366	115
249.599	110
249.832	117
250.066	120
250.299	112
250.532	114
250.765	108
250.998	115
251.231	112
251.465	141
251.698	119
251.931	138
252.164	125
252.397	134
252.63	129
252.863	127
253.096	139
253.329	145
253.562	127
253.795	141
254.028	137
254.261	140
254.494	137
254.727	148
254.96	133
255.193	130
255.426	131
255.659	138
255.892	130
256.124	129
256.357	161
256.59	140
256.823	131
257.056	132
257.289	142
257.521	152
257.754	162
257.987	160
258.22	175
258.452	180
258.685	149
258.918	146
259.151	151
259.383	142
259.616	140
259.849	144
260.081	153
260.314	151
260.547	157
260.779	183
261.012	206
261.244	253
261.477	298
261.71	299
261.942	237
262.175	191
262.407	170
262.64	149
262.872	165
263.105	161
263.337	153
263.57	139
263.802	149
264.035	147
264.267	153
264.499	161
264.732	154
264.964	171
265.197	194
265.429	180
265.661	173
265.894	153
266.126	190
266.358	208
266.591	230
266.823	200
267.055	167
267.287	148
267.52	135
267.752	143
267.984	145
268.216	138
268.448	138
268.681	129
268.913	133
269.145	136
269.377	138
269.609	146
269.841	169
270.073	140
270.306	150
270.538	164
270.77	135
271.002	148
271.234	134
271.466	164
271.698	131
271.93	162
272.162	142
272.394	143
272.626	139
272.858	139
273.09	141
273.322	154
273.553	157
273.785	140
274.017	154
274.249	143
274.481	150
274.713	138
274.945	148
275.176	151
275.408	160
275.64	144
275.872	128
276.104	149
276.335	157
276.567	142
276.799	144
277.031	154
277.262	164
277.494	159
277.726	152
277.957	176
278.189	168
278.421	169
278.652	189
278.884	189
279.115	195
279.347	222
279.579	251
279.81	312
280.042	393
280.273	458
280.505	410
280.736	296
280.968	220
281.199	206
281.431	207
281.662	205
281.894	230
282.125	244
282.356	240
282.588	266
282.819	241
283.051	265
283.282	317
283.513	378
283.745	326
283.976	238
284.207	204
284.439	195
284.67	197
284.901	184
285.132	184
285.364	166
285.595	192
285.826	174
286.057	178
286.288	189
286.52	196
286.751	213
286.982	239
287.213	263
287.444	299
287.675	275
287.906	224
288.138	196
288.369	162
288.6	154
288.831	159
289.062	170
289.293	157
289.524	152
289.755	166
289.986	156
290.217	174
290.448	156
290.679	152
290.91	157
291.141	169
291.371	161
291.602	146
291.833	168
292.064	164
292.295	150
292.526	165
292.757	166
292.987	168
293.218	164
293.449	160
293.68	176
293.91	172
294.141	177
294.372	166
294.603	161
294.833	167
295.064	179
295.295	166
295.525	203
295.756	165
295.987	188
296.217	166
296.448	173
296.679	157
296.909	165
297.14	170
297.37	173
297.601	167
297.831	163
298.062	189
298.292	168
298.523	170
298.753	171
298.984	162
299.214	158
299.445	169
299.675	166
299.905	181
300.136	160
300.366	175
300.597	166
300.827	178
301.057	167
301.288	194
301.518	175
301.748	172
301.979	200
302.209	193
302.439	185
302.669	167
302.9	176
303.13	182
303.36	183
303.59	184
303.82	197
304.051	190
304.281	178
304.511	194
304.741	180
304.971	180
305.201	198
305.431	176
305.661	178
305.891	182
306.121	179
306.352	178
306.582	176
306.812	151
307.042	184
307.272	164
307.502	167
307.731	176
307.961	178
308.191	181
308.421	180
308.651	181
308.881	184
309.111	182
309.341	173
309.571	168
309.8	168
310.03	179
310.26	188
310.49	180
310.72	188
310.949	191
311.179	173
311.409	194
311.639	187
311.868	182
312.098	204
312.328	194
312.557	209
312.787	192
313.017	200
313.246	211
313.476	216
313.706	248
313.935	224
314.165	225
314.394	206
314.624	230
314.853	229
315.083	230
315.312	217
315.542	223
315.771	225
316.001	219
316.23	206
316.46	223
316.689	218
316.919	201
317.148	215
317.377	214
317.607	208
317.836	208
318.065	206
318.295	202
318.524	194
318.753	202
318.983	215
319.212	200
319.441	180
319.67	213
319.9	189
320.129	197
320.358	193
320.587	209
320.816	183
321.046	198
321.275	200
321.504	201
321.733	192
321.962	198
322.191	193
322.42	185
322.649	202
322.878	196
323.108	188
323.337	190
323.566	193
323.795	199
324.024	193
324.253	183
324.482	208
324.71	212
324.939	224
325.168	187
325.397	209
325.626	203
325.855	202
326.084	195
326.313	214
326.542	198
326.77	202
326.999	190
327.228	188
327.457	179
327.686	192
327.914	202
328.143	211
328.372	203
328.6	209
328.829	184
329.058	186
329.287	194
329.515	193
329.744	198
329.972	208
330.201	194
330.43	201
330.658	202
330.887	205
331.115	198
331.344	197
331.572	214
331.801	194
332.03	204
332.258	193
332.486	198
332.715	203
332.943	196
333.172	206
333.4	188
333.629	200
333.857	202
334.085	194
334.314	201
334.542	191
334.771	209
334.999	201
335.227	201
335.455	190
335.684	204
335.912	201
336.14	189
336.369	202
336.597	209
336.825	212
337.053	205
337.281	197
337.51	190
337.738	197
337.966	184
338.194	210
338.422	202
338.65	190
338.878	208
339.106	195
339.334	201
339.562	205
339.79	182
340.018	204
340.246	191
340.474	194
340.702	197
340.93	200
341.158	218
341.386	198
341.614	181
341.842	173
342.07	174
342.298	193
342.526	193
342.754	197
342.981	209
343.209	197
343.437	210
343.665	192
343.893	213
344.12	204
344.348	212
344.576	210
344.804	200
345.031	197
345.259	189
345.487	201
345.714	197
345.942	213
346.17	200
346.397	205
346.625	214
346.853	197
347.08	203
347.308	208
347.535	201
347.763	201
347.99	184
348.218	205
348.445	192
348.673	198
348.9	202
349.128	193
349.355	188
349.583	192
349.81	204
350.037	185
350.265	189
350.492	188
350.72	199
350.947	189
351.174	196
351.402	187
351.629	200
351.856	208
352.083	197
352.311	204
352.538	204
352.765	201
352.992	211
353.22	196
353.447	208
353.674	204
353.901	200
354.128	197
354.355	198
354.583	202
354.81	186
355.037	197
355.264	203
355.491	206
355.718	215
355.945	228
356.172	227
356.399	221
356.626	248
356.853	313
357.08	423
357.307	521
357.534	524
357.761	387
357.988	311
358.215	292
358.441	273
358.668	264
358.895	238
359.122	237
359.349	235
359.576	221
359.802	215
360.029	236
360.256	218
360.483	226
360.709	216
360.936	224
361.163	220
361.39	229
361.616	212
361.843	211
362.07	215
362.296	223
362.523	224
362.749	244
362.976	238
363.203	256
363.429	291
363.656	408
363.882	573
364.109	644
364.335	496
364.562	339
364.788	296
365.015	274
365.241	242
365.468	242
365.694	246
365.92	244
366.147	217
366.373	254
366.599	253
366.826	249
367.052	307
367.278	332
367.505	326
367.731	361
367.957	437
368.184	662
368.41	856
368.636	744
368.862	495
369.089	371
369.315	324
369.541	298
369.767	285
369.993	262
370.219	233
370.445	223
370.672	238
370.898	239
371.124	234
371.35	218
371.576	232
371.802	248
372.028	240
372.254	231
372.48	238
372.706	242
372.932	255
373.158	257
373.384	289
373.61	313
373.835	452
374.061	553
374.287	517
374.513	372
374.739	305
374.965	282
375.191	262
375.416	267
375.642	228
375.868	237
376.094	237
376.319	224
376.545	213
376.771	217
376.997	219
377.222	206
377.448	219
377.674	222
377.899	209
378.125	232
378.35	217
378.576	230
378.802	242
379.027	236
379.253	231
379.478	225
379.704	230
379.929	220
380.155	203
380.38	198
380.606	232
380.831	218
381.057	222
381.282	214
381.507	218
381.733	210
381.958	219
382.184	201
382.409	209
382.634	201
382.86	212
383.085	212
383.31	200
383.535	212
383.761	200
383.986	216
384.211	210
384.436	214
384.662	234
384.887	232
385.112	210
385.337	228
385.562	224
385.787	242
386.013	232
386.238	226
386.463	231
386.688	210
386.913	221
387.138	230
387.363	238
387.588	249
387.813	217
388.038	230
388.263	222
388.488	228
388.713	217
388.938	217
389.163	218
389.387	217
389.612	208
389.837	222
390.062	218
390.287	222
390.512	225
390.736	232
390.961	217
391.186	220
391.411	228
391.636	228
391.86	224
392.085	221
392.31	218
392.534	222
392.759	228
392.984	234
393.208	222
393.433	210
393.658	216
393.882	219
394.107	219
394.331	214
394.556	225
394.78	228
395.005	221
395.229	232
395.454	223
395.678	221
395.903	206
396.127	234
396.352	228
396.576	230
396.801	233
397.025	235
397.249	232
397.474	244
397.698	241
397.922	231
398.147	220
398.371	222
398.595	232
398.82	234
399.044	237
399.268	261
399.492	268
399.717	271
399.941	282
400.165	246
400.389	243
400.613	238
400.837	246
401.062	251
401.286	260
401.51	257
401.734	301
401.958	292
402.182	282
402.406	249
402.63	257
402.854	242
403.078	263
403.302	257
403.526	256
403.75	268
403.974	266
404.198	277
404.422	296
404.645	296
404.869	322
405.093	361
405.317	474
405.541	710
405.765	1137
405.988	1293
406.212	878
406.436	646
406.66	484
406.883	404
407.107	374
407.331	343
407.555	320
407.778	306
408.002	309
408.226	289
408.449	284
408.673	281
408.896	265
409.12	277
409.344	262
409.567	255
409.791	268
410.014	244
410.238	252
410.461	267
410.685	256
410.908	240
411.132	241
411.355	248
411.578	258
411.802	246
412.025	252
412.249	249
412.472	249
412.695	233
412.919	241
413.142	233
413.365	244
413.589	248
413.812	248
414.035	229
414.258	250
414.482	248
414.705	248
414.928	241
415.151	244
415.374	250
415.597	246
415.821	233
416.044	250
416.267	235
416.49	232
416.713	252
416.936	263
417.159	241
417.382	239
417.605	228
417.828	237
418.051	264
418.274	251
418.497	235
418.72	261
418.943	245
419.166	241
419.389	270
419.611	273
419.834	266
420.057	247
420.28	216
420.503	249
420.726	251
420.948	248
421.171	240
421.394	281
421.617	251
421.839	256
422.062	264
422.285	281
422.507	289
422.73	281
422.953	280
423.175	301
423.398	306
423.621	315
423.843	373
424.066	392
424.288	476
424.511	578
424.733	616
424.956	561
425.178	510
425.401	440
425.623	393
425.846	370
426.068	359
426.291	341
426.513	305
426.735	316
426.958	296
427.18	302
427.402	290
427.625	276
427.847	270
428.069	265
428.292	270
428.514	270
428.736	251
428.958	256
429.181	242
429.403	241
429.625	242
429.847	249
430.069	246
430.292	245
430.514	233
430.736	244
430.958	262
431.18	252
431.402	255
431.624	238
431.846	247
432.068	255
432.29	226
432.512	246
432.734	244
432.956	238
433.178	252
433.4	252
433.622	253
433.844	274
434.066	268
434.287	274
434.509	266
434.731	266
434.953	264
435.175	265
435.397	250
435.618	271
435.84	252
436.062	280
436.284	251
436.505	260
436.727	272
436.949	277
437.17	271
437.392	300
437.614	319
437.835	316
438.057	349
438.278	363
438.5	453
438.721	545
438.943	576
439.165	514
439.386	469
439.608	441
439.829	390
440.05	375
440.272	382
440.493	386
440.715	407
440.936	441
441.158	405
441.379	365
441.6	349
441.822	315
442.043	315
442.264	300
442.486	284
442.707	297
442.928	281
443.149	275
443.371	280
443.592	261
443.813	268
444.034	251
444.255	253
444.476	276
444.698	283
444.919	260
445.14	346
445.361	276
445.582	269
445.803	259
446.024	256
446.245	254
446.466	252
446.687	234
446.908	244
447.129	219
447.35	248
447.571	240
447.792	213
448.013	223
448.234	244
448.455	240
448.675	238
448.896	229
449.117	229
449.338	229
449.559	226
449.779	224
450	229
450.221	231
450.442	247
450.662	213
450.883	234
451.104	223
451.324	214
451.545	212
451.766	229
451.986	211
452.207	220
452.428	205
452.648	208
452.869	216
453.089	202
453.31	207
453.53	210
453.751	187
453.971	239
454.192	207
454.412	217
454.633	194
454.853	205
455.073	214
455.294	202
455.514	208
455.734	220
455.955	197
456.175	213
456.395	210
456.616	194
456.836	209
457.056	224
457.276	201
457.497	199
457.717	193
457.937	210
458.157	215
458.377	209
458.598	200
458.818	221
459.038	207
459.258	207
459.478	211
459.698	200
459.918	212
460.138	206
460.358	210
460.578	230
460.798	207
461.018	229
461.238	220
461.458	224
461.678	216
461.898	213
462.118	213
462.338	227
462.558	220
462.777	231
462.997	234
463.217	237
463.437	247
463.657	242
463.876	254
464.096	246
464.316	216
464.536	219
464.755	229
464.975	233
465.195	226
465.414	234
465.634	206
465.854	210
466.073	224
466.293	212
466.512	219
466.732	217
466.951	210
467.171	217
467.391	200
467.61	200
467.829	211
468.049	216
468.268	216
468.488	207
468.707	211
468.927	210
469.146	211
469.365	200
469.585	225
469.804	205
470.023	219
470.243	221
470.462	225
470.681	219
470.901	215
471.12	211
471.339	218
471.558	216
471.777	205
471.997	207
472.216	203
472.435	197
472.654	230
472.873	220
473.092	218
473.311	204
473.53	207
473.749	225
473.968	220
474.187	212
474.406	209
474.625	224
474.844	232
475.063	216
475.282	213
475.501	224
475.72	198
475.939	233
476.158	226
476.377	222
476.596	232
476.814	228
477.033	224
477.252	239
477.471	221
477.69	237
477.908	232
478.127	241
478.346	258
478.564	248
478.783	233
479.002	263
479.22	263
479.439	254
479.658	241
479.876	247
480.095	266
480.313	258
480.532	284
480.751	267
480.969	256
481.188	261
481.406	244
481.624	252
481.843	242
482.061	256
482.28	223
482.498	229
482.717	229
482.935	250
483.153	237
483.372	235
483.59	242
483.808	228
484.027	244
484.245	246
484.463	241
484.681	241
484.9	247
485.118	240
485.336	237
485.554	245
485.772	247
485.99	247
486.209	259
486.427	255
486.645	238
486.863	250
487.081	256
487.299	256
487.517	248
487.735	263
487.953	252
488.171	244
488.389	240
488.607	241
488.825	257
489.043	268
489.261	270
489.479	250
489.696	241
489.914	249
490.132	264
490.35	236
490.568	242
490.786	247
491.003	247
491.221	250
491.439	257
491.657	250
491.874	269
492.092	253
492.31	251
492.527	257
492.745	260
492.963	255
493.18	246
493.398	263
493.615	258
493.833	252
494.05	256
494.268	258
494.485	261
494.703	263
494.92	270
495.138	269
495.355	294
495.573	294
495.79	282
496.008	278
496.225	263
496.442	254
496.66	261
496.877	253
497.094	278
497.312	259
497.529	274
497.746	288
497.963	286
498.181	296
498.398	292
498.615	280
498.832	312
499.049	329
499.267	330
499.484	340
499.701	347
499.918	349
500.135	373
500.352	420
500.569	444
500.786	500
501.003	434
501.22	404
501.437	391
501.654	345
501.871	341
502.088	355
502.305	332
502.522	316
502.739	317
502.956	297
503.172	302
503.389	317
503.606	311
503.823	324
504.04	326
504.256	341
504.473	343
504.69	365
504.907	356
505.123	314
505.34	321
505.557	304
505.773	305
505.99	293
506.207	296
506.423	283
506.64	280
506.856	275
507.073	283
507.289	282
507.506	288
507.722	288
507.939	266
508.155	271
508.372	274
508.588	274
508.805	260
509.021	270
509.238	272
509.454	271
509.67	254
509.887	265
510.103	249
510.319	243
510.536	252
510.752	267
510.968	246
511.184	241
511.401	252
511.617	254
511.833	255
512.049	245
512.265	246
512.481	249
512.698	250
512.914	263
513.13	232
513.346	252
513.562	238
513.778	243
513.994	252
514.21	236
514.426	238
514.642	236
514.858	243
515.074	239
515.29	265
515.506	264
515.721	275
515.937	277
516.153	268
516.369	269
516.585	262
516.801	273
517.016	251
517.232	266
517.448	239
517.664	250
517.879	266
518.095	253
518.311	257
518.527	280
518.742	263
518.958	265
519.173	243
519.389	244
519.605	249
519.82	244
520.036	245
520.251	267
520.467	271
520.682	240
520.898	242
521.113	263
521.329	259
521.544	250
521.76	260
521.975	248
522.19	257
522.406	252
522.621	265
522.836	302
523.052	308
523.267	278
523.482	252
523.698	254
523.913	244
524.128	244
524.343	238
524.559	235
524.774	240
524.989	237
525.204	236
525.419	246
525.634	246
525.849	240
526.064	250
526.28	239
526.495	231
526.71	254
526.925	230
527.14	215
527.355	231
527.57	245
527.785	219
527.999	230
528.214	236
528.429	224
528.644	226
528.859	220
529.074	239
529.289	241
529.503	230
529.718	226
529.933	231
530.148	237
530.363	238
530.577	244
530.792	232
531.007	223
531.221	226
531.436	228
531.651	236
531.865	233
532.08	208
532.295	244
532.509	250
532.724	247
532.938	279
533.153	267
533.367	238
533.582	247
533.796	236
534.011	238
534.225	250
534.44	224
534.654	246
534.868	240
535.083	252
535.297	267
535.511	255
535.726	253
535.94	257
536.154	277
536.369	277
536.583	285
536.797	307
537.011	336
537.225	376
537.44	448
537.654	413
537.868	390
538.082	363
538.296	338
538.51	319
538.724	311
538.938	275
539.153	284
539.367	279
539.581	292
539.795	260
540.009	259
540.222	259
540.436	267
540.65	239
540.864	240
541.078	244
541.292	250
541.506	245
541.72	240
541.934	242
542.147	249
542.361	248
542.575	238
542.789	228
543.002	232
543.216	231
543.43	225
543.644	230
543.857	244
544.071	223
544.285	219
544.498	210
544.712	222
544.925	235
545.139	234
545.352	222
545.566	224
545.779	234
545.993	217
546.206	234
546.42	222
546.633	226
546.847	233
547.06	236
547.274	225
547.487	221
547.7	223
547.914	228
548.127	218
548.34	236
548.554	218
548.767	221
548.98	236
549.193	228
549.407	230
549.62	242
549.833	226
550.046	214
550.259	243
550.473	226
550.686	212
550.899	227
551.112	216
551.325	236
551.538	232
551.751	223
551.964	246
552.177	216
552.39	218
552.603	232
552.816	257
553.029	258
553.242	252
553.455	254
553.667	270
553.88	268
554.093	265
554.306	275
554.519	294
554.732	301
554.944	292
555.157	284
555.37	278
555.583	270
555.795	274
556.008	269
556.221	275
556.433	266
556.646	256
556.859	251
557.071	257
557.284	270
557.496	276
557.709	276
557.921	292
558.134	296
558.346	280
558.559	280
558.771	302
558.984	294
559.196	305
559.409	328
559.621	342
559.833	349
560.046	397
560.258	456
560.47	523
560.683	600
560.895	795
561.107	926
561.32	657
561.532	504
561.744	434
561.956	382
562.168	338
562.381	306
562.593	288
562.805	279
563.017	258
563.229	255
563.441	242
563.653	246
563.865	223
564.077	238
564.289	249
564.501	240
564.713	244
564.925	238
565.137	254
565.349	212
