Data from StdB_HRD10591_023.txt Node
Date: Fri May 16 15:24:57 EDT 2025
User: Yrep
Spectrometer: HR+D1059
Trigger mode: 1
Integration Time (sec): 1.000000E-1
Scans to average: 1
Electric dark correction enabled: true
Nonlinearity correction enabled: false
Boxcar width: 0
XAxis mode: Wavelengths
Number of Pixels in Spectrum: 2048
>>>>>Begin Spectral Data<<<<<
223.165	-16.62
223.4	-16.62
223.635	-16.62
223.869	-11.62
224.104	-12.62
224.338	-22.62
224.573	-16.62
224.808	-13.62
225.042	-18.62
225.277	-12.62
225.511	-6.62
225.746	-3.62
225.98	18.38
226.215	7.38
226.449	19.38
226.683	27.38
226.918	30.38
227.152	32.38
227.387	29.38
227.621	45.38
227.856	35.38
228.09	41.38
228.324	47.38
228.559	49.38
228.793	60.38
229.027	61.38
229.262	69.38
229.496	66.38
229.73	75.38
229.964	77.38
230.199	81.38
230.433	86.38
230.667	87.38
230.901	85.38
231.136	92.38
231.37	92.38
231.604	103.38
231.838	83.38
232.072	84.38
232.306	87.38
232.541	84.38
232.775	92.38
233.009	88.38
233.243	92.38
233.477	75.38
233.711	96.38
233.945	86.38
234.179	79.38
234.413	78.38
234.647	96.38
234.881	92.38
235.115	97.38
235.349	89.38
235.583	92.38
235.817	89.38
236.051	93.38
236.285	96.38
236.519	96.38
236.753	81.38
236.987	98.38
237.221	94.38
237.455	77.38
237.689	83.38
237.922	105.38
238.156	95.38
238.39	108.38
238.624	94.38
238.858	83.38
239.091	96.38
239.325	102.38
239.559	112.38
239.793	121.38
240.027	87.38
240.26	110.38
240.494	103.38
240.728	81.38
240.961	103.38
241.195	84.38
241.429	103.38
241.662	83.38
241.896	87.38
242.13	99.38
242.363	96.38
242.597	92.38
242.83	95.38
243.064	105.38
243.298	86.38
243.531	77.38
243.765	99.38
243.998	103.38
244.232	97.38
244.465	101.38
244.699	108.38
244.932	120.38
245.166	102.38
245.399	106.38
245.633	97.38
245.866	93.38
246.099	89.38
246.333	97.38
246.566	95.38
246.8	91.38
247.033	106.38
247.266	109.38
247.5	118.38
247.733	111.38
247.966	127.38
248.2	116.38
248.433	96.38
248.666	107.38
248.899	94.38
249.133	92.38
249.366	124.38
249.599	112.38
249.832	109.38
250.066	117.38
250.299	115.38
250.532	117.38
250.765	121.38
250.998	117.38
251.231	118.38
251.465	123.38
251.698	128.38
251.931	132.38
252.164	122.38
252.397	143.38
252.63	131.38
252.863	126.38
253.096	132.38
253.329	142.38
253.562	138.38
253.795	129.38
254.028	130.38
254.261	136.38
254.494	137.38
254.727	136.38
254.96	128.38
255.193	129.38
255.426	126.38
255.659	124.38
255.892	128.38
256.124	136.38
256.357	145.38
256.59	126.38
256.823	148.38
257.056	141.38
257.289	127.38
257.521	156.38
257.754	165.38
257.987	183.38
258.22	179.38
258.452	160.38
258.685	141.38
258.918	155.38
259.151	151.38
259.383	133.38
259.616	128.38
259.849	139.38
260.081	163.38
260.314	155.38
260.547	160.38
260.779	184.38
261.012	213.38
261.244	252.38
261.477	317.38
261.71	345.38
261.942	237.38
262.175	169.38
262.407	164.38
262.64	141.38
262.872	143.38
263.105	149.38
263.337	157.38
263.57	165.38
263.802	149.38
264.035	157.38
264.267	138.38
264.499	159.38
264.732	160.38
264.964	179.38
265.197	214.38
265.429	186.38
265.661	161.38
265.894	163.38
266.126	179.38
266.358	220.38
266.591	243.38
266.823	203.38
267.055	143.38
267.287	139.38
267.52	151.38
267.752	128.38
267.984	146.38
268.216	140.38
268.448	145.38
268.681	131.38
268.913	152.38
269.145	137.38
269.377	135.38
269.609	140.38
269.841	139.38
270.073	139.38
270.306	144.38
270.538	141.38
270.77	112.38
271.002	133.38
271.234	153.38
271.466	124.38
271.698	139.38
271.93	133.38
272.162	139.38
272.394	133.38
272.626	137.38
272.858	133.38
273.09	132.38
273.322	120.38
273.553	141.38
273.785	143.38
274.017	138.38
274.249	131.38
274.481	130.38
274.713	143.38
274.945	143.38
275.176	135.38
275.408	141.38
275.64	144.38
275.872	143.38
276.104	137.38
276.335	164.38
276.567	151.38
276.799	143.38
277.031	144.38
277.262	166.38
277.494	159.38
277.726	171.38
277.957	151.38
278.189	165.38
278.421	184.38
278.652	184.38
278.884	177.38
279.115	199.38
279.347	215.38
279.579	264.38
279.81	321.38
280.042	401.38
280.273	498.38
280.505	451.38
280.736	305.38
280.968	237.38
281.199	217.38
281.431	199.38
281.662	206.38
281.894	210.38
282.125	238.38
282.356	276.38
282.588	279.38
282.819	235.38
283.051	260.38
283.282	345.38
283.513	393.38
283.745	341.38
283.976	236.38
284.207	201.38
284.439	211.38
284.67	181.38
284.901	176.38
285.132	187.38
285.364	179.38
285.595	174.38
285.826	167.38
286.057	159.38
286.288	183.38
286.52	170.38
286.751	202.38
286.982	216.38
287.213	286.38
287.444	318.38
287.675	255.38
287.906	207.38
288.138	197.38
288.369	164.38
288.6	151.38
288.831	162.38
289.062	165.38
289.293	158.38
289.524	168.38
289.755	166.38
289.986	164.38
290.217	160.38
290.448	166.38
290.679	172.38
290.91	150.38
291.141	158.38
291.371	158.38
291.602	157.38
291.833	158.38
292.064	151.38
292.295	156.38
292.526	155.38
292.757	152.38
292.987	138.38
293.218	169.38
293.449	159.38
293.68	156.38
293.91	155.38
294.141	151.38
294.372	157.38
294.603	167.38
294.833	177.38
295.064	164.38
295.295	169.38
295.525	179.38
295.756	181.38
295.987	170.38
296.217	181.38
296.448	183.38
296.679	163.38
296.909	165.38
297.14	157.38
297.37	159.38
297.601	173.38
297.831	155.38
298.062	155.38
298.292	155.38
298.523	157.38
298.753	187.38
298.984	172.38
299.214	174.38
299.445	151.38
299.675	160.38
299.905	169.38
300.136	151.38
300.366	175.38
300.597	170.38
300.827	167.38
301.057	185.38
301.288	168.38
301.518	168.38
301.748	169.38
301.979	187.38
302.209	172.38
302.439	179.38
302.669	163.38
302.9	192.38
303.13	171.38
303.36	171.38
303.59	170.38
303.82	177.38
304.051	183.38
304.281	184.38
304.511	164.38
304.741	199.38
304.971	181.38
305.201	179.38
305.431	172.38
305.661	182.38
305.891	183.38
306.121	177.38
306.352	173.38
306.582	186.38
306.812	152.38
307.042	177.38
307.272	152.38
307.502	176.38
307.731	171.38
307.961	189.38
308.191	179.38
308.421	168.38
308.651	183.38
308.881	180.38
309.111	169.38
309.341	179.38
309.571	181.38
309.8	172.38
310.03	180.38
310.26	179.38
310.49	175.38
310.72	170.38
310.949	177.38
311.179	180.38
311.409	168.38
311.639	199.38
311.868	189.38
312.098	173.38
312.328	184.38
312.557	199.38
312.787	179.38
313.017	200.38
313.246	197.38
313.476	193.38
313.706	206.38
313.935	201.38
314.165	208.38
314.394	219.38
314.624	224.38
314.853	206.38
315.083	214.38
315.312	210.38
315.542	208.38
315.771	223.38
316.001	216.38
316.23	217.38
316.46	209.38
316.689	192.38
316.919	208.38
317.148	207.38
317.377	207.38
317.607	216.38
317.836	209.38
318.065	212.38
318.295	211.38
318.524	203.38
318.753	206.38
318.983	191.38
319.212	183.38
319.441	184.38
319.67	190.38
319.9	196.38
320.129	174.38
320.358	203.38
320.587	184.38
320.816	189.38
321.046	191.38
321.275	199.38
321.504	183.38
321.733	180.38
321.962	189.38
322.191	183.38
322.42	175.38
322.649	196.38
322.878	199.38
323.108	193.38
323.337	193.38
323.566	176.38
323.795	185.38
324.024	184.38
324.253	201.38
324.482	198.38
324.71	176.38
324.939	167.38
325.168	190.38
325.397	198.38
325.626	184.38
325.855	208.38
326.084	185.38
326.313	195.38
326.542	191.38
326.77	199.38
326.999	176.38
327.228	184.38
327.457	193.38
327.686	195.38
327.914	193.38
328.143	186.38
328.372	193.38
328.6	201.38
328.829	195.38
329.058	199.38
329.287	204.38
329.515	191.38
329.744	189.38
329.972	213.38
330.201	184.38
330.43	188.38
330.658	201.38
330.887	201.38
331.115	212.38
331.344	182.38
331.572	203.38
331.801	154.38
332.03	196.38
332.258	191.38
332.486	198.38
332.715	178.38
332.943	199.38
333.172	191.38
333.4	191.38
333.629	202.38
333.857	200.38
334.085	203.38
334.314	204.38
334.542	194.38
334.771	207.38
334.999	195.38
335.227	202.38
335.455	188.38
335.684	206.38
335.912	198.38
336.14	203.38
336.369	185.38
336.597	186.38
336.825	190.38
337.053	205.38
337.281	175.38
337.51	201.38
337.738	191.38
337.966	200.38
338.194	183.38
338.422	181.38
338.65	195.38
338.878	193.38
339.106	182.38
339.334	194.38
339.562	201.38
339.79	190.38
340.018	175.38
340.246	193.38
340.474	173.38
340.702	191.38
340.93	199.38
341.158	183.38
341.386	194.38
341.614	180.38
341.842	171.38
342.07	181.38
342.298	183.38
342.526	187.38
342.754	194.38
342.981	202.38
343.209	186.38
343.437	207.38
343.665	193.38
343.893	191.38
344.12	211.38
344.348	196.38
344.576	195.38
344.804	194.38
345.031	220.38
345.259	201.38
345.487	194.38
345.714	191.38
345.942	192.38
346.17	205.38
346.397	199.38
346.625	202.38
346.853	198.38
347.08	193.38
347.308	184.38
347.535	181.38
347.763	172.38
347.99	195.38
348.218	182.38
348.445	188.38
348.673	185.38
348.9	186.38
349.128	206.38
349.355	186.38
349.583	177.38
349.81	183.38
350.037	197.38
350.265	198.38
350.492	194.38
350.72	176.38
350.947	196.38
351.174	203.38
351.402	181.38
351.629	183.38
351.856	183.38
352.083	200.38
352.311	191.38
352.538	186.38
352.765	199.38
352.992	181.38
353.22	184.38
353.447	183.38
353.674	197.38
353.901	187.38
354.128	190.38
354.355	185.38
354.583	185.38
354.81	207.38
355.037	197.38
355.264	197.38
355.491	198.38
355.718	199.38
355.945	208.38
356.172	227.38
356.399	215.38
356.626	235.38
356.853	315.38
357.08	455.38
357.307	597.38
357.534	576.38
357.761	394.38
357.988	319.38
358.215	289.38
358.441	278.38
358.668	268.38
358.895	246.38
359.122	233.38
359.349	223.38
359.576	222.38
359.802	218.38
360.029	216.38
360.256	220.38
360.483	201.38
360.709	208.38
360.936	212.38
361.163	198.38
361.39	208.38
361.616	213.38
361.843	204.38
362.07	212.38
362.296	206.38
362.523	229.38
362.749	236.38
362.976	249.38
363.203	263.38
363.429	312.38
363.656	433.38
363.882	649.38
364.109	757.38
364.335	502.38
364.562	355.38
364.788	291.38
365.015	275.38
365.241	243.38
365.468	246.38
365.694	247.38
365.92	242.38
366.147	213.38
366.373	236.38
366.599	243.38
366.826	283.38
367.052	326.38
367.278	362.38
367.505	345.38
367.731	391.38
367.957	493.38
368.184	773.38
368.41	998.38
368.636	867.38
368.862	517.38
369.089	369.38
369.315	311.38
369.541	281.38
369.767	276.38
369.993	249.38
370.219	237.38
370.445	236.38
370.672	234.38
370.898	219.38
371.124	230.38
371.35	237.38
371.576	230.38
371.802	247.38
372.028	238.38
372.254	230.38
372.48	242.38
372.706	248.38
372.932	251.38
373.158	261.38
373.384	267.38
373.61	337.38
373.835	486.38
374.061	629.38
374.287	569.38
374.513	367.38
374.739	283.38
374.965	263.38
375.191	248.38
375.416	229.38
375.642	231.38
375.868	238.38
376.094	232.38
376.319	215.38
376.545	209.38
376.771	208.38
376.997	208.38
377.222	215.38
377.448	209.38
377.674	204.38
377.899	225.38
378.125	210.38
378.35	211.38
378.576	220.38
378.802	232.38
379.027	233.38
379.253	225.38
379.478	209.38
379.704	204.38
379.929	219.38
380.155	212.38
380.38	201.38
380.606	208.38
380.831	204.38
381.057	204.38
381.282	211.38
381.507	213.38
381.733	218.38
381.958	204.38
382.184	218.38
382.409	199.38
382.634	217.38
382.86	214.38
383.085	212.38
383.31	197.38
383.535	211.38
383.761	208.38
383.986	224.38
384.211	217.38
384.436	250.38
384.662	201.38
384.887	237.38
385.112	225.38
385.337	220.38
385.562	221.38
385.787	219.38
386.013	217.38
386.238	232.38
386.463	229.38
386.688	242.38
386.913	216.38
387.138	231.38
387.363	229.38
387.588	208.38
387.813	217.38
388.038	212.38
388.263	209.38
388.488	223.38
388.713	224.38
388.938	216.38
389.163	202.38
389.387	219.38
389.612	212.38
389.837	213.38
390.062	224.38
390.287	210.38
390.512	212.38
390.736	213.38
390.961	210.38
391.186	218.38
391.411	233.38
391.636	224.38
391.86	207.38
392.085	220.38
392.31	231.38
392.534	224.38
392.759	227.38
392.984	223.38
393.208	229.38
393.433	229.38
393.658	223.38
393.882	240.38
394.107	219.38
394.331	229.38
394.556	225.38
394.78	236.38
395.005	233.38
395.229	219.38
395.454	211.38
395.678	222.38
395.903	245.38
396.127	227.38
396.352	213.38
396.576	224.38
396.801	221.38
397.025	225.38
397.249	214.38
397.474	230.38
397.698	225.38
397.922	224.38
398.147	212.38
398.371	223.38
398.595	216.38
398.82	236.38
399.044	220.38
399.268	259.38
399.492	249.38
399.717	262.38
399.941	263.38
400.165	257.38
400.389	255.38
400.613	247.38
400.837	237.38
401.062	241.38
401.286	254.38
401.51	265.38
401.734	279.38
401.958	302.38
402.182	303.38
402.406	264.38
402.63	245.38
402.854	259.38
403.078	250.38
403.302	262.38
403.526	268.38
403.75	265.38
403.974	268.38
404.198	284.38
404.422	288.38
404.645	293.38
404.869	328.38
405.093	380.38
405.317	514.38
405.541	819.38
405.765	1374.38
405.988	1549.38
406.212	1022.38
406.436	706.38
406.66	485.38
406.883	411.38
407.107	361.38
407.331	334.38
407.555	334.38
407.778	313.38
408.002	297.38
408.226	280.38
408.449	284.38
408.673	277.38
408.896	266.38
409.12	269.38
409.344	260.38
409.567	265.38
409.791	254.38
410.014	271.38
410.238	259.38
410.461	262.38
410.685	251.38
410.908	229.38
411.132	265.38
411.355	246.38
411.578	236.38
411.802	250.38
412.025	248.38
412.249	266.38
412.472	261.38
412.695	244.38
412.919	245.38
413.142	246.38
413.365	243.38
413.589	231.38
413.812	231.38
414.035	234.38
414.258	244.38
414.482	227.38
414.705	222.38
414.928	262.38
415.151	260.38
415.374	251.38
415.597	235.38
415.821	241.38
416.044	238.38
416.267	239.38
416.49	237.38
416.713	271.38
416.936	263.38
417.159	264.38
417.382	234.38
417.605	239.38
417.828	243.38
418.051	230.38
418.274	206.38
418.497	237.38
418.72	238.38
418.943	236.38
419.166	252.38
419.389	255.38
419.611	241.38
419.834	248.38
420.057	251.38
420.28	225.38
420.503	238.38
420.726	240.38
420.948	227.38
421.171	237.38
421.394	260.38
421.617	241.38
421.839	245.38
422.062	261.38
422.285	264.38
422.507	276.38
422.73	280.38
422.953	294.38
423.175	293.38
423.398	301.38
423.621	332.38
423.843	373.38
424.066	425.38
424.288	508.38
424.511	663.38
424.733	697.38
424.956	585.38
425.178	514.38
425.401	423.38
425.623	395.38
425.846	377.38
426.068	357.38
426.291	333.38
426.513	322.38
426.735	326.38
426.958	301.38
427.18	293.38
427.402	275.38
427.625	287.38
427.847	282.38
428.069	276.38
428.292	256.38
428.514	265.38
428.736	264.38
428.958	257.38
429.181	257.38
429.403	248.38
429.625	246.38
429.847	257.38
430.069	262.38
430.292	240.38
430.514	259.38
430.736	227.38
430.958	253.38
431.18	236.38
431.402	230.38
431.624	237.38
431.846	239.38
432.068	254.38
432.29	232.38
432.512	241.38
432.734	234.38
432.956	250.38
433.178	255.38
433.4	235.38
433.622	263.38
433.844	261.38
434.066	263.38
434.287	285.38
434.509	262.38
434.731	266.38
434.953	252.38
435.175	263.38
435.397	266.38
435.618	252.38
435.84	242.38
436.062	262.38
436.284	258.38
436.505	251.38
436.727	291.38
436.949	279.38
437.17	291.38
437.392	303.38
437.614	308.38
437.835	317.38
438.057	358.38
438.278	376.38
438.5	470.38
438.721	605.38
438.943	672.38
439.165	563.38
439.386	475.38
439.608	440.38
439.829	400.38
440.05	391.38
440.272	383.38
440.493	384.38
440.715	420.38
440.936	452.38
441.158	407.38
441.379	396.38
441.6	363.38
441.822	322.38
442.043	316.38
442.264	311.38
442.486	293.38
442.707	283.38
442.928	270.38
443.149	277.38
443.371	257.38
443.592	249.38
443.813	273.38
444.034	267.38
444.255	261.38
444.476	252.38
444.698	263.38
444.919	255.38
445.14	311.38
445.361	281.38
445.582	258.38
445.803	242.38
446.024	240.38
446.245	247.38
446.466	240.38
446.687	237.38
446.908	222.38
447.129	229.38
447.35	229.38
447.571	216.38
447.792	223.38
448.013	217.38
448.234	214.38
448.455	227.38
448.675	227.38
448.896	232.38
449.117	220.38
449.338	238.38
449.559	235.38
449.779	213.38
450	211.38
450.221	228.38
450.442	231.38
450.662	223.38
450.883	214.38
451.104	217.38
451.324	235.38
451.545	191.38
451.766	203.38
451.986	210.38
452.207	223.38
452.428	210.38
452.648	216.38
452.869	219.38
453.089	206.38
453.31	207.38
453.53	216.38
453.751	185.38
453.971	207.38
454.192	198.38
454.412	195.38
454.633	217.38
454.853	211.38
455.073	213.38
455.294	223.38
455.514	208.38
455.734	206.38
455.955	197.38
456.175	187.38
456.395	201.38
456.616	216.38
456.836	206.38
457.056	205.38
457.276	212.38
457.497	203.38
457.717	198.38
457.937	190.38
458.157	196.38
458.377	206.38
458.598	203.38
458.818	195.38
459.038	207.38
459.258	207.38
459.478	216.38
459.698	200.38
459.918	215.38
460.138	213.38
460.358	199.38
460.578	227.38
460.798	228.38
461.018	234.38
461.238	227.38
461.458	220.38
461.678	238.38
461.898	224.38
462.118	222.38
462.338	240.38
462.558	235.38
462.777	235.38
462.997	231.38
463.217	241.38
463.437	259.38
463.657	245.38
463.876	241.38
464.096	232.38
464.316	233.38
464.536	233.38
464.755	240.38
464.975	239.38
465.195	224.38
465.414	234.38
465.634	211.38
465.854	219.38
466.073	206.38
466.293	212.38
466.512	191.38
466.732	197.38
466.951	199.38
467.171	222.38
467.391	209.38
467.61	215.38
467.829	207.38
468.049	217.38
468.268	216.38
468.488	199.38
468.707	219.38
468.927	207.38
469.146	196.38
469.365	216.38
469.585	213.38
469.804	233.38
470.023	219.38
470.243	208.38
470.462	213.38
470.681	223.38
470.901	224.38
471.12	214.38
471.339	216.38
471.558	219.38
471.777	220.38
471.997	219.38
472.216	210.38
472.435	229.38
472.654	211.38
472.873	201.38
473.092	208.38
473.311	209.38
473.53	184.38
473.749	207.38
473.968	208.38
474.187	225.38
474.406	222.38
474.625	215.38
474.844	213.38
475.063	220.38
475.282	214.38
475.501	218.38
475.72	238.38
475.939	223.38
476.158	216.38
476.377	233.38
476.596	222.38
476.814	222.38
477.033	228.38
477.252	224.38
477.471	231.38
477.69	222.38
477.908	253.38
478.127	233.38
478.346	247.38
478.564	254.38
478.783	257.38
479.002	270.38
479.22	264.38
479.439	257.38
479.658	251.38
479.876	248.38
480.095	252.38
480.313	249.38
480.532	249.38
480.751	250.38
480.969	248.38
481.188	239.38
481.406	237.38
481.624	229.38
481.843	224.38
482.061	244.38
482.28	255.38
482.498	233.38
482.717	246.38
482.935	231.38
483.153	231.38
483.372	251.38
483.59	238.38
483.808	241.38
484.027	235.38
484.245	234.38
484.463	238.38
484.681	245.38
484.9	234.38
485.118	243.38
485.336	223.38
485.554	232.38
485.772	256.38
485.99	228.38
486.209	251.38
486.427	246.38
486.645	240.38
486.863	248.38
487.081	254.38
487.299	244.38
487.517	233.38
487.735	261.38
487.953	244.38
488.171	247.38
488.389	252.38
488.607	244.38
488.825	248.38
489.043	246.38
489.261	233.38
489.479	257.38
489.696	249.38
489.914	247.38
490.132	246.38
490.35	255.38
490.568	241.38
490.786	247.38
491.003	271.38
491.221	242.38
491.439	245.38
491.657	253.38
491.874	256.38
492.092	245.38
492.31	255.38
492.527	255.38
492.745	241.38
492.963	256.38
493.18	239.38
493.398	257.38
493.615	263.38
493.833	258.38
494.05	263.38
494.268	237.38
494.485	272.38
494.703	263.38
494.92	270.38
495.138	284.38
495.355	264.38
495.573	288.38
495.79	279.38
496.008	274.38
496.225	268.38
496.442	283.38
496.66	276.38
496.877	272.38
497.094	282.38
497.312	268.38
497.529	283.38
497.746	281.38
497.963	286.38
498.181	283.38
498.398	277.38
498.615	297.38
498.832	294.38
499.049	310.38
499.267	331.38
499.484	350.38
499.701	352.38
499.918	364.38
500.135	382.38
500.352	405.38
500.569	452.38
500.786	537.38
501.003	439.38
501.22	406.38
501.437	368.38
501.654	357.38
501.871	345.38
502.088	349.38
502.305	347.38
502.522	313.38
502.739	326.38
502.956	329.38
503.172	308.38
503.389	329.38
503.606	315.38
