Data from StdB_HRD10591_030.txt Node
Date: Fri May 16 15:25:01 EDT 2025
User: Yrep
Spectrometer: HR+D1059
Trigger mode: 1
Integration Time (sec): 1.000000E-1
Scans to average: 1
Electric dark correction enabled: true
Nonlinearity correction enabled: false
Boxcar width: 0
XAxis mode: Wavelengths
Number of Pixels in Spectrum: 2048
>>>>>Begin Spectral Data<<<<<
223.165	-21.81
223.4	-21.81
223.635	-21.81
223.869	-11.81
224.104	-19.81
224.338	-7.81
224.573	-11.81
224.808	-27.81
225.042	-1.81
225.277	-8.81
225.511	7.19
225.746	3.19
225.98	2.19
226.215	13.19
226.449	8.19
226.683	24.19
226.918	21.19
227.152	32.19
227.387	38.19
227.621	47.19
227.856	56.19
228.09	51.19
228.324	42.19
228.559	52.19
228.793	60.19
229.027	67.19
229.262	77.19
229.496	78.19
229.73	82.19
229.964	97.19
230.199	81.19
230.433	84.19
230.667	93.19
230.901	93.19
231.136	83.19
231.37	93.19
231.604	76.19
231.838	87.19
232.072	88.19
232.306	105.19
232.541	102.19
232.775	108.19
233.009	88.19
233.243	102.19
233.477	89.19
233.711	109.19
233.945	98.19
234.179	103.19
234.413	92.19
234.647	105.19
234.881	94.19
235.115	91.19
235.349	108.19
235.583	101.19
235.817	100.19
236.051	97.19
236.285	85.19
236.519	98.19
236.753	99.19
236.987	96.19
237.221	104.19
237.455	92.19
237.689	85.19
237.922	101.19
238.156	94.19
238.39	89.19
238.624	90.19
238.858	109.19
239.091	90.19
239.325	109.19
239.559	114.19
239.793	126.19
240.027	112.19
240.26	99.19
240.494	107.19
240.728	104.19
240.961	108.19
241.195	97.19
241.429	110.19
241.662	105.19
241.896	98.19
242.13	100.19
242.363	99.19
242.597	97.19
242.83	102.19
243.064	122.19
243.298	106.19
243.531	92.19
243.765	96.19
243.998	108.19
244.232	117.19
244.465	108.19
244.699	99.19
244.932	109.19
245.166	120.19
245.399	110.19
245.633	96.19
245.866	110.19
246.099	118.19
246.333	93.19
246.566	108.19
246.8	114.19
247.033	109.19
247.266	106.19
247.5	123.19
247.733	131.19
247.966	133.19
248.2	138.19
248.433	119.19
248.666	95.19
248.899	126.19
249.133	115.19
249.366	118.19
249.599	117.19
249.832	117.19
250.066	120.19
250.299	108.19
250.532	116.19
250.765	133.19
250.998	125.19
251.231	118.19
251.465	122.19
251.698	123.19
251.931	124.19
252.164	116.19
252.397	143.19
252.63	149.19
252.863	144.19
253.096	138.19
253.329	139.19
253.562	139.19
253.795	157.19
254.028	149.19
254.261	137.19
254.494	143.19
254.727	140.19
254.96	146.19
255.193	133.19
255.426	149.19
255.659	141.19
255.892	152.19
256.124	136.19
256.357	146.19
256.59	158.19
256.823	135.19
257.056	134.19
257.289	147.19
257.521	157.19
257.754	169.19
257.987	180.19
258.22	184.19
258.452	149.19
258.685	163.19
258.918	156.19
259.151	141.19
259.383	142.19
259.616	152.19
259.849	134.19
260.081	151.19
260.314	166.19
260.547	177.19
260.779	183.19
261.012	212.19
261.244	270.19
261.477	334.19
261.71	337.19
261.942	249.19
262.175	194.19
262.407	173.19
262.64	168.19
262.872	168.19
263.105	175.19
263.337	155.19
263.57	141.19
263.802	151.19
264.035	163.19
264.267	149.19
264.499	146.19
264.732	191.19
264.964	190.19
265.197	207.19
265.429	189.19
265.661	170.19
265.894	153.19
266.126	174.19
266.358	222.19
266.591	246.19
266.823	203.19
267.055	172.19
267.287	152.19
267.52	155.19
267.752	137.19
267.984	145.19
268.216	139.19
268.448	125.19
268.681	157.19
268.913	133.19
269.145	141.19
269.377	144.19
269.609	148.19
269.841	160.19
270.073	148.19
270.306	134.19
270.538	143.19
270.77	125.19
271.002	147.19
271.234	144.19
271.466	154.19
271.698	146.19
271.93	150.19
272.162	144.19
272.394	129.19
272.626	141.19
272.858	137.19
273.09	136.19
273.322	141.19
273.553	140.19
273.785	148.19
274.017	125.19
274.249	144.19
274.481	132.19
274.713	154.19
274.945	147.19
275.176	149.19
275.408	151.19
275.64	161.19
275.872	137.19
276.104	161.19
276.335	152.19
276.567	152.19
276.799	158.19
277.031	166.19
277.262	166.19
277.494	162.19
277.726	160.19
277.957	163.19
278.189	163.19
278.421	170.19
278.652	178.19
278.884	212.19
279.115	205.19
279.347	229.19
279.579	263.19
279.81	322.19
280.042	450.19
280.273	548.19
280.505	482.19
280.736	317.19
280.968	245.19
281.199	210.19
281.431	207.19
281.662	199.19
281.894	206.19
282.125	248.19
282.356	291.19
282.588	280.19
282.819	260.19
283.051	289.19
283.282	351.19
283.513	418.19
283.745	327.19
283.976	241.19
284.207	208.19
284.439	192.19
284.67	181.19
284.901	187.19
285.132	177.19
285.364	184.19
285.595	188.19
285.826	182.19
286.057	182.19
286.288	190.19
286.52	170.19
286.751	188.19
286.982	242.19
287.213	305.19
287.444	326.19
287.675	279.19
287.906	213.19
288.138	174.19
288.369	180.19
288.6	169.19
288.831	150.19
289.062	176.19
289.293	162.19
289.524	159.19
289.755	168.19
289.986	163.19
290.217	161.19
290.448	151.19
290.679	165.19
290.91	186.19
291.141	182.19
291.371	155.19
291.602	174.19
291.833	157.19
292.064	172.19
292.295	161.19
292.526	180.19
292.757	162.19
292.987	151.19
293.218	177.19
293.449	157.19
293.68	164.19
293.91	168.19
294.141	181.19
294.372	171.19
294.603	171.19
294.833	184.19
295.064	183.19
295.295	182.19
295.525	163.19
295.756	176.19
295.987	171.19
296.217	160.19
296.448	181.19
296.679	172.19
296.909	160.19
297.14	161.19
297.37	183.19
297.601	163.19
297.831	177.19
298.062	159.19
298.292	190.19
298.523	174.19
298.753	189.19
298.984	166.19
299.214	152.19
299.445	168.19
299.675	176.19
299.905	165.19
300.136	178.19
300.366	185.19
300.597	157.19
300.827	176.19
301.057	172.19
301.288	173.19
301.518	182.19
301.748	172.19
301.979	207.19
302.209	185.19
302.439	184.19
302.669	172.19
302.9	169.19
303.13	175.19
303.36	201.19
303.59	196.19
303.82	188.19
304.051	190.19
304.281	179.19
304.511	181.19
304.741	195.19
304.971	183.19
305.201	196.19
305.431	186.19
305.661	175.19
305.891	172.19
306.121	187.19
306.352	192.19
306.582	185.19
306.812	184.19
307.042	186.19
307.272	182.19
307.502	185.19
307.731	190.19
307.961	174.19
308.191	178.19
308.421	182.19
308.651	188.19
308.881	187.19
309.111	183.19
309.341	175.19
309.571	173.19
309.8	172.19
310.03	171.19
310.26	184.19
310.49	183.19
310.72	179.19
310.949	196.19
311.179	177.19
311.409	184.19
311.639	175.19
311.868	190.19
312.098	180.19
312.328	203.19
312.557	199.19
312.787	203.19
313.017	199.19
313.246	204.19
313.476	203.19
313.706	196.19
313.935	216.19
314.165	210.19
314.394	222.19
314.624	223.19
314.853	222.19
315.083	232.19
315.312	232.19
315.542	214.19
315.771	216.19
316.001	227.19
316.23	202.19
316.46	208.19
316.689	237.19
316.919	208.19
317.148	216.19
317.377	227.19
317.607	217.19
317.836	211.19
318.065	226.19
318.295	212.19
318.524	208.19
318.753	211.19
318.983	209.19
319.212	198.19
319.441	198.19
319.67	195.19
319.9	192.19
320.129	195.19
320.358	193.19
320.587	196.19
320.816	188.19
321.046	194.19
321.275	203.19
321.504	190.19
321.733	195.19
321.962	196.19
322.191	191.19
322.42	194.19
322.649	198.19
322.878	205.19
323.108	198.19
323.337	198.19
323.566	192.19
323.795	188.19
324.024	217.19
324.253	203.19
324.482	192.19
324.71	206.19
324.939	201.19
325.168	200.19
325.397	210.19
325.626	195.19
325.855	194.19
326.084	198.19
326.313	197.19
326.542	177.19
326.77	185.19
326.999	208.19
327.228	195.19
327.457	186.19
327.686	193.19
327.914	196.19
328.143	202.19
328.372	200.19
328.6	204.19
328.829	195.19
329.058	189.19
329.287	204.19
329.515	213.19
329.744	199.19
329.972	212.19
330.201	212.19
330.43	194.19
330.658	223.19
330.887	195.19
331.115	216.19
331.344	216.19
331.572	189.19
331.801	196.19
332.03	196.19
332.258	187.19
332.486	221.19
332.715	218.19
332.943	190.19
333.172	195.19
333.4	204.19
333.629	217.19
333.857	192.19
334.085	204.19
334.314	198.19
334.542	194.19
334.771	198.19
334.999	203.19
335.227	199.19
335.455	207.19
335.684	212.19
335.912	189.19
336.14	197.19
336.369	191.19
336.597	204.19
336.825	208.19
337.053	202.19
337.281	198.19
337.51	217.19
337.738	205.19
337.966	191.19
338.194	203.19
338.422	205.19
338.65	197.19
338.878	201.19
339.106	194.19
339.334	205.19
339.562	193.19
339.79	202.19
340.018	188.19
340.246	190.19
340.474	195.19
340.702	178.19
340.93	189.19
341.158	191.19
341.386	199.19
341.614	188.19
341.842	203.19
342.07	206.19
342.298	206.19
342.526	200.19
342.754	188.19
342.981	210.19
343.209	192.19
343.437	218.19
343.665	211.19
343.893	216.19
344.12	194.19
344.348	203.19
344.576	200.19
344.804	210.19
345.031	221.19
345.259	213.19
345.487	200.19
345.714	200.19
345.942	224.19
346.17	200.19
346.397	184.19
346.625	198.19
346.853	195.19
347.08	196.19
347.308	183.19
347.535	198.19
347.763	205.19
347.99	200.19
348.218	178.19
348.445	182.19
348.673	196.19
348.9	178.19
349.128	191.19
349.355	209.19
349.583	202.19
349.81	207.19
350.037	202.19
350.265	201.19
350.492	196.19
350.72	200.19
350.947	201.19
351.174	186.19
351.402	200.19
351.629	188.19
351.856	184.19
352.083	187.19
352.311	166.19
352.538	190.19
352.765	188.19
352.992	192.19
353.22	181.19
353.447	186.19
353.674	203.19
353.901	194.19
354.128	192.19
354.355	188.19
354.583	221.19
354.81	193.19
355.037	189.19
355.264	205.19
355.491	202.19
355.718	212.19
355.945	221.19
356.172	222.19
356.399	219.19
356.626	248.19
356.853	306.19
357.08	458.19
357.307	597.19
357.534	570.19
357.761	394.19
357.988	322.19
358.215	306.19
358.441	259.19
358.668	254.19
358.895	254.19
359.122	249.19
359.349	230.19
359.576	223.19
359.802	215.19
360.029	212.19
360.256	227.19
360.483	219.19
360.709	215.19
360.936	228.19
361.163	226.19
361.39	229.19
361.616	211.19
361.843	234.19
362.07	206.19
362.296	217.19
362.523	212.19
362.749	217.19
362.976	254.19
363.203	262.19
363.429	316.19
363.656	453.19
363.882	658.19
364.109	773.19
364.335	528.19
364.562	352.19
364.788	296.19
365.015	274.19
365.241	241.19
365.468	240.19
365.694	227.19
365.92	236.19
366.147	238.19
366.373	238.19
366.599	261.19
366.826	292.19
367.052	325.19
367.278	390.19
367.505	355.19
367.731	372.19
367.957	481.19
368.184	774.19
368.41	1014.19
368.636	845.19
368.862	504.19
369.089	373.19
369.315	310.19
369.541	289.19
369.767	276.19
369.993	276.19
370.219	245.19
370.445	237.19
370.672	229.19
370.898	228.19
371.124	250.19
371.35	224.19
371.576	238.19
371.802	238.19
372.028	258.19
372.254	243.19
372.48	248.19
372.706	225.19
372.932	238.19
373.158	257.19
373.384	277.19
373.61	349.19
373.835	484.19
374.061	640.19
374.287	576.19
374.513	381.19
374.739	297.19
374.965	270.19
375.191	253.19
375.416	228.19
375.642	238.19
375.868	244.19
376.094	234.19
376.319	218.19
376.545	205.19
376.771	230.19
376.997	204.19
377.222	211.19
377.448	210.19
377.674	213.19
377.899	222.19
378.125	220.19
378.35	233.19
378.576	253.19
378.802	229.19
379.027	223.19
379.253	224.19
379.478	227.19
379.704	232.19
379.929	221.19
380.155	227.19
380.38	218.19
380.606	212.19
380.831	210.19
381.057	204.19
381.282	216.19
381.507	223.19
381.733	210.19
381.958	211.19
382.184	225.19
382.409	225.19
382.634	224.19
382.86	208.19
383.085	230.19
383.31	206.19
383.535	217.19
383.761	216.19
383.986	232.19
384.211	226.19
384.436	220.19
384.662	224.19
384.887	234.19
385.112	241.19
385.337	234.19
385.562	213.19
385.787	232.19
386.013	216.19
386.238	226.19
386.463	210.19
386.688	227.19
386.913	234.19
387.138	226.19
387.363	226.19
387.588	228.19
387.813	209.19
388.038	218.19
388.263	225.19
388.488	202.19
388.713	221.19
388.938	211.19
389.163	212.19
389.387	216.19
389.612	227.19
389.837	224.19
390.062	220.19
390.287	227.19
390.512	218.19
390.736	223.19
390.961	229.19
391.186	220.19
391.411	222.19
391.636	238.19
391.86	225.19
392.085	230.19
392.31	229.19
392.534	234.19
392.759	240.19
392.984	232.19
393.208	240.19
393.433	232.19
393.658	225.19
393.882	192.19
394.107	208.19
394.331	207.19
394.556	226.19
394.78	217.19
395.005	217.19
395.229	207.19
395.454	219.19
395.678	237.19
395.903	220.19
396.127	232.19
396.352	209.19
396.576	228.19
396.801	215.19
397.025	232.19
397.249	219.19
397.474	238.19
397.698	247.19
397.922	236.19
398.147	227.19
398.371	223.19
398.595	250.19
398.82	228.19
399.044	253.19
399.268	258.19
399.492	272.19
399.717	267.19
399.941	261.19
400.165	272.19
400.389	270.19
400.613	250.19
400.837	233.19
401.062	245.19
401.286	237.19
401.51	267.19
401.734	264.19
401.958	318.19
402.182	310.19
402.406	263.19
402.63	267.19
402.854	243.19
403.078	257.19
403.302	252.19
403.526	245.19
403.75	267.19
403.974	284.19
404.198	283.19
404.422	299.19
404.645	314.19
404.869	337.19
405.093	380.19
405.317	480.19
405.541	824.19
405.765	1378.19
405.988	1602.19
406.212	1028.19
406.436	693.19
406.66	482.19
406.883	410.19
407.107	388.19
407.331	327.19
407.555	338.19
407.778	326.19
408.002	308.19
408.226	282.19
408.449	272.19
408.673	271.19
408.896	281.19
409.12	263.19
409.344	269.19
409.567	275.19
409.791	258.19
410.014	273.19
410.238	262.19
410.461	251.19
410.685	254.19
410.908	262.19
411.132	265.19
411.355	257.19
411.578	268.19
411.802	254.19
412.025	259.19
412.249	252.19
412.472	253.19
412.695	250.19
412.919	233.19
413.142	242.19
413.365	258.19
413.589	236.19
413.812	239.19
414.035	241.19
414.258	245.19
414.482	236.19
414.705	236.19
414.928	245.19
415.151	257.19
415.374	236.19
415.597	241.19
415.821	250.19
416.044	239.19
416.267	256.19
416.49	253.19
416.713	262.19
416.936	278.19
417.159	257.19
417.382	240.19
417.605	251.19
417.828	240.19
418.051	258.19
418.274	232.19
418.497	250.19
418.72	238.19
418.943	241.19
419.166	256.19
419.389	262.19
419.611	261.19
419.834	248.19
420.057	246.19
420.28	243.19
420.503	259.19
420.726	253.19
420.948	262.19
421.171	251.19
421.394	258.19
421.617	258.19
421.839	250.19
422.062	274.19
422.285	260.19
422.507	304.19
422.73	284.19
422.953	280.19
423.175	306.19
423.398	327.19
423.621	345.19
423.843	380.19
424.066	438.19
424.288	516.19
424.511	628.19
424.733	694.19
424.956	624.19
425.178	496.19
425.401	467.19
425.623	440.19
425.846	375.19
426.068	352.19
426.291	342.19
426.513	338.19
426.735	306.19
426.958	309.19
427.18	305.19
427.402	294.19
427.625	296.19
427.847	266.19
428.069	287.19
428.292	265.19
428.514	272.19
428.736	259.19
428.958	264.19
429.181	260.19
429.403	270.19
429.625	261.19
429.847	249.19
430.069	256.19
430.292	241.19
430.514	242.19
430.736	254.19
430.958	233.19
431.18	244.19
431.402	258.19
431.624	259.19
431.846	245.19
432.068	246.19
432.29	236.19
432.512	244.19
432.734	240.19
432.956	261.19
433.178	250.19
433.4	255.19
433.622	247.19
433.844	268.19
434.066	278.19
434.287	285.19
434.509	264.19
434.731	284.19
434.953	257.19
435.175	247.19
435.397	282.19
435.618	259.19
435.84	252.19
436.062	249.19
436.284	281.19
436.505	251.19
436.727	269.19
436.949	279.19
437.17	286.19
437.392	291.19
437.614	322.19
437.835	338.19
438.057	340.19
438.278	389.19
438.5	490.19
438.721	608.19
438.943	640.19
439.165	549.19
439.386	489.19
439.608	442.19
439.829	438.19
440.05	405.19
440.272	395.19
440.493	391.19
440.715	426.19
440.936	460.19
441.158	441.19
441.379	389.19
441.6	360.19
441.822	337.19
442.043	313.19
442.264	322.19
442.486	290.19
442.707	288.19
442.928	296.19
443.149	274.19
443.371	281.19
443.592	272.19
443.813	278.19
444.034	302.19
444.255	280.19
444.476	272.19
444.698	272.19
444.919	263.19
445.14	328.19
445.361	277.19
445.582	260.19
445.803	255.19
446.024	246.19
446.245	236.19
446.466	256.19
446.687	253.19
446.908	240.19
447.129	246.19
447.35	222.19
447.571	226.19
447.792	237.19
448.013	250.19
448.234	251.19
448.455	236.19
448.675	218.19
448.896	238.19
449.117	226.19
449.338	239.19
449.559	235.19
449.779	229.19
450	214.19
450.221	222.19
450.442	225.19
450.662	224.19
450.883	203.19
451.104	220.19
451.324	221.19
451.545	207.19
451.766	222.19
451.986	223.19
452.207	210.19
452.428	229.19
452.648	226.19
452.869	211.19
453.089	220.19
453.31	213.19
453.53	206.19
453.751	202.19
453.971	221.19
454.192	219.19
454.412	204.19
454.633	205.19
454.853	222.19
455.073	206.19
455.294	204.19
455.514	204.19
455.734	205.19
455.955	206.19
456.175	227.19
456.395	220.19
456.616	232.19
456.836	206.19
457.056	208.19
457.276	204.19
457.497	205.19
457.717	213.19
457.937	197.19
458.157	210.19
458.377	198.19
458.598	214.19
458.818	224.19
459.038	210.19
459.258	220.19
459.478	237.19
459.698	214.19
459.918	219.19
460.138	232.19
460.358	230.19
460.578	226.19
460.798	223.19
461.018	238.19
461.238	226.19
461.458	230.19
461.678	242.19
461.898	234.19
462.118	234.19
462.338	239.19
462.558	248.19
462.777	234.19
462.997	237.19
463.217	251.19
463.437	246.19
463.657	234.19
463.876	226.19
464.096	246.19
464.316	245.19
464.536	262.19
464.755	236.19
464.975	233.19
465.195	243.19
465.414	225.19
465.634	237.19
465.854	235.19
466.073	216.19
466.293	212.19
466.512	225.19
466.732	209.19
466.951	199.19
467.171	226.19
467.391	224.19
467.61	217.19
467.829	210.19
468.049	207.19
468.268	216.19
468.488	223.19
468.707	221.19
468.927	219.19
469.146	229.19
469.365	216.19
469.585	220.19
469.804	226.19
470.023	213.19
470.243	218.19
470.462	216.19
470.681	230.19
470.901	210.19
471.12	220.19
471.339	221.19
471.558	215.19
471.777	216.19
471.997	205.19
472.216	208.19
472.435	217.19
472.654	221.19
472.873	211.19
473.092	205.19
473.311	211.19
473.53	233.19
473.749	222.19
473.968	224.19
474.187	197.19
474.406	226.19
474.625	234.19
474.844	224.19
475.063	223.19
475.282	229.19
475.501	236.19
475.72	228.19
475.939	226.19
476.158	221.19
476.377	218.19
476.596	224.19
476.814	226.19
477.033	219.19
477.252	243.19
477.471	244.19
477.69	247.19
477.908	253.19
478.127	234.19
478.346	248.19
478.564	253.19
478.783	258.19
479.002	278.19
479.22	250.19
479.439	255.19
479.658	266.19
479.876	250.19
480.095	256.19
480.313	270.19
480.532	270.19
480.751	267.19
480.969	256.19
481.188	241.19
481.406	250.19
481.624	238.19
481.843	254.19
482.061	241.19
482.28	269.19
482.498	247.19
482.717	229.19
482.935	255.19
483.153	242.19
483.372	245.19
483.59	242.19
483.808	256.19
484.027	222.19
484.245	253.19
484.463	239.19
484.681	238.19
484.9	262.19
485.118	245.19
485.336	255.19
485.554	247.19
485.772	227.19
485.99	250.19
486.209	250.19
486.427	245.19
486.645	252.19
486.863	234.19
487.081	246.19
487.299	238.19
487.517	239.19
487.735	250.19
487.953	252.19
488.171	259.19
488.389	254.19
488.607	254.19
488.825	262.19
489.043	259.19
489.261	268.19
489.479	261.19
489.696	246.19
489.914	265.19
490.132	254.19
490.35	246.19
490.568	258.19
490.786	264.19
491.003	255.19
491.221	233.19
491.439	252.19
491.657	280.19
491.874	266.19
492.092	275.19
492.31	270.19
492.527	260.19
492.745	245.19
492.963	259.19
493.18	263.19
493.398	254.19
493.615	265.19
493.833	264.19
494.05	267.19
494.268	253.19
494.485	272.19
494.703	263.19
494.92	268.19
495.138	272.19
495.355	284.19
495.573	285.19
495.79	284.19
496.008	304.19
496.225	280.19
496.442	270.19
496.66	274.19
496.877	281.19
497.094	287.19
497.312	279.19
497.529	284.19
497.746	294.19
497.963	303.19
498.181	306.19
498.398	293.19
498.615	269.19
498.832	321.19
499.049	312.19
499.267	329.19
499.484	344.19
499.701	361.19
499.918	355.19
500.135	406.19
500.352	418.19
500.569	496.19
500.786	547.19
501.003	438.19
501.22	416.19
501.437	393.19
501.654	373.19
501.871	373.19
502.088	328.19
502.305	353.19
502.522	320.19
502.739	340.19
502.956	333.19
503.172	326.19
503.389	312.19
