Data from StdB_HRD10591_074.txt Node
Date: Fri May 16 15:25:23 EDT 2025
User: Yrep
Spectrometer: HR+D1059
Trigger mode: 1
Integration Time (sec): 1.000000E-1
Scans to average: 1
Electric dark correction enabled: true
Nonlinearity correction enabled: false
Boxcar width: 0
XAxis mode: Wavelengths
Number of Pixels in Spectrum: 2048
>>>>>Begin Spectral Data<<<<<
223.165	-22.25
223.4	-22.25
223.635	-22.25
223.869	-13.25
224.104	-20.25
224.338	-26.25
224.573	-26.25
224.808	-4.25
225.042	0.75
225.277	-2.25
225.511	0.75
225.746	3.75
225.98	-0.25
226.215	7.75
226.449	20.75
226.683	18.75
226.918	30.75
227.152	31.75
227.387	22.75
227.621	35.75
227.856	39.75
228.09	49.75
228.324	51.75
228.559	52.75
228.793	54.75
229.027	65.75
229.262	66.75
229.496	61.75
229.73	64.75
229.964	71.75
230.199	65.75
230.433	71.75
230.667	77.75
230.901	83.75
231.136	85.75
231.37	77.75
231.604	103.75
231.838	82.75
232.072	90.75
232.306	74.75
232.541	77.75
232.775	90.75
233.009	86.75
233.243	88.75
233.477	84.75
233.711	85.75
233.945	86.75
234.179	79.75
234.413	76.75
234.647	95.75
234.881	73.75
235.115	68.75
235.349	78.75
235.583	73.75
235.817	73.75
236.051	82.75
236.285	79.75
236.519	66.75
236.753	66.75
236.987	75.75
237.221	72.75
237.455	80.75
237.689	68.75
237.922	88.75
238.156	79.75
238.39	77.75
238.624	61.75
238.858	88.75
239.091	91.75
239.325	86.75
239.559	84.75
239.793	84.75
240.027	75.75
240.26	84.75
240.494	59.75
240.728	69.75
240.961	66.75
241.195	71.75
241.429	73.75
241.662	75.75
241.896	78.75
242.13	65.75
242.363	83.75
242.597	86.75
242.83	83.75
243.064	84.75
243.298	65.75
243.531	69.75
243.765	66.75
243.998	84.75
244.232	84.75
244.465	72.75
244.699	72.75
244.932	68.75
245.166	71.75
245.399	72.75
245.633	71.75
245.866	84.75
246.099	58.75
246.333	75.75
246.566	63.75
246.8	85.75
247.033	77.75
247.266	79.75
247.5	68.75
247.733	77.75
247.966	81.75
248.2	81.75
248.433	78.75
248.666	75.75
248.899	77.75
249.133	84.75
249.366	75.75
249.599	78.75
249.832	71.75
250.066	87.75
250.299	65.75
250.532	79.75
250.765	88.75
250.998	76.75
251.231	62.75
251.465	76.75
251.698	80.75
251.931	84.75
252.164	79.75
252.397	78.75
252.63	76.75
252.863	76.75
253.096	85.75
253.329	80.75
253.562	72.75
253.795	89.75
254.028	90.75
254.261	86.75
254.494	73.75
254.727	79.75
254.96	64.75
255.193	87.75
255.426	77.75
255.659	71.75
255.892	81.75
256.124	71.75
256.357	84.75
256.59	82.75
256.823	100.75
257.056	95.75
257.289	69.75
257.521	75.75
257.754	83.75
257.987	85.75
258.22	84.75
258.452	95.75
258.685	86.75
258.918	76.75
259.151	86.75
259.383	92.75
259.616	60.75
259.849	72.75
260.081	81.75
260.314	68.75
260.547	77.75
260.779	79.75
261.012	80.75
261.244	90.75
261.477	113.75
261.71	85.75
261.942	88.75
262.175	82.75
262.407	84.75
262.64	81.75
262.872	84.75
263.105	92.75
263.337	81.75
263.57	85.75
263.802	89.75
264.035	72.75
264.267	79.75
264.499	73.75
264.732	97.75
264.964	91.75
265.197	92.75
265.429	85.75
265.661	85.75
265.894	82.75
266.126	85.75
266.358	88.75
266.591	95.75
266.823	90.75
267.055	70.75
267.287	84.75
267.52	90.75
267.752	110.75
267.984	72.75
268.216	88.75
268.448	88.75
268.681	99.75
268.913	89.75
269.145	78.75
269.377	84.75
269.609	96.75
269.841	86.75
270.073	84.75
270.306	80.75
270.538	92.75
270.77	81.75
271.002	81.75
271.234	79.75
271.466	83.75
271.698	62.75
271.93	79.75
272.162	73.75
272.394	83.75
272.626	85.75
272.858	81.75
273.09	78.75
273.322	91.75
273.553	79.75
273.785	100.75
274.017	83.75
274.249	78.75
274.481	84.75
274.713	83.75
274.945	81.75
275.176	72.75
275.408	79.75
275.64	60.75
275.872	81.75
276.104	98.75
276.335	61.75
276.567	76.75
276.799	79.75
277.031	77.75
277.262	79.75
277.494	80.75
277.726	85.75
277.957	84.75
278.189	88.75
278.421	83.75
278.652	87.75
278.884	89.75
279.115	83.75
279.347	79.75
279.579	87.75
279.81	72.75
280.042	96.75
280.273	116.75
280.505	106.75
280.736	96.75
280.968	92.75
281.199	78.75
281.431	71.75
281.662	74.75
281.894	87.75
282.125	101.75
282.356	95.75
282.588	90.75
282.819	104.75
283.051	83.75
283.282	95.75
283.513	109.75
283.745	93.75
283.976	76.75
284.207	73.75
284.439	85.75
284.67	81.75
284.901	76.75
285.132	74.75
285.364	77.75
285.595	86.75
285.826	79.75
286.057	83.75
286.288	76.75
286.52	82.75
286.751	90.75
286.982	80.75
287.213	105.75
287.444	94.75
287.675	93.75
287.906	87.75
288.138	91.75
288.369	67.75
288.6	77.75
288.831	95.75
289.062	82.75
289.293	85.75
289.524	70.75
289.755	76.75
289.986	83.75
290.217	82.75
290.448	86.75
290.679	92.75
290.91	83.75
291.141	87.75
291.371	78.75
291.602	76.75
291.833	79.75
292.064	89.75
292.295	83.75
292.526	73.75
292.757	88.75
292.987	90.75
293.218	72.75
293.449	75.75
293.68	88.75
293.91	86.75
294.141	94.75
294.372	86.75
294.603	90.75
294.833	86.75
295.064	88.75
295.295	77.75
295.525	83.75
295.756	85.75
295.987	88.75
296.217	86.75
296.448	83.75
296.679	81.75
296.909	89.75
297.14	77.75
297.37	93.75
297.601	82.75
297.831	92.75
298.062	83.75
298.292	83.75
298.523	88.75
298.753	73.75
298.984	94.75
299.214	91.75
299.445	63.75
299.675	87.75
299.905	96.75
300.136	72.75
300.366	87.75
300.597	78.75
300.827	86.75
301.057	88.75
301.288	88.75
301.518	86.75
301.748	85.75
301.979	96.75
302.209	83.75
302.439	84.75
302.669	90.75
302.9	71.75
303.13	80.75
303.36	81.75
303.59	77.75
303.82	84.75
304.051	83.75
304.281	79.75
304.511	94.75
304.741	76.75
304.971	87.75
305.201	88.75
305.431	85.75
305.661	80.75
305.891	89.75
306.121	84.75
306.352	88.75
306.582	90.75
306.812	87.75
307.042	73.75
307.272	83.75
307.502	91.75
307.731	83.75
307.961	82.75
308.191	80.75
308.421	80.75
308.651	88.75
308.881	88.75
309.111	95.75
309.341	92.75
309.571	86.75
309.8	94.75
310.03	84.75
310.26	95.75
310.49	69.75
310.72	72.75
310.949	65.75
311.179	91.75
311.409	96.75
311.639	95.75
311.868	75.75
312.098	87.75
312.328	76.75
312.557	72.75
312.787	101.75
313.017	83.75
313.246	79.75
313.476	89.75
313.706	79.75
313.935	85.75
314.165	72.75
314.394	84.75
314.624	72.75
314.853	78.75
315.083	79.75
315.312	89.75
315.542	85.75
315.771	78.75
316.001	74.75
316.23	93.75
316.46	84.75
316.689	83.75
316.919	86.75
317.148	77.75
317.377	82.75
317.607	89.75
317.836	87.75
318.065	83.75
318.295	86.75
318.524	77.75
318.753	73.75
318.983	75.75
319.212	64.75
319.441	95.75
319.67	92.75
319.9	79.75
320.129	80.75
320.358	72.75
320.587	83.75
320.816	72.75
321.046	79.75
321.275	83.75
321.504	77.75
321.733	75.75
321.962	101.75
322.191	86.75
322.42	74.75
322.649	80.75
322.878	87.75
323.108	78.75
323.337	74.75
323.566	76.75
323.795	84.75
324.024	83.75
324.253	81.75
324.482	93.75
324.71	91.75
324.939	92.75
325.168	87.75
325.397	87.75
325.626	88.75
325.855	92.75
326.084	96.75
326.313	79.75
326.542	85.75
326.77	78.75
326.999	81.75
327.228	79.75
327.457	88.75
327.686	76.75
327.914	74.75
328.143	84.75
328.372	81.75
328.6	82.75
328.829	80.75
329.058	72.75
329.287	88.75
329.515	76.75
329.744	70.75
329.972	78.75
330.201	87.75
330.43	76.75
330.658	89.75
330.887	84.75
331.115	72.75
331.344	79.75
331.572	90.75
331.801	86.75
332.03	88.75
332.258	73.75
332.486	80.75
332.715	79.75
332.943	69.75
333.172	87.75
333.4	81.75
333.629	79.75
333.857	69.75
334.085	93.75
334.314	71.75
334.542	85.75
334.771	83.75
334.999	82.75
335.227	78.75
335.455	70.75
335.684	91.75
335.912	85.75
336.14	90.75
336.369	80.75
336.597	74.75
336.825	85.75
337.053	78.75
337.281	77.75
337.51	78.75
337.738	83.75
337.966	75.75
338.194	77.75
338.422	86.75
338.65	78.75
338.878	86.75
339.106	96.75
339.334	84.75
339.562	84.75
339.79	83.75
340.018	77.75
340.246	85.75
340.474	91.75
340.702	81.75
340.93	89.75
341.158	87.75
341.386	66.75
341.614	84.75
341.842	89.75
342.07	80.75
342.298	83.75
342.526	96.75
342.754	84.75
342.981	80.75
343.209	95.75
343.437	90.75
343.665	80.75
343.893	74.75
344.12	77.75
344.348	79.75
344.576	98.75
344.804	103.75
345.031	78.75
345.259	78.75
345.487	77.75
345.714	82.75
345.942	75.75
346.17	90.75
346.397	79.75
346.625	72.75
346.853	83.75
347.08	74.75
347.308	81.75
347.535	82.75
347.763	73.75
347.99	77.75
348.218	79.75
348.445	77.75
348.673	65.75
348.9	80.75
349.128	89.75
349.355	76.75
349.583	83.75
349.81	77.75
350.037	99.75
350.265	90.75
350.492	75.75
350.72	88.75
350.947	81.75
351.174	78.75
351.402	83.75
351.629	85.75
351.856	91.75
352.083	95.75
352.311	81.75
352.538	78.75
352.765	88.75
352.992	89.75
353.22	78.75
353.447	72.75
353.674	73.75
353.901	87.75
354.128	91.75
354.355	84.75
354.583	88.75
354.81	96.75
355.037	87.75
355.264	83.75
355.491	83.75
355.718	86.75
355.945	78.75
356.172	101.75
356.399	105.75
356.626	84.75
356.853	103.75
357.08	113.75
357.307	140.75
357.534	126.75
357.761	88.75
357.988	89.75
358.215	92.75
358.441	90.75
358.668	95.75
358.895	95.75
359.122	88.75
359.349	65.75
359.576	78.75
359.802	70.75
360.029	72.75
360.256	89.75
360.483	73.75
360.709	83.75
360.936	85.75
361.163	86.75
361.39	85.75
361.616	83.75
361.843	74.75
362.07	90.75
362.296	66.75
362.523	91.75
362.749	65.75
362.976	81.75
363.203	92.75
363.429	104.75
363.656	119.75
363.882	159.75
364.109	175.75
364.335	117.75
364.562	92.75
364.788	101.75
365.015	76.75
365.241	89.75
365.468	79.75
365.694	79.75
365.92	76.75
366.147	84.75
366.373	101.75
366.599	86.75
366.826	83.75
367.052	95.75
367.278	124.75
367.505	99.75
367.731	95.75
367.957	126.75
368.184	164.75
368.41	223.75
368.636	166.75
368.862	103.75
369.089	95.75
369.315	83.75
369.541	68.75
369.767	87.75
369.993	87.75
370.219	84.75
370.445	81.75
370.672	76.75
370.898	89.75
371.124	79.75
371.35	71.75
371.576	76.75
371.802	71.75
372.028	68.75
372.254	79.75
372.48	65.75
372.706	86.75
372.932	76.75
373.158	71.75
373.384	83.75
373.61	87.75
373.835	105.75
374.061	129.75
374.287	108.75
374.513	92.75
374.739	77.75
374.965	75.75
375.191	70.75
375.416	92.75
375.642	79.75
375.868	80.75
376.094	83.75
376.319	83.75
376.545	84.75
376.771	77.75
376.997	87.75
377.222	81.75
377.448	93.75
377.674	79.75
377.899	80.75
378.125	87.75
378.35	84.75
378.576	74.75
378.802	88.75
379.027	85.75
379.253	83.75
379.478	87.75
379.704	83.75
379.929	87.75
380.155	85.75
380.38	81.75
380.606	86.75
380.831	80.75
381.057	97.75
381.282	71.75
381.507	79.75
381.733	82.75
381.958	80.75
382.184	87.75
382.409	101.75
382.634	76.75
382.86	78.75
383.085	87.75
383.31	76.75
383.535	83.75
383.761	81.75
383.986	84.75
384.211	83.75
384.436	74.75
384.662	81.75
384.887	88.75
385.112	92.75
385.337	84.75
385.562	79.75
385.787	68.75
386.013	78.75
386.238	86.75
386.463	81.75
386.688	97.75
386.913	72.75
387.138	83.75
387.363	87.75
387.588	85.75
387.813	84.75
388.038	75.75
388.263	90.75
388.488	86.75
388.713	63.75
388.938	87.75
389.163	77.75
389.387	80.75
389.612	80.75
389.837	72.75
390.062	80.75
390.287	81.75
390.512	69.75
390.736	73.75
390.961	73.75
391.186	74.75
391.411	86.75
391.636	83.75
391.86	81.75
392.085	83.75
392.31	80.75
392.534	78.75
392.759	80.75
392.984	76.75
393.208	87.75
393.433	78.75
393.658	86.75
393.882	91.75
394.107	78.75
394.331	80.75
394.556	74.75
394.78	83.75
395.005	83.75
395.229	83.75
395.454	78.75
395.678	84.75
395.903	83.75
396.127	91.75
396.352	87.75
396.576	92.75
396.801	84.75
397.025	80.75
397.249	83.75
397.474	83.75
397.698	83.75
397.922	94.75
398.147	80.75
398.371	79.75
398.595	76.75
398.82	75.75
399.044	74.75
399.268	70.75
399.492	70.75
399.717	83.75
399.941	78.75
400.165	85.75
400.389	91.75
400.613	92.75
400.837	83.75
401.062	72.75
401.286	82.75
401.51	95.75
401.734	94.75
401.958	100.75
402.182	91.75
402.406	89.75
402.63	81.75
402.854	83.75
403.078	86.75
403.302	74.75
403.526	80.75
403.75	81.75
403.974	80.75
404.198	74.75
404.422	86.75
404.645	88.75
404.869	95.75
405.093	101.75
405.317	127.75
405.541	187.75
405.765	321.75
405.988	334.75
406.212	190.75
406.436	141.75
406.66	102.75
406.883	79.75
407.107	89.75
407.331	85.75
407.555	58.75
407.778	78.75
408.002	76.75
408.226	87.75
408.449	68.75
408.673	74.75
408.896	74.75
409.12	69.75
409.344	91.75
409.567	78.75
409.791	87.75
410.014	88.75
410.238	91.75
410.461	90.75
410.685	92.75
410.908	87.75
411.132	81.75
411.355	86.75
411.578	83.75
411.802	81.75
412.025	66.75
412.249	79.75
412.472	79.75
412.695	77.75
412.919	73.75
413.142	80.75
413.365	85.75
413.589	75.75
413.812	78.75
414.035	67.75
414.258	86.75
414.482	72.75
414.705	81.75
414.928	88.75
415.151	81.75
415.374	69.75
415.597	75.75
415.821	77.75
416.044	82.75
416.267	77.75
416.49	110.75
416.713	100.75
416.936	95.75
417.159	74.75
417.382	84.75
417.605	73.75
417.828	84.75
418.051	100.75
418.274	83.75
418.497	80.75
418.72	84.75
418.943	85.75
419.166	73.75
419.389	76.75
419.611	80.75
419.834	75.75
420.057	75.75
420.28	69.75
420.503	70.75
420.726	87.75
420.948	86.75
421.171	82.75
421.394	87.75
421.617	75.75
421.839	83.75
422.062	89.75
422.285	74.75
422.507	84.75
422.73	89.75
422.953	66.75
423.175	64.75
423.398	74.75
423.621	87.75
423.843	75.75
424.066	78.75
424.288	77.75
424.511	82.75
424.733	72.75
424.956	77.75
425.178	81.75
425.401	87.75
425.623	67.75
425.846	87.75
426.068	68.75
426.291	78.75
426.513	86.75
426.735	80.75
426.958	79.75
427.18	87.75
427.402	87.75
427.625	81.75
427.847	76.75
428.069	83.75
428.292	93.75
428.514	88.75
428.736	78.75
428.958	100.75
429.181	69.75
429.403	91.75
429.625	89.75
429.847	79.75
430.069	79.75
430.292	80.75
430.514	81.75
430.736	82.75
430.958	70.75
431.18	61.75
431.402	79.75
431.624	79.75
431.846	90.75
432.068	83.75
432.29	80.75
432.512	83.75
432.734	60.75
432.956	88.75
433.178	99.75
433.4	61.75
433.622	72.75
433.844	81.75
434.066	89.75
434.287	84.75
434.509	81.75
434.731	78.75
434.953	85.75
435.175	82.75
435.397	86.75
435.618	80.75
435.84	88.75
436.062	71.75
436.284	90.75
436.505	88.75
436.727	76.75
436.949	67.75
437.17	75.75
437.392	79.75
437.614	69.75
437.835	66.75
438.057	79.75
438.278	91.75
438.5	84.75
438.721	80.75
438.943	78.75
439.165	91.75
439.386	80.75
439.608	83.75
439.829	84.75
440.05	87.75
440.272	81.75
440.493	72.75
440.715	75.75
440.936	90.75
441.158	75.75
441.379	85.75
441.6	81.75
441.822	74.75
442.043	86.75
442.264	95.75
442.486	78.75
442.707	71.75
442.928	68.75
443.149	79.75
443.371	84.75
443.592	82.75
443.813	93.75
444.034	87.75
444.255	80.75
444.476	70.75
444.698	88.75
444.919	93.75
445.14	156.75
445.361	117.75
445.582	81.75
445.803	81.75
446.024	83.75
446.245	83.75
446.466	71.75
446.687	86.75
446.908	76.75
447.129	73.75
447.35	90.75
447.571	87.75
447.792	71.75
448.013	86.75
448.234	99.75
448.455	83.75
448.675	83.75
448.896	80.75
449.117	70.75
449.338	71.75
449.559	84.75
449.779	65.75
450	95.75
450.221	78.75
450.442	67.75
450.662	88.75
450.883	83.75
451.104	89.75
451.324	71.75
451.545	77.75
451.766	87.75
451.986	75.75
452.207	79.75
452.428	84.75
452.648	100.75
452.869	81.75
453.089	75.75
453.31	72.75
453.53	80.75
453.751	64.75
453.971	74.75
454.192	94.75
454.412	88.75
454.633	75.75
454.853	77.75
455.073	83.75
455.294	66.75
455.514	75.75
455.734	87.75
455.955	83.75
456.175	62.75
456.395	91.75
456.616	77.75
456.836	84.75
457.056	78.75
457.276	86.75
457.497	71.75
457.717	75.75
457.937	76.75
458.157	81.75
458.377	80.75
458.598	87.75
458.818	68.75
459.038	67.75
459.258	80.75
459.478	79.75
459.698	83.75
459.918	80.75
460.138	79.75
460.358	87.75
460.578	81.75
460.798	92.75
461.018	79.75
461.238	87.75
461.458	79.75
461.678	93.75
461.898	79.75
462.118	83.75
462.338	90.75
462.558	93.75
462.777	95.75
462.997	86.75
463.217	86.75
463.437	64.75
463.657	73.75
463.876	79.75
464.096	83.75
464.316	71.75
464.536	69.75
464.755	76.75
464.975	71.75
465.195	77.75
465.414	75.75
465.634	78.75
465.854	95.75
466.073	96.75
466.293	79.75
466.512	83.75
466.732	87.75
466.951	74.75
467.171	68.75
467.391	90.75
467.61	85.75
467.829	71.75
468.049	89.75
468.268	70.75
468.488	77.75
468.707	74.75
468.927	80.75
469.146	81.75
469.365	81.75
469.585	80.75
469.804	83.75
470.023	85.75
470.243	76.75
470.462	80.75
470.681	85.75
470.901	81.75
471.12	71.75
471.339	77.75
471.558	71.75
471.777	88.75
471.997	87.75
472.216	85.75
472.435	79.75
472.654	74.75
472.873	96.75
473.092	78.75
473.311	84.75
473.53	83.75
473.749	89.75
473.968	91.75
474.187	88.75
474.406	75.75
474.625	81.75
474.844	85.75
475.063	87.75
475.282	94.75
475.501	83.75
475.72	80.75
475.939	69.75
476.158	86.75
476.377	78.75
476.596	80.75
476.814	80.75
477.033	76.75
477.252	73.75
477.471	86.75
477.69	78.75
477.908	100.75
478.127	67.75
478.346	81.75
478.564	85.75
478.783	75.75
479.002	84.75
479.22	82.75
479.439	84.75
479.658	85.75
479.876	71.75
480.095	91.75
480.313	75.75
480.532	78.75
480.751	80.75
480.969	86.75
481.188	84.75
481.406	90.75
481.624	86.75
481.843	91.75
482.061	85.75
482.28	77.75
482.498	72.75
482.717	95.75
482.935	83.75
483.153	90.75
483.372	87.75
483.59	81.75
483.808	92.75
484.027	107.75
484.245	85.75
484.463	85.75
484.681	93.75
484.9	70.75
485.118	101.75
485.336	83.75
485.554	94.75
485.772	77.75
485.99	83.75
486.209	87.75
486.427	77.75
486.645	71.75
486.863	83.75
487.081	84.75
487.299	93.75
487.517	72.75
487.735	79.75
487.953	83.75
488.171	86.75
488.389	88.75
488.607	84.75
488.825	94.75
489.043	88.75
489.261	85.75
489.479	79.75
489.696	93.75
489.914	84.75
490.132	89.75
490.35	72.75
490.568	84.75
490.786	91.75
491.003	76.75
491.221	84.75
491.439	85.75
491.657	83.75
491.874	89.75
492.092	86.75
492.31	80.75
492.527	76.75
492.745	80.75
492.963	85.75
493.18	92.75
493.398	73.75
493.615	87.75
493.833	84.75
494.05	67.75
494.268	83.75
494.485	87.75
494.703	83.75
494.92	83.75
495.138	83.75
495.355	89.75
495.573	93.75
495.79	85.75
496.008	87.75
496.225	84.75
496.442	87.75
496.66	83.75
496.877	73.75
497.094	77.75
497.312	87.75
497.529	82.75
497.746	74.75
497.963	69.75
498.181	84.75
498.398	89.75
498.615	79.75
498.832	75.75
499.049	75.75
499.267	73.75
499.484	87.75
499.701	71.75
499.918	79.75
500.135	75.75
500.352	93.75
500.569	106.75
500.786	116.75
501.003	88.75
501.22	87.75
501.437	97.75
501.654	89.75
501.871	79.75
502.088	96.75
502.305	81.75
502.522	79.75
502.739	77.75
502.956	87.75
503.172	83.75
503.389	91.75
503.606	82.75
503.823	79.75
504.04	86.75
504.256	87.75
504.473	85.75
504.69	92.75
504.907	95.75
505.123	79.75
505.34	88.75
505.557	75.75
505.773	66.75
505.99	83.75
506.207	79.75
506.423	83.75
506.64	79.75
506.856	72.75
507.073	89.75
507.289	88.75
507.506	87.75
507.722	87.75
507.939	81.75
508.155	87.75
508.372	86.75
508.588	81.75
508.805	80.75
509.021	88.75
509.238	88.75
509.454	86.75
509.67	67.75
509.887	75.75
510.103	90.75
510.319	83.75
510.536	84.75
510.752	93.75
510.968	87.75
511.184	77.75
511.401	87.75
511.617	83.75
511.833	71.75
512.049	85.75
512.265	91.75
512.481	86.75
512.698	75.75
512.914	89.75
513.13	95.75
513.346	83.75
513.562	83.75
513.778	94.75
513.994	82.75
514.21	72.75
514.426	79.75
514.642	100.75
514.858	88.75
515.074	83.75
515.29	66.75
515.506	81.75
515.721	93.75
515.937	88.75
516.153	75.75
516.369	89.75
516.585	83.75
516.801	85.75
517.016	96.75
517.232	90.75
517.448	88.75
517.664	77.75
517.879	90.75
518.095	75.75
518.311	89.75
518.527	83.75
518.742	79.75
518.958	86.75
519.173	84.75
519.389	73.75
519.605	78.75
