Data from StdB_HRD10591_062.txt Node
Date: Fri May 16 15:25:17 EDT 2025
User: Yrep
Spectrometer: HR+D1059
Trigger mode: 1
Integration Time (sec): 1.000000E-1
Scans to average: 1
Electric dark correction enabled: true
Nonlinearity correction enabled: false
Boxcar width: 0
XAxis mode: Wavelengths
Number of Pixels in Spectrum: 2048
>>>>>Begin Spectral Data<<<<<
223.165	-24.19
223.4	-24.19
223.635	-24.19
223.869	-22.19
224.104	-23.19
224.338	-25.19
224.573	-24.19
224.808	-6.19
225.042	-2.19
225.277	-12.19
225.511	-0.19
225.746	8.81
225.98	8.81
226.215	19.81
226.449	24.81
226.683	25.81
226.918	26.81
227.152	24.81
227.387	22.81
227.621	43.81
227.856	39.81
228.09	43.81
228.324	53.81
228.559	63.81
228.793	64.81
229.027	62.81
229.262	72.81
229.496	62.81
229.73	67.81
229.964	72.81
230.199	61.81
230.433	68.81
230.667	70.81
230.901	79.81
231.136	75.81
231.37	80.81
231.604	85.81
231.838	64.81
232.072	79.81
232.306	84.81
232.541	77.81
232.775	89.81
233.009	89.81
233.243	80.81
233.477	72.81
233.711	95.81
233.945	75.81
234.179	89.81
234.413	92.81
234.647	83.81
234.881	81.81
235.115	71.81
235.349	75.81
235.583	73.81
235.817	83.81
236.051	77.81
236.285	64.81
236.519	85.81
236.753	84.81
236.987	86.81
237.221	71.81
237.455	71.81
237.689	81.81
237.922	79.81
238.156	82.81
238.39	73.81
238.624	69.81
238.858	62.81
239.091	80.81
239.325	68.81
239.559	93.81
239.793	70.81
240.027	83.81
240.26	81.81
240.494	72.81
240.728	66.81
240.961	75.81
241.195	84.81
241.429	71.81
241.662	80.81
241.896	83.81
242.13	62.81
242.363	74.81
242.597	68.81
242.83	79.81
243.064	89.81
243.298	79.81
243.531	81.81
243.765	74.81
243.998	69.81
244.232	90.81
244.465	67.81
244.699	71.81
244.932	84.81
245.166	74.81
245.399	88.81
245.633	69.81
245.866	75.81
246.099	67.81
246.333	79.81
246.566	72.81
246.8	83.81
247.033	83.81
247.266	89.81
247.5	73.81
247.733	79.81
247.966	86.81
248.2	87.81
248.433	78.81
248.666	74.81
248.899	87.81
249.133	52.81
249.366	79.81
249.599	71.81
249.832	72.81
250.066	70.81
250.299	87.81
250.532	84.81
250.765	80.81
250.998	83.81
251.231	87.81
251.465	81.81
251.698	79.81
251.931	71.81
252.164	76.81
252.397	75.81
252.63	84.81
252.863	84.81
253.096	91.81
253.329	74.81
253.562	78.81
253.795	92.81
254.028	77.81
254.261	86.81
254.494	83.81
254.727	77.81
254.96	87.81
255.193	85.81
255.426	85.81
255.659	76.81
255.892	81.81
256.124	66.81
256.357	66.81
256.59	98.81
256.823	75.81
257.056	87.81
257.289	83.81
257.521	90.81
257.754	88.81
257.987	68.81
258.22	91.81
258.452	72.81
258.685	73.81
258.918	82.81
259.151	69.81
259.383	85.81
259.616	72.81
259.849	83.81
260.081	77.81
260.314	79.81
260.547	85.81
260.779	85.81
261.012	72.81
261.244	78.81
261.477	99.81
261.71	100.81
261.942	89.81
262.175	81.81
262.407	79.81
262.64	82.81
262.872	78.81
263.105	81.81
263.337	83.81
263.57	94.81
263.802	78.81
264.035	67.81
264.267	87.81
264.499	72.81
264.732	83.81
264.964	78.81
265.197	82.81
265.429	78.81
265.661	78.81
265.894	81.81
266.126	93.81
266.358	95.81
266.591	85.81
266.823	65.81
267.055	75.81
267.287	85.81
267.52	78.81
267.752	76.81
267.984	62.81
268.216	77.81
268.448	82.81
268.681	73.81
268.913	93.81
269.145	90.81
269.377	88.81
269.609	77.81
269.841	91.81
270.073	73.81
270.306	74.81
270.538	77.81
270.77	81.81
271.002	88.81
271.234	79.81
271.466	78.81
271.698	76.81
271.93	83.81
272.162	75.81
272.394	79.81
272.626	82.81
272.858	83.81
273.09	81.81
273.322	78.81
273.553	73.81
273.785	73.81
274.017	71.81
274.249	83.81
274.481	85.81
274.713	72.81
274.945	64.81
275.176	84.81
275.408	81.81
275.64	69.81
275.872	83.81
276.104	65.81
276.335	83.81
276.567	79.81
276.799	76.81
277.031	76.81
277.262	86.81
277.494	91.81
277.726	94.81
277.957	82.81
278.189	73.81
278.421	81.81
278.652	81.81
278.884	81.81
279.115	74.81
279.347	96.81
279.579	81.81
279.81	84.81
280.042	126.81
280.273	116.81
280.505	102.81
280.736	70.81
280.968	106.81
281.199	89.81
281.431	75.81
281.662	85.81
281.894	104.81
282.125	83.81
282.356	103.81
282.588	83.81
282.819	87.81
283.051	101.81
283.282	96.81
283.513	101.81
283.745	104.81
283.976	81.81
284.207	85.81
284.439	86.81
284.67	90.81
284.901	86.81
285.132	85.81
285.364	80.81
285.595	78.81
285.826	81.81
286.057	76.81
286.288	85.81
286.52	79.81
286.751	78.81
286.982	89.81
287.213	91.81
287.444	103.81
287.675	91.81
287.906	83.81
288.138	93.81
288.369	72.81
288.6	60.81
288.831	77.81
289.062	74.81
289.293	65.81
289.524	78.81
289.755	78.81
289.986	76.81
290.217	92.81
290.448	86.81
290.679	86.81
290.91	88.81
291.141	74.81
291.371	79.81
291.602	66.81
291.833	71.81
292.064	87.81
292.295	92.81
292.526	88.81
292.757	70.81
292.987	82.81
293.218	87.81
293.449	86.81
293.68	71.81
293.91	73.81
294.141	83.81
294.372	75.81
294.603	90.81
294.833	83.81
295.064	78.81
295.295	82.81
295.525	79.81
295.756	78.81
295.987	86.81
296.217	79.81
296.448	84.81
296.679	81.81
296.909	90.81
297.14	93.81
297.37	83.81
297.601	70.81
297.831	82.81
298.062	83.81
298.292	91.81
298.523	84.81
298.753	82.81
298.984	83.81
299.214	88.81
299.445	80.81
299.675	72.81
299.905	76.81
300.136	80.81
300.366	84.81
300.597	78.81
300.827	73.81
301.057	88.81
301.288	86.81
301.518	89.81
301.748	94.81
301.979	99.81
302.209	86.81
302.439	72.81
302.669	86.81
302.9	89.81
303.13	88.81
303.36	77.81
303.59	71.81
303.82	88.81
304.051	94.81
304.281	79.81
304.511	78.81
304.741	82.81
304.971	81.81
305.201	85.81
305.431	88.81
305.661	88.81
305.891	92.81
306.121	88.81
306.352	81.81
306.582	71.81
306.812	81.81
307.042	73.81
307.272	71.81
307.502	83.81
307.731	77.81
307.961	79.81
308.191	83.81
308.421	83.81
308.651	98.81
308.881	83.81
309.111	75.81
309.341	78.81
309.571	102.81
309.8	73.81
310.03	77.81
310.26	90.81
310.49	93.81
310.72	84.81
310.949	75.81
311.179	95.81
311.409	95.81
311.639	93.81
311.868	86.81
312.098	87.81
312.328	91.81
312.557	71.81
312.787	64.81
313.017	91.81
313.246	85.81
313.476	93.81
313.706	85.81
313.935	79.81
314.165	81.81
314.394	87.81
314.624	81.81
314.853	87.81
315.083	84.81
315.312	79.81
315.542	77.81
315.771	82.81
316.001	95.81
316.23	95.81
316.46	71.81
316.689	70.81
316.919	71.81
317.148	89.81
317.377	102.81
317.607	82.81
317.836	88.81
318.065	77.81
318.295	104.81
318.524	96.81
318.753	84.81
318.983	74.81
319.212	85.81
319.441	79.81
319.67	70.81
319.9	76.81
320.129	83.81
320.358	79.81
320.587	96.81
320.816	92.81
321.046	80.81
321.275	73.81
321.504	92.81
321.733	84.81
321.962	84.81
322.191	70.81
322.42	78.81
322.649	77.81
322.878	92.81
323.108	89.81
323.337	80.81
323.566	89.81
323.795	82.81
324.024	100.81
324.253	96.81
324.482	75.81
324.71	93.81
324.939	65.81
325.168	87.81
325.397	75.81
325.626	85.81
325.855	79.81
326.084	85.81
326.313	96.81
326.542	84.81
326.77	99.81
326.999	69.81
327.228	78.81
327.457	84.81
327.686	92.81
327.914	85.81
328.143	95.81
328.372	87.81
328.6	88.81
328.829	81.81
329.058	64.81
329.287	93.81
329.515	71.81
329.744	82.81
329.972	82.81
330.201	83.81
330.43	86.81
330.658	80.81
330.887	77.81
331.115	79.81
331.344	85.81
331.572	71.81
331.801	80.81
332.03	73.81
332.258	79.81
332.486	81.81
332.715	74.81
332.943	73.81
333.172	81.81
333.4	102.81
333.629	89.81
333.857	88.81
334.085	85.81
334.314	84.81
334.542	74.81
334.771	83.81
334.999	87.81
335.227	67.81
335.455	83.81
335.684	88.81
335.912	63.81
336.14	74.81
336.369	90.81
336.597	78.81
336.825	75.81
337.053	79.81
337.281	79.81
337.51	78.81
337.738	86.81
337.966	93.81
338.194	81.81
338.422	69.81
338.65	72.81
338.878	75.81
339.106	81.81
339.334	69.81
339.562	79.81
339.79	82.81
340.018	77.81
340.246	90.81
340.474	75.81
340.702	79.81
340.93	59.81
341.158	77.81
341.386	88.81
341.614	74.81
341.842	85.81
342.07	72.81
342.298	90.81
342.526	95.81
342.754	93.81
342.981	81.81
343.209	69.81
343.437	94.81
343.665	84.81
343.893	74.81
344.12	87.81
344.348	72.81
344.576	80.81
344.804	75.81
345.031	71.81
345.259	100.81
345.487	68.81
345.714	71.81
345.942	75.81
346.17	75.81
346.397	97.81
346.625	78.81
346.853	85.81
347.08	81.81
347.308	86.81
347.535	81.81
347.763	76.81
347.99	91.81
348.218	88.81
348.445	72.81
348.673	94.81
348.9	71.81
349.128	80.81
349.355	87.81
349.583	82.81
349.81	89.81
350.037	89.81
350.265	79.81
350.492	87.81
350.72	86.81
350.947	98.81
351.174	72.81
351.402	75.81
351.629	69.81
351.856	60.81
352.083	87.81
352.311	91.81
352.538	66.81
352.765	75.81
352.992	93.81
353.22	85.81
353.447	74.81
353.674	78.81
353.901	87.81
354.128	95.81
354.355	76.81
354.583	85.81
354.81	79.81
355.037	99.81
355.264	79.81
355.491	71.81
355.718	82.81
355.945	84.81
356.172	76.81
356.399	89.81
356.626	96.81
356.853	97.81
357.08	137.81
357.307	138.81
357.534	132.81
357.761	82.81
357.988	85.81
358.215	92.81
358.441	75.81
358.668	84.81
358.895	78.81
359.122	76.81
359.349	81.81
359.576	92.81
359.802	77.81
360.029	84.81
360.256	80.81
360.483	77.81
360.709	86.81
360.936	91.81
361.163	81.81
361.39	69.81
361.616	73.81
361.843	90.81
362.07	73.81
362.296	91.81
362.523	83.81
362.749	97.81
362.976	71.81
363.203	104.81
363.429	105.81
363.656	129.81
363.882	165.81
364.109	203.81
364.335	112.81
364.562	83.81
364.788	88.81
365.015	82.81
365.241	88.81
365.468	86.81
365.694	76.81
365.92	95.81
366.147	86.81
366.373	80.81
366.599	87.81
366.826	110.81
367.052	107.81
367.278	115.81
367.505	99.81
367.731	100.81
367.957	135.81
368.184	199.81
368.41	272.81
368.636	189.81
368.862	114.81
369.089	94.81
369.315	80.81
369.541	80.81
369.767	78.81
369.993	79.81
370.219	82.81
370.445	91.81
370.672	68.81
370.898	67.81
371.124	85.81
371.35	81.81
371.576	85.81
371.802	80.81
372.028	79.81
372.254	81.81
372.48	92.81
372.706	84.81
372.932	86.81
373.158	91.81
373.384	83.81
373.61	93.81
373.835	123.81
374.061	147.81
374.287	118.81
374.513	99.81
374.739	84.81
374.965	77.81
375.191	68.81
375.416	77.81
375.642	90.81
375.868	85.81
376.094	88.81
376.319	75.81
376.545	72.81
376.771	96.81
376.997	71.81
377.222	83.81
377.448	84.81
377.674	75.81
377.899	90.81
378.125	88.81
378.35	95.81
378.576	87.81
378.802	75.81
379.027	87.81
379.253	91.81
379.478	73.81
379.704	91.81
379.929	89.81
380.155	72.81
380.38	71.81
380.606	76.81
380.831	85.81
381.057	93.81
381.282	85.81
381.507	83.81
381.733	74.81
381.958	74.81
382.184	85.81
382.409	66.81
382.634	76.81
382.86	82.81
383.085	84.81
383.31	68.81
383.535	70.81
383.761	82.81
383.986	94.81
384.211	88.81
384.436	82.81
384.662	84.81
384.887	78.81
385.112	81.81
385.337	82.81
385.562	69.81
385.787	84.81
386.013	80.81
386.238	66.81
386.463	77.81
386.688	84.81
386.913	87.81
387.138	78.81
387.363	78.81
387.588	80.81
387.813	85.81
388.038	79.81
388.263	94.81
388.488	71.81
388.713	73.81
388.938	79.81
389.163	72.81
389.387	82.81
389.612	72.81
389.837	80.81
390.062	64.81
390.287	71.81
390.512	89.81
390.736	65.81
390.961	75.81
391.186	80.81
391.411	83.81
391.636	89.81
391.86	89.81
392.085	85.81
392.31	77.81
392.534	80.81
392.759	74.81
392.984	78.81
393.208	68.81
393.433	77.81
393.658	83.81
393.882	75.81
394.107	87.81
394.331	76.81
394.556	81.81
394.78	89.81
395.005	78.81
395.229	69.81
395.454	82.81
395.678	80.81
395.903	90.81
396.127	80.81
396.352	83.81
396.576	85.81
396.801	87.81
397.025	85.81
397.249	85.81
397.474	80.81
397.698	79.81
397.922	88.81
398.147	103.81
398.371	93.81
398.595	94.81
398.82	87.81
399.044	70.81
399.268	74.81
399.492	63.81
399.717	90.81
399.941	77.81
400.165	83.81
400.389	72.81
400.613	85.81
400.837	85.81
401.062	83.81
401.286	99.81
401.51	82.81
401.734	79.81
401.958	115.81
402.182	104.81
402.406	94.81
402.63	88.81
402.854	82.81
403.078	83.81
403.302	71.81
403.526	80.81
403.75	91.81
403.974	87.81
404.198	90.81
404.422	82.81
404.645	87.81
404.869	82.81
405.093	106.81
405.317	126.81
405.541	207.81
405.765	353.81
405.988	397.81
406.212	193.81
406.436	128.81
406.66	92.81
406.883	79.81
407.107	88.81
407.331	87.81
407.555	85.81
407.778	81.81
408.002	79.81
408.226	72.81
408.449	78.81
408.673	85.81
408.896	84.81
409.12	82.81
409.344	79.81
409.567	76.81
409.791	77.81
410.014	82.81
410.238	81.81
410.461	79.81
410.685	73.81
410.908	79.81
411.132	83.81
411.355	77.81
411.578	79.81
411.802	71.81
412.025	79.81
412.249	78.81
412.472	78.81
412.695	86.81
412.919	85.81
413.142	74.81
413.365	95.81
413.589	75.81
413.812	69.81
414.035	78.81
414.258	88.81
414.482	74.81
414.705	80.81
414.928	76.81
415.151	65.81
415.374	62.81
415.597	65.81
415.821	68.81
416.044	77.81
416.267	79.81
416.49	71.81
416.713	76.81
416.936	113.81
417.159	82.81
417.382	75.81
417.605	68.81
417.828	73.81
418.051	67.81
418.274	73.81
418.497	80.81
418.72	80.81
418.943	88.81
419.166	74.81
419.389	87.81
419.611	79.81
419.834	79.81
420.057	88.81
420.28	83.81
420.503	81.81
420.726	74.81
420.948	92.81
421.171	77.81
421.394	80.81
421.617	73.81
421.839	77.81
422.062	80.81
422.285	71.81
422.507	67.81
422.73	68.81
422.953	72.81
423.175	73.81
423.398	77.81
423.621	85.81
423.843	95.81
424.066	82.81
424.288	81.81
424.511	63.81
424.733	85.81
424.956	92.81
425.178	78.81
425.401	83.81
425.623	79.81
425.846	67.81
426.068	83.81
426.291	98.81
426.513	92.81
426.735	80.81
426.958	71.81
427.18	80.81
427.402	70.81
427.625	82.81
427.847	83.81
428.069	68.81
428.292	84.81
428.514	94.81
428.736	80.81
428.958	69.81
429.181	75.81
429.403	84.81
429.625	83.81
429.847	83.81
430.069	82.81
430.292	85.81
430.514	85.81
430.736	77.81
430.958	95.81
431.18	92.81
431.402	78.81
431.624	71.81
431.846	80.81
432.068	81.81
432.29	79.81
432.512	85.81
432.734	72.81
432.956	75.81
433.178	86.81
433.4	74.81
433.622	87.81
433.844	83.81
434.066	69.81
434.287	78.81
434.509	75.81
434.731	77.81
434.953	85.81
435.175	69.81
435.397	82.81
435.618	65.81
435.84	75.81
436.062	79.81
436.284	88.81
436.505	84.81
436.727	80.81
436.949	77.81
437.17	75.81
437.392	70.81
437.614	88.81
437.835	77.81
438.057	77.81
438.278	77.81
438.5	80.81
438.721	79.81
438.943	82.81
439.165	75.81
439.386	83.81
439.608	62.81
439.829	75.81
440.05	73.81
440.272	79.81
440.493	73.81
440.715	82.81
440.936	78.81
441.158	89.81
441.379	87.81
441.6	78.81
441.822	82.81
442.043	88.81
442.264	91.81
442.486	85.81
442.707	78.81
442.928	82.81
443.149	79.81
443.371	89.81
443.592	90.81
443.813	75.81
444.034	74.81
444.255	82.81
444.476	78.81
444.698	81.81
444.919	87.81
445.14	145.81
445.361	117.81
445.582	83.81
445.803	74.81
446.024	86.81
446.245	101.81
446.466	75.81
446.687	96.81
446.908	86.81
447.129	75.81
447.35	90.81
447.571	79.81
447.792	83.81
448.013	85.81
448.234	88.81
448.455	70.81
448.675	72.81
448.896	71.81
449.117	78.81
449.338	85.81
449.559	91.81
449.779	96.81
450	80.81
450.221	76.81
450.442	71.81
450.662	83.81
450.883	93.81
451.104	79.81
451.324	60.81
451.545	90.81
451.766	83.81
451.986	85.81
452.207	88.81
452.428	71.81
452.648	84.81
452.869	77.81
453.089	86.81
453.31	75.81
453.53	71.81
453.751	79.81
453.971	84.81
454.192	73.81
454.412	87.81
454.633	87.81
454.853	72.81
455.073	87.81
455.294	81.81
455.514	69.81
455.734	88.81
455.955	84.81
456.175	75.81
456.395	87.81
456.616	69.81
456.836	77.81
457.056	94.81
457.276	93.81
457.497	79.81
457.717	70.81
457.937	72.81
458.157	81.81
458.377	71.81
458.598	79.81
458.818	77.81
459.038	72.81
459.258	80.81
459.478	67.81
459.698	76.81
459.918	77.81
460.138	65.81
460.358	72.81
460.578	72.81
460.798	84.81
461.018	87.81
461.238	91.81
461.458	57.81
461.678	89.81
461.898	79.81
462.118	91.81
462.338	63.81
462.558	85.81
462.777	72.81
462.997	86.81
463.217	77.81
463.437	90.81
463.657	78.81
463.876	82.81
464.096	70.81
464.316	74.81
464.536	79.81
464.755	81.81
464.975	72.81
465.195	84.81
465.414	74.81
465.634	73.81
465.854	84.81
466.073	83.81
466.293	87.81
466.512	83.81
466.732	89.81
466.951	82.81
467.171	65.81
467.391	84.81
467.61	92.81
467.829	76.81
468.049	65.81
468.268	77.81
468.488	76.81
468.707	92.81
468.927	80.81
469.146	64.81
469.365	86.81
469.585	83.81
469.804	83.81
470.023	80.81
470.243	80.81
470.462	80.81
470.681	74.81
470.901	80.81
471.12	97.81
471.339	98.81
471.558	91.81
471.777	72.81
471.997	91.81
472.216	87.81
472.435	68.81
472.654	93.81
472.873	77.81
473.092	94.81
473.311	87.81
473.53	83.81
473.749	89.81
473.968	93.81
474.187	87.81
474.406	76.81
474.625	86.81
474.844	85.81
475.063	82.81
475.282	88.81
475.501	78.81
475.72	77.81
475.939	89.81
476.158	72.81
476.377	68.81
476.596	82.81
476.814	88.81
477.033	92.81
477.252	70.81
477.471	84.81
477.69	85.81
477.908	91.81
478.127	91.81
478.346	60.81
478.564	99.81
478.783	88.81
479.002	82.81
479.22	79.81
479.439	86.81
479.658	83.81
479.876	87.81
480.095	70.81
480.313	77.81
480.532	78.81
480.751	73.81
480.969	93.81
481.188	84.81
481.406	88.81
481.624	76.81
481.843	95.81
482.061	85.81
482.28	83.81
482.498	89.81
482.717	78.81
482.935	82.81
483.153	94.81
483.372	72.81
483.59	81.81
483.808	72.81
484.027	82.81
484.245	87.81
484.463	82.81
484.681	86.81
484.9	79.81
485.118	77.81
485.336	79.81
485.554	59.81
485.772	89.81
485.99	88.81
486.209	81.81
486.427	92.81
486.645	86.81
486.863	86.81
487.081	81.81
487.299	83.81
487.517	91.81
487.735	77.81
487.953	75.81
488.171	80.81
488.389	88.81
488.607	85.81
488.825	86.81
489.043	80.81
489.261	73.81
489.479	88.81
489.696	95.81
489.914	86.81
490.132	71.81
490.35	86.81
490.568	92.81
490.786	84.81
491.003	77.81
491.221	88.81
491.439	83.81
491.657	78.81
491.874	83.81
492.092	80.81
492.31	89.81
492.527	94.81
492.745	84.81
492.963	86.81
493.18	93.81
493.398	88.81
493.615	72.81
493.833	88.81
494.05	93.81
494.268	97.81
494.485	87.81
494.703	91.81
494.92	71.81
495.138	79.81
495.355	99.81
495.573	89.81
495.79	90.81
496.008	84.81
496.225	83.81
496.442	84.81
496.66	84.81
496.877	79.81
497.094	95.81
497.312	66.81
497.529	88.81
497.746	86.81
497.963	80.81
498.181	84.81
498.398	79.81
498.615	84.81
498.832	78.81
499.049	73.81
499.267	88.81
499.484	91.81
499.701	90.81
499.918	88.81
500.135	89.81
500.352	79.81
500.569	119.81
500.786	131.81
501.003	94.81
501.22	86.81
501.437	93.81
501.654	96.81
501.871	79.81
502.088	75.81
502.305	90.81
502.522	79.81
502.739	83.81
502.956	78.81
503.172	82.81
503.389	81.81
503.606	77.81
503.823	75.81
504.04	63.81
504.256	81.81
504.473	85.81
504.69	92.81
504.907	93.81
505.123	80.81
505.34	80.81
505.557	85.81
505.773	83.81
505.99	86.81
506.207	77.81
506.423	70.81
506.64	75.81
506.856	84.81
507.073	88.81
507.289	91.81
507.506	96.81
507.722	77.81
507.939	76.81
508.155	90.81
508.372	85.81
508.588	92.81
508.805	75.81
509.021	73.81
509.238	92.81
509.454	73.81
509.67	87.81
509.887	87.81
510.103	76.81
510.319	90.81
510.536	95.81
510.752	80.81
510.968	75.81
511.184	72.81
511.401	75.81
511.617	76.81
511.833	76.81
512.049	80.81
512.265	79.81
512.481	78.81
512.698	76.81
512.914	81.81
513.13	83.81
513.346	93.81
513.562	91.81
513.778	84.81
513.994	80.81
514.21	80.81
514.426	77.81
514.642	88.81
514.858	80.81
515.074	81.81
515.29	79.81
515.506	98.81
515.721	99.81
515.937	90.81
516.153	85.81
516.369	86.81
516.585	71.81
516.801	85.81
517.016	73.81
517.232	86.81
517.448	86.81
517.664	92.81
517.879	89.81
518.095	92.81
518.311	89.81
518.527	80.81
518.742	88.81
518.958	60.81
519.173	76.81
519.389	83.81
519.605	77.81
