Data from StdB_HRD10591_050.txt Node
Date: Fri May 16 15:25:11 EDT 2025
User: Yrep
Spectrometer: HR+D1059
Trigger mode: 1
Integration Time (sec): 1.000000E-1
Scans to average: 1
Electric dark correction enabled: true
Nonlinearity correction enabled: false
Boxcar width: 0
XAxis mode: Wavelengths
Number of Pixels in Spectrum: 2048
>>>>>Begin Spectral Data<<<<<
223.165	-4.44
223.4	-4.44
223.635	-4.44
223.869	-27.44
224.104	-18.44
224.338	-12.44
224.573	-16.44
224.808	-2.44
225.042	-5.44
225.277	-11.44
225.511	-17.44
225.746	-9.44
225.98	-3.44
226.215	14.56
226.449	-1.44
226.683	39.56
226.918	42.56
227.152	33.56
227.387	31.56
227.621	41.56
227.856	36.56
228.09	48.56
228.324	47.56
228.559	64.56
228.793	54.56
229.027	56.56
229.262	64.56
229.496	59.56
229.73	73.56
229.964	82.56
230.199	75.56
230.433	76.56
230.667	66.56
230.901	75.56
231.136	70.56
231.37	90.56
231.604	75.56
231.838	78.56
232.072	90.56
232.306	78.56
232.541	80.56
232.775	76.56
233.009	84.56
233.243	95.56
233.477	73.56
233.711	78.56
233.945	77.56
234.179	89.56
234.413	72.56
234.647	73.56
234.881	74.56
235.115	86.56
235.349	82.56
235.583	65.56
235.817	93.56
236.051	84.56
236.285	66.56
236.519	59.56
236.753	77.56
236.987	67.56
237.221	93.56
237.455	83.56
237.689	78.56
237.922	80.56
238.156	87.56
238.39	66.56
238.624	75.56
238.858	68.56
239.091	62.56
239.325	76.56
239.559	73.56
239.793	87.56
240.027	75.56
240.26	77.56
240.494	71.56
240.728	55.56
240.961	63.56
241.195	72.56
241.429	78.56
241.662	75.56
241.896	73.56
242.13	75.56
242.363	70.56
242.597	84.56
242.83	88.56
243.064	88.56
243.298	80.56
243.531	79.56
243.765	82.56
243.998	76.56
244.232	87.56
244.465	81.56
244.699	76.56
244.932	74.56
245.166	65.56
245.399	71.56
245.633	90.56
245.866	89.56
246.099	75.56
246.333	81.56
246.566	78.56
246.8	82.56
247.033	87.56
247.266	92.56
247.5	66.56
247.733	76.56
247.966	83.56
248.2	79.56
248.433	88.56
248.666	83.56
248.899	75.56
249.133	76.56
249.366	96.56
249.599	89.56
249.832	69.56
250.066	80.56
250.299	84.56
250.532	76.56
250.765	77.56
250.998	77.56
251.231	75.56
251.465	71.56
251.698	78.56
251.931	63.56
252.164	81.56
252.397	76.56
252.63	89.56
252.863	73.56
253.096	81.56
253.329	82.56
253.562	73.56
253.795	82.56
254.028	83.56
254.261	74.56
254.494	67.56
254.727	71.56
254.96	83.56
255.193	76.56
255.426	76.56
255.659	84.56
255.892	84.56
256.124	75.56
256.357	75.56
256.59	88.56
256.823	78.56
257.056	93.56
257.289	90.56
257.521	91.56
257.754	81.56
257.987	84.56
258.22	90.56
258.452	80.56
258.685	89.56
258.918	80.56
259.151	74.56
259.383	87.56
259.616	69.56
259.849	77.56
260.081	89.56
260.314	70.56
260.547	80.56
260.779	88.56
261.012	81.56
261.244	82.56
261.477	93.56
261.71	91.56
261.942	87.56
262.175	85.56
262.407	88.56
262.64	76.56
262.872	97.56
263.105	90.56
263.337	87.56
263.57	75.56
263.802	80.56
264.035	76.56
264.267	88.56
264.499	85.56
264.732	89.56
264.964	96.56
265.197	81.56
265.429	87.56
265.661	83.56
265.894	85.56
266.126	81.56
266.358	81.56
266.591	88.56
266.823	82.56
267.055	89.56
267.287	99.56
267.52	78.56
267.752	82.56
267.984	73.56
268.216	82.56
268.448	86.56
268.681	95.56
268.913	93.56
269.145	70.56
269.377	75.56
269.609	92.56
269.841	88.56
270.073	78.56
270.306	77.56
270.538	70.56
270.77	75.56
271.002	82.56
271.234	75.56
271.466	101.56
271.698	69.56
271.93	63.56
272.162	108.56
272.394	83.56
272.626	76.56
272.858	89.56
273.09	81.56
273.322	74.56
273.553	77.56
273.785	73.56
274.017	79.56
274.249	80.56
274.481	66.56
274.713	78.56
274.945	92.56
275.176	83.56
275.408	99.56
275.64	75.56
275.872	67.56
276.104	75.56
276.335	77.56
276.567	71.56
276.799	81.56
277.031	76.56
277.262	73.56
277.494	100.56
277.726	84.56
277.957	77.56
278.189	67.56
278.421	71.56
278.652	74.56
278.884	88.56
279.115	77.56
279.347	75.56
279.579	91.56
279.81	84.56
280.042	107.56
280.273	114.56
280.505	103.56
280.736	89.56
280.968	90.56
281.199	61.56
281.431	81.56
281.662	63.56
281.894	80.56
282.125	94.56
282.356	75.56
282.588	97.56
282.819	99.56
283.051	107.56
283.282	103.56
283.513	103.56
283.745	87.56
283.976	74.56
284.207	75.56
284.439	94.56
284.67	80.56
284.901	86.56
285.132	75.56
285.364	82.56
285.595	80.56
285.826	72.56
286.057	81.56
286.288	79.56
286.52	87.56
286.751	79.56
286.982	93.56
287.213	96.56
287.444	96.56
287.675	97.56
287.906	85.56
288.138	71.56
288.369	71.56
288.6	68.56
288.831	80.56
289.062	64.56
289.293	84.56
289.524	81.56
289.755	93.56
289.986	94.56
290.217	71.56
290.448	89.56
290.679	72.56
290.91	83.56
291.141	74.56
291.371	75.56
291.602	78.56
291.833	83.56
292.064	83.56
292.295	84.56
292.526	68.56
292.757	88.56
292.987	81.56
293.218	94.56
293.449	83.56
293.68	80.56
293.91	89.56
294.141	102.56
294.372	64.56
294.603	83.56
294.833	95.56
295.064	74.56
295.295	81.56
295.525	84.56
295.756	79.56
295.987	82.56
296.217	84.56
296.448	74.56
296.679	75.56
296.909	85.56
297.14	94.56
297.37	85.56
297.601	77.56
297.831	80.56
298.062	78.56
298.292	92.56
298.523	79.56
298.753	86.56
298.984	80.56
299.214	93.56
299.445	91.56
299.675	88.56
299.905	87.56
300.136	102.56
300.366	89.56
300.597	85.56
300.827	78.56
301.057	92.56
301.288	89.56
301.518	72.56
301.748	64.56
301.979	106.56
302.209	86.56
302.439	72.56
302.669	79.56
302.9	85.56
303.13	83.56
303.36	85.56
303.59	74.56
303.82	78.56
304.051	69.56
304.281	87.56
304.511	85.56
304.741	81.56
304.971	93.56
305.201	77.56
305.431	74.56
305.661	78.56
305.891	82.56
306.121	90.56
306.352	76.56
306.582	65.56
306.812	99.56
307.042	61.56
307.272	78.56
307.502	93.56
307.731	85.56
307.961	80.56
308.191	72.56
308.421	94.56
308.651	80.56
308.881	90.56
309.111	87.56
309.341	76.56
309.571	89.56
309.8	70.56
310.03	81.56
310.26	90.56
310.49	74.56
310.72	80.56
310.949	90.56
311.179	72.56
311.409	71.56
311.639	73.56
311.868	91.56
312.098	72.56
312.328	88.56
312.557	83.56
312.787	86.56
313.017	85.56
313.246	86.56
313.476	75.56
313.706	86.56
313.935	73.56
314.165	83.56
314.394	73.56
314.624	79.56
314.853	86.56
315.083	87.56
315.312	83.56
315.542	87.56
315.771	84.56
316.001	89.56
316.23	86.56
316.46	91.56
316.689	95.56
316.919	73.56
317.148	72.56
317.377	84.56
317.607	78.56
317.836	83.56
318.065	82.56
318.295	83.56
318.524	88.56
318.753	89.56
318.983	70.56
319.212	86.56
319.441	72.56
319.67	89.56
319.9	71.56
320.129	79.56
320.358	85.56
320.587	87.56
320.816	81.56
321.046	74.56
321.275	87.56
321.504	89.56
321.733	90.56
321.962	77.56
322.191	78.56
322.42	71.56
322.649	83.56
322.878	82.56
323.108	84.56
323.337	79.56
323.566	77.56
323.795	75.56
324.024	92.56
324.253	82.56
324.482	86.56
324.71	91.56
324.939	78.56
325.168	89.56
325.397	74.56
325.626	91.56
325.855	85.56
326.084	79.56
326.313	87.56
326.542	72.56
326.77	88.56
326.999	78.56
327.228	88.56
327.457	93.56
327.686	91.56
327.914	92.56
328.143	84.56
328.372	81.56
328.6	77.56
328.829	73.56
329.058	81.56
329.287	87.56
329.515	83.56
329.744	91.56
329.972	65.56
330.201	84.56
330.43	83.56
330.658	74.56
330.887	85.56
331.115	85.56
331.344	72.56
331.572	71.56
331.801	73.56
332.03	89.56
332.258	83.56
332.486	74.56
332.715	75.56
332.943	87.56
333.172	86.56
333.4	71.56
333.629	92.56
333.857	99.56
334.085	95.56
334.314	96.56
334.542	75.56
334.771	83.56
334.999	92.56
335.227	72.56
335.455	88.56
335.684	85.56
335.912	90.56
336.14	82.56
336.369	78.56
336.597	81.56
336.825	78.56
337.053	94.56
337.281	91.56
337.51	74.56
337.738	79.56
337.966	81.56
338.194	79.56
338.422	84.56
338.65	87.56
338.878	92.56
339.106	84.56
339.334	79.56
339.562	81.56
339.79	77.56
340.018	80.56
340.246	71.56
340.474	79.56
340.702	82.56
340.93	85.56
341.158	93.56
341.386	79.56
341.614	82.56
341.842	97.56
342.07	82.56
342.298	81.56
342.526	81.56
342.754	94.56
342.981	85.56
343.209	83.56
343.437	85.56
343.665	88.56
343.893	83.56
344.12	94.56
344.348	85.56
344.576	85.56
344.804	87.56
345.031	81.56
345.259	82.56
345.487	79.56
345.714	80.56
345.942	80.56
346.17	77.56
346.397	79.56
346.625	78.56
346.853	74.56
347.08	87.56
347.308	90.56
347.535	91.56
347.763	73.56
347.99	76.56
348.218	85.56
348.445	87.56
348.673	89.56
348.9	99.56
349.128	89.56
349.355	73.56
349.583	79.56
349.81	91.56
350.037	74.56
350.265	77.56
350.492	86.56
350.72	78.56
350.947	70.56
351.174	79.56
351.402	88.56
351.629	89.56
351.856	66.56
352.083	76.56
352.311	80.56
352.538	71.56
352.765	90.56
352.992	91.56
353.22	68.56
353.447	76.56
353.674	73.56
353.901	86.56
354.128	89.56
354.355	89.56
354.583	78.56
354.81	83.56
355.037	95.56
355.264	87.56
355.491	79.56
355.718	77.56
355.945	85.56
356.172	83.56
356.399	79.56
356.626	89.56
356.853	105.56
357.08	109.56
357.307	152.56
357.534	134.56
357.761	89.56
357.988	92.56
358.215	87.56
358.441	89.56
358.668	84.56
358.895	78.56
359.122	97.56
359.349	74.56
359.576	87.56
359.802	80.56
360.029	77.56
360.256	87.56
360.483	89.56
360.709	86.56
360.936	80.56
361.163	67.56
361.39	81.56
361.616	75.56
361.843	79.56
362.07	73.56
362.296	87.56
362.523	83.56
362.749	82.56
362.976	76.56
363.203	83.56
363.429	93.56
363.656	123.56
363.882	184.56
364.109	197.56
364.335	125.56
364.562	95.56
364.788	93.56
365.015	84.56
365.241	73.56
365.468	91.56
365.694	84.56
365.92	94.56
366.147	67.56
366.373	84.56
366.599	83.56
366.826	89.56
367.052	111.56
367.278	120.56
367.505	99.56
367.731	92.56
367.957	143.56
368.184	204.56
368.41	261.56
368.636	205.56
368.862	120.56
369.089	87.56
369.315	89.56
369.541	81.56
369.767	76.56
369.993	92.56
370.219	80.56
370.445	77.56
370.672	76.56
370.898	89.56
371.124	79.56
371.35	96.56
371.576	76.56
371.802	66.56
372.028	91.56
372.254	83.56
372.48	72.56
372.706	86.56
372.932	77.56
373.158	73.56
373.384	94.56
373.61	107.56
373.835	141.56
374.061	157.56
374.287	123.56
374.513	93.56
374.739	77.56
374.965	95.56
375.191	69.56
375.416	89.56
375.642	78.56
375.868	99.56
376.094	85.56
376.319	80.56
376.545	72.56
376.771	93.56
376.997	84.56
377.222	71.56
377.448	88.56
377.674	93.56
377.899	78.56
378.125	79.56
378.35	93.56
378.576	82.56
378.802	86.56
379.027	81.56
379.253	76.56
379.478	81.56
379.704	74.56
379.929	80.56
380.155	86.56
380.38	71.56
380.606	71.56
380.831	73.56
381.057	79.56
381.282	82.56
381.507	85.56
381.733	83.56
381.958	79.56
382.184	69.56
382.409	91.56
382.634	84.56
382.86	81.56
383.085	83.56
383.31	69.56
383.535	80.56
383.761	84.56
383.986	83.56
384.211	90.56
384.436	74.56
384.662	91.56
384.887	91.56
385.112	84.56
385.337	85.56
385.562	79.56
385.787	80.56
386.013	78.56
386.238	76.56
386.463	73.56
386.688	88.56
386.913	86.56
387.138	76.56
387.363	72.56
387.588	76.56
387.813	86.56
388.038	70.56
388.263	87.56
388.488	68.56
388.713	87.56
388.938	65.56
389.163	77.56
389.387	79.56
389.612	87.56
389.837	74.56
390.062	77.56
390.287	96.56
390.512	103.56
390.736	101.56
390.961	79.56
391.186	78.56
391.411	73.56
391.636	82.56
391.86	83.56
392.085	86.56
392.31	71.56
392.534	84.56
392.759	81.56
392.984	82.56
393.208	86.56
393.433	82.56
393.658	68.56
393.882	78.56
394.107	79.56
394.331	103.56
394.556	88.56
394.78	79.56
395.005	85.56
395.229	85.56
395.454	84.56
395.678	61.56
395.903	88.56
396.127	89.56
396.352	80.56
396.576	89.56
396.801	95.56
397.025	75.56
397.249	66.56
397.474	65.56
397.698	89.56
397.922	75.56
398.147	73.56
398.371	87.56
398.595	86.56
398.82	69.56
399.044	81.56
399.268	99.56
399.492	90.56
399.717	82.56
399.941	91.56
400.165	82.56
400.389	89.56
400.613	84.56
400.837	77.56
401.062	83.56
401.286	88.56
401.51	78.56
401.734	101.56
401.958	96.56
402.182	108.56
402.406	84.56
402.63	99.56
402.854	88.56
403.078	91.56
403.302	101.56
403.526	66.56
403.75	86.56
403.974	84.56
404.198	99.56
404.422	79.56
404.645	77.56
404.869	81.56
405.093	92.56
405.317	132.56
405.541	221.56
405.765	376.56
405.988	389.56
406.212	218.56
406.436	156.56
406.66	104.56
406.883	99.56
407.107	79.56
407.331	77.56
407.555	88.56
407.778	97.56
408.002	94.56
408.226	87.56
408.449	76.56
408.673	74.56
408.896	86.56
409.12	87.56
409.344	91.56
409.567	82.56
409.791	85.56
410.014	80.56
410.238	78.56
410.461	106.56
410.685	86.56
410.908	86.56
411.132	85.56
411.355	92.56
411.578	70.56
411.802	92.56
412.025	82.56
412.249	85.56
412.472	90.56
412.695	94.56
412.919	83.56
413.142	74.56
413.365	75.56
413.589	84.56
413.812	91.56
414.035	94.56
414.258	84.56
414.482	88.56
414.705	85.56
414.928	90.56
415.151	89.56
415.374	75.56
415.597	71.56
415.821	88.56
416.044	77.56
416.267	91.56
416.49	85.56
416.713	99.56
416.936	79.56
417.159	73.56
417.382	83.56
417.605	80.56
417.828	89.56
418.051	80.56
418.274	98.56
418.497	77.56
418.72	88.56
418.943	76.56
419.166	72.56
419.389	73.56
419.611	80.56
419.834	79.56
420.057	72.56
420.28	73.56
420.503	88.56
420.726	86.56
420.948	75.56
421.171	69.56
421.394	93.56
421.617	86.56
421.839	87.56
422.062	79.56
422.285	88.56
422.507	88.56
422.73	95.56
422.953	78.56
423.175	89.56
423.398	78.56
423.621	84.56
423.843	81.56
424.066	86.56
424.288	77.56
424.511	91.56
424.733	62.56
424.956	81.56
425.178	83.56
425.401	87.56
425.623	85.56
425.846	73.56
426.068	71.56
426.291	84.56
426.513	80.56
426.735	86.56
426.958	66.56
427.18	75.56
427.402	70.56
427.625	81.56
427.847	69.56
428.069	69.56
428.292	82.56
428.514	83.56
428.736	97.56
428.958	96.56
429.181	86.56
429.403	82.56
429.625	83.56
429.847	82.56
430.069	76.56
430.292	80.56
430.514	84.56
430.736	92.56
430.958	81.56
431.18	80.56
431.402	76.56
431.624	76.56
431.846	79.56
432.068	83.56
432.29	81.56
432.512	85.56
432.734	83.56
432.956	84.56
433.178	82.56
433.4	76.56
433.622	108.56
433.844	79.56
434.066	95.56
434.287	89.56
434.509	83.56
434.731	87.56
434.953	92.56
435.175	88.56
435.397	82.56
435.618	79.56
435.84	79.56
436.062	83.56
436.284	77.56
436.505	84.56
436.727	90.56
436.949	88.56
437.17	77.56
437.392	78.56
437.614	69.56
437.835	73.56
438.057	95.56
438.278	83.56
438.5	82.56
438.721	79.56
438.943	86.56
439.165	86.56
439.386	78.56
439.608	96.56
439.829	74.56
440.05	70.56
440.272	90.56
440.493	96.56
440.715	88.56
440.936	80.56
441.158	80.56
441.379	65.56
441.6	87.56
441.822	86.56
442.043	73.56
442.264	78.56
442.486	79.56
442.707	80.56
442.928	82.56
443.149	88.56
443.371	86.56
443.592	72.56
443.813	80.56
444.034	68.56
444.255	80.56
444.476	74.56
444.698	80.56
444.919	89.56
445.14	165.56
445.361	113.56
445.582	92.56
445.803	78.56
446.024	90.56
446.245	83.56
446.466	86.56
446.687	88.56
446.908	86.56
447.129	83.56
447.35	75.56
447.571	78.56
447.792	85.56
448.013	79.56
448.234	79.56
448.455	94.56
448.675	80.56
448.896	92.56
449.117	77.56
449.338	78.56
449.559	90.56
449.779	85.56
450	86.56
450.221	75.56
450.442	85.56
450.662	81.56
450.883	78.56
451.104	79.56
451.324	76.56
451.545	83.56
451.766	73.56
451.986	77.56
452.207	78.56
452.428	76.56
452.648	83.56
452.869	89.56
453.089	77.56
453.31	75.56
453.53	79.56
453.751	80.56
453.971	93.56
454.192	89.56
454.412	89.56
454.633	78.56
454.853	97.56
455.073	83.56
455.294	79.56
455.514	87.56
455.734	79.56
455.955	72.56
456.175	77.56
456.395	64.56
456.616	82.56
456.836	82.56
457.056	83.56
457.276	85.56
457.497	80.56
457.717	71.56
457.937	91.56
458.157	77.56
458.377	75.56
458.598	66.56
458.818	78.56
459.038	86.56
459.258	80.56
459.478	84.56
459.698	93.56
459.918	71.56
460.138	86.56
460.358	69.56
460.578	77.56
460.798	70.56
461.018	83.56
461.238	77.56
461.458	86.56
461.678	91.56
461.898	96.56
462.118	78.56
462.338	84.56
462.558	82.56
462.777	78.56
462.997	79.56
463.217	75.56
463.437	77.56
463.657	90.56
463.876	72.56
464.096	82.56
464.316	83.56
464.536	78.56
464.755	80.56
464.975	63.56
465.195	76.56
465.414	67.56
465.634	76.56
465.854	73.56
466.073	87.56
466.293	75.56
466.512	84.56
466.732	75.56
466.951	87.56
467.171	87.56
467.391	78.56
467.61	88.56
467.829	84.56
468.049	73.56
468.268	102.56
468.488	82.56
468.707	82.56
468.927	88.56
469.146	75.56
469.365	75.56
469.585	76.56
469.804	93.56
470.023	91.56
470.243	98.56
470.462	85.56
470.681	84.56
470.901	84.56
471.12	91.56
471.339	80.56
471.558	73.56
471.777	59.56
471.997	77.56
472.216	80.56
472.435	77.56
472.654	72.56
472.873	74.56
473.092	81.56
473.311	99.56
473.53	86.56
473.749	83.56
473.968	88.56
474.187	85.56
474.406	86.56
474.625	88.56
474.844	80.56
475.063	73.56
475.282	97.56
475.501	84.56
475.72	94.56
475.939	77.56
476.158	94.56
476.377	75.56
476.596	77.56
476.814	94.56
477.033	75.56
477.252	88.56
477.471	85.56
477.69	88.56
477.908	99.56
478.127	93.56
478.346	76.56
478.564	79.56
478.783	86.56
479.002	87.56
479.22	89.56
479.439	94.56
479.658	85.56
479.876	87.56
480.095	96.56
480.313	92.56
480.532	81.56
480.751	90.56
480.969	92.56
481.188	85.56
481.406	77.56
481.624	85.56
481.843	79.56
482.061	79.56
482.28	88.56
482.498	85.56
482.717	89.56
482.935	83.56
483.153	95.56
483.372	79.56
483.59	84.56
483.808	87.56
484.027	90.56
484.245	56.56
484.463	85.56
484.681	88.56
484.9	77.56
485.118	87.56
485.336	85.56
485.554	90.56
485.772	97.56
485.99	91.56
486.209	84.56
486.427	71.56
486.645	64.56
486.863	80.56
487.081	75.56
487.299	84.56
487.517	87.56
487.735	87.56
487.953	85.56
488.171	90.56
488.389	75.56
488.607	84.56
488.825	82.56
489.043	85.56
489.261	81.56
489.479	77.56
489.696	79.56
489.914	80.56
490.132	90.56
490.35	84.56
490.568	95.56
490.786	84.56
491.003	87.56
491.221	81.56
491.439	87.56
491.657	80.56
491.874	94.56
492.092	102.56
492.31	85.56
492.527	81.56
492.745	87.56
492.963	74.56
493.18	87.56
493.398	82.56
493.615	80.56
493.833	87.56
494.05	74.56
494.268	66.56
494.485	88.56
494.703	96.56
494.92	76.56
495.138	80.56
495.355	76.56
495.573	81.56
495.79	83.56
496.008	78.56
496.225	81.56
496.442	92.56
496.66	93.56
496.877	85.56
497.094	84.56
497.312	73.56
497.529	69.56
497.746	99.56
497.963	94.56
498.181	81.56
498.398	87.56
498.615	78.56
498.832	84.56
499.049	88.56
499.267	76.56
499.484	83.56
499.701	75.56
499.918	80.56
500.135	79.56
500.352	87.56
500.569	116.56
500.786	150.56
501.003	96.56
501.22	85.56
501.437	79.56
501.654	87.56
501.871	87.56
502.088	64.56
502.305	76.56
502.522	84.56
502.739	73.56
502.956	92.56
503.172	67.56
503.389	91.56
503.606	81.56
503.823	101.56
504.04	89.56
504.256	83.56
504.473	89.56
504.69	78.56
504.907	95.56
505.123	87.56
505.34	86.56
505.557	95.56
505.773	87.56
505.99	79.56
506.207	82.56
506.423	99.56
506.64	93.56
506.856	75.56
507.073	86.56
507.289	74.56
507.506	76.56
507.722	82.56
507.939	83.56
508.155	81.56
508.372	89.56
508.588	91.56
508.805	87.56
509.021	89.56
509.238	80.56
509.454	96.56
509.67	92.56
509.887	74.56
510.103	86.56
510.319	71.56
510.536	77.56
510.752	88.56
510.968	94.56
511.184	93.56
511.401	67.56
511.617	87.56
511.833	94.56
512.049	92.56
512.265	101.56
512.481	77.56
512.698	83.56
512.914	81.56
513.13	81.56
513.346	83.56
513.562	81.56
513.778	69.56
513.994	77.56
514.21	85.56
514.426	84.56
514.642	78.56
514.858	78.56
515.074	75.56
515.29	93.56
515.506	67.56
515.721	91.56
515.937	84.56
516.153	81.56
516.369	81.56
516.585	96.56
516.801	77.56
517.016	82.56
517.232	85.56
517.448	71.56
517.664	70.56
517.879	84.56
518.095	101.56
518.311	99.56
518.527	92.56
518.742	79.56
518.958	73.56
519.173	73.56
519.389	81.56
519.605	76.56
