Data from StdB_HRD10591_091.txt Node
Date: Fri May 16 15:25:31 EDT 2025
User: Yrep
Spectrometer: HR+D1059
Trigger mode: 1
Integration Time (sec): 1.000000E-1
Scans to average: 1
Electric dark correction enabled: true
Nonlinearity correction enabled: false
Boxcar width: 0
XAxis mode: Wavelengths
Number of Pixels in Spectrum: 2048
>>>>>Begin Spectral Data<<<<<
223.165	-19.12
223.4	-19.12
223.635	-19.12
223.869	-23.12
224.104	-30.12
224.338	-20.12
224.573	-19.12
224.808	-12.12
225.042	-0.12
225.277	-18.12
225.511	-5.12
225.746	4.88
225.98	9.88
226.215	14.88
226.449	21.88
226.683	29.88
226.918	36.88
227.152	28.88
227.387	58.88
227.621	47.88
227.856	38.88
228.09	56.88
228.324	45.88
228.559	54.88
228.793	77.88
229.027	76.88
229.262	84.88
229.496	72.88
229.73	63.88
229.964	90.88
230.199	85.88
230.433	89.88
230.667	85.88
230.901	91.88
231.136	89.88
231.37	90.88
231.604	99.88
231.838	91.88
232.072	90.88
232.306	93.88
232.541	82.88
232.775	89.88
233.009	92.88
233.243	84.88
233.477	97.88
233.711	86.88
233.945	85.88
234.179	96.88
234.413	88.88
234.647	91.88
234.881	92.88
235.115	82.88
235.349	85.88
235.583	88.88
235.817	82.88
236.051	89.88
236.285	100.88
236.519	95.88
236.753	88.88
236.987	110.88
237.221	92.88
237.455	85.88
237.689	96.88
237.922	94.88
238.156	84.88
238.39	93.88
238.624	92.88
238.858	106.88
239.091	108.88
239.325	96.88
239.559	102.88
239.793	117.88
240.027	104.88
240.26	113.88
240.494	113.88
240.728	107.88
240.961	101.88
241.195	92.88
241.429	104.88
241.662	86.88
241.896	89.88
242.13	85.88
242.363	105.88
242.597	92.88
242.83	97.88
243.064	95.88
243.298	119.88
243.531	96.88
243.765	99.88
243.998	91.88
244.232	109.88
244.465	96.88
244.699	119.88
244.932	115.88
245.166	105.88
245.399	102.88
245.633	92.88
245.866	91.88
246.099	113.88
246.333	92.88
246.566	97.88
246.8	109.88
247.033	105.88
247.266	118.88
247.5	101.88
247.733	123.88
247.966	124.88
248.2	116.88
248.433	112.88
248.666	101.88
248.899	97.88
249.133	108.88
249.366	121.88
249.599	107.88
249.832	108.88
250.066	109.88
250.299	121.88
250.532	110.88
250.765	129.88
250.998	122.88
251.231	108.88
251.465	120.88
251.698	118.88
251.931	127.88
252.164	112.88
252.397	122.88
252.63	133.88
252.863	127.88
253.096	124.88
253.329	140.88
253.562	127.88
253.795	140.88
254.028	144.88
254.261	129.88
254.494	137.88
254.727	136.88
254.96	134.88
255.193	140.88
255.426	137.88
255.659	118.88
255.892	124.88
256.124	132.88
256.357	152.88
256.59	142.88
256.823	142.88
257.056	128.88
257.289	137.88
257.521	145.88
257.754	148.88
257.987	176.88
258.22	164.88
258.452	166.88
258.685	137.88
258.918	139.88
259.151	143.88
259.383	157.88
259.616	142.88
259.849	144.88
260.081	152.88
260.314	148.88
260.547	160.88
260.779	191.88
261.012	197.88
261.244	249.88
261.477	289.88
261.71	299.88
261.942	228.88
262.175	190.88
262.407	171.88
262.64	159.88
262.872	160.88
263.105	152.88
263.337	147.88
263.57	156.88
263.802	167.88
264.035	153.88
264.267	147.88
264.499	139.88
264.732	165.88
264.964	166.88
265.197	172.88
265.429	179.88
265.661	160.88
265.894	162.88
266.126	188.88
266.358	202.88
266.591	212.88
266.823	192.88
267.055	153.88
267.287	138.88
267.52	137.88
267.752	164.88
267.984	164.88
268.216	133.88
268.448	135.88
268.681	143.88
268.913	133.88
269.145	145.88
269.377	139.88
269.609	139.88
269.841	147.88
270.073	144.88
270.306	149.88
270.538	146.88
270.77	143.88
271.002	136.88
271.234	138.88
271.466	139.88
271.698	120.88
271.93	156.88
272.162	139.88
272.394	145.88
272.626	131.88
272.858	146.88
273.09	142.88
273.322	134.88
273.553	130.88
273.785	132.88
274.017	133.88
274.249	139.88
274.481	139.88
274.713	142.88
274.945	140.88
275.176	141.88
275.408	136.88
275.64	135.88
275.872	152.88
276.104	156.88
276.335	144.88
276.567	156.88
276.799	146.88
277.031	150.88
277.262	148.88
277.494	164.88
277.726	166.88
277.957	166.88
278.189	164.88
278.421	182.88
278.652	186.88
278.884	167.88
279.115	199.88
279.347	228.88
279.579	257.88
279.81	307.88
280.042	397.88
280.273	472.88
280.505	412.88
280.736	266.88
280.968	242.88
281.199	212.88
281.431	208.88
281.662	204.88
281.894	210.88
282.125	245.88
282.356	260.88
282.588	244.88
282.819	237.88
283.051	248.88
283.282	328.88
283.513	362.88
283.745	313.88
283.976	241.88
284.207	196.88
284.439	202.88
284.67	189.88
284.901	175.88
285.132	177.88
285.364	160.88
285.595	174.88
285.826	180.88
286.057	173.88
286.288	186.88
286.52	191.88
286.751	187.88
286.982	247.88
287.213	259.88
287.444	304.88
287.675	259.88
287.906	218.88
288.138	185.88
288.369	165.88
288.6	165.88
288.831	158.88
289.062	180.88
289.293	153.88
289.524	166.88
289.755	147.88
289.986	165.88
290.217	171.88
290.448	160.88
290.679	167.88
290.91	169.88
291.141	168.88
291.371	159.88
291.602	158.88
291.833	164.88
292.064	162.88
292.295	152.88
292.526	143.88
292.757	172.88
292.987	151.88
293.218	161.88
293.449	156.88
293.68	168.88
293.91	164.88
294.141	162.88
294.372	167.88
294.603	178.88
294.833	158.88
295.064	159.88
295.295	174.88
295.525	175.88
295.756	190.88
295.987	170.88
296.217	164.88
296.448	157.88
296.679	164.88
296.909	177.88
297.14	170.88
297.37	158.88
297.601	168.88
297.831	173.88
298.062	178.88
298.292	177.88
298.523	167.88
298.753	182.88
298.984	158.88
299.214	173.88
299.445	164.88
299.675	170.88
299.905	166.88
300.136	170.88
300.366	174.88
300.597	162.88
300.827	164.88
301.057	160.88
301.288	170.88
301.518	169.88
301.748	183.88
301.979	204.88
302.209	180.88
302.439	170.88
302.669	174.88
302.9	180.88
303.13	180.88
303.36	177.88
303.59	178.88
303.82	175.88
304.051	180.88
304.281	190.88
304.511	186.88
304.741	169.88
304.971	187.88
305.201	185.88
305.431	160.88
305.661	176.88
305.891	180.88
306.121	179.88
306.352	173.88
306.582	166.88
306.812	190.88
307.042	172.88
307.272	180.88
307.502	174.88
307.731	179.88
307.961	184.88
308.191	168.88
308.421	157.88
308.651	183.88
308.881	165.88
309.111	187.88
309.341	179.88
309.571	172.88
309.8	183.88
310.03	158.88
310.26	182.88
310.49	182.88
310.72	183.88
310.949	157.88
311.179	173.88
311.409	184.88
311.639	182.88
311.868	178.88
312.098	198.88
312.328	186.88
312.557	192.88
312.787	198.88
313.017	206.88
313.246	180.88
313.476	212.88
313.706	197.88
313.935	232.88
314.165	221.88
314.394	216.88
314.624	228.88
314.853	225.88
315.083	217.88
315.312	221.88
315.542	217.88
315.771	223.88
316.001	218.88
316.23	226.88
316.46	208.88
316.689	203.88
316.919	211.88
317.148	226.88
317.377	209.88
317.607	216.88
317.836	197.88
318.065	229.88
318.295	219.88
318.524	206.88
318.753	209.88
318.983	208.88
319.212	190.88
319.441	196.88
319.67	178.88
319.9	185.88
320.129	185.88
320.358	181.88
320.587	199.88
320.816	186.88
321.046	182.88
321.275	190.88
321.504	204.88
321.733	197.88
321.962	189.88
322.191	194.88
322.42	189.88
322.649	169.88
322.878	198.88
323.108	180.88
323.337	191.88
323.566	205.88
323.795	185.88
324.024	192.88
324.253	200.88
324.482	182.88
324.71	195.88
324.939	188.88
325.168	200.88
325.397	202.88
325.626	185.88
325.855	188.88
326.084	196.88
326.313	205.88
326.542	194.88
326.77	193.88
326.999	198.88
327.228	185.88
327.457	193.88
327.686	214.88
327.914	200.88
328.143	190.88
328.372	204.88
328.6	198.88
328.829	204.88
329.058	184.88
329.287	213.88
329.515	186.88
329.744	195.88
329.972	192.88
330.201	206.88
330.43	196.88
330.658	200.88
330.887	182.88
331.115	203.88
331.344	192.88
331.572	209.88
331.801	188.88
332.03	194.88
332.258	192.88
332.486	192.88
332.715	218.88
332.943	189.88
333.172	202.88
333.4	205.88
333.629	182.88
333.857	205.88
334.085	212.88
334.314	196.88
334.542	200.88
334.771	202.88
334.999	196.88
335.227	213.88
335.455	194.88
335.684	186.88
335.912	178.88
336.14	213.88
336.369	206.88
336.597	203.88
336.825	198.88
337.053	208.88
337.281	208.88
337.51	200.88
337.738	197.88
337.966	199.88
338.194	212.88
338.422	208.88
338.65	196.88
338.878	204.88
339.106	201.88
339.334	198.88
339.562	186.88
339.79	205.88
340.018	188.88
340.246	192.88
340.474	191.88
340.702	197.88
340.93	215.88
341.158	191.88
341.386	194.88
341.614	191.88
341.842	192.88
342.07	189.88
342.298	178.88
342.526	191.88
342.754	184.88
342.981	207.88
343.209	196.88
343.437	216.88
343.665	209.88
343.893	214.88
344.12	214.88
344.348	200.88
344.576	197.88
344.804	190.88
345.031	206.88
345.259	206.88
345.487	203.88
345.714	191.88
345.942	195.88
346.17	183.88
346.397	195.88
346.625	185.88
346.853	202.88
347.08	194.88
347.308	191.88
347.535	193.88
347.763	180.88
347.99	175.88
348.218	192.88
348.445	198.88
348.673	193.88
348.9	171.88
349.128	188.88
349.355	177.88
349.583	194.88
349.81	193.88
350.037	192.88
350.265	193.88
350.492	209.88
350.72	195.88
350.947	192.88
351.174	178.88
351.402	180.88
351.629	201.88
351.856	184.88
352.083	185.88
352.311	184.88
352.538	199.88
352.765	198.88
352.992	189.88
353.22	205.88
353.447	204.88
353.674	201.88
353.901	204.88
354.128	207.88
354.355	200.88
354.583	197.88
354.81	202.88
355.037	191.88
355.264	193.88
355.491	209.88
355.718	206.88
355.945	222.88
356.172	207.88
356.399	228.88
356.626	255.88
356.853	299.88
357.08	400.88
357.307	506.88
357.534	499.88
357.761	399.88
357.988	324.88
358.215	290.88
358.441	266.88
358.668	250.88
358.895	266.88
359.122	256.88
359.349	236.88
359.576	208.88
359.802	226.88
360.029	213.88
360.256	213.88
360.483	225.88
360.709	211.88
360.936	215.88
361.163	207.88
361.39	199.88
361.616	224.88
361.843	192.88
362.07	216.88
362.296	213.88
362.523	225.88
362.749	234.88
362.976	244.88
363.203	271.88
363.429	298.88
363.656	410.88
363.882	551.88
364.109	677.88
364.335	506.88
364.562	344.88
364.788	273.88
365.015	268.88
365.241	240.88
365.468	236.88
365.694	248.88
365.92	244.88
366.147	232.88
366.373	236.88
366.599	222.88
366.826	258.88
367.052	297.88
367.278	340.88
367.505	336.88
367.731	348.88
367.957	444.88
368.184	646.88
368.41	847.88
368.636	744.88
368.862	486.88
369.089	358.88
369.315	309.88
369.541	281.88
369.767	276.88
369.993	259.88
370.219	248.88
370.445	256.88
370.672	238.88
370.898	228.88
371.124	234.88
371.35	242.88
371.576	238.88
371.802	242.88
372.028	228.88
372.254	239.88
372.48	249.88
372.706	240.88
372.932	234.88
373.158	253.88
373.384	258.88
373.61	312.88
373.835	441.88
374.061	577.88
374.287	531.88
374.513	380.88
374.739	290.88
374.965	289.88
375.191	244.88
375.416	234.88
375.642	248.88
375.868	234.88
376.094	218.88
376.319	228.88
376.545	212.88
376.771	217.88
376.997	216.88
377.222	221.88
377.448	197.88
377.674	219.88
377.899	229.88
378.125	224.88
378.35	228.88
378.576	225.88
378.802	235.88
379.027	234.88
379.253	210.88
379.478	217.88
379.704	226.88
379.929	231.88
380.155	200.88
380.38	232.88
380.606	217.88
380.831	206.88
381.057	221.88
381.282	210.88
381.507	215.88
381.733	196.88
381.958	212.88
382.184	223.88
382.409	206.88
382.634	218.88
382.86	218.88
383.085	211.88
383.31	239.88
383.535	226.88
383.761	209.88
383.986	216.88
384.211	213.88
384.436	208.88
384.662	219.88
384.887	229.88
385.112	208.88
385.337	226.88
385.562	221.88
385.787	239.88
386.013	230.88
386.238	228.88
386.463	212.88
386.688	237.88
386.913	212.88
387.138	201.88
387.363	209.88
387.588	241.88
387.813	224.88
388.038	222.88
388.263	210.88
388.488	221.88
388.713	218.88
388.938	226.88
389.163	204.88
389.387	207.88
389.612	193.88
389.837	209.88
390.062	208.88
390.287	219.88
390.512	231.88
390.736	229.88
390.961	218.88
391.186	216.88
391.411	220.88
391.636	238.88
391.86	211.88
392.085	199.88
392.31	215.88
392.534	222.88
392.759	220.88
392.984	225.88
393.208	228.88
393.433	222.88
393.658	232.88
393.882	223.88
394.107	225.88
394.331	209.88
394.556	227.88
394.78	224.88
395.005	233.88
395.229	217.88
395.454	212.88
395.678	224.88
395.903	231.88
396.127	234.88
396.352	233.88
396.576	215.88
396.801	216.88
397.025	202.88
397.249	240.88
397.474	213.88
397.698	234.88
397.922	236.88
398.147	242.88
398.371	241.88
398.595	241.88
398.82	246.88
399.044	254.88
399.268	249.88
399.492	248.88
399.717	272.88
399.941	261.88
400.165	262.88
400.389	256.88
400.613	248.88
400.837	254.88
401.062	238.88
401.286	247.88
401.51	270.88
401.734	283.88
401.958	294.88
402.182	278.88
402.406	256.88
402.63	255.88
402.854	252.88
403.078	253.88
403.302	256.88
403.526	261.88
403.75	274.88
403.974	266.88
404.198	280.88
404.422	277.88
404.645	308.88
404.869	311.88
405.093	363.88
405.317	474.88
405.541	747.88
405.765	1119.88
405.988	1280.88
406.212	885.88
406.436	626.88
406.66	492.88
406.883	406.88
407.107	384.88
407.331	345.88
407.555	302.88
407.778	322.88
408.002	298.88
408.226	302.88
408.449	285.88
408.673	260.88
408.896	275.88
409.12	261.88
409.344	258.88
409.567	275.88
409.791	262.88
410.014	244.88
410.238	256.88
410.461	255.88
410.685	255.88
410.908	246.88
411.132	254.88
411.355	240.88
411.578	266.88
411.802	233.88
412.025	238.88
412.249	253.88
412.472	244.88
412.695	242.88
412.919	232.88
413.142	232.88
413.365	241.88
413.589	225.88
413.812	269.88
414.035	240.88
414.258	224.88
414.482	248.88
414.705	234.88
414.928	237.88
415.151	232.88
415.374	252.88
415.597	242.88
415.821	258.88
416.044	238.88
416.267	261.88
416.49	234.88
416.713	253.88
416.936	256.88
417.159	250.88
417.382	232.88
417.605	238.88
417.828	228.88
418.051	237.88
418.274	232.88
418.497	224.88
418.72	243.88
418.943	246.88
419.166	266.88
419.389	260.88
419.611	246.88
419.834	261.88
420.057	254.88
420.28	227.88
420.503	246.88
420.726	256.88
420.948	236.88
421.171	253.88
421.394	255.88
421.617	270.88
421.839	249.88
422.062	248.88
422.285	280.88
422.507	277.88
422.73	277.88
422.953	287.88
423.175	286.88
423.398	319.88
423.621	346.88
423.843	360.88
424.066	402.88
424.288	456.88
424.511	588.88
424.733	629.88
424.956	552.88
425.178	492.88
425.401	416.88
425.623	393.88
425.846	362.88
426.068	346.88
426.291	327.88
426.513	315.88
426.735	308.88
426.958	314.88
427.18	292.88
427.402	281.88
427.625	269.88
427.847	256.88
428.069	264.88
428.292	274.88
428.514	264.88
428.736	250.88
428.958	260.88
429.181	256.88
429.403	254.88
429.625	241.88
429.847	241.88
430.069	244.88
430.292	246.88
430.514	238.88
430.736	263.88
430.958	246.88
431.18	248.88
431.402	256.88
431.624	240.88
431.846	247.88
432.068	256.88
432.29	234.88
432.512	234.88
432.734	245.88
432.956	254.88
433.178	245.88
433.4	256.88
433.622	266.88
433.844	276.88
434.066	264.88
434.287	269.88
434.509	272.88
434.731	261.88
434.953	272.88
435.175	260.88
435.397	267.88
435.618	246.88
435.84	248.88
436.062	249.88
436.284	262.88
436.505	249.88
436.727	283.88
436.949	270.88
437.17	276.88
437.392	287.88
437.614	298.88
437.835	310.88
438.057	320.88
438.278	374.88
438.5	441.88
438.721	532.88
438.943	560.88
439.165	504.88
439.386	449.88
439.608	421.88
439.829	392.88
440.05	380.88
440.272	374.88
440.493	389.88
440.715	397.88
440.936	442.88
441.158	434.88
441.379	349.88
441.6	336.88
441.822	333.88
442.043	306.88
442.264	281.88
442.486	279.88
442.707	273.88
442.928	280.88
443.149	289.88
443.371	280.88
443.592	268.88
443.813	256.88
444.034	288.88
444.255	279.88
444.476	264.88
444.698	261.88
444.919	243.88
445.14	351.88
445.361	292.88
445.582	262.88
445.803	262.88
446.024	235.88
446.245	236.88
446.466	249.88
446.687	224.88
446.908	238.88
447.129	234.88
447.35	217.88
447.571	237.88
447.792	230.88
448.013	241.88
448.234	208.88
448.455	233.88
448.675	228.88
448.896	248.88
449.117	217.88
449.338	232.88
449.559	246.88
449.779	230.88
450	214.88
450.221	237.88
450.442	216.88
450.662	207.88
450.883	218.88
451.104	216.88
451.324	216.88
451.545	205.88
451.766	219.88
451.986	197.88
452.207	218.88
452.428	214.88
452.648	206.88
452.869	211.88
453.089	216.88
453.31	206.88
453.53	219.88
453.751	222.88
453.971	208.88
454.192	200.88
454.412	210.88
454.633	214.88
454.853	194.88
455.073	211.88
455.294	212.88
455.514	213.88
455.734	218.88
455.955	195.88
456.175	193.88
456.395	202.88
456.616	190.88
456.836	206.88
457.056	206.88
457.276	207.88
457.497	201.88
457.717	212.88
457.937	212.88
458.157	195.88
458.377	209.88
458.598	190.88
458.818	206.88
459.038	197.88
459.258	198.88
459.478	203.88
459.698	222.88
459.918	222.88
460.138	227.88
460.358	231.88
460.578	212.88
460.798	220.88
461.018	231.88
461.238	222.88
461.458	213.88
461.678	214.88
461.898	239.88
462.118	228.88
462.338	245.88
462.558	223.88
462.777	238.88
462.997	265.88
463.217	236.88
463.437	225.88
463.657	236.88
463.876	257.88
464.096	225.88
464.316	236.88
464.536	239.88
464.755	251.88
464.975	243.88
465.195	222.88
465.414	223.88
465.634	220.88
465.854	225.88
466.073	217.88
466.293	198.88
466.512	209.88
466.732	222.88
466.951	222.88
467.171	214.88
467.391	223.88
467.61	209.88
467.829	218.88
468.049	202.88
468.268	215.88
468.488	226.88
468.707	211.88
468.927	200.88
469.146	208.88
469.365	215.88
469.585	216.88
469.804	223.88
470.023	206.88
470.243	230.88
470.462	221.88
470.681	206.88
470.901	205.88
471.12	236.88
471.339	225.88
471.558	232.88
471.777	219.88
471.997	208.88
472.216	208.88
472.435	217.88
472.654	203.88
472.873	207.88
473.092	205.88
473.311	204.88
473.53	221.88
473.749	221.88
473.968	215.88
474.187	208.88
474.406	218.88
474.625	216.88
474.844	222.88
475.063	225.88
475.282	211.88
475.501	224.88
475.72	222.88
475.939	223.88
476.158	213.88
476.377	225.88
476.596	217.88
476.814	217.88
477.033	215.88
477.252	220.88
477.471	230.88
477.69	245.88
477.908	245.88
478.127	242.88
478.346	235.88
478.564	247.88
478.783	239.88
479.002	241.88
479.22	244.88
479.439	253.88
479.658	245.88
479.876	249.88
480.095	260.88
480.313	255.88
480.532	256.88
480.751	250.88
480.969	254.88
481.188	254.88
481.406	242.88
481.624	262.88
481.843	232.88
482.061	244.88
482.28	250.88
482.498	243.88
482.717	248.88
482.935	242.88
483.153	223.88
483.372	242.88
483.59	235.88
483.808	245.88
484.027	239.88
484.245	228.88
484.463	241.88
484.681	254.88
484.9	243.88
485.118	246.88
485.336	251.88
485.554	241.88
485.772	238.88
485.99	238.88
486.209	248.88
486.427	250.88
486.645	251.88
486.863	244.88
487.081	248.88
487.299	247.88
487.517	253.88
487.735	225.88
487.953	249.88
488.171	248.88
488.389	266.88
488.607	249.88
488.825	251.88
489.043	252.88
489.261	240.88
489.479	256.88
489.696	263.88
489.914	249.88
490.132	237.88
490.35	257.88
490.568	253.88
490.786	245.88
491.003	246.88
491.221	238.88
491.439	251.88
491.657	253.88
491.874	267.88
492.092	262.88
492.31	243.88
492.527	252.88
492.745	253.88
492.963	256.88
493.18	246.88
493.398	253.88
493.615	256.88
493.833	250.88
494.05	252.88
494.268	266.88
494.485	262.88
494.703	252.88
494.92	258.88
495.138	255.88
495.355	258.88
495.573	293.88
495.79	261.88
496.008	267.88
496.225	292.88
496.442	282.88
496.66	272.88
496.877	265.88
497.094	276.88
497.312	269.88
497.529	285.88
497.746	282.88
497.963	273.88
498.181	284.88
498.398	301.88
498.615	287.88
498.832	297.88
499.049	312.88
499.267	310.88
499.484	334.88
499.701	358.88
499.918	362.88
500.135	365.88
500.352	415.88
500.569	445.88
500.786	507.88
501.003	441.88
501.22	402.88
501.437	373.88
501.654	346.88
501.871	343.88
502.088	334.88
502.305	336.88
502.522	321.88
502.739	319.88
502.956	320.88
503.172	329.88
503.389	314.88
