Data from StdB_HRD10591_008.txt Node
Date: Fri May 16 15:24:50 EDT 2025
User: Yrep
Spectrometer: HR+D1059
Trigger mode: 1
Integration Time (sec): 1.000000E-1
Scans to average: 1
Electric dark correction enabled: true
Nonlinearity correction enabled: false
Boxcar width: 0
XAxis mode: Wavelengths
Number of Pixels in Spectrum: 2048
>>>>>Begin Spectral Data<<<<<
223.165	-17.56
223.4	-17.56
223.635	-17.56
223.869	-17.56
224.104	-16.56
224.338	-13.56
224.573	-8.56
224.808	-2.56
225.042	-15.56
225.277	-11.56
225.511	-8.56
225.746	7.44
225.98	10.44
226.215	18.44
226.449	8.44
226.683	18.44
226.918	20.44
227.152	28.44
227.387	34.44
227.621	35.44
227.856	47.44
228.09	39.44
228.324	48.44
228.559	65.44
228.793	58.44
229.027	74.44
229.262	67.44
229.496	67.44
229.73	75.44
229.964	82.44
230.199	82.44
230.433	72.44
230.667	72.44
230.901	75.44
231.136	91.44
231.37	86.44
231.604	88.44
231.838	91.44
232.072	77.44
232.306	73.44
232.541	97.44
232.775	86.44
233.009	80.44
233.243	78.44
233.477	84.44
233.711	82.44
233.945	82.44
234.179	83.44
234.413	87.44
234.647	102.44
234.881	92.44
235.115	95.44
235.349	87.44
235.583	98.44
235.817	78.44
236.051	94.44
236.285	82.44
236.519	81.44
236.753	90.44
236.987	75.44
237.221	91.44
237.455	88.44
237.689	75.44
237.922	82.44
238.156	81.44
238.39	83.44
238.624	99.44
238.858	101.44
239.091	95.44
239.325	107.44
239.559	100.44
239.793	98.44
240.027	110.44
240.26	115.44
240.494	108.44
240.728	106.44
240.961	85.44
241.195	93.44
241.429	99.44
241.662	110.44
241.896	94.44
242.13	88.44
242.363	90.44
242.597	98.44
242.83	96.44
243.064	116.44
243.298	100.44
243.531	103.44
243.765	94.44
243.998	100.44
244.232	95.44
244.465	94.44
244.699	114.44
244.932	107.44
245.166	118.44
245.399	113.44
245.633	92.44
245.866	90.44
246.099	91.44
246.333	104.44
246.566	97.44
246.8	109.44
247.033	119.44
247.266	99.44
247.5	115.44
247.733	119.44
247.966	121.44
248.2	119.44
248.433	108.44
248.666	106.44
248.899	94.44
249.133	98.44
249.366	116.44
249.599	120.44
249.832	115.44
250.066	119.44
250.299	108.44
250.532	109.44
250.765	106.44
250.998	114.44
251.231	103.44
251.465	125.44
251.698	126.44
251.931	119.44
252.164	118.44
252.397	140.44
252.63	131.44
252.863	138.44
253.096	131.44
253.329	118.44
253.562	134.44
253.795	142.44
254.028	147.44
254.261	138.44
254.494	133.44
254.727	150.44
254.96	136.44
255.193	127.44
255.426	139.44
255.659	132.44
255.892	136.44
256.124	140.44
256.357	157.44
256.59	137.44
256.823	122.44
257.056	138.44
257.289	138.44
257.521	150.44
257.754	170.44
257.987	156.44
258.22	167.44
258.452	152.44
258.685	150.44
258.918	147.44
259.151	120.44
259.383	157.44
259.616	139.44
259.849	146.44
260.081	145.44
260.314	135.44
260.547	166.44
260.779	170.44
261.012	205.44
261.244	248.44
261.477	331.44
261.71	318.44
261.942	239.44
262.175	186.44
262.407	163.44
262.64	187.44
262.872	164.44
263.105	155.44
263.337	149.44
263.57	156.44
263.802	159.44
264.035	157.44
264.267	147.44
264.499	143.44
264.732	186.44
264.964	184.44
265.197	189.44
265.429	184.44
265.661	166.44
265.894	133.44
266.126	177.44
266.358	208.44
266.591	230.44
266.823	197.44
267.055	171.44
267.287	134.44
267.52	139.44
267.752	136.44
267.984	131.44
268.216	127.44
268.448	134.44
268.681	143.44
268.913	137.44
269.145	139.44
269.377	123.44
269.609	138.44
269.841	144.44
270.073	141.44
270.306	147.44
270.538	136.44
270.77	127.44
271.002	133.44
271.234	145.44
271.466	125.44
271.698	139.44
271.93	138.44
272.162	127.44
272.394	130.44
272.626	148.44
272.858	111.44
273.09	130.44
273.322	137.44
273.553	142.44
273.785	138.44
274.017	125.44
274.249	132.44
274.481	145.44
274.713	134.44
274.945	135.44
275.176	145.44
275.408	139.44
275.64	144.44
275.872	127.44
276.104	141.44
276.335	144.44
276.567	138.44
276.799	133.44
277.031	121.44
277.262	151.44
277.494	146.44
277.726	155.44
277.957	172.44
278.189	187.44
278.421	163.44
278.652	178.44
278.884	178.44
279.115	208.44
279.347	230.44
279.579	257.44
279.81	318.44
280.042	450.44
280.273	548.44
280.505	456.44
280.736	304.44
280.968	241.44
281.199	220.44
281.431	203.44
281.662	189.44
281.894	219.44
282.125	238.44
282.356	273.44
282.588	250.44
282.819	254.44
283.051	275.44
283.282	358.44
283.513	410.44
283.745	324.44
283.976	234.44
284.207	202.44
284.439	188.44
284.67	185.44
284.901	161.44
285.132	170.44
285.364	176.44
285.595	169.44
285.826	177.44
286.057	178.44
286.288	186.44
286.52	173.44
286.751	202.44
286.982	237.44
287.213	280.44
287.444	315.44
287.675	271.44
287.906	212.44
288.138	173.44
288.369	159.44
288.6	166.44
288.831	152.44
289.062	155.44
289.293	150.44
289.524	151.44
289.755	159.44
289.986	162.44
290.217	173.44
290.448	165.44
290.679	153.44
290.91	154.44
291.141	149.44
291.371	159.44
291.602	158.44
291.833	159.44
292.064	157.44
292.295	155.44
292.526	165.44
292.757	164.44
292.987	158.44
293.218	162.44
293.449	154.44
293.68	164.44
293.91	173.44
294.141	174.44
294.372	164.44
294.603	170.44
294.833	179.44
295.064	178.44
295.295	177.44
295.525	159.44
295.756	160.44
295.987	143.44
296.217	162.44
296.448	153.44
296.679	151.44
296.909	173.44
297.14	169.44
297.37	171.44
297.601	167.44
297.831	170.44
298.062	178.44
298.292	182.44
298.523	164.44
298.753	184.44
298.984	176.44
299.214	167.44
299.445	177.44
299.675	166.44
299.905	188.44
300.136	170.44
300.366	176.44
300.597	179.44
300.827	185.44
301.057	184.44
301.288	180.44
301.518	175.44
301.748	172.44
301.979	194.44
302.209	166.44
302.439	168.44
302.669	179.44
302.9	186.44
303.13	196.44
303.36	179.44
303.59	159.44
303.82	195.44
304.051	192.44
304.281	178.44
304.511	187.44
304.741	184.44
304.971	178.44
305.201	161.44
305.431	176.44
305.661	175.44
305.891	180.44
306.121	176.44
306.352	168.44
306.582	171.44
306.812	178.44
307.042	176.44
307.272	179.44
307.502	164.44
307.731	175.44
307.961	179.44
308.191	174.44
308.421	167.44
308.651	168.44
308.881	173.44
309.111	164.44
309.341	169.44
309.571	178.44
309.8	188.44
310.03	182.44
310.26	169.44
310.49	172.44
310.72	165.44
310.949	169.44
311.179	164.44
311.409	175.44
311.639	181.44
311.868	180.44
312.098	200.44
312.328	190.44
312.557	190.44
312.787	195.44
313.017	200.44
313.246	192.44
313.476	208.44
313.706	219.44
313.935	212.44
314.165	199.44
314.394	210.44
314.624	226.44
314.853	223.44
315.083	226.44
315.312	214.44
315.542	211.44
315.771	211.44
316.001	194.44
316.23	210.44
316.46	205.44
316.689	191.44
316.919	205.44
317.148	204.44
317.377	199.44
317.607	207.44
317.836	199.44
318.065	200.44
318.295	191.44
318.524	195.44
318.753	211.44
318.983	197.44
319.212	216.44
319.441	195.44
319.67	184.44
319.9	196.44
320.129	166.44
320.358	183.44
320.587	188.44
320.816	192.44
321.046	187.44
321.275	187.44
321.504	198.44
321.733	191.44
321.962	188.44
322.191	188.44
322.42	181.44
322.649	176.44
322.878	185.44
323.108	187.44
323.337	179.44
323.566	192.44
323.795	180.44
324.024	183.44
324.253	195.44
324.482	194.44
324.71	185.44
324.939	202.44
325.168	195.44
325.397	197.44
325.626	191.44
325.855	185.44
326.084	185.44
326.313	195.44
326.542	200.44
326.77	186.44
326.999	190.44
327.228	185.44
327.457	187.44
327.686	212.44
327.914	174.44
328.143	187.44
328.372	178.44
328.6	190.44
328.829	182.44
329.058	185.44
329.287	210.44
329.515	196.44
329.744	196.44
329.972	193.44
330.201	200.44
330.43	186.44
330.658	180.44
330.887	187.44
331.115	189.44
331.344	208.44
331.572	189.44
331.801	187.44
332.03	188.44
332.258	179.44
332.486	185.44
332.715	190.44
332.943	175.44
333.172	194.44
333.4	196.44
333.629	198.44
333.857	205.44
334.085	196.44
334.314	205.44
334.542	198.44
334.771	199.44
334.999	203.44
335.227	192.44
335.455	184.44
335.684	191.44
335.912	196.44
336.14	187.44
336.369	193.44
336.597	188.44
336.825	191.44
337.053	173.44
337.281	192.44
337.51	212.44
337.738	195.44
337.966	184.44
338.194	180.44
338.422	194.44
338.65	180.44
338.878	194.44
339.106	182.44
339.334	188.44
339.562	206.44
339.79	207.44
340.018	181.44
340.246	189.44
340.474	204.44
340.702	183.44
340.93	186.44
341.158	188.44
341.386	170.44
341.614	176.44
341.842	177.44
342.07	170.44
342.298	183.44
342.526	192.44
342.754	187.44
342.981	201.44
343.209	189.44
343.437	190.44
343.665	170.44
343.893	211.44
344.12	200.44
344.348	190.44
344.576	200.44
344.804	199.44
345.031	199.44
345.259	199.44
345.487	205.44
345.714	204.44
345.942	192.44
346.17	190.44
346.397	188.44
346.625	174.44
346.853	204.44
347.08	198.44
347.308	189.44
347.535	193.44
347.763	194.44
347.99	203.44
348.218	184.44
348.445	182.44
348.673	186.44
348.9	189.44
349.128	180.44
349.355	183.44
349.583	190.44
349.81	186.44
350.037	199.44
350.265	190.44
350.492	173.44
350.72	168.44
350.947	201.44
351.174	186.44
351.402	193.44
351.629	202.44
351.856	188.44
352.083	201.44
352.311	184.44
352.538	184.44
352.765	196.44
352.992	204.44
353.22	176.44
353.447	189.44
353.674	179.44
353.901	188.44
354.128	199.44
354.355	196.44
354.583	197.44
354.81	183.44
355.037	195.44
355.264	203.44
355.491	198.44
355.718	196.44
355.945	212.44
356.172	214.44
356.399	228.44
356.626	239.44
356.853	306.44
357.08	440.44
357.307	582.44
357.534	567.44
357.761	398.44
357.988	346.44
358.215	281.44
358.441	257.44
358.668	249.44
358.895	242.44
359.122	233.44
359.349	210.44
359.576	203.44
359.802	220.44
360.029	212.44
360.256	213.44
360.483	204.44
360.709	208.44
360.936	218.44
361.163	223.44
361.39	207.44
361.616	213.44
361.843	196.44
362.07	206.44
362.296	223.44
362.523	214.44
362.749	231.44
362.976	216.44
363.203	249.44
363.429	297.44
363.656	432.44
363.882	629.44
364.109	743.44
364.335	516.44
364.562	366.44
364.788	299.44
365.015	260.44
365.241	239.44
365.468	230.44
365.694	253.44
365.92	231.44
366.147	253.44
366.373	226.44
366.599	248.44
366.826	268.44
367.052	327.44
367.278	378.44
367.505	334.44
367.731	347.44
367.957	484.44
368.184	746.44
368.41	1007.44
368.636	834.44
368.862	514.44
369.089	378.44
369.315	290.44
369.541	266.44
369.767	253.44
369.993	244.44
370.219	248.44
370.445	239.44
370.672	223.44
370.898	218.44
371.124	230.44
371.35	218.44
371.576	217.44
371.802	228.44
372.028	226.44
372.254	227.44
372.48	225.44
372.706	230.44
372.932	242.44
373.158	263.44
373.384	258.44
373.61	333.44
373.835	500.44
374.061	618.44
374.287	567.44
374.513	394.44
374.739	287.44
374.965	260.44
375.191	243.44
375.416	246.44
375.642	236.44
375.868	236.44
376.094	218.44
376.319	219.44
376.545	217.44
376.771	200.44
376.997	214.44
377.222	210.44
377.448	200.44
377.674	208.44
377.899	219.44
378.125	216.44
378.35	234.44
378.576	231.44
378.802	232.44
379.027	213.44
379.253	217.44
379.478	221.44
379.704	220.44
379.929	212.44
380.155	202.44
380.38	208.44
380.606	212.44
380.831	224.44
381.057	221.44
381.282	200.44
381.507	199.44
381.733	183.44
381.958	204.44
382.184	203.44
382.409	218.44
382.634	225.44
382.86	204.44
383.085	206.44
383.31	198.44
383.535	208.44
383.761	215.44
383.986	222.44
384.211	224.44
384.436	207.44
384.662	222.44
384.887	220.44
385.112	221.44
385.337	219.44
385.562	213.44
385.787	218.44
386.013	226.44
386.238	210.44
386.463	217.44
386.688	217.44
386.913	227.44
387.138	195.44
387.363	206.44
387.588	231.44
387.813	212.44
388.038	219.44
388.263	215.44
388.488	215.44
388.713	208.44
388.938	211.44
389.163	202.44
389.387	208.44
389.612	205.44
389.837	221.44
390.062	218.44
390.287	214.44
390.512	215.44
390.736	203.44
390.961	206.44
391.186	215.44
391.411	226.44
391.636	219.44
391.86	212.44
392.085	233.44
392.31	208.44
392.534	233.44
392.759	211.44
392.984	238.44
393.208	228.44
393.433	247.44
393.658	235.44
393.882	213.44
394.107	202.44
394.331	210.44
394.556	214.44
394.78	243.44
395.005	200.44
395.229	213.44
395.454	204.44
395.678	205.44
395.903	212.44
396.127	209.44
396.352	232.44
396.576	205.44
396.801	218.44
397.025	221.44
397.249	231.44
397.474	215.44
397.698	219.44
397.922	225.44
398.147	228.44
398.371	220.44
398.595	246.44
398.82	237.44
399.044	238.44
399.268	257.44
399.492	247.44
399.717	256.44
399.941	261.44
400.165	246.44
400.389	249.44
400.613	247.44
400.837	242.44
401.062	231.44
401.286	250.44
401.51	259.44
401.734	269.44
401.958	305.44
402.182	300.44
402.406	268.44
402.63	236.44
402.854	252.44
403.078	264.44
403.302	260.44
403.526	271.44
403.75	265.44
403.974	269.44
404.198	269.44
404.422	287.44
404.645	296.44
404.869	325.44
405.093	382.44
405.317	485.44
405.541	825.44
405.765	1364.44
405.988	1544.44
406.212	1002.44
406.436	669.44
406.66	492.44
406.883	396.44
407.107	360.44
407.331	336.44
407.555	328.44
407.778	316.44
408.002	296.44
408.226	290.44
408.449	283.44
408.673	259.44
408.896	262.44
409.12	275.44
409.344	270.44
409.567	252.44
409.791	252.44
410.014	262.44
410.238	242.44
410.461	239.44
410.685	241.44
410.908	235.44
411.132	216.44
411.355	244.44
411.578	243.44
411.802	247.44
412.025	239.44
412.249	250.44
412.472	259.44
412.695	259.44
412.919	227.44
413.142	214.44
413.365	238.44
413.589	245.44
413.812	229.44
414.035	238.44
414.258	233.44
414.482	230.44
414.705	222.44
414.928	218.44
415.151	226.44
415.374	233.44
415.597	229.44
415.821	226.44
416.044	230.44
416.267	256.44
416.49	255.44
416.713	266.44
416.936	278.44
417.159	244.44
417.382	244.44
417.605	226.44
417.828	218.44
418.051	257.44
418.274	250.44
418.497	222.44
418.72	226.44
418.943	242.44
419.166	237.44
419.389	236.44
419.611	244.44
419.834	251.44
420.057	246.44
420.28	250.44
420.503	234.44
420.726	237.44
420.948	252.44
421.171	248.44
421.394	260.44
421.617	266.44
421.839	258.44
422.062	265.44
422.285	267.44
422.507	259.44
422.73	275.44
422.953	295.44
423.175	300.44
423.398	318.44
423.621	335.44
423.843	359.44
424.066	414.44
424.288	507.44
424.511	614.44
424.733	688.44
424.956	566.44
425.178	506.44
425.401	448.44
425.623	410.44
425.846	379.44
426.068	362.44
426.291	328.44
426.513	306.44
426.735	327.44
426.958	298.44
427.18	294.44
427.402	298.44
427.625	276.44
427.847	271.44
428.069	262.44
428.292	256.44
428.514	265.44
428.736	253.44
428.958	254.44
429.181	245.44
429.403	248.44
429.625	254.44
429.847	242.44
430.069	245.44
430.292	253.44
430.514	246.44
430.736	227.44
430.958	222.44
431.18	241.44
431.402	249.44
431.624	233.44
431.846	222.44
432.068	237.44
432.29	238.44
432.512	253.44
432.734	259.44
432.956	242.44
433.178	239.44
433.4	245.44
433.622	240.44
433.844	268.44
434.066	272.44
434.287	274.44
434.509	255.44
434.731	254.44
434.953	252.44
435.175	260.44
435.397	246.44
435.618	238.44
435.84	238.44
436.062	261.44
436.284	259.44
436.505	271.44
436.727	262.44
436.949	267.44
437.17	287.44
437.392	288.44
437.614	305.44
437.835	310.44
438.057	355.44
438.278	397.44
438.5	466.44
438.721	573.44
438.943	634.44
439.165	571.44
439.386	498.44
439.608	422.44
439.829	407.44
440.05	406.44
440.272	368.44
440.493	392.44
440.715	408.44
440.936	447.44
441.158	436.44
441.379	392.44
441.6	368.44
441.822	319.44
442.043	296.44
442.264	290.44
442.486	294.44
442.707	284.44
442.928	276.44
443.149	283.44
443.371	274.44
443.592	269.44
443.813	280.44
444.034	270.44
444.255	258.44
444.476	266.44
444.698	247.44
444.919	259.44
445.14	318.44
445.361	298.44
445.582	248.44
445.803	252.44
446.024	258.44
446.245	231.44
446.466	229.44
446.687	235.44
446.908	206.44
447.129	224.44
447.35	230.44
447.571	229.44
447.792	246.44
448.013	231.44
448.234	225.44
448.455	214.44
448.675	232.44
448.896	218.44
449.117	204.44
449.338	235.44
449.559	229.44
449.779	219.44
450	232.44
450.221	208.44
450.442	210.44
450.662	226.44
450.883	211.44
451.104	214.44
451.324	211.44
451.545	206.44
451.766	206.44
451.986	227.44
452.207	221.44
452.428	238.44
452.648	211.44
452.869	204.44
453.089	192.44
453.31	210.44
453.53	207.44
453.751	198.44
453.971	208.44
454.192	207.44
454.412	198.44
454.633	217.44
454.853	191.44
455.073	194.44
455.294	210.44
455.514	203.44
455.734	206.44
455.955	200.44
456.175	197.44
456.395	191.44
456.616	198.44
456.836	196.44
457.056	200.44
457.276	199.44
457.497	198.44
457.717	194.44
457.937	204.44
458.157	202.44
458.377	191.44
458.598	202.44
458.818	197.44
459.038	206.44
459.258	220.44
459.478	206.44
459.698	213.44
459.918	221.44
460.138	216.44
460.358	212.44
460.578	222.44
460.798	218.44
461.018	222.44
461.238	214.44
461.458	232.44
461.678	244.44
461.898	233.44
462.118	226.44
462.338	235.44
462.558	238.44
462.777	235.44
462.997	239.44
463.217	235.44
463.437	205.44
463.657	218.44
463.876	238.44
464.096	229.44
464.316	226.44
464.536	232.44
464.755	217.44
464.975	214.44
465.195	238.44
465.414	230.44
465.634	212.44
465.854	207.44
466.073	205.44
466.293	201.44
466.512	193.44
466.732	221.44
466.951	212.44
467.171	222.44
467.391	215.44
467.61	198.44
467.829	220.44
468.049	209.44
468.268	202.44
468.488	206.44
468.707	197.44
468.927	207.44
469.146	200.44
469.365	229.44
469.585	222.44
469.804	207.44
470.023	204.44
470.243	199.44
470.462	218.44
470.681	210.44
470.901	231.44
471.12	212.44
471.339	206.44
471.558	217.44
471.777	218.44
471.997	199.44
472.216	213.44
472.435	189.44
472.654	210.44
472.873	197.44
473.092	197.44
473.311	213.44
473.53	199.44
473.749	230.44
473.968	223.44
474.187	216.44
474.406	213.44
474.625	236.44
474.844	221.44
475.063	206.44
475.282	211.44
475.501	223.44
475.72	232.44
475.939	208.44
476.158	218.44
476.377	226.44
476.596	219.44
476.814	212.44
477.033	230.44
477.252	223.44
477.471	231.44
477.69	214.44
477.908	241.44
478.127	221.44
478.346	254.44
478.564	242.44
478.783	246.44
479.002	251.44
479.22	251.44
479.439	245.44
479.658	237.44
479.876	240.44
480.095	236.44
480.313	249.44
480.532	251.44
480.751	255.44
480.969	252.44
481.188	231.44
481.406	252.44
481.624	242.44
481.843	219.44
482.061	235.44
482.28	235.44
482.498	238.44
482.717	230.44
482.935	241.44
483.153	245.44
483.372	237.44
483.59	239.44
483.808	223.44
484.027	238.44
484.245	240.44
484.463	231.44
484.681	231.44
484.9	242.44
485.118	235.44
485.336	234.44
485.554	257.44
485.772	247.44
485.99	228.44
486.209	235.44
486.427	237.44
486.645	255.44
486.863	229.44
487.081	236.44
487.299	227.44
487.517	237.44
487.735	238.44
487.953	230.44
488.171	242.44
488.389	228.44
488.607	251.44
488.825	243.44
489.043	243.44
489.261	263.44
489.479	246.44
489.696	253.44
489.914	246.44
490.132	249.44
490.35	272.44
490.568	250.44
490.786	265.44
491.003	244.44
491.221	244.44
491.439	243.44
491.657	246.44
491.874	258.44
492.092	281.44
492.31	252.44
492.527	262.44
492.745	260.44
492.963	258.44
493.18	254.44
493.398	258.44
493.615	250.44
493.833	256.44
494.05	244.44
494.268	267.44
494.485	256.44
494.703	256.44
494.92	262.44
495.138	260.44
495.355	256.44
495.573	279.44
495.79	269.44
496.008	276.44
496.225	271.44
496.442	264.44
496.66	278.44
496.877	268.44
497.094	261.44
497.312	253.44
497.529	261.44
497.746	277.44
497.963	285.44
498.181	276.44
498.398	301.44
498.615	312.44
498.832	304.44
499.049	318.44
499.267	299.44
499.484	338.44
499.701	342.44
499.918	369.44
500.135	387.44
500.352	402.44
500.569	472.44
500.786	558.44
501.003	432.44
501.22	392.44
501.437	390.44
501.654	336.44
501.871	351.44
502.088	334.44
502.305	325.44
502.522	327.44
502.739	333.44
502.956	300.44
503.172	311.44
503.389	302.44
503.606	318.44
