Data from StdB_HRD10591_038.txt Node
Date: Fri May 16 15:25:05 EDT 2025
User: Yrep
Spectrometer: HR+D1059
Trigger mode: 1
Integration Time (sec): 1.000000E-1
Scans to average: 1
Electric dark correction enabled: true
Nonlinearity correction enabled: false
Boxcar width: 0
XAxis mode: Wavelengths
Number of Pixels in Spectrum: 2048
>>>>>Begin Spectral Data<<<<<
223.165	-16.25
223.4	-16.25
223.635	-16.25
223.869	-22.25
224.104	-30.25
224.338	0.75
224.573	-14.25
224.808	-15.25
225.042	-12.25
225.277	-14.25
225.511	-7.25
225.746	6.75
225.98	8.75
226.215	16.75
226.449	25.75
226.683	10.75
226.918	24.75
227.152	37.75
227.387	45.75
227.621	45.75
227.856	52.75
228.09	51.75
228.324	44.75
228.559	50.75
228.793	59.75
229.027	65.75
229.262	74.75
229.496	80.75
229.73	83.75
229.964	89.75
230.199	93.75
230.433	79.75
230.667	78.75
230.901	88.75
231.136	81.75
231.37	80.75
231.604	76.75
231.838	99.75
232.072	102.75
232.306	102.75
232.541	95.75
232.775	87.75
233.009	97.75
233.243	80.75
233.477	89.75
233.711	91.75
233.945	84.75
234.179	107.75
234.413	96.75
234.647	101.75
234.881	91.75
235.115	94.75
235.349	77.75
235.583	83.75
235.817	108.75
236.051	94.75
236.285	85.75
236.519	88.75
236.753	89.75
236.987	78.75
237.221	84.75
237.455	80.75
237.689	99.75
237.922	109.75
238.156	92.75
238.39	89.75
238.624	85.75
238.858	93.75
239.091	92.75
239.325	97.75
239.559	105.75
239.793	116.75
240.027	89.75
240.26	110.75
240.494	121.75
240.728	105.75
240.961	103.75
241.195	102.75
241.429	112.75
241.662	112.75
241.896	105.75
242.13	87.75
242.363	96.75
242.597	87.75
242.83	89.75
243.064	93.75
243.298	101.75
243.531	90.75
243.765	108.75
243.998	107.75
244.232	109.75
244.465	99.75
244.699	113.75
244.932	123.75
245.166	104.75
245.399	88.75
245.633	105.75
245.866	109.75
246.099	96.75
246.333	93.75
246.566	96.75
246.8	97.75
247.033	109.75
247.266	103.75
247.5	104.75
247.733	123.75
247.966	126.75
248.2	120.75
248.433	115.75
248.666	109.75
248.899	111.75
249.133	111.75
249.366	114.75
249.599	105.75
249.832	127.75
250.066	112.75
250.299	115.75
250.532	108.75
250.765	107.75
250.998	121.75
251.231	117.75
251.465	128.75
251.698	127.75
251.931	119.75
252.164	129.75
252.397	128.75
252.63	125.75
252.863	129.75
253.096	132.75
253.329	133.75
253.562	129.75
253.795	140.75
254.028	145.75
254.261	148.75
254.494	136.75
254.727	127.75
254.96	127.75
255.193	135.75
255.426	148.75
255.659	121.75
255.892	130.75
256.124	143.75
256.357	136.75
256.59	130.75
256.823	123.75
257.056	136.75
257.289	131.75
257.521	145.75
257.754	171.75
257.987	185.75
258.22	180.75
258.452	165.75
258.685	141.75
258.918	150.75
259.151	135.75
259.383	141.75
259.616	161.75
259.849	134.75
260.081	129.75
260.314	152.75
260.547	154.75
260.779	168.75
261.012	221.75
261.244	256.75
261.477	316.75
261.71	315.75
261.942	240.75
262.175	187.75
262.407	160.75
262.64	167.75
262.872	177.75
263.105	150.75
263.337	156.75
263.57	163.75
263.802	157.75
264.035	153.75
264.267	160.75
264.499	141.75
264.732	179.75
264.964	188.75
265.197	186.75
265.429	165.75
265.661	167.75
265.894	184.75
266.126	182.75
266.358	217.75
266.591	236.75
266.823	191.75
267.055	163.75
267.287	153.75
267.52	140.75
267.752	136.75
267.984	134.75
268.216	134.75
268.448	129.75
268.681	143.75
268.913	141.75
269.145	135.75
269.377	142.75
269.609	128.75
269.841	153.75
270.073	147.75
270.306	147.75
270.538	136.75
270.77	140.75
271.002	144.75
271.234	140.75
271.466	136.75
271.698	152.75
271.93	131.75
272.162	142.75
272.394	144.75
272.626	145.75
272.858	148.75
273.09	151.75
273.322	138.75
273.553	133.75
273.785	140.75
274.017	148.75
274.249	139.75
274.481	153.75
274.713	143.75
274.945	156.75
275.176	136.75
275.408	147.75
275.64	139.75
275.872	129.75
276.104	119.75
276.335	147.75
276.567	157.75
276.799	146.75
277.031	147.75
277.262	153.75
277.494	149.75
277.726	174.75
277.957	168.75
278.189	163.75
278.421	183.75
278.652	172.75
278.884	199.75
279.115	199.75
279.347	229.75
279.579	267.75
279.81	314.75
280.042	422.75
280.273	520.75
280.505	472.75
280.736	321.75
280.968	231.75
281.199	208.75
281.431	191.75
281.662	205.75
281.894	208.75
282.125	252.75
282.356	267.75
282.588	255.75
282.819	256.75
283.051	285.75
283.282	334.75
283.513	398.75
283.745	336.75
283.976	223.75
284.207	219.75
284.439	187.75
284.67	173.75
284.901	186.75
285.132	164.75
285.364	174.75
285.595	166.75
285.826	161.75
286.057	185.75
286.288	199.75
286.52	190.75
286.751	202.75
286.982	242.75
287.213	262.75
287.444	332.75
287.675	275.75
287.906	192.75
288.138	172.75
288.369	159.75
288.6	161.75
288.831	164.75
289.062	163.75
289.293	167.75
289.524	166.75
289.755	159.75
289.986	153.75
290.217	158.75
290.448	138.75
290.679	155.75
290.91	159.75
291.141	177.75
291.371	167.75
291.602	156.75
291.833	151.75
292.064	142.75
292.295	149.75
292.526	170.75
292.757	167.75
292.987	173.75
293.218	158.75
293.449	163.75
293.68	155.75
293.91	150.75
294.141	144.75
294.372	157.75
294.603	163.75
294.833	181.75
295.064	184.75
295.295	179.75
295.525	169.75
295.756	152.75
295.987	167.75
296.217	156.75
296.448	163.75
296.679	177.75
296.909	157.75
297.14	183.75
297.37	174.75
297.601	174.75
297.831	155.75
298.062	171.75
298.292	171.75
298.523	167.75
298.753	184.75
298.984	169.75
299.214	172.75
299.445	168.75
299.675	177.75
299.905	164.75
300.136	161.75
300.366	179.75
300.597	168.75
300.827	165.75
301.057	175.75
301.288	171.75
301.518	163.75
301.748	181.75
301.979	199.75
302.209	189.75
302.439	157.75
302.669	181.75
302.9	182.75
303.13	182.75
303.36	190.75
303.59	175.75
303.82	166.75
304.051	177.75
304.281	169.75
304.511	190.75
304.741	192.75
304.971	178.75
305.201	158.75
305.431	179.75
305.661	173.75
305.891	183.75
306.121	171.75
306.352	183.75
306.582	165.75
306.812	179.75
307.042	169.75
307.272	184.75
307.502	168.75
307.731	188.75
307.961	178.75
308.191	159.75
308.421	176.75
308.651	185.75
308.881	164.75
309.111	184.75
309.341	188.75
309.571	173.75
309.8	182.75
310.03	174.75
310.26	176.75
310.49	185.75
310.72	174.75
310.949	181.75
311.179	183.75
311.409	165.75
311.639	183.75
311.868	181.75
312.098	173.75
312.328	186.75
312.557	192.75
312.787	190.75
313.017	210.75
313.246	204.75
313.476	201.75
313.706	221.75
313.935	229.75
314.165	209.75
314.394	215.75
314.624	208.75
314.853	215.75
315.083	209.75
315.312	215.75
315.542	214.75
315.771	207.75
316.001	196.75
316.23	184.75
316.46	196.75
316.689	201.75
316.919	208.75
317.148	211.75
317.377	220.75
317.607	201.75
317.836	206.75
318.065	211.75
318.295	214.75
318.524	201.75
318.753	197.75
318.983	190.75
319.212	195.75
319.441	198.75
319.67	198.75
319.9	202.75
320.129	180.75
320.358	183.75
320.587	177.75
320.816	190.75
321.046	199.75
321.275	187.75
321.504	188.75
321.733	177.75
321.962	199.75
322.191	202.75
322.42	182.75
322.649	175.75
322.878	187.75
323.108	183.75
323.337	165.75
323.566	179.75
323.795	201.75
324.024	200.75
324.253	190.75
324.482	165.75
324.71	187.75
324.939	195.75
325.168	194.75
325.397	199.75
325.626	185.75
325.855	194.75
326.084	184.75
326.313	197.75
326.542	185.75
326.77	194.75
326.999	188.75
327.228	191.75
327.457	208.75
327.686	202.75
327.914	212.75
328.143	191.75
328.372	189.75
328.6	190.75
328.829	185.75
329.058	192.75
329.287	190.75
329.515	188.75
329.744	186.75
329.972	193.75
330.201	186.75
330.43	191.75
330.658	193.75
330.887	191.75
331.115	197.75
331.344	201.75
331.572	199.75
331.801	206.75
332.03	187.75
332.258	202.75
332.486	196.75
332.715	196.75
332.943	196.75
333.172	202.75
333.4	208.75
333.629	205.75
333.857	201.75
334.085	189.75
334.314	198.75
334.542	191.75
334.771	195.75
334.999	204.75
335.227	201.75
335.455	196.75
335.684	200.75
335.912	182.75
336.14	195.75
336.369	213.75
336.597	202.75
336.825	187.75
337.053	187.75
337.281	202.75
337.51	181.75
337.738	185.75
337.966	184.75
338.194	193.75
338.422	202.75
338.65	181.75
338.878	196.75
339.106	197.75
339.334	164.75
339.562	187.75
339.79	193.75
340.018	188.75
340.246	210.75
340.474	190.75
340.702	193.75
340.93	193.75
341.158	188.75
341.386	192.75
341.614	193.75
341.842	184.75
342.07	177.75
342.298	210.75
342.526	185.75
342.754	194.75
342.981	202.75
343.209	200.75
343.437	199.75
343.665	182.75
343.893	201.75
344.12	201.75
344.348	198.75
344.576	215.75
344.804	189.75
345.031	190.75
345.259	198.75
345.487	191.75
345.714	207.75
345.942	207.75
346.17	193.75
346.397	193.75
346.625	182.75
346.853	193.75
347.08	191.75
347.308	188.75
347.535	193.75
347.763	191.75
347.99	175.75
348.218	192.75
348.445	191.75
348.673	193.75
348.9	188.75
349.128	198.75
349.355	173.75
349.583	198.75
349.81	208.75
350.037	201.75
350.265	193.75
350.492	184.75
350.72	193.75
350.947	191.75
351.174	189.75
351.402	184.75
351.629	180.75
351.856	192.75
352.083	190.75
352.311	190.75
352.538	205.75
352.765	191.75
352.992	194.75
353.22	199.75
353.447	198.75
353.674	188.75
353.901	208.75
354.128	199.75
354.355	199.75
354.583	192.75
354.81	187.75
355.037	184.75
355.264	192.75
355.491	200.75
355.718	198.75
355.945	208.75
356.172	222.75
356.399	231.75
356.626	251.75
356.853	330.75
357.08	426.75
357.307	597.75
357.534	551.75
357.761	399.75
357.988	336.75
358.215	293.75
358.441	276.75
358.668	232.75
358.895	236.75
359.122	223.75
359.349	215.75
359.576	223.75
359.802	212.75
360.029	214.75
360.256	219.75
360.483	211.75
360.709	223.75
360.936	224.75
361.163	222.75
361.39	206.75
361.616	219.75
361.843	224.75
362.07	218.75
362.296	222.75
362.523	219.75
362.749	214.75
362.976	240.75
363.203	260.75
363.429	307.75
363.656	441.75
363.882	605.75
364.109	722.75
364.335	521.75
364.562	352.75
364.788	283.75
365.015	249.75
365.241	233.75
365.468	236.75
365.694	253.75
365.92	239.75
366.147	227.75
366.373	239.75
366.599	246.75
366.826	265.75
367.052	333.75
367.278	364.75
367.505	326.75
367.731	357.75
367.957	497.75
368.184	712.75
368.41	1009.75
368.636	853.75
368.862	494.75
369.089	364.75
369.315	313.75
369.541	281.75
369.767	267.75
369.993	251.75
370.219	240.75
370.445	234.75
370.672	248.75
370.898	233.75
371.124	222.75
371.35	244.75
371.576	232.75
371.802	234.75
372.028	236.75
372.254	239.75
372.48	225.75
372.706	231.75
372.932	241.75
373.158	247.75
373.384	272.75
373.61	328.75
373.835	477.75
374.061	643.75
374.287	569.75
374.513	360.75
374.739	311.75
374.965	270.75
375.191	255.75
375.416	243.75
375.642	223.75
375.868	217.75
376.094	245.75
376.319	224.75
376.545	225.75
376.771	221.75
376.997	205.75
377.222	235.75
377.448	219.75
377.674	218.75
377.899	207.75
378.125	210.75
378.35	229.75
378.576	232.75
378.802	241.75
379.027	221.75
379.253	216.75
379.478	218.75
379.704	207.75
379.929	207.75
380.155	217.75
380.38	222.75
380.606	213.75
380.831	221.75
381.057	215.75
381.282	207.75
381.507	209.75
381.733	219.75
381.958	222.75
382.184	220.75
382.409	221.75
382.634	219.75
382.86	203.75
383.085	209.75
383.31	211.75
383.535	219.75
383.761	215.75
383.986	215.75
384.211	215.75
384.436	219.75
384.662	225.75
384.887	242.75
385.112	205.75
385.337	219.75
385.562	217.75
385.787	222.75
386.013	215.75
386.238	235.75
386.463	208.75
386.688	223.75
386.913	204.75
387.138	223.75
387.363	221.75
387.588	225.75
387.813	228.75
388.038	219.75
388.263	229.75
388.488	207.75
388.713	207.75
388.938	230.75
389.163	203.75
389.387	201.75
389.612	205.75
389.837	227.75
390.062	209.75
390.287	199.75
390.512	214.75
390.736	215.75
390.961	211.75
391.186	201.75
391.411	235.75
391.636	209.75
391.86	239.75
392.085	218.75
392.31	222.75
392.534	227.75
392.759	224.75
392.984	201.75
393.208	222.75
393.433	227.75
393.658	200.75
393.882	218.75
394.107	216.75
394.331	230.75
394.556	221.75
394.78	211.75
395.005	213.75
395.229	219.75
395.454	233.75
395.678	213.75
395.903	202.75
396.127	221.75
396.352	213.75
396.576	215.75
396.801	216.75
397.025	224.75
397.249	202.75
397.474	251.75
397.698	234.75
397.922	228.75
398.147	217.75
398.371	221.75
398.595	227.75
398.82	229.75
399.044	236.75
399.268	236.75
399.492	247.75
399.717	267.75
399.941	261.75
400.165	242.75
400.389	261.75
400.613	250.75
400.837	240.75
401.062	266.75
401.286	238.75
401.51	251.75
401.734	280.75
401.958	296.75
402.182	311.75
402.406	261.75
402.63	245.75
402.854	264.75
403.078	263.75
403.302	265.75
403.526	271.75
403.75	258.75
403.974	269.75
404.198	261.75
404.422	297.75
404.645	311.75
404.869	327.75
405.093	379.75
405.317	485.75
405.541	812.75
405.765	1372.75
405.988	1585.75
406.212	1008.75
406.436	696.75
406.66	471.75
406.883	420.75
407.107	359.75
407.331	341.75
407.555	319.75
407.778	317.75
408.002	311.75
408.226	270.75
408.449	282.75
408.673	267.75
408.896	275.75
409.12	248.75
409.344	263.75
409.567	251.75
409.791	239.75
410.014	239.75
410.238	247.75
410.461	258.75
410.685	255.75
410.908	245.75
411.132	237.75
411.355	251.75
411.578	270.75
411.802	256.75
412.025	258.75
412.249	237.75
412.472	267.75
412.695	244.75
412.919	250.75
413.142	241.75
413.365	249.75
413.589	245.75
413.812	230.75
414.035	235.75
414.258	255.75
414.482	241.75
414.705	229.75
414.928	253.75
415.151	247.75
415.374	254.75
415.597	241.75
415.821	238.75
416.044	217.75
416.267	257.75
416.49	259.75
416.713	271.75
416.936	273.75
417.159	249.75
417.382	231.75
417.605	213.75
417.828	237.75
418.051	256.75
418.274	247.75
418.497	245.75
418.72	230.75
418.943	239.75
419.166	257.75
419.389	266.75
419.611	243.75
419.834	253.75
420.057	240.75
420.28	248.75
420.503	244.75
420.726	248.75
420.948	231.75
421.171	247.75
421.394	252.75
421.617	248.75
421.839	245.75
422.062	247.75
422.285	260.75
422.507	280.75
422.73	276.75
422.953	277.75
423.175	298.75
423.398	321.75
423.621	339.75
423.843	368.75
424.066	411.75
424.288	514.75
424.511	636.75
424.733	715.75
424.956	589.75
425.178	519.75
425.401	428.75
425.623	409.75
425.846	390.75
426.068	347.75
426.291	327.75
426.513	337.75
426.735	293.75
426.958	287.75
427.18	295.75
427.402	293.75
427.625	281.75
427.847	280.75
428.069	264.75
428.292	264.75
428.514	261.75
428.736	251.75
428.958	275.75
429.181	257.75
429.403	242.75
429.625	255.75
429.847	260.75
430.069	235.75
430.292	225.75
430.514	269.75
430.736	241.75
430.958	251.75
431.18	241.75
431.402	222.75
431.624	227.75
431.846	243.75
432.068	250.75
432.29	245.75
432.512	237.75
432.734	254.75
432.956	251.75
433.178	267.75
433.4	240.75
433.622	262.75
433.844	251.75
434.066	259.75
434.287	280.75
434.509	258.75
434.731	265.75
434.953	256.75
435.175	246.75
435.397	263.75
435.618	251.75
435.84	272.75
436.062	270.75
436.284	257.75
436.505	261.75
436.727	259.75
436.949	286.75
437.17	288.75
437.392	293.75
437.614	313.75
437.835	320.75
438.057	339.75
438.278	399.75
438.5	478.75
438.721	591.75
438.943	611.75
439.165	533.75
439.386	485.75
439.608	457.75
439.829	415.75
440.05	388.75
440.272	369.75
440.493	365.75
440.715	428.75
440.936	437.75
441.158	415.75
441.379	381.75
441.6	367.75
441.822	349.75
442.043	306.75
442.264	294.75
442.486	299.75
442.707	269.75
442.928	271.75
443.149	280.75
443.371	257.75
443.592	266.75
443.813	267.75
444.034	247.75
444.255	251.75
444.476	273.75
444.698	270.75
444.919	267.75
445.14	339.75
445.361	293.75
445.582	259.75
445.803	261.75
446.024	232.75
446.245	256.75
446.466	257.75
446.687	228.75
446.908	235.75
447.129	227.75
447.35	233.75
447.571	244.75
447.792	235.75
448.013	228.75
448.234	225.75
448.455	216.75
448.675	227.75
448.896	228.75
449.117	233.75
449.338	242.75
449.559	244.75
449.779	224.75
450	218.75
450.221	222.75
450.442	220.75
450.662	222.75
450.883	213.75
451.104	197.75
451.324	225.75
451.545	228.75
451.766	203.75
451.986	220.75
452.207	220.75
452.428	230.75
452.648	220.75
452.869	195.75
453.089	193.75
453.31	227.75
453.53	213.75
453.751	214.75
453.971	218.75
454.192	214.75
454.412	203.75
454.633	192.75
454.853	201.75
455.073	204.75
455.294	209.75
455.514	204.75
455.734	214.75
455.955	206.75
456.175	210.75
456.395	195.75
456.616	203.75
456.836	200.75
457.056	205.75
457.276	196.75
457.497	205.75
457.717	221.75
457.937	207.75
458.157	202.75
458.377	196.75
458.598	206.75
458.818	209.75
459.038	199.75
459.258	195.75
459.478	205.75
459.698	208.75
459.918	223.75
460.138	228.75
460.358	207.75
460.578	222.75
460.798	224.75
461.018	236.75
461.238	227.75
461.458	233.75
461.678	217.75
461.898	245.75
462.118	230.75
462.338	223.75
462.558	250.75
462.777	222.75
462.997	240.75
463.217	236.75
463.437	231.75
463.657	231.75
463.876	241.75
464.096	236.75
464.316	216.75
464.536	227.75
464.755	229.75
464.975	233.75
465.195	230.75
465.414	236.75
465.634	216.75
465.854	199.75
466.073	203.75
466.293	220.75
466.512	222.75
466.732	215.75
466.951	220.75
467.171	222.75
467.391	217.75
467.61	205.75
467.829	221.75
468.049	218.75
468.268	202.75
468.488	221.75
468.707	205.75
468.927	205.75
469.146	212.75
469.365	203.75
469.585	214.75
469.804	219.75
470.023	216.75
470.243	197.75
470.462	205.75
470.681	217.75
470.901	221.75
471.12	233.75
471.339	213.75
471.558	214.75
471.777	201.75
471.997	221.75
472.216	214.75
472.435	219.75
472.654	198.75
472.873	213.75
473.092	204.75
473.311	218.75
473.53	199.75
473.749	233.75
473.968	216.75
474.187	203.75
474.406	219.75
474.625	228.75
474.844	207.75
475.063	203.75
475.282	228.75
475.501	222.75
475.72	242.75
475.939	233.75
476.158	214.75
476.377	215.75
476.596	220.75
476.814	232.75
477.033	225.75
477.252	211.75
477.471	229.75
477.69	226.75
477.908	242.75
478.127	256.75
478.346	248.75
478.564	243.75
478.783	241.75
479.002	252.75
479.22	265.75
479.439	257.75
479.658	244.75
479.876	255.75
480.095	230.75
480.313	245.75
480.532	266.75
480.751	263.75
480.969	265.75
481.188	263.75
481.406	252.75
481.624	236.75
481.843	241.75
482.061	224.75
482.28	252.75
482.498	254.75
482.717	250.75
482.935	229.75
483.153	219.75
483.372	236.75
483.59	246.75
483.808	245.75
484.027	233.75
484.245	234.75
484.463	245.75
484.681	247.75
484.9	238.75
485.118	248.75
485.336	223.75
485.554	246.75
485.772	224.75
485.99	249.75
486.209	232.75
486.427	241.75
486.645	249.75
486.863	243.75
487.081	239.75
487.299	235.75
487.517	231.75
487.735	258.75
487.953	232.75
488.171	255.75
488.389	251.75
488.607	253.75
488.825	247.75
489.043	252.75
489.261	237.75
489.479	270.75
489.696	263.75
489.914	253.75
490.132	252.75
490.35	267.75
490.568	264.75
490.786	268.75
491.003	260.75
491.221	250.75
491.439	247.75
491.657	260.75
491.874	259.75
492.092	246.75
492.31	249.75
492.527	249.75
492.745	265.75
492.963	243.75
493.18	261.75
493.398	247.75
493.615	228.75
493.833	240.75
494.05	265.75
494.268	259.75
494.485	268.75
494.703	262.75
494.92	278.75
495.138	271.75
495.355	271.75
495.573	299.75
495.79	285.75
496.008	266.75
496.225	275.75
496.442	282.75
496.66	271.75
496.877	258.75
497.094	270.75
497.312	276.75
497.529	279.75
497.746	269.75
497.963	280.75
498.181	303.75
498.398	272.75
498.615	291.75
498.832	305.75
499.049	314.75
499.267	326.75
499.484	334.75
499.701	360.75
499.918	367.75
500.135	388.75
500.352	408.75
500.569	451.75
500.786	558.75
501.003	449.75
501.22	383.75
501.437	361.75
501.654	359.75
501.871	350.75
502.088	334.75
502.305	331.75
502.522	346.75
502.739	335.75
502.956	328.75
503.172	316.75
503.389	331.75
