Data from StdB_HRD10591_098.txt Node
Date: Fri May 16 15:25:35 EDT 2025
User: Yrep
Spectrometer: HR+D1059
Trigger mode: 1
Integration Time (sec): 1.000000E-1
Scans to average: 1
Electric dark correction enabled: true
Nonlinearity correction enabled: false
Boxcar width: 0
XAxis mode: Wavelengths
Number of Pixels in Spectrum: 2048
>>>>>Begin Spectral Data<<<<<
223.165	-28.88
223.4	-28.88
223.635	-28.88
223.869	-12.88
224.104	-13.88
224.338	-0.88
224.573	-23.88
224.808	-15.88
225.042	-7.88
225.277	2.12
225.511	-16.88
225.746	7.12
225.98	5.12
226.215	13.12
226.449	19.12
226.683	22.12
226.918	21.12
227.152	31.12
227.387	37.12
227.621	33.12
227.856	44.12
228.09	51.12
228.324	60.12
228.559	56.12
228.793	61.12
229.027	78.12
229.262	77.12
229.496	82.12
229.73	78.12
229.964	92.12
230.199	72.12
230.433	83.12
230.667	99.12
230.901	89.12
231.136	84.12
231.37	87.12
231.604	105.12
231.838	92.12
232.072	81.12
232.306	71.12
232.541	89.12
232.775	87.12
233.009	84.12
233.243	90.12
233.477	99.12
233.711	83.12
233.945	97.12
234.179	105.12
234.413	92.12
234.647	77.12
234.881	90.12
235.115	85.12
235.349	83.12
235.583	105.12
235.817	93.12
236.051	81.12
236.285	94.12
236.519	85.12
236.753	94.12
236.987	96.12
237.221	103.12
237.455	101.12
237.689	112.12
237.922	100.12
238.156	103.12
238.39	94.12
238.624	87.12
238.858	110.12
239.091	103.12
239.325	105.12
239.559	110.12
239.793	110.12
240.027	111.12
240.26	93.12
240.494	113.12
240.728	106.12
240.961	101.12
241.195	97.12
241.429	107.12
241.662	106.12
241.896	105.12
242.13	101.12
242.363	90.12
242.597	105.12
242.83	98.12
243.064	105.12
243.298	94.12
243.531	97.12
243.765	112.12
243.998	104.12
244.232	114.12
244.465	101.12
244.699	113.12
244.932	106.12
245.166	115.12
245.399	109.12
245.633	102.12
245.866	98.12
246.099	96.12
246.333	102.12
246.566	103.12
246.8	106.12
247.033	110.12
247.266	99.12
247.5	116.12
247.733	115.12
247.966	138.12
248.2	131.12
248.433	114.12
248.666	112.12
248.899	107.12
249.133	106.12
249.366	114.12
249.599	112.12
249.832	103.12
250.066	101.12
250.299	100.12
250.532	106.12
250.765	106.12
250.998	109.12
251.231	120.12
251.465	126.12
251.698	131.12
251.931	117.12
252.164	114.12
252.397	114.12
252.63	124.12
252.863	124.12
253.096	133.12
253.329	126.12
253.562	137.12
253.795	132.12
254.028	122.12
254.261	127.12
254.494	134.12
254.727	135.12
254.96	131.12
255.193	138.12
255.426	133.12
255.659	125.12
255.892	130.12
256.124	152.12
256.357	148.12
256.59	141.12
256.823	141.12
257.056	144.12
257.289	147.12
257.521	154.12
257.754	158.12
257.987	180.12
258.22	168.12
258.452	145.12
258.685	159.12
258.918	155.12
259.151	154.12
259.383	144.12
259.616	152.12
259.849	139.12
260.081	157.12
260.314	154.12
260.547	163.12
260.779	168.12
261.012	226.12
261.244	237.12
261.477	298.12
261.71	299.12
261.942	237.12
262.175	197.12
262.407	169.12
262.64	142.12
262.872	140.12
263.105	151.12
263.337	151.12
263.57	166.12
263.802	166.12
264.035	150.12
264.267	140.12
264.499	164.12
264.732	160.12
264.964	187.12
265.197	183.12
265.429	171.12
265.661	145.12
265.894	157.12
266.126	172.12
266.358	207.12
266.591	231.12
266.823	194.12
267.055	153.12
267.287	169.12
267.52	140.12
267.752	159.12
267.984	161.12
268.216	138.12
268.448	146.12
268.681	135.12
268.913	125.12
269.145	145.12
269.377	145.12
269.609	137.12
269.841	148.12
270.073	148.12
270.306	154.12
270.538	130.12
270.77	138.12
271.002	146.12
271.234	147.12
271.466	137.12
271.698	152.12
271.93	153.12
272.162	143.12
272.394	150.12
272.626	143.12
272.858	137.12
273.09	139.12
273.322	146.12
273.553	145.12
273.785	129.12
274.017	170.12
274.249	151.12
274.481	153.12
274.713	141.12
274.945	142.12
275.176	150.12
275.408	150.12
275.64	149.12
275.872	147.12
276.104	150.12
276.335	126.12
276.567	154.12
276.799	157.12
277.031	158.12
277.262	152.12
277.494	170.12
277.726	161.12
277.957	171.12
278.189	163.12
278.421	166.12
278.652	189.12
278.884	204.12
279.115	186.12
279.347	235.12
279.579	256.12
279.81	321.12
280.042	415.12
280.273	479.12
280.505	438.12
280.736	298.12
280.968	231.12
281.199	202.12
281.431	198.12
281.662	215.12
281.894	218.12
282.125	221.12
282.356	258.12
282.588	258.12
282.819	242.12
283.051	265.12
283.282	311.12
283.513	371.12
283.745	297.12
283.976	243.12
284.207	205.12
284.439	187.12
284.67	180.12
284.901	161.12
285.132	196.12
285.364	186.12
285.595	169.12
285.826	153.12
286.057	190.12
286.288	181.12
286.52	211.12
286.751	211.12
286.982	234.12
287.213	283.12
287.444	291.12
287.675	259.12
287.906	214.12
288.138	183.12
288.369	181.12
288.6	158.12
288.831	174.12
289.062	164.12
289.293	173.12
289.524	157.12
289.755	152.12
289.986	169.12
290.217	161.12
290.448	158.12
290.679	187.12
290.91	170.12
291.141	159.12
291.371	158.12
291.602	182.12
291.833	168.12
292.064	149.12
292.295	170.12
292.526	171.12
292.757	165.12
292.987	181.12
293.218	169.12
293.449	178.12
293.68	172.12
293.91	187.12
294.141	173.12
294.372	177.12
294.603	187.12
294.833	168.12
295.064	193.12
295.295	171.12
295.525	158.12
295.756	159.12
295.987	170.12
296.217	163.12
296.448	163.12
296.679	169.12
296.909	166.12
297.14	185.12
297.37	181.12
297.601	158.12
297.831	166.12
298.062	168.12
298.292	171.12
298.523	175.12
298.753	165.12
298.984	170.12
299.214	170.12
299.445	175.12
299.675	187.12
299.905	183.12
300.136	169.12
300.366	193.12
300.597	169.12
300.827	188.12
301.057	175.12
301.288	177.12
301.518	198.12
301.748	193.12
301.979	199.12
302.209	187.12
302.439	189.12
302.669	182.12
302.9	192.12
303.13	185.12
303.36	178.12
303.59	176.12
303.82	185.12
304.051	178.12
304.281	190.12
304.511	185.12
304.741	191.12
304.971	199.12
305.201	185.12
305.431	179.12
305.661	188.12
305.891	169.12
306.121	181.12
306.352	172.12
306.582	170.12
306.812	189.12
307.042	178.12
307.272	183.12
307.502	174.12
307.731	178.12
307.961	195.12
308.191	173.12
308.421	176.12
308.651	176.12
308.881	167.12
309.111	183.12
309.341	183.12
309.571	169.12
309.8	181.12
310.03	180.12
310.26	182.12
310.49	182.12
310.72	185.12
310.949	190.12
311.179	181.12
311.409	195.12
311.639	195.12
311.868	202.12
312.098	191.12
312.328	207.12
312.557	192.12
312.787	195.12
313.017	205.12
313.246	209.12
313.476	214.12
313.706	206.12
313.935	218.12
314.165	224.12
314.394	222.12
314.624	205.12
314.853	237.12
315.083	223.12
315.312	207.12
315.542	210.12
315.771	236.12
316.001	225.12
316.23	210.12
316.46	222.12
316.689	205.12
316.919	217.12
317.148	213.12
317.377	201.12
317.607	201.12
317.836	222.12
318.065	210.12
318.295	207.12
318.524	202.12
318.753	229.12
318.983	209.12
319.212	208.12
319.441	201.12
319.67	195.12
319.9	186.12
320.129	207.12
320.358	174.12
320.587	187.12
320.816	184.12
321.046	191.12
321.275	214.12
321.504	204.12
321.733	200.12
321.962	209.12
322.191	194.12
322.42	204.12
322.649	205.12
322.878	189.12
323.108	189.12
323.337	201.12
323.566	201.12
323.795	198.12
324.024	202.12
324.253	195.12
324.482	199.12
324.71	217.12
324.939	209.12
325.168	202.12
325.397	200.12
325.626	198.12
325.855	184.12
326.084	187.12
326.313	211.12
326.542	211.12
326.77	195.12
326.999	180.12
327.228	191.12
327.457	211.12
327.686	194.12
327.914	181.12
328.143	199.12
328.372	213.12
328.6	182.12
328.829	190.12
329.058	195.12
329.287	189.12
329.515	188.12
329.744	216.12
329.972	190.12
330.201	201.12
330.43	210.12
330.658	191.12
330.887	185.12
331.115	192.12
331.344	206.12
331.572	199.12
331.801	200.12
332.03	186.12
332.258	207.12
332.486	188.12
332.715	204.12
332.943	216.12
333.172	196.12
333.4	201.12
333.629	209.12
333.857	214.12
334.085	210.12
334.314	199.12
334.542	202.12
334.771	198.12
334.999	197.12
335.227	208.12
335.455	207.12
335.684	204.12
335.912	239.12
336.14	201.12
336.369	199.12
336.597	196.12
336.825	201.12
337.053	204.12
337.281	193.12
337.51	189.12
337.738	198.12
337.966	202.12
338.194	191.12
338.422	191.12
338.65	203.12
338.878	199.12
339.106	196.12
339.334	191.12
339.562	200.12
339.79	195.12
340.018	207.12
340.246	198.12
340.474	192.12
340.702	194.12
340.93	199.12
341.158	202.12
341.386	194.12
341.614	183.12
341.842	193.12
342.07	205.12
342.298	189.12
342.526	200.12
342.754	197.12
342.981	191.12
343.209	194.12
343.437	201.12
343.665	193.12
343.893	195.12
344.12	222.12
344.348	221.12
344.576	205.12
344.804	220.12
345.031	214.12
345.259	217.12
345.487	204.12
345.714	210.12
345.942	208.12
346.17	208.12
346.397	201.12
346.625	189.12
346.853	189.12
347.08	205.12
347.308	183.12
347.535	188.12
347.763	187.12
347.99	205.12
348.218	207.12
348.445	186.12
348.673	189.12
348.9	203.12
349.128	188.12
349.355	191.12
349.583	211.12
349.81	212.12
350.037	187.12
350.265	202.12
350.492	190.12
350.72	205.12
350.947	191.12
351.174	198.12
351.402	197.12
351.629	201.12
351.856	182.12
352.083	189.12
352.311	198.12
352.538	191.12
352.765	183.12
352.992	200.12
353.22	198.12
353.447	198.12
353.674	195.12
353.901	206.12
354.128	201.12
354.355	194.12
354.583	199.12
354.81	214.12
355.037	206.12
355.264	198.12
355.491	213.12
355.718	213.12
355.945	230.12
356.172	233.12
356.399	225.12
356.626	257.12
356.853	306.12
357.08	419.12
357.307	532.12
357.534	525.12
357.761	399.12
357.988	338.12
358.215	303.12
358.441	266.12
358.668	227.12
358.895	247.12
359.122	242.12
359.349	225.12
359.576	227.12
359.802	223.12
360.029	219.12
360.256	208.12
360.483	207.12
360.709	215.12
360.936	207.12
361.163	206.12
361.39	213.12
361.616	224.12
361.843	231.12
362.07	225.12
362.296	219.12
362.523	214.12
362.749	233.12
362.976	233.12
363.203	271.12
363.429	291.12
363.656	418.12
363.882	576.12
364.109	673.12
364.335	474.12
364.562	329.12
364.788	306.12
365.015	258.12
365.241	264.12
365.468	223.12
365.694	248.12
365.92	239.12
366.147	239.12
366.373	242.12
366.599	244.12
366.826	286.12
367.052	315.12
367.278	351.12
367.505	344.12
367.731	349.12
367.957	436.12
368.184	646.12
368.41	871.12
368.636	745.12
368.862	493.12
369.089	367.12
369.315	327.12
369.541	300.12
369.767	286.12
369.993	265.12
370.219	247.12
370.445	236.12
370.672	247.12
370.898	232.12
371.124	229.12
371.35	227.12
371.576	233.12
371.802	248.12
372.028	245.12
372.254	227.12
372.48	231.12
372.706	229.12
372.932	246.12
373.158	258.12
373.384	279.12
373.61	314.12
373.835	459.12
374.061	557.12
374.287	526.12
374.513	383.12
374.739	300.12
374.965	279.12
375.191	270.12
375.416	243.12
375.642	230.12
375.868	253.12
376.094	229.12
376.319	215.12
376.545	216.12
376.771	221.12
376.997	222.12
377.222	207.12
377.448	219.12
377.674	211.12
377.899	222.12
378.125	219.12
378.35	223.12
378.576	239.12
378.802	228.12
379.027	233.12
379.253	230.12
379.478	215.12
379.704	223.12
379.929	207.12
380.155	209.12
380.38	234.12
380.606	210.12
380.831	208.12
381.057	218.12
381.282	205.12
381.507	201.12
381.733	227.12
381.958	243.12
382.184	230.12
382.409	231.12
382.634	225.12
382.86	202.12
383.085	219.12
383.31	213.12
383.535	223.12
383.761	220.12
383.986	208.12
384.211	218.12
384.436	235.12
384.662	217.12
384.887	229.12
385.112	231.12
385.337	225.12
385.562	216.12
385.787	220.12
386.013	238.12
386.238	216.12
386.463	246.12
386.688	240.12
386.913	203.12
387.138	221.12
387.363	215.12
387.588	229.12
387.813	224.12
388.038	209.12
388.263	213.12
388.488	221.12
388.713	218.12
388.938	217.12
389.163	221.12
389.387	215.12
389.612	221.12
389.837	217.12
390.062	219.12
390.287	213.12
390.512	210.12
390.736	224.12
390.961	214.12
391.186	215.12
391.411	226.12
391.636	209.12
391.86	225.12
392.085	215.12
392.31	223.12
392.534	223.12
392.759	226.12
392.984	216.12
393.208	211.12
393.433	237.12
393.658	226.12
393.882	220.12
394.107	217.12
394.331	222.12
394.556	233.12
394.78	217.12
395.005	235.12
395.229	218.12
395.454	217.12
395.678	236.12
395.903	226.12
396.127	239.12
396.352	222.12
396.576	224.12
396.801	224.12
397.025	244.12
397.249	219.12
397.474	243.12
397.698	230.12
397.922	231.12
398.147	233.12
398.371	232.12
398.595	252.12
398.82	243.12
399.044	229.12
399.268	244.12
399.492	261.12
399.717	254.12
399.941	268.12
400.165	251.12
400.389	251.12
400.613	256.12
400.837	234.12
401.062	237.12
401.286	249.12
401.51	264.12
401.734	271.12
401.958	294.12
402.182	286.12
402.406	285.12
402.63	256.12
402.854	264.12
403.078	263.12
403.302	272.12
403.526	261.12
403.75	254.12
403.974	269.12
404.198	270.12
404.422	308.12
404.645	322.12
404.869	332.12
405.093	380.12
405.317	462.12
405.541	718.12
405.765	1131.12
405.988	1331.12
406.212	938.12
406.436	650.12
406.66	472.12
406.883	411.12
407.107	370.12
407.331	352.12
407.555	322.12
407.778	318.12
408.002	307.12
408.226	289.12
408.449	309.12
408.673	267.12
408.896	257.12
409.12	249.12
409.344	254.12
409.567	248.12
409.791	241.12
410.014	239.12
410.238	260.12
410.461	251.12
410.685	266.12
410.908	265.12
411.132	241.12
411.355	271.12
411.578	236.12
411.802	245.12
412.025	240.12
412.249	254.12
412.472	250.12
412.695	233.12
412.919	244.12
413.142	254.12
413.365	248.12
413.589	235.12
413.812	234.12
414.035	258.12
414.258	237.12
414.482	233.12
414.705	254.12
414.928	245.12
415.151	256.12
415.374	242.12
415.597	229.12
415.821	235.12
416.044	230.12
416.267	241.12
416.49	233.12
416.713	260.12
416.936	265.12
417.159	247.12
417.382	246.12
417.605	239.12
417.828	242.12
418.051	243.12
418.274	256.12
418.497	249.12
418.72	242.12
418.943	246.12
419.166	232.12
419.389	239.12
419.611	257.12
419.834	267.12
420.057	257.12
420.28	262.12
420.503	226.12
420.726	257.12
420.948	256.12
421.171	233.12
421.394	250.12
421.617	248.12
421.839	239.12
422.062	265.12
422.285	282.12
422.507	284.12
422.73	284.12
422.953	305.12
423.175	287.12
423.398	309.12
423.621	321.12
423.843	362.12
424.066	397.12
424.288	474.12
424.511	575.12
424.733	635.12
424.956	573.12
425.178	477.12
425.401	441.12
425.623	390.12
425.846	363.12
426.068	350.12
426.291	347.12
426.513	325.12
426.735	331.12
426.958	300.12
427.18	288.12
427.402	272.12
427.625	275.12
427.847	283.12
428.069	280.12
428.292	272.12
428.514	260.12
428.736	238.12
428.958	244.12
429.181	241.12
429.403	251.12
429.625	265.12
429.847	263.12
430.069	245.12
430.292	248.12
430.514	234.12
430.736	241.12
430.958	253.12
431.18	256.12
431.402	239.12
431.624	254.12
431.846	234.12
432.068	241.12
432.29	254.12
432.512	248.12
432.734	240.12
432.956	229.12
433.178	249.12
433.4	253.12
433.622	261.12
433.844	284.12
434.066	256.12
434.287	271.12
434.509	250.12
434.731	251.12
434.953	256.12
435.175	250.12
435.397	250.12
435.618	268.12
435.84	249.12
436.062	258.12
436.284	264.12
436.505	271.12
436.727	275.12
436.949	281.12
437.17	297.12
437.392	283.12
437.614	314.12
437.835	314.12
438.057	347.12
438.278	377.12
438.5	448.12
438.721	545.12
438.943	569.12
439.165	519.12
439.386	443.12
439.608	412.12
439.829	406.12
440.05	384.12
440.272	383.12
440.493	364.12
440.715	403.12
440.936	421.12
441.158	410.12
441.379	365.12
441.6	344.12
441.822	336.12
442.043	316.12
442.264	306.12
442.486	299.12
442.707	297.12
442.928	275.12
443.149	275.12
443.371	273.12
443.592	253.12
443.813	258.12
444.034	280.12
444.255	280.12
444.476	258.12
444.698	266.12
444.919	275.12
445.14	313.12
445.361	285.12
445.582	269.12
445.803	240.12
446.024	249.12
446.245	238.12
446.466	245.12
446.687	253.12
446.908	251.12
447.129	234.12
447.35	224.12
447.571	245.12
447.792	240.12
448.013	232.12
448.234	232.12
448.455	231.12
448.675	211.12
448.896	217.12
449.117	204.12
449.338	226.12
449.559	235.12
449.779	221.12
450	226.12
450.221	236.12
450.442	225.12
450.662	225.12
450.883	218.12
451.104	217.12
451.324	219.12
451.545	202.12
451.766	225.12
451.986	215.12
452.207	221.12
452.428	216.12
452.648	221.12
452.869	212.12
453.089	214.12
453.31	220.12
453.53	210.12
453.751	209.12
453.971	213.12
454.192	210.12
454.412	208.12
454.633	202.12
454.853	223.12
455.073	218.12
455.294	207.12
455.514	193.12
455.734	209.12
455.955	209.12
456.175	223.12
456.395	225.12
456.616	211.12
456.836	206.12
457.056	201.12
457.276	210.12
457.497	224.12
457.717	213.12
457.937	209.12
458.157	235.12
458.377	194.12
458.598	199.12
458.818	202.12
459.038	202.12
459.258	205.12
459.478	218.12
459.698	223.12
459.918	218.12
460.138	225.12
460.358	217.12
460.578	231.12
460.798	224.12
461.018	233.12
461.238	233.12
461.458	229.12
461.678	245.12
461.898	237.12
462.118	204.12
462.338	243.12
462.558	229.12
462.777	238.12
462.997	239.12
463.217	230.12
463.437	245.12
463.657	238.12
463.876	231.12
464.096	242.12
464.316	234.12
464.536	225.12
464.755	237.12
464.975	217.12
465.195	233.12
465.414	222.12
465.634	208.12
465.854	205.12
466.073	213.12
466.293	212.12
466.512	215.12
466.732	226.12
466.951	225.12
467.171	215.12
467.391	226.12
467.61	205.12
467.829	206.12
468.049	229.12
468.268	206.12
468.488	208.12
468.707	218.12
468.927	215.12
469.146	203.12
469.365	208.12
469.585	213.12
469.804	207.12
470.023	235.12
470.243	222.12
470.462	233.12
470.681	219.12
470.901	224.12
471.12	215.12
471.339	207.12
471.558	211.12
471.777	220.12
471.997	214.12
472.216	217.12
472.435	207.12
472.654	221.12
472.873	218.12
473.092	215.12
473.311	211.12
473.53	216.12
473.749	212.12
473.968	223.12
474.187	201.12
474.406	209.12
474.625	212.12
474.844	208.12
475.063	230.12
475.282	217.12
475.501	218.12
475.72	215.12
475.939	221.12
476.158	234.12
476.377	233.12
476.596	208.12
476.814	229.12
477.033	244.12
477.252	247.12
477.471	234.12
477.69	239.12
477.908	234.12
478.127	261.12
478.346	233.12
478.564	265.12
478.783	256.12
479.002	256.12
479.22	240.12
479.439	253.12
479.658	252.12
479.876	259.12
480.095	259.12
480.313	255.12
480.532	248.12
480.751	265.12
480.969	250.12
481.188	255.12
481.406	250.12
481.624	235.12
481.843	254.12
482.061	231.12
482.28	242.12
482.498	243.12
482.717	256.12
482.935	259.12
483.153	237.12
483.372	249.12
483.59	235.12
483.808	238.12
484.027	238.12
484.245	246.12
484.463	246.12
484.681	242.12
484.9	256.12
485.118	239.12
485.336	233.12
485.554	238.12
485.772	237.12
485.99	250.12
486.209	242.12
486.427	245.12
486.645	260.12
486.863	246.12
487.081	231.12
487.299	234.12
487.517	237.12
487.735	247.12
487.953	253.12
488.171	258.12
488.389	248.12
488.607	241.12
488.825	244.12
489.043	251.12
489.261	256.12
489.479	266.12
489.696	261.12
489.914	270.12
490.132	251.12
490.35	258.12
490.568	256.12
490.786	259.12
491.003	267.12
491.221	264.12
491.439	246.12
491.657	237.12
491.874	256.12
492.092	274.12
492.31	259.12
492.527	249.12
492.745	263.12
492.963	251.12
493.18	256.12
493.398	263.12
493.615	249.12
493.833	280.12
494.05	252.12
494.268	270.12
494.485	269.12
494.703	263.12
494.92	268.12
495.138	270.12
495.355	266.12
495.573	297.12
495.79	285.12
496.008	286.12
496.225	277.12
496.442	272.12
496.66	291.12
496.877	279.12
497.094	267.12
497.312	267.12
497.529	289.12
497.746	277.12
497.963	288.12
498.181	286.12
498.398	305.12
498.615	293.12
498.832	298.12
499.049	322.12
499.267	339.12
499.484	353.12
499.701	360.12
499.918	379.12
500.135	382.12
500.352	403.12
500.569	439.12
500.786	515.12
501.003	427.12
501.22	393.12
501.437	373.12
501.654	345.12
501.871	347.12
502.088	363.12
502.305	333.12
502.522	322.12
502.739	329.12
502.956	321.12
503.172	321.12
503.389	318.12
