Data from StdB_HRD10591_053.txt Node
Date: Fri May 16 15:25:12 EDT 2025
User: Yrep
Spectrometer: HR+D1059
Trigger mode: 1
Integration Time (sec): 1.000000E-1
Scans to average: 1
Electric dark correction enabled: true
Nonlinearity correction enabled: false
Boxcar width: 0
XAxis mode: Wavelengths
Number of Pixels in Spectrum: 2048
>>>>>Begin Spectral Data<<<<<
223.165	-16.19
223.4	-16.19
223.635	-16.19
223.869	-19.19
224.104	-43.19
224.338	-0.19
224.573	-25.19
224.808	-4.19
225.042	-8.19
225.277	-15.19
225.511	-13.19
225.746	11.81
225.98	4.81
226.215	21.81
226.449	25.81
226.683	24.81
226.918	19.81
227.152	35.81
227.387	25.81
227.621	37.81
227.856	53.81
228.09	41.81
228.324	62.81
228.559	50.81
228.793	57.81
229.027	55.81
229.262	58.81
229.496	41.81
229.73	55.81
229.964	90.81
230.199	80.81
230.433	69.81
230.667	59.81
230.901	78.81
231.136	78.81
231.37	72.81
231.604	73.81
231.838	79.81
232.072	60.81
232.306	65.81
232.541	76.81
232.775	76.81
233.009	74.81
233.243	87.81
233.477	80.81
233.711	78.81
233.945	79.81
234.179	76.81
234.413	68.81
234.647	70.81
234.881	75.81
235.115	77.81
235.349	76.81
235.583	88.81
235.817	90.81
236.051	76.81
236.285	66.81
236.519	68.81
236.753	70.81
236.987	84.81
237.221	57.81
237.455	75.81
237.689	67.81
237.922	69.81
238.156	72.81
238.39	75.81
238.624	66.81
238.858	80.81
239.091	79.81
239.325	67.81
239.559	84.81
239.793	68.81
240.027	73.81
240.26	73.81
240.494	70.81
240.728	72.81
240.961	71.81
241.195	67.81
241.429	67.81
241.662	73.81
241.896	68.81
242.13	74.81
242.363	57.81
242.597	73.81
242.83	77.81
243.064	67.81
243.298	90.81
243.531	68.81
243.765	65.81
243.998	68.81
244.232	67.81
244.465	74.81
244.699	80.81
244.932	76.81
245.166	75.81
245.399	73.81
245.633	84.81
245.866	77.81
246.099	75.81
246.333	65.81
246.566	64.81
246.8	66.81
247.033	58.81
247.266	77.81
247.5	67.81
247.733	79.81
247.966	80.81
248.2	71.81
248.433	88.81
248.666	66.81
248.899	71.81
249.133	63.81
249.366	68.81
249.599	75.81
249.832	77.81
250.066	72.81
250.299	84.81
250.532	58.81
250.765	48.81
250.998	73.81
251.231	61.81
251.465	75.81
251.698	61.81
251.931	67.81
252.164	80.81
252.397	76.81
252.63	84.81
252.863	80.81
253.096	88.81
253.329	73.81
253.562	75.81
253.795	79.81
254.028	56.81
254.261	76.81
254.494	81.81
254.727	67.81
254.96	62.81
255.193	80.81
255.426	73.81
255.659	71.81
255.892	67.81
256.124	86.81
256.357	73.81
256.59	86.81
256.823	81.81
257.056	81.81
257.289	79.81
257.521	77.81
257.754	77.81
257.987	76.81
258.22	83.81
258.452	71.81
258.685	84.81
258.918	73.81
259.151	68.81
259.383	88.81
259.616	79.81
259.849	90.81
260.081	81.81
260.314	75.81
260.547	65.81
260.779	85.81
261.012	84.81
261.244	86.81
261.477	80.81
261.71	80.81
261.942	73.81
262.175	84.81
262.407	79.81
262.64	69.81
262.872	75.81
263.105	88.81
263.337	78.81
263.57	71.81
263.802	90.81
264.035	87.81
264.267	90.81
264.499	81.81
264.732	81.81
264.964	82.81
265.197	89.81
265.429	72.81
265.661	70.81
265.894	58.81
266.126	74.81
266.358	71.81
266.591	91.81
266.823	91.81
267.055	84.81
267.287	80.81
267.52	75.81
267.752	71.81
267.984	82.81
268.216	80.81
268.448	85.81
268.681	84.81
268.913	64.81
269.145	76.81
269.377	78.81
269.609	84.81
269.841	83.81
270.073	83.81
270.306	75.81
270.538	79.81
270.77	77.81
271.002	92.81
271.234	81.81
271.466	75.81
271.698	76.81
271.93	77.81
272.162	64.81
272.394	85.81
272.626	83.81
272.858	73.81
273.09	77.81
273.322	66.81
273.553	67.81
273.785	64.81
274.017	72.81
274.249	84.81
274.481	85.81
274.713	69.81
274.945	82.81
275.176	83.81
275.408	81.81
275.64	88.81
275.872	89.81
276.104	83.81
276.335	77.81
276.567	76.81
276.799	77.81
277.031	90.81
277.262	91.81
277.494	67.81
277.726	82.81
277.957	76.81
278.189	80.81
278.421	87.81
278.652	71.81
278.884	81.81
279.115	77.81
279.347	77.81
279.579	74.81
279.81	101.81
280.042	103.81
280.273	108.81
280.505	100.81
280.736	84.81
280.968	79.81
281.199	84.81
281.431	90.81
281.662	71.81
281.894	84.81
282.125	79.81
282.356	89.81
282.588	102.81
282.819	73.81
283.051	98.81
283.282	99.81
283.513	104.81
283.745	88.81
283.976	83.81
284.207	82.81
284.439	82.81
284.67	82.81
284.901	85.81
285.132	80.81
285.364	92.81
285.595	81.81
285.826	85.81
286.057	73.81
286.288	68.81
286.52	91.81
286.751	76.81
286.982	85.81
287.213	96.81
287.444	103.81
287.675	92.81
287.906	77.81
288.138	72.81
288.369	84.81
288.6	87.81
288.831	91.81
289.062	75.81
289.293	65.81
289.524	76.81
289.755	66.81
289.986	63.81
290.217	87.81
290.448	81.81
290.679	75.81
290.91	79.81
291.141	75.81
291.371	80.81
291.602	79.81
291.833	80.81
292.064	74.81
292.295	77.81
292.526	75.81
292.757	87.81
292.987	84.81
293.218	86.81
293.449	81.81
293.68	81.81
293.91	84.81
294.141	79.81
294.372	77.81
294.603	63.81
294.833	80.81
295.064	86.81
295.295	81.81
295.525	77.81
295.756	75.81
295.987	74.81
296.217	81.81
296.448	71.81
296.679	75.81
296.909	89.81
297.14	75.81
297.37	75.81
297.601	82.81
297.831	66.81
298.062	83.81
298.292	82.81
298.523	99.81
298.753	78.81
298.984	83.81
299.214	85.81
299.445	72.81
299.675	81.81
299.905	83.81
300.136	71.81
300.366	81.81
300.597	83.81
300.827	77.81
301.057	77.81
301.288	63.81
301.518	66.81
301.748	85.81
301.979	102.81
302.209	73.81
302.439	79.81
302.669	84.81
302.9	72.81
303.13	77.81
303.36	79.81
303.59	81.81
303.82	65.81
304.051	76.81
304.281	71.81
304.511	88.81
304.741	84.81
304.971	81.81
305.201	90.81
305.431	77.81
305.661	85.81
305.891	81.81
306.121	85.81
306.352	84.81
306.582	92.81
306.812	70.81
307.042	81.81
307.272	81.81
307.502	83.81
307.731	75.81
307.961	81.81
308.191	64.81
308.421	80.81
308.651	62.81
308.881	89.81
309.111	85.81
309.341	75.81
309.571	83.81
309.8	95.81
310.03	79.81
310.26	79.81
310.49	71.81
310.72	72.81
310.949	80.81
311.179	71.81
311.409	73.81
311.639	84.81
311.868	70.81
312.098	80.81
312.328	75.81
312.557	69.81
312.787	71.81
313.017	73.81
313.246	84.81
313.476	84.81
313.706	95.81
313.935	97.81
314.165	86.81
314.394	76.81
314.624	77.81
314.853	76.81
315.083	87.81
315.312	74.81
315.542	82.81
315.771	70.81
316.001	89.81
316.23	87.81
316.46	80.81
316.689	76.81
316.919	73.81
317.148	69.81
317.377	75.81
317.607	77.81
317.836	71.81
318.065	79.81
318.295	68.81
318.524	69.81
318.753	74.81
318.983	80.81
319.212	73.81
319.441	83.81
319.67	84.81
319.9	108.81
320.129	84.81
320.358	92.81
320.587	83.81
320.816	77.81
321.046	63.81
321.275	66.81
321.504	86.81
321.733	72.81
321.962	70.81
322.191	81.81
322.42	79.81
322.649	78.81
322.878	94.81
323.108	84.81
323.337	78.81
323.566	75.81
323.795	75.81
324.024	82.81
324.253	92.81
324.482	80.81
324.71	82.81
324.939	83.81
325.168	79.81
325.397	87.81
325.626	84.81
325.855	82.81
326.084	84.81
326.313	87.81
326.542	87.81
326.77	86.81
326.999	79.81
327.228	71.81
327.457	59.81
327.686	80.81
327.914	79.81
328.143	79.81
328.372	85.81
328.6	85.81
328.829	66.81
329.058	74.81
329.287	91.81
329.515	69.81
329.744	87.81
329.972	81.81
330.201	85.81
330.43	82.81
330.658	78.81
330.887	83.81
331.115	84.81
331.344	81.81
331.572	75.81
331.801	88.81
332.03	75.81
332.258	76.81
332.486	84.81
332.715	81.81
332.943	75.81
333.172	84.81
333.4	88.81
333.629	73.81
333.857	85.81
334.085	82.81
334.314	75.81
334.542	66.81
334.771	88.81
334.999	78.81
335.227	65.81
335.455	71.81
335.684	85.81
335.912	78.81
336.14	74.81
336.369	92.81
336.597	77.81
336.825	86.81
337.053	67.81
337.281	80.81
337.51	85.81
337.738	80.81
337.966	64.81
338.194	80.81
338.422	73.81
338.65	79.81
338.878	77.81
339.106	73.81
339.334	82.81
339.562	61.81
339.79	63.81
340.018	65.81
340.246	76.81
340.474	79.81
340.702	62.81
340.93	72.81
341.158	65.81
341.386	92.81
341.614	92.81
341.842	69.81
342.07	75.81
342.298	84.81
342.526	73.81
342.754	76.81
342.981	82.81
343.209	76.81
343.437	84.81
343.665	64.81
343.893	79.81
344.12	79.81
344.348	84.81
344.576	75.81
344.804	82.81
345.031	77.81
345.259	71.81
345.487	81.81
345.714	70.81
345.942	74.81
346.17	65.81
346.397	83.81
346.625	73.81
346.853	87.81
347.08	72.81
347.308	75.81
347.535	76.81
347.763	75.81
347.99	82.81
348.218	73.81
348.445	87.81
348.673	79.81
348.9	84.81
349.128	81.81
349.355	77.81
349.583	87.81
349.81	84.81
350.037	79.81
350.265	72.81
350.492	88.81
350.72	81.81
350.947	73.81
351.174	83.81
351.402	80.81
351.629	87.81
351.856	84.81
352.083	83.81
352.311	75.81
352.538	72.81
352.765	72.81
352.992	77.81
353.22	72.81
353.447	86.81
353.674	77.81
353.901	72.81
354.128	72.81
354.355	75.81
354.583	84.81
354.81	70.81
355.037	83.81
355.264	79.81
355.491	76.81
355.718	67.81
355.945	88.81
356.172	76.81
356.399	79.81
356.626	75.81
356.853	100.81
357.08	131.81
357.307	151.81
357.534	138.81
357.761	80.81
357.988	82.81
358.215	69.81
358.441	78.81
358.668	91.81
358.895	68.81
359.122	84.81
359.349	86.81
359.576	85.81
359.802	77.81
360.029	65.81
360.256	88.81
360.483	73.81
360.709	76.81
360.936	78.81
361.163	81.81
361.39	80.81
361.616	71.81
361.843	79.81
362.07	91.81
362.296	78.81
362.523	77.81
362.749	75.81
362.976	83.81
363.203	92.81
363.429	99.81
363.656	132.81
363.882	171.81
364.109	189.81
364.335	122.81
364.562	84.81
364.788	84.81
365.015	84.81
365.241	98.81
365.468	88.81
365.694	79.81
365.92	75.81
366.147	85.81
366.373	80.81
366.599	86.81
366.826	94.81
367.052	110.81
367.278	112.81
367.505	100.81
367.731	104.81
367.957	141.81
368.184	183.81
368.41	252.81
368.636	181.81
368.862	111.81
369.089	79.81
369.315	81.81
369.541	74.81
369.767	76.81
369.993	80.81
370.219	73.81
370.445	73.81
370.672	81.81
370.898	93.81
371.124	77.81
371.35	71.81
371.576	72.81
371.802	68.81
372.028	81.81
372.254	78.81
372.48	96.81
372.706	73.81
372.932	74.81
373.158	79.81
373.384	92.81
373.61	99.81
373.835	121.81
374.061	123.81
374.287	121.81
374.513	89.81
374.739	91.81
374.965	80.81
375.191	76.81
375.416	77.81
375.642	72.81
375.868	76.81
376.094	70.81
376.319	71.81
376.545	82.81
376.771	75.81
376.997	76.81
377.222	84.81
377.448	68.81
377.674	77.81
377.899	78.81
378.125	71.81
378.35	88.81
378.576	90.81
378.802	95.81
379.027	72.81
379.253	76.81
379.478	76.81
379.704	87.81
379.929	79.81
380.155	68.81
380.38	83.81
380.606	88.81
380.831	76.81
381.057	73.81
381.282	65.81
381.507	67.81
381.733	84.81
381.958	72.81
382.184	79.81
382.409	67.81
382.634	67.81
382.86	75.81
383.085	74.81
383.31	79.81
383.535	72.81
383.761	85.81
383.986	72.81
384.211	80.81
384.436	67.81
384.662	92.81
384.887	75.81
385.112	71.81
385.337	96.81
385.562	69.81
385.787	93.81
386.013	79.81
386.238	83.81
386.463	78.81
386.688	72.81
386.913	70.81
387.138	85.81
387.363	77.81
387.588	58.81
387.813	69.81
388.038	84.81
388.263	79.81
388.488	73.81
388.713	75.81
388.938	53.81
389.163	80.81
389.387	58.81
389.612	75.81
389.837	76.81
390.062	73.81
390.287	79.81
390.512	80.81
390.736	79.81
390.961	82.81
391.186	76.81
391.411	62.81
391.636	81.81
391.86	83.81
392.085	83.81
392.31	73.81
392.534	71.81
392.759	72.81
392.984	76.81
393.208	81.81
393.433	81.81
393.658	84.81
393.882	78.81
394.107	72.81
394.331	72.81
394.556	65.81
394.78	80.81
395.005	89.81
395.229	78.81
395.454	81.81
395.678	77.81
395.903	69.81
396.127	77.81
396.352	89.81
396.576	71.81
396.801	74.81
397.025	77.81
397.249	95.81
397.474	77.81
397.698	74.81
397.922	88.81
398.147	75.81
398.371	90.81
398.595	80.81
398.82	75.81
399.044	72.81
399.268	89.81
399.492	73.81
399.717	80.81
399.941	83.81
400.165	87.81
400.389	82.81
400.613	83.81
400.837	64.81
401.062	76.81
401.286	85.81
401.51	76.81
401.734	78.81
401.958	111.81
402.182	99.81
402.406	86.81
402.63	69.81
402.854	52.81
403.078	93.81
403.302	81.81
403.526	99.81
403.75	79.81
403.974	89.81
404.198	88.81
404.422	92.81
404.645	85.81
404.869	92.81
405.093	93.81
405.317	115.81
405.541	195.81
405.765	344.81
405.988	380.81
406.212	196.81
406.436	131.81
406.66	91.81
406.883	81.81
407.107	87.81
407.331	68.81
407.555	92.81
407.778	81.81
408.002	74.81
408.226	79.81
408.449	94.81
408.673	77.81
408.896	86.81
409.12	70.81
409.344	79.81
409.567	69.81
409.791	81.81
410.014	76.81
410.238	82.81
410.461	68.81
410.685	70.81
410.908	84.81
411.132	73.81
411.355	82.81
411.578	76.81
411.802	67.81
412.025	72.81
412.249	63.81
412.472	85.81
412.695	90.81
412.919	87.81
413.142	86.81
413.365	60.81
413.589	66.81
413.812	61.81
414.035	81.81
414.258	79.81
414.482	67.81
414.705	78.81
414.928	78.81
415.151	79.81
415.374	81.81
415.597	84.81
415.821	87.81
416.044	82.81
416.267	74.81
416.49	82.81
416.713	75.81
416.936	85.81
417.159	86.81
417.382	72.81
417.605	62.81
417.828	73.81
418.051	88.81
418.274	72.81
418.497	70.81
418.72	71.81
418.943	83.81
419.166	67.81
419.389	76.81
419.611	73.81
419.834	80.81
420.057	77.81
420.28	68.81
420.503	72.81
420.726	89.81
420.948	79.81
421.171	85.81
421.394	83.81
421.617	79.81
421.839	85.81
422.062	72.81
422.285	72.81
422.507	74.81
422.73	67.81
422.953	67.81
423.175	69.81
423.398	65.81
423.621	82.81
423.843	80.81
424.066	83.81
424.288	78.81
424.511	96.81
424.733	83.81
424.956	81.81
425.178	85.81
425.401	73.81
425.623	78.81
425.846	65.81
426.068	71.81
426.291	83.81
426.513	68.81
426.735	68.81
426.958	67.81
427.18	78.81
427.402	81.81
427.625	85.81
427.847	72.81
428.069	77.81
428.292	72.81
428.514	82.81
428.736	69.81
428.958	63.81
429.181	77.81
429.403	78.81
429.625	75.81
429.847	69.81
430.069	80.81
430.292	75.81
430.514	75.81
430.736	76.81
430.958	85.81
431.18	80.81
431.402	66.81
431.624	66.81
431.846	85.81
432.068	72.81
432.29	72.81
432.512	82.81
432.734	71.81
432.956	74.81
433.178	96.81
433.4	56.81
433.622	69.81
433.844	69.81
434.066	84.81
434.287	76.81
434.509	82.81
434.731	67.81
434.953	81.81
435.175	86.81
435.397	88.81
435.618	73.81
435.84	80.81
436.062	86.81
436.284	68.81
436.505	71.81
436.727	72.81
436.949	70.81
437.17	70.81
437.392	72.81
437.614	82.81
437.835	75.81
438.057	72.81
438.278	87.81
438.5	76.81
438.721	82.81
438.943	69.81
439.165	84.81
439.386	71.81
439.608	73.81
439.829	83.81
440.05	77.81
440.272	84.81
440.493	73.81
440.715	79.81
440.936	81.81
441.158	69.81
441.379	68.81
441.6	85.81
441.822	80.81
442.043	74.81
442.264	70.81
442.486	85.81
442.707	85.81
442.928	64.81
443.149	73.81
443.371	75.81
443.592	83.81
443.813	73.81
444.034	89.81
444.255	83.81
444.476	73.81
444.698	75.81
444.919	78.81
445.14	149.81
445.361	121.81
445.582	73.81
445.803	82.81
446.024	84.81
446.245	88.81
446.466	85.81
446.687	72.81
446.908	75.81
447.129	76.81
447.35	81.81
447.571	65.81
447.792	80.81
448.013	85.81
448.234	79.81
448.455	74.81
448.675	96.81
448.896	79.81
449.117	81.81
449.338	84.81
449.559	76.81
449.779	69.81
450	72.81
450.221	77.81
450.442	82.81
450.662	75.81
450.883	81.81
451.104	71.81
451.324	75.81
451.545	83.81
451.766	92.81
451.986	80.81
452.207	74.81
452.428	80.81
452.648	91.81
452.869	75.81
453.089	79.81
453.31	75.81
453.53	67.81
453.751	69.81
453.971	80.81
454.192	74.81
454.412	75.81
454.633	76.81
454.853	79.81
455.073	69.81
455.294	73.81
455.514	75.81
455.734	90.81
455.955	81.81
456.175	81.81
456.395	73.81
456.616	81.81
456.836	91.81
457.056	79.81
457.276	72.81
457.497	79.81
457.717	80.81
457.937	72.81
458.157	83.81
458.377	78.81
458.598	85.81
458.818	71.81
459.038	82.81
459.258	65.81
459.478	75.81
459.698	78.81
459.918	73.81
460.138	68.81
460.358	79.81
460.578	77.81
460.798	87.81
461.018	77.81
461.238	82.81
461.458	85.81
461.678	75.81
461.898	64.81
462.118	72.81
462.338	84.81
462.558	82.81
462.777	69.81
462.997	72.81
463.217	70.81
463.437	83.81
463.657	80.81
463.876	75.81
464.096	75.81
464.316	74.81
464.536	89.81
464.755	88.81
464.975	70.81
465.195	93.81
465.414	83.81
465.634	77.81
465.854	70.81
466.073	81.81
466.293	78.81
466.512	74.81
466.732	71.81
466.951	71.81
467.171	80.81
467.391	78.81
467.61	83.81
467.829	69.81
468.049	79.81
468.268	75.81
468.488	86.81
468.707	59.81
468.927	75.81
469.146	72.81
469.365	60.81
469.585	81.81
469.804	91.81
470.023	82.81
470.243	98.81
470.462	83.81
470.681	80.81
470.901	80.81
471.12	75.81
471.339	75.81
471.558	70.81
471.777	79.81
471.997	69.81
472.216	72.81
472.435	76.81
472.654	75.81
472.873	69.81
473.092	81.81
473.311	87.81
473.53	60.81
473.749	69.81
473.968	80.81
474.187	74.81
474.406	81.81
474.625	67.81
474.844	80.81
475.063	73.81
475.282	74.81
475.501	74.81
475.72	77.81
475.939	73.81
476.158	84.81
476.377	77.81
476.596	81.81
476.814	75.81
477.033	85.81
477.252	82.81
477.471	68.81
477.69	88.81
477.908	80.81
478.127	73.81
478.346	62.81
478.564	81.81
478.783	100.81
479.002	85.81
479.22	79.81
479.439	74.81
479.658	81.81
479.876	71.81
480.095	71.81
480.313	92.81
480.532	80.81
480.751	69.81
480.969	60.81
481.188	85.81
481.406	82.81
481.624	91.81
481.843	83.81
482.061	87.81
482.28	81.81
482.498	81.81
482.717	72.81
482.935	76.81
483.153	73.81
483.372	90.81
483.59	81.81
483.808	95.81
484.027	97.81
484.245	77.81
484.463	73.81
484.681	80.81
484.9	84.81
485.118	79.81
485.336	65.81
485.554	74.81
485.772	93.81
485.99	79.81
486.209	83.81
486.427	79.81
486.645	61.81
486.863	79.81
487.081	84.81
487.299	70.81
487.517	97.81
487.735	83.81
487.953	81.81
488.171	77.81
488.389	84.81
488.607	76.81
488.825	70.81
489.043	76.81
489.261	66.81
489.479	79.81
489.696	65.81
489.914	76.81
490.132	80.81
490.35	87.81
490.568	81.81
490.786	78.81
491.003	89.81
491.221	91.81
491.439	82.81
491.657	88.81
491.874	76.81
492.092	78.81
492.31	87.81
492.527	93.81
492.745	73.81
492.963	85.81
493.18	79.81
493.398	89.81
493.615	83.81
493.833	77.81
494.05	76.81
494.268	76.81
494.485	79.81
494.703	86.81
494.92	72.81
495.138	83.81
495.355	80.81
495.573	89.81
495.79	84.81
496.008	85.81
496.225	79.81
496.442	85.81
496.66	78.81
496.877	89.81
497.094	96.81
497.312	84.81
497.529	67.81
497.746	85.81
497.963	79.81
498.181	76.81
498.398	79.81
498.615	80.81
498.832	79.81
499.049	82.81
499.267	85.81
499.484	62.81
499.701	68.81
499.918	70.81
500.135	81.81
500.352	72.81
500.569	106.81
500.786	143.81
501.003	93.81
501.22	79.81
501.437	81.81
501.654	87.81
501.871	75.81
502.088	80.81
502.305	78.81
502.522	82.81
502.739	83.81
502.956	82.81
503.172	79.81
503.389	88.81
503.606	86.81
503.823	82.81
504.04	67.81
504.256	78.81
504.473	80.81
504.69	89.81
504.907	84.81
505.123	76.81
505.34	79.81
505.557	72.81
505.773	70.81
505.99	75.81
506.207	92.81
506.423	91.81
506.64	87.81
506.856	68.81
507.073	89.81
507.289	80.81
507.506	66.81
507.722	64.81
507.939	80.81
508.155	74.81
508.372	80.81
508.588	80.81
508.805	68.81
509.021	84.81
509.238	79.81
509.454	69.81
509.67	81.81
509.887	80.81
510.103	73.81
510.319	85.81
510.536	93.81
510.752	82.81
510.968	75.81
511.184	75.81
511.401	68.81
511.617	90.81
511.833	81.81
512.049	55.81
512.265	79.81
512.481	92.81
512.698	84.81
512.914	79.81
513.13	81.81
513.346	71.81
513.562	68.81
513.778	77.81
513.994	72.81
514.21	64.81
514.426	79.81
514.642	81.81
514.858	83.81
515.074	71.81
515.29	81.81
515.506	75.81
515.721	85.81
515.937	77.81
516.153	79.81
516.369	73.81
516.585	65.81
516.801	68.81
517.016	79.81
517.232	77.81
517.448	92.81
517.664	77.81
517.879	73.81
518.095	75.81
518.311	99.81
518.527	78.81
518.742	81.81
518.958	70.81
519.173	79.81
519.389	86.81
519.605	75.81
519.82	73.81
