Data from StdB_HRD10591_039.txt Node
Date: Fri May 16 15:25:05 EDT 2025
User: Yrep
Spectrometer: HR+D1059
Trigger mode: 1
Integration Time (sec): 1.000000E-1
Scans to average: 1
Electric dark correction enabled: true
Nonlinearity correction enabled: false
Boxcar width: 0
XAxis mode: Wavelengths
Number of Pixels in Spectrum: 2048
>>>>>Begin Spectral Data<<<<<
223.165	-18
223.4	-18
223.635	-18
223.869	-25
224.104	-21
224.338	-14
224.573	-11
224.808	-12
225.042	-7
225.277	3
225.511	9
225.746	7
225.98	4
226.215	4
226.449	11
226.683	17
226.918	23
227.152	30
227.387	25
227.621	28
227.856	33
228.09	55
228.324	40
228.559	48
228.793	43
229.027	65
229.262	70
229.496	68
229.73	82
229.964	88
230.199	88
230.433	66
230.667	90
230.901	83
231.136	82
231.37	91
231.604	83
231.838	101
232.072	90
232.306	82
232.541	84
232.775	81
233.009	94
233.243	85
233.477	86
233.711	95
233.945	99
234.179	86
234.413	95
234.647	88
234.881	94
235.115	90
235.349	112
235.583	105
235.817	84
236.051	86
236.285	98
236.519	93
236.753	84
236.987	86
237.221	73
237.455	80
237.689	73
237.922	91
238.156	88
238.39	81
238.624	81
238.858	78
239.091	98
239.325	100
239.559	115
239.793	118
240.027	109
240.26	102
240.494	109
240.728	106
240.961	94
241.195	100
241.429	102
241.662	93
241.896	102
242.13	96
242.363	93
242.597	100
242.83	83
243.064	89
243.298	105
243.531	101
243.765	105
243.998	102
244.232	100
244.465	101
244.699	114
244.932	106
245.166	114
245.399	98
245.633	102
245.866	109
246.099	86
246.333	100
246.566	103
246.8	106
247.033	99
247.266	106
247.5	127
247.733	116
247.966	124
248.2	131
248.433	112
248.666	98
248.899	102
249.133	121
249.366	101
249.599	110
249.832	105
250.066	102
250.299	113
250.532	92
250.765	109
250.998	104
251.231	119
251.465	127
251.698	122
251.931	124
252.164	128
252.397	133
252.63	138
252.863	132
253.096	136
253.329	135
253.562	147
253.795	142
254.028	151
254.261	145
254.494	143
254.727	147
254.96	146
255.193	134
255.426	127
255.659	118
255.892	146
256.124	122
256.357	137
256.59	150
256.823	128
257.056	130
257.289	143
257.521	154
257.754	173
257.987	180
258.22	172
258.452	156
258.685	143
258.918	149
259.151	157
259.383	151
259.616	136
259.849	142
260.081	164
260.314	161
260.547	151
260.779	184
261.012	211
261.244	241
261.477	316
261.71	336
261.942	242
262.175	192
262.407	153
262.64	156
262.872	157
263.105	164
263.337	153
263.57	147
263.802	178
264.035	146
264.267	158
264.499	141
264.732	158
264.964	171
265.197	197
265.429	177
265.661	138
265.894	153
266.126	180
266.358	214
266.591	243
266.823	198
267.055	166
267.287	153
267.52	138
267.752	138
267.984	137
268.216	137
268.448	129
268.681	125
268.913	141
269.145	136
269.377	150
269.609	141
269.841	150
270.073	150
270.306	134
270.538	151
270.77	130
271.002	126
271.234	136
271.466	137
271.698	140
271.93	137
272.162	137
272.394	147
272.626	139
272.858	136
273.09	150
273.322	135
273.553	151
273.785	147
274.017	117
274.249	141
274.481	136
274.713	128
274.945	135
275.176	134
275.408	133
275.64	131
275.872	144
276.104	135
276.335	148
276.567	150
276.799	141
277.031	140
277.262	154
277.494	149
277.726	157
277.957	162
278.189	146
278.421	166
278.652	166
278.884	186
279.115	211
279.347	220
279.579	262
279.81	335
280.042	413
280.273	520
280.505	445
280.736	310
280.968	232
281.199	215
281.431	214
281.662	207
281.894	210
282.125	244
282.356	283
282.588	275
282.819	250
283.051	280
283.282	359
283.513	413
283.745	323
283.976	253
284.207	192
284.439	198
284.67	164
284.901	168
285.132	172
285.364	174
285.595	185
285.826	199
286.057	183
286.288	178
286.52	170
286.751	203
286.982	234
287.213	275
287.444	340
287.675	274
287.906	199
288.138	172
288.369	164
288.6	160
288.831	163
289.062	165
289.293	153
289.524	154
289.755	147
289.986	146
290.217	156
290.448	155
290.679	139
290.91	158
291.141	151
291.371	163
291.602	162
291.833	150
292.064	139
292.295	144
292.526	162
292.757	148
292.987	145
293.218	150
293.449	155
293.68	166
293.91	154
294.141	157
294.372	178
294.603	175
294.833	173
295.064	173
295.295	160
295.525	165
295.756	169
295.987	163
296.217	156
296.448	167
296.679	167
296.909	193
297.14	176
297.37	173
297.601	162
297.831	176
298.062	178
298.292	166
298.523	158
298.753	153
298.984	157
299.214	145
299.445	180
299.675	167
299.905	185
300.136	181
300.366	171
300.597	178
300.827	180
301.057	160
301.288	164
301.518	168
301.748	167
301.979	198
302.209	184
302.439	198
302.669	178
302.9	183
303.13	163
303.36	191
303.59	178
303.82	179
304.051	192
304.281	178
304.511	178
304.741	180
304.971	190
305.201	168
305.431	178
305.661	170
305.891	159
306.121	175
306.352	184
306.582	180
306.812	154
307.042	164
307.272	164
307.502	163
307.731	186
307.961	162
308.191	178
308.421	187
308.651	182
308.881	170
309.111	164
309.341	168
309.571	186
309.8	182
310.03	156
310.26	165
310.49	182
310.72	183
310.949	181
311.179	161
311.409	166
311.639	191
311.868	200
312.098	198
312.328	186
312.557	185
312.787	213
313.017	192
313.246	209
313.476	200
313.706	207
313.935	225
314.165	222
314.394	220
314.624	210
314.853	212
315.083	202
315.312	211
315.542	207
315.771	210
316.001	186
316.23	202
316.46	216
316.689	207
316.919	202
317.148	208
317.377	212
317.607	203
317.836	195
318.065	203
318.295	205
318.524	200
318.753	194
318.983	198
319.212	198
319.441	188
319.67	192
319.9	190
320.129	198
320.358	201
320.587	178
320.816	184
321.046	186
321.275	190
321.504	178
321.733	180
321.962	188
322.191	193
322.42	205
322.649	190
322.878	202
323.108	185
323.337	165
323.566	169
323.795	202
324.024	188
324.253	200
324.482	185
324.71	186
324.939	180
325.168	189
325.397	194
325.626	184
325.855	198
326.084	185
326.313	221
326.542	188
326.77	186
326.999	181
327.228	183
327.457	173
327.686	196
327.914	191
328.143	212
328.372	191
328.6	198
328.829	183
329.058	199
329.287	189
329.515	184
329.744	186
329.972	194
330.201	207
330.43	204
330.658	194
330.887	198
331.115	203
331.344	203
331.572	190
331.801	199
332.03	198
332.258	191
332.486	178
332.715	196
332.943	191
333.172	204
333.4	192
333.629	196
333.857	198
334.085	200
334.314	217
334.542	202
334.771	190
334.999	189
335.227	194
335.455	197
335.684	190
335.912	199
336.14	198
336.369	175
336.597	196
336.825	188
337.053	202
337.281	192
337.51	174
337.738	185
337.966	189
338.194	185
338.422	180
338.65	203
338.878	189
339.106	174
339.334	183
339.562	185
339.79	189
340.018	195
340.246	191
340.474	196
340.702	193
340.93	195
341.158	186
341.386	183
341.614	181
341.842	201
342.07	182
342.298	198
342.526	206
342.754	198
342.981	175
343.209	208
343.437	204
343.665	175
343.893	193
344.12	211
344.348	200
344.576	199
344.804	186
345.031	196
345.259	199
345.487	193
345.714	174
345.942	190
346.17	197
346.397	200
346.625	192
346.853	188
347.08	196
347.308	172
347.535	173
347.763	190
347.99	176
348.218	187
348.445	191
348.673	213
348.9	204
349.128	190
349.355	187
349.583	176
349.81	188
350.037	192
350.265	200
350.492	184
350.72	186
350.947	183
351.174	190
351.402	205
351.629	188
351.856	176
352.083	179
352.311	185
352.538	195
352.765	200
352.992	207
353.22	191
353.447	209
353.674	198
353.901	194
354.128	196
354.355	200
354.583	218
354.81	200
355.037	202
355.264	213
355.491	212
355.718	218
355.945	221
356.172	199
356.399	230
356.626	242
356.853	326
357.08	445
357.307	560
357.534	576
357.761	388
357.988	323
358.215	290
358.441	285
358.668	246
358.895	234
359.122	242
359.349	224
359.576	205
359.802	206
360.029	227
360.256	209
360.483	219
360.709	203
360.936	222
361.163	190
361.39	211
361.616	208
361.843	193
362.07	211
362.296	214
362.523	204
362.749	240
362.976	242
363.203	267
363.429	330
363.656	432
363.882	619
364.109	738
364.335	519
364.562	341
364.788	277
365.015	247
365.241	254
365.468	222
365.694	227
365.92	236
366.147	217
366.373	241
366.599	256
366.826	276
367.052	314
367.278	351
367.505	319
367.731	365
367.957	488
368.184	739
368.41	987
368.636	834
368.862	502
369.089	379
369.315	310
369.541	283
369.767	264
369.993	250
370.219	247
370.445	239
370.672	228
370.898	228
371.124	238
371.35	236
371.576	227
371.802	228
372.028	223
372.254	238
372.48	221
372.706	223
372.932	231
373.158	251
373.384	266
373.61	343
373.835	476
374.061	613
374.287	541
374.513	381
374.739	284
374.965	266
375.191	249
375.416	246
375.642	237
375.868	222
376.094	203
376.319	235
376.545	193
376.771	203
376.997	220
377.222	219
377.448	219
377.674	209
377.899	222
378.125	234
378.35	230
378.576	220
378.802	228
379.027	212
379.253	230
379.478	216
379.704	199
379.929	210
380.155	202
380.38	213
380.606	216
380.831	215
381.057	208
381.282	220
381.507	206
381.733	215
381.958	223
382.184	219
382.409	194
382.634	218
382.86	216
383.085	214
383.31	204
383.535	218
383.761	220
383.986	208
384.211	230
384.436	224
384.662	220
384.887	239
385.112	235
385.337	229
385.562	225
385.787	201
386.013	224
386.238	217
386.463	232
386.688	202
386.913	207
387.138	220
387.363	230
387.588	216
387.813	211
388.038	221
388.263	226
388.488	206
388.713	221
388.938	218
389.163	197
389.387	216
389.612	211
389.837	222
390.062	228
390.287	189
390.512	204
390.736	217
390.961	213
391.186	205
391.411	206
391.636	222
391.86	221
392.085	223
392.31	226
392.534	227
392.759	211
392.984	220
393.208	221
393.433	209
393.658	217
393.882	208
394.107	217
394.331	217
394.556	219
394.78	214
395.005	233
395.229	206
395.454	213
395.678	230
395.903	220
396.127	214
396.352	230
396.576	214
396.801	212
397.025	216
397.249	227
397.474	238
397.698	224
397.922	229
398.147	220
398.371	230
398.595	215
398.82	232
399.044	239
399.268	253
399.492	266
399.717	267
399.941	252
400.165	255
400.389	263
400.613	261
400.837	255
401.062	248
401.286	243
401.51	234
401.734	274
401.958	291
402.182	308
402.406	267
402.63	257
402.854	239
403.078	244
403.302	258
403.526	250
403.75	256
403.974	265
404.198	294
404.422	300
404.645	298
404.869	320
405.093	372
405.317	488
405.541	794
405.765	1375
405.988	1550
406.212	1002
406.436	679
406.66	464
406.883	392
407.107	380
407.331	335
407.555	324
407.778	310
408.002	299
408.226	278
408.449	275
408.673	264
408.896	258
409.12	276
409.344	276
409.567	252
409.791	250
410.014	254
410.238	240
410.461	250
410.685	255
410.908	253
411.132	248
411.355	255
411.578	254
411.802	236
412.025	249
412.249	221
412.472	253
412.695	249
412.919	238
413.142	246
413.365	244
413.589	231
413.812	240
414.035	237
414.258	244
414.482	214
414.705	244
414.928	232
415.151	242
415.374	242
415.597	239
415.821	244
416.044	231
416.267	231
416.49	249
416.713	271
416.936	266
417.159	243
417.382	238
417.605	230
417.828	230
418.051	251
418.274	246
418.497	268
418.72	247
418.943	238
419.166	243
419.389	244
419.611	257
419.834	240
420.057	238
420.28	235
420.503	230
420.726	248
420.948	239
421.171	259
421.394	269
421.617	256
421.839	255
422.062	266
422.285	267
422.507	263
422.73	287
422.953	315
423.175	308
423.398	305
423.621	333
423.843	379
424.066	411
424.288	499
424.511	651
424.733	683
424.956	603
425.178	523
425.401	430
425.623	395
425.846	367
426.068	356
426.291	334
426.513	317
426.735	317
426.958	317
427.18	279
427.402	292
427.625	275
427.847	262
428.069	260
428.292	264
428.514	259
428.736	245
428.958	262
429.181	261
429.403	246
429.625	246
429.847	235
430.069	248
430.292	250
430.514	247
430.736	228
430.958	257
431.18	253
431.402	247
431.624	232
431.846	239
432.068	228
432.29	245
432.512	255
432.734	249
432.956	240
433.178	263
433.4	259
433.622	259
433.844	251
434.066	267
434.287	280
434.509	287
434.731	264
434.953	268
435.175	237
435.397	261
435.618	252
435.84	247
436.062	252
436.284	258
436.505	264
436.727	286
436.949	258
437.17	284
437.392	296
437.614	310
437.835	339
438.057	367
438.278	394
438.5	476
438.721	575
438.943	620
439.165	541
439.386	468
439.608	415
439.829	403
440.05	368
440.272	364
440.493	399
440.715	421
440.936	469
441.158	443
441.379	394
441.6	357
441.822	326
442.043	300
442.264	307
442.486	296
442.707	292
442.928	277
443.149	276
443.371	261
443.592	250
443.813	268
444.034	251
444.255	279
444.476	266
444.698	270
444.919	253
445.14	321
445.361	280
445.582	252
445.803	244
446.024	255
446.245	260
446.466	253
446.687	244
446.908	222
447.129	230
447.35	228
447.571	210
447.792	228
448.013	228
448.234	219
448.455	233
448.675	221
448.896	212
449.117	221
449.338	222
449.559	242
449.779	217
450	225
450.221	234
450.442	208
450.662	214
450.883	216
451.104	218
451.324	220
451.545	237
451.766	228
451.986	204
452.207	205
452.428	216
452.648	208
452.869	213
453.089	216
453.31	207
453.53	213
453.751	202
453.971	208
454.192	207
454.412	204
454.633	209
454.853	215
455.073	217
455.294	210
455.514	196
455.734	206
455.955	207
456.175	199
456.395	215
456.616	196
456.836	197
457.056	197
457.276	187
457.497	204
457.717	211
457.937	200
458.157	219
458.377	206
458.598	209
458.818	213
459.038	191
459.258	202
459.478	202
459.698	194
459.918	211
460.138	219
460.358	211
460.578	215
460.798	228
461.018	234
461.238	221
461.458	222
461.678	205
461.898	236
462.118	236
462.338	232
462.558	226
462.777	227
462.997	238
463.217	236
463.437	254
463.657	246
463.876	230
464.096	227
464.316	220
464.536	236
464.755	224
464.975	236
465.195	234
465.414	217
465.634	192
465.854	228
466.073	203
466.293	197
466.512	216
466.732	213
466.951	221
467.171	214
467.391	212
467.61	199
467.829	216
468.049	202
468.268	209
468.488	210
468.707	197
468.927	209
469.146	210
469.365	196
469.585	211
469.804	205
470.023	214
470.243	222
470.462	204
470.681	212
470.901	211
471.12	192
471.339	206
471.558	216
471.777	200
471.997	204
472.216	212
472.435	204
472.654	211
472.873	220
473.092	208
473.311	198
473.53	214
473.749	210
473.968	200
474.187	208
474.406	209
474.625	217
474.844	216
475.063	225
475.282	195
475.501	224
475.72	230
475.939	232
476.158	242
476.377	230
476.596	207
476.814	216
477.033	219
477.252	218
477.471	232
477.69	232
477.908	245
478.127	234
478.346	252
478.564	250
478.783	253
479.002	259
479.22	258
479.439	242
479.658	240
479.876	253
480.095	270
480.313	247
480.532	252
480.751	248
480.969	248
481.188	236
481.406	255
481.624	231
481.843	234
482.061	234
482.28	239
482.498	249
482.717	239
482.935	243
483.153	235
483.372	238
483.59	242
483.808	231
484.027	233
484.245	243
484.463	234
484.681	246
484.9	262
485.118	246
485.336	246
485.554	250
485.772	256
485.99	255
486.209	243
486.427	256
486.645	251
486.863	238
487.081	235
487.299	248
487.517	234
487.735	238
487.953	244
488.171	246
488.389	259
488.607	266
488.825	230
489.043	259
489.261	262
489.479	262
489.696	252
489.914	236
490.132	243
490.35	255
490.568	238
490.786	253
491.003	259
491.221	245
491.439	244
491.657	251
491.874	258
492.092	261
492.31	262
492.527	241
492.745	268
492.963	265
493.18	243
493.398	256
493.615	277
493.833	274
494.05	262
494.268	256
494.485	246
494.703	238
494.92	254
495.138	268
495.355	285
495.573	284
495.79	291
496.008	271
496.225	268
496.442	273
496.66	281
496.877	280
497.094	271
497.312	290
497.529	266
497.746	274
497.963	282
498.181	283
498.398	287
498.615	286
498.832	306
499.049	316
499.267	340
499.484	343
499.701	363
499.918	349
500.135	394
500.352	407
500.569	469
500.786	518
501.003	448
501.22	413
501.437	376
501.654	358
501.871	338
502.088	318
502.305	323
502.522	325
502.739	331
502.956	338
503.172	317
503.389	341
503.606	314
503.823	327
504.04	334
504.256	363
504.473	349
504.69	368
504.907	356
505.123	335
505.34	328
505.557	302
505.773	313
505.99	308
506.207	294
506.423	296
506.64	315
506.856	307
507.073	294
507.289	276
507.506	287
507.722	281
507.939	265
508.155	267
508.372	276
508.588	271
508.805	265
509.021	264
509.238	255
509.454	246
509.67	281
509.887	257
510.103	247
510.319	258
510.536	240
510.752	248
510.968	254
511.184	250
511.401	244
511.617	242
511.833	253
512.049	236
512.265	245
512.481	231
512.698	247
512.914	261
513.13	239
513.346	238
513.562	255
513.778	238
513.994	237
514.21	242
514.426	231
514.642	253
514.858	246
515.074	248
515.29	254
515.506	265
515.721	282
515.937	268
516.153	256
516.369	250
516.585	269
516.801	264
517.016	271
517.232	258
517.448	268
517.664	264
517.879	256
518.095	253
518.311	260
518.527	252
518.742	254
518.958	260
519.173	236
519.389	250
519.605	255
519.82	242
520.036	278
520.251	299
520.467	280
520.682	244
520.898	257
521.113	244
521.329	241
521.544	226
521.76	244
521.975	243
522.19	254
522.406	292
522.621	294
522.836	304
523.052	315
523.267	278
523.482	259
523.698	254
523.913	239
524.128	247
524.343	229
524.559	246
524.774	230
524.989	234
525.204	234
525.419	224
525.634	229
525.849	235
526.064	240
526.28	228
526.495	214
526.71	221
526.925	237
527.14	232
527.355	224
527.57	215
527.785	218
527.999	241
528.214	237
528.429	239
528.644	226
528.859	230
529.074	227
529.289	237
529.503	221
529.718	252
529.933	250
530.148	252
530.363	238
530.577	238
530.792	236
531.007	239
531.221	220
531.436	224
531.651	236
531.865	228
532.08	226
532.295	247
532.509	244
532.724	264
532.938	263
533.153	256
533.367	249
533.582	246
533.796	243
534.011	231
534.225	236
534.44	242
534.654	250
534.868	242
535.083	238
535.297	255
535.511	267
535.726	257
535.94	266
536.154	257
536.369	282
536.583	276
536.797	335
537.011	340
537.225	414
537.44	471
537.654	440
537.868	399
538.082	360
538.296	351
538.51	340
538.724	320
538.938	295
539.153	284
539.367	267
539.581	267
539.795	265
540.009	279
540.222	278
540.436	253
540.65	252
540.864	250
541.078	243
541.292	234
541.506	220
541.72	256
541.934	232
542.147	250
542.361	223
542.575	246
542.789	226
543.002	224
543.216	233
543.43	212
543.644	214
543.857	224
544.071	220
544.285	222
544.498	229
544.712	214
544.925	224
545.139	229
545.352	216
545.566	224
545.779	215
545.993	220
546.206	230
546.42	215
546.633	230
546.847	235
547.06	224
547.274	216
547.487	228
547.7	219
547.914	214
548.127	214
548.34	212
548.554	237
548.767	239
548.98	229
549.193	221
549.407	224
549.62	219
549.833	231
550.046	212
550.259	232
550.473	230
550.686	216
550.899	242
551.112	244
551.325	221
551.538	214
551.751	229
551.964	243
552.177	234
552.39	223
552.603	247
552.816	251
553.029	223
553.242	264
553.455	244
553.667	251
553.88	251
554.093	277
554.306	272
554.519	300
554.732	318
554.944	309
555.157	310
555.37	301
555.583	290
555.795	293
556.008	288
556.221	252
556.433	250
556.646	270
556.859	273
557.071	275
557.284	259
557.496	278
557.709	256
557.921	267
558.134	274
558.346	283
558.559	279
558.771	292
558.984	308
559.196	301
559.409	326
559.621	364
559.833	371
560.046	407
560.258	457
560.47	572
560.683	683
560.895	922
561.107	1056
561.32	743
561.532	541
561.744	436
561.956	368
562.168	331
562.381	330
562.593	303
562.805	276
563.017	294
563.229	280
563.441	253
563.653	249
563.865	240
564.077	236
564.289	232
564.501	238
564.713	224
564.925	251
565.137	228
565.349	234
