Data from StdB_HRD10591_032.txt Node
Date: Fri May 16 15:25:02 EDT 2025
User: Yrep
Spectrometer: HR+D1059
Trigger mode: 1
Integration Time (sec): 1.000000E-1
Scans to average: 1
Electric dark correction enabled: true
Nonlinearity correction enabled: false
Boxcar width: 0
XAxis mode: Wavelengths
Number of Pixels in Spectrum: 2048
>>>>>Begin Spectral Data<<<<<
223.165	-25.19
223.4	-25.19
223.635	-25.19
223.869	-12.19
224.104	-8.19
224.338	-18.19
224.573	-9.19
224.808	-24.19
225.042	-11.19
225.277	1.81
225.511	-10.19
225.746	-8.19
225.98	6.81
226.215	20.81
226.449	14.81
226.683	24.81
226.918	35.81
227.152	21.81
227.387	36.81
227.621	28.81
227.856	47.81
228.09	42.81
228.324	57.81
228.559	69.81
228.793	61.81
229.027	69.81
229.262	56.81
229.496	75.81
229.73	68.81
229.964	69.81
230.199	71.81
230.433	65.81
230.667	71.81
230.901	85.81
231.136	61.81
231.37	80.81
231.604	69.81
231.838	78.81
232.072	82.81
232.306	87.81
232.541	86.81
232.775	87.81
233.009	54.81
233.243	79.81
233.477	72.81
233.711	86.81
233.945	57.81
234.179	77.81
234.413	83.81
234.647	64.81
234.881	73.81
235.115	77.81
235.349	83.81
235.583	75.81
235.817	74.81
236.051	65.81
236.285	75.81
236.519	84.81
236.753	73.81
236.987	61.81
237.221	90.81
237.455	84.81
237.689	75.81
237.922	69.81
238.156	73.81
238.39	81.81
238.624	77.81
238.858	66.81
239.091	87.81
239.325	87.81
239.559	76.81
239.793	77.81
240.027	85.81
240.26	82.81
240.494	77.81
240.728	86.81
240.961	71.81
241.195	65.81
241.429	93.81
241.662	82.81
241.896	66.81
242.13	84.81
242.363	71.81
242.597	67.81
242.83	80.81
243.064	66.81
243.298	75.81
243.531	80.81
243.765	87.81
243.998	83.81
244.232	81.81
244.465	92.81
244.699	77.81
244.932	86.81
245.166	72.81
245.399	76.81
245.633	86.81
245.866	72.81
246.099	80.81
246.333	83.81
246.566	71.81
246.8	65.81
247.033	77.81
247.266	67.81
247.5	79.81
247.733	86.81
247.966	72.81
248.2	83.81
248.433	73.81
248.666	68.81
248.899	83.81
249.133	71.81
249.366	77.81
249.599	79.81
249.832	82.81
250.066	91.81
250.299	99.81
250.532	91.81
250.765	76.81
250.998	83.81
251.231	64.81
251.465	85.81
251.698	81.81
251.931	81.81
252.164	81.81
252.397	79.81
252.63	86.81
252.863	71.81
253.096	79.81
253.329	81.81
253.562	82.81
253.795	81.81
254.028	87.81
254.261	89.81
254.494	76.81
254.727	90.81
254.96	89.81
255.193	69.81
255.426	82.81
255.659	81.81
255.892	83.81
256.124	92.81
256.357	84.81
256.59	73.81
256.823	79.81
257.056	90.81
257.289	85.81
257.521	79.81
257.754	74.81
257.987	79.81
258.22	89.81
258.452	75.81
258.685	76.81
258.918	89.81
259.151	96.81
259.383	83.81
259.616	91.81
259.849	80.81
260.081	90.81
260.314	66.81
260.547	70.81
260.779	74.81
261.012	86.81
261.244	90.81
261.477	105.81
261.71	117.81
261.942	91.81
262.175	91.81
262.407	72.81
262.64	80.81
262.872	99.81
263.105	87.81
263.337	87.81
263.57	84.81
263.802	77.81
264.035	87.81
264.267	86.81
264.499	82.81
264.732	104.81
264.964	83.81
265.197	95.81
265.429	100.81
265.661	87.81
265.894	85.81
266.126	95.81
266.358	78.81
266.591	90.81
266.823	78.81
267.055	69.81
267.287	78.81
267.52	85.81
267.752	77.81
267.984	82.81
268.216	89.81
268.448	73.81
268.681	85.81
268.913	88.81
269.145	69.81
269.377	74.81
269.609	84.81
269.841	92.81
270.073	104.81
270.306	89.81
270.538	77.81
270.77	76.81
271.002	83.81
271.234	82.81
271.466	85.81
271.698	88.81
271.93	75.81
272.162	72.81
272.394	103.81
272.626	87.81
272.858	77.81
273.09	90.81
273.322	75.81
273.553	72.81
273.785	70.81
274.017	68.81
274.249	82.81
274.481	90.81
274.713	86.81
274.945	90.81
275.176	81.81
275.408	62.81
275.64	73.81
275.872	89.81
276.104	94.81
276.335	89.81
276.567	71.81
276.799	80.81
277.031	77.81
277.262	79.81
277.494	84.81
277.726	83.81
277.957	81.81
278.189	87.81
278.421	85.81
278.652	84.81
278.884	88.81
279.115	88.81
279.347	79.81
279.579	89.81
279.81	102.81
280.042	116.81
280.273	131.81
280.505	101.81
280.736	96.81
280.968	88.81
281.199	78.81
281.431	71.81
281.662	84.81
281.894	77.81
282.125	100.81
282.356	92.81
282.588	94.81
282.819	100.81
283.051	87.81
283.282	107.81
283.513	117.81
283.745	105.81
283.976	104.81
284.207	84.81
284.439	90.81
284.67	96.81
284.901	71.81
285.132	77.81
285.364	74.81
285.595	72.81
285.826	74.81
286.057	72.81
286.288	82.81
286.52	73.81
286.751	72.81
286.982	90.81
287.213	115.81
287.444	113.81
287.675	91.81
287.906	92.81
288.138	87.81
288.369	78.81
288.6	83.81
288.831	67.81
289.062	86.81
289.293	83.81
289.524	93.81
289.755	88.81
289.986	87.81
290.217	84.81
290.448	83.81
290.679	99.81
290.91	85.81
291.141	88.81
291.371	84.81
291.602	73.81
291.833	84.81
292.064	80.81
292.295	83.81
292.526	85.81
292.757	76.81
292.987	91.81
293.218	80.81
293.449	89.81
293.68	88.81
293.91	67.81
294.141	86.81
294.372	80.81
294.603	83.81
294.833	85.81
295.064	78.81
295.295	82.81
295.525	79.81
295.756	94.81
295.987	100.81
296.217	78.81
296.448	81.81
296.679	88.81
296.909	96.81
297.14	79.81
297.37	83.81
297.601	73.81
297.831	85.81
298.062	83.81
298.292	98.81
298.523	88.81
298.753	94.81
298.984	87.81
299.214	84.81
299.445	75.81
299.675	78.81
299.905	84.81
300.136	93.81
300.366	79.81
300.597	68.81
300.827	80.81
301.057	83.81
301.288	73.81
301.518	87.81
301.748	82.81
301.979	90.81
302.209	75.81
302.439	76.81
302.669	83.81
302.9	88.81
303.13	84.81
303.36	75.81
303.59	76.81
303.82	88.81
304.051	79.81
304.281	86.81
304.511	65.81
304.741	71.81
304.971	79.81
305.201	89.81
305.431	80.81
305.661	81.81
305.891	65.81
306.121	91.81
306.352	93.81
306.582	83.81
306.812	94.81
307.042	95.81
307.272	94.81
307.502	85.81
307.731	75.81
307.961	76.81
308.191	88.81
308.421	90.81
308.651	84.81
308.881	86.81
309.111	95.81
309.341	75.81
309.571	80.81
309.8	88.81
310.03	90.81
310.26	80.81
310.49	92.81
310.72	71.81
310.949	84.81
311.179	83.81
311.409	77.81
311.639	79.81
311.868	69.81
312.098	89.81
312.328	76.81
312.557	75.81
312.787	80.81
313.017	80.81
313.246	71.81
313.476	84.81
313.706	93.81
313.935	84.81
314.165	82.81
314.394	73.81
314.624	95.81
314.853	76.81
315.083	73.81
315.312	99.81
315.542	89.81
315.771	81.81
316.001	89.81
316.23	90.81
316.46	71.81
316.689	92.81
316.919	81.81
317.148	80.81
317.377	88.81
317.607	90.81
317.836	78.81
318.065	81.81
318.295	93.81
318.524	71.81
318.753	88.81
318.983	81.81
319.212	88.81
319.441	63.81
319.67	75.81
319.9	65.81
320.129	79.81
320.358	81.81
320.587	69.81
320.816	76.81
321.046	83.81
321.275	89.81
321.504	84.81
321.733	101.81
321.962	93.81
322.191	77.81
322.42	80.81
322.649	90.81
322.878	87.81
323.108	87.81
323.337	98.81
323.566	79.81
323.795	88.81
324.024	82.81
324.253	85.81
324.482	89.81
324.71	88.81
324.939	108.81
325.168	88.81
325.397	83.81
325.626	83.81
325.855	68.81
326.084	81.81
326.313	85.81
326.542	77.81
326.77	89.81
326.999	82.81
327.228	91.81
327.457	86.81
327.686	83.81
327.914	78.81
328.143	91.81
328.372	76.81
328.6	88.81
328.829	80.81
329.058	85.81
329.287	91.81
329.515	84.81
329.744	83.81
329.972	80.81
330.201	75.81
330.43	78.81
330.658	75.81
330.887	81.81
331.115	86.81
331.344	78.81
331.572	81.81
331.801	80.81
332.03	80.81
332.258	63.81
332.486	78.81
332.715	83.81
332.943	72.81
333.172	79.81
333.4	86.81
333.629	87.81
333.857	73.81
334.085	72.81
334.314	89.81
334.542	89.81
334.771	84.81
334.999	80.81
335.227	84.81
335.455	74.81
335.684	79.81
335.912	96.81
336.14	92.81
336.369	77.81
336.597	73.81
336.825	90.81
337.053	88.81
337.281	84.81
337.51	83.81
337.738	92.81
337.966	80.81
338.194	80.81
338.422	79.81
338.65	81.81
338.878	90.81
339.106	75.81
339.334	57.81
339.562	83.81
339.79	74.81
340.018	77.81
340.246	80.81
340.474	80.81
340.702	88.81
340.93	80.81
341.158	96.81
341.386	92.81
341.614	81.81
341.842	77.81
342.07	73.81
342.298	86.81
342.526	75.81
342.754	76.81
342.981	75.81
343.209	68.81
343.437	94.81
343.665	93.81
343.893	75.81
344.12	66.81
344.348	90.81
344.576	83.81
344.804	92.81
345.031	89.81
345.259	86.81
345.487	78.81
345.714	80.81
345.942	83.81
346.17	85.81
346.397	92.81
346.625	76.81
346.853	81.81
347.08	82.81
347.308	74.81
347.535	73.81
347.763	90.81
347.99	87.81
348.218	83.81
348.445	72.81
348.673	76.81
348.9	87.81
349.128	93.81
349.355	88.81
349.583	72.81
349.81	76.81
350.037	80.81
350.265	79.81
350.492	81.81
350.72	90.81
350.947	79.81
351.174	78.81
351.402	81.81
351.629	68.81
351.856	80.81
352.083	85.81
352.311	97.81
352.538	71.81
352.765	85.81
352.992	75.81
353.22	82.81
353.447	83.81
353.674	78.81
353.901	92.81
354.128	79.81
354.355	75.81
354.583	83.81
354.81	83.81
355.037	80.81
355.264	92.81
355.491	73.81
355.718	85.81
355.945	75.81
356.172	80.81
356.399	89.81
356.626	78.81
356.853	101.81
357.08	111.81
357.307	165.81
357.534	125.81
357.761	93.81
357.988	93.81
358.215	93.81
358.441	79.81
358.668	81.81
358.895	86.81
359.122	77.81
359.349	79.81
359.576	86.81
359.802	76.81
360.029	87.81
360.256	90.81
360.483	79.81
360.709	80.81
360.936	83.81
361.163	83.81
361.39	76.81
361.616	81.81
361.843	86.81
362.07	83.81
362.296	77.81
362.523	83.81
362.749	83.81
362.976	92.81
363.203	90.81
363.429	111.81
363.656	133.81
363.882	193.81
364.109	208.81
364.335	145.81
364.562	100.81
364.788	96.81
365.015	80.81
365.241	79.81
365.468	72.81
365.694	84.81
365.92	88.81
366.147	69.81
366.373	72.81
366.599	78.81
366.826	99.81
367.052	97.81
367.278	133.81
367.505	108.81
367.731	97.81
367.957	143.81
368.184	219.81
368.41	284.81
368.636	221.81
368.862	108.81
369.089	97.81
369.315	86.81
369.541	95.81
369.767	90.81
369.993	91.81
370.219	90.81
370.445	79.81
370.672	87.81
370.898	83.81
371.124	80.81
371.35	65.81
371.576	84.81
371.802	80.81
372.028	81.81
372.254	71.81
372.48	73.81
372.706	83.81
372.932	80.81
373.158	79.81
373.384	85.81
373.61	100.81
373.835	147.81
374.061	155.81
374.287	125.81
374.513	95.81
374.739	75.81
374.965	80.81
375.191	88.81
375.416	71.81
375.642	80.81
375.868	85.81
376.094	71.81
376.319	83.81
376.545	86.81
376.771	76.81
376.997	73.81
377.222	73.81
377.448	77.81
377.674	79.81
377.899	85.81
378.125	80.81
378.35	83.81
378.576	91.81
378.802	85.81
379.027	79.81
379.253	85.81
379.478	84.81
379.704	87.81
379.929	85.81
380.155	92.81
380.38	84.81
380.606	76.81
380.831	79.81
381.057	94.81
381.282	87.81
381.507	80.81
381.733	70.81
381.958	84.81
382.184	87.81
382.409	81.81
382.634	95.81
382.86	77.81
383.085	73.81
383.31	83.81
383.535	84.81
383.761	81.81
383.986	86.81
384.211	70.81
384.436	76.81
384.662	85.81
384.887	84.81
385.112	84.81
385.337	85.81
385.562	96.81
385.787	75.81
386.013	76.81
386.238	75.81
386.463	94.81
386.688	77.81
386.913	75.81
387.138	65.81
387.363	81.81
387.588	90.81
387.813	88.81
388.038	72.81
388.263	92.81
388.488	81.81
388.713	71.81
388.938	96.81
389.163	75.81
389.387	86.81
389.612	76.81
389.837	83.81
390.062	80.81
390.287	85.81
390.512	88.81
390.736	83.81
390.961	69.81
391.186	85.81
391.411	72.81
391.636	78.81
391.86	89.81
392.085	83.81
392.31	79.81
392.534	85.81
392.759	69.81
392.984	88.81
393.208	75.81
393.433	74.81
393.658	80.81
393.882	77.81
394.107	81.81
394.331	80.81
394.556	71.81
394.78	72.81
395.005	63.81
395.229	100.81
395.454	78.81
395.678	80.81
395.903	81.81
396.127	86.81
396.352	81.81
396.576	83.81
396.801	76.81
397.025	80.81
397.249	69.81
397.474	79.81
397.698	99.81
397.922	72.81
398.147	88.81
398.371	87.81
398.595	81.81
398.82	80.81
399.044	81.81
399.268	84.81
399.492	85.81
399.717	72.81
399.941	77.81
400.165	71.81
400.389	81.81
400.613	78.81
400.837	71.81
401.062	110.81
401.286	87.81
401.51	89.81
401.734	100.81
401.958	104.81
402.182	93.81
402.406	77.81
402.63	93.81
402.854	75.81
403.078	102.81
403.302	84.81
403.526	96.81
403.75	74.81
403.974	79.81
404.198	80.81
404.422	92.81
404.645	91.81
404.869	84.81
405.093	100.81
405.317	139.81
405.541	234.81
405.765	406.81
405.988	443.81
406.212	247.81
406.436	156.81
406.66	95.81
406.883	99.81
407.107	85.81
407.331	69.81
407.555	76.81
407.778	83.81
408.002	83.81
408.226	82.81
408.449	93.81
408.673	75.81
408.896	66.81
409.12	87.81
409.344	83.81
409.567	77.81
409.791	74.81
410.014	78.81
410.238	75.81
410.461	83.81
410.685	81.81
410.908	90.81
411.132	97.81
411.355	72.81
411.578	70.81
411.802	78.81
412.025	92.81
412.249	73.81
412.472	83.81
412.695	85.81
412.919	92.81
413.142	88.81
413.365	79.81
413.589	100.81
413.812	83.81
414.035	86.81
414.258	76.81
414.482	81.81
414.705	69.81
414.928	90.81
415.151	89.81
415.374	77.81
415.597	68.81
415.821	71.81
416.044	92.81
416.267	79.81
416.49	89.81
416.713	96.81
416.936	88.81
417.159	88.81
417.382	84.81
417.605	79.81
417.828	85.81
418.051	88.81
418.274	79.81
418.497	88.81
418.72	78.81
418.943	89.81
419.166	77.81
419.389	81.81
419.611	82.81
419.834	80.81
420.057	90.81
420.28	75.81
420.503	72.81
420.726	75.81
420.948	77.81
421.171	79.81
421.394	76.81
421.617	81.81
421.839	85.81
422.062	60.81
422.285	80.81
422.507	85.81
422.73	79.81
422.953	80.81
423.175	79.81
423.398	65.81
423.621	78.81
423.843	71.81
424.066	82.81
424.288	80.81
424.511	84.81
424.733	72.81
424.956	77.81
425.178	65.81
425.401	79.81
425.623	91.81
425.846	86.81
426.068	87.81
426.291	76.81
426.513	88.81
426.735	90.81
426.958	79.81
427.18	74.81
427.402	67.81
427.625	80.81
427.847	91.81
428.069	90.81
428.292	81.81
428.514	70.81
428.736	85.81
428.958	85.81
429.181	83.81
429.403	64.81
429.625	84.81
429.847	81.81
430.069	82.81
430.292	92.81
430.514	73.81
430.736	87.81
430.958	80.81
431.18	73.81
431.402	83.81
431.624	69.81
431.846	100.81
432.068	80.81
432.29	76.81
432.512	69.81
432.734	82.81
432.956	71.81
433.178	64.81
433.4	76.81
433.622	94.81
433.844	87.81
434.066	76.81
434.287	79.81
434.509	96.81
434.731	91.81
434.953	79.81
435.175	75.81
435.397	65.81
435.618	89.81
435.84	71.81
436.062	83.81
436.284	81.81
436.505	82.81
436.727	78.81
436.949	88.81
437.17	97.81
437.392	76.81
437.614	79.81
437.835	64.81
438.057	83.81
438.278	87.81
438.5	78.81
438.721	87.81
438.943	72.81
439.165	85.81
439.386	81.81
439.608	60.81
439.829	105.81
440.05	87.81
440.272	84.81
440.493	79.81
440.715	91.81
440.936	89.81
441.158	70.81
441.379	89.81
441.6	75.81
441.822	81.81
442.043	86.81
442.264	77.81
442.486	87.81
442.707	88.81
442.928	79.81
443.149	81.81
443.371	99.81
443.592	84.81
443.813	85.81
444.034	76.81
444.255	84.81
444.476	73.81
444.698	82.81
444.919	89.81
445.14	137.81
445.361	112.81
445.582	86.81
445.803	89.81
446.024	97.81
446.245	72.81
446.466	95.81
446.687	93.81
446.908	95.81
447.129	81.81
447.35	84.81
447.571	82.81
447.792	78.81
448.013	93.81
448.234	89.81
448.455	73.81
448.675	79.81
448.896	66.81
449.117	76.81
449.338	83.81
449.559	85.81
449.779	88.81
450	86.81
450.221	86.81
450.442	93.81
450.662	84.81
450.883	86.81
451.104	78.81
451.324	67.81
451.545	75.81
451.766	77.81
451.986	80.81
452.207	99.81
452.428	86.81
452.648	80.81
452.869	64.81
453.089	81.81
453.31	92.81
453.53	92.81
453.751	65.81
453.971	73.81
454.192	77.81
454.412	79.81
454.633	89.81
454.853	78.81
455.073	84.81
455.294	80.81
455.514	77.81
455.734	72.81
455.955	96.81
456.175	73.81
456.395	85.81
456.616	79.81
456.836	78.81
457.056	73.81
457.276	83.81
457.497	91.81
457.717	78.81
457.937	85.81
458.157	80.81
458.377	81.81
458.598	82.81
458.818	84.81
459.038	76.81
459.258	69.81
459.478	84.81
459.698	78.81
459.918	82.81
460.138	78.81
460.358	90.81
460.578	86.81
460.798	87.81
461.018	86.81
461.238	76.81
461.458	97.81
461.678	78.81
461.898	101.81
462.118	87.81
462.338	89.81
462.558	87.81
462.777	71.81
462.997	80.81
463.217	93.81
463.437	75.81
463.657	76.81
463.876	88.81
464.096	79.81
464.316	71.81
464.536	90.81
464.755	81.81
464.975	86.81
465.195	69.81
465.414	70.81
465.634	79.81
465.854	87.81
466.073	93.81
466.293	71.81
466.512	84.81
466.732	80.81
466.951	72.81
467.171	84.81
467.391	89.81
467.61	71.81
467.829	91.81
468.049	62.81
468.268	79.81
468.488	84.81
468.707	81.81
468.927	81.81
469.146	71.81
469.365	80.81
469.585	87.81
469.804	88.81
470.023	76.81
470.243	87.81
470.462	87.81
470.681	84.81
470.901	89.81
471.12	77.81
471.339	91.81
471.558	95.81
471.777	91.81
471.997	92.81
472.216	91.81
472.435	85.81
472.654	86.81
472.873	78.81
473.092	87.81
473.311	93.81
473.53	94.81
473.749	87.81
473.968	85.81
474.187	84.81
474.406	90.81
474.625	78.81
474.844	104.81
475.063	65.81
475.282	86.81
475.501	87.81
475.72	91.81
475.939	81.81
476.158	74.81
476.377	79.81
476.596	87.81
476.814	77.81
477.033	90.81
477.252	83.81
477.471	81.81
477.69	77.81
477.908	84.81
478.127	80.81
478.346	90.81
478.564	83.81
478.783	89.81
479.002	93.81
479.22	97.81
479.439	86.81
479.658	87.81
479.876	73.81
480.095	85.81
480.313	80.81
480.532	89.81
480.751	81.81
480.969	99.81
481.188	89.81
481.406	81.81
481.624	87.81
481.843	79.81
482.061	83.81
482.28	81.81
482.498	94.81
482.717	77.81
482.935	79.81
483.153	78.81
483.372	73.81
483.59	80.81
483.808	77.81
484.027	83.81
484.245	82.81
484.463	88.81
484.681	83.81
484.9	88.81
485.118	71.81
485.336	87.81
485.554	89.81
485.772	91.81
485.99	72.81
486.209	85.81
486.427	81.81
486.645	72.81
486.863	75.81
487.081	95.81
487.299	87.81
487.517	84.81
487.735	75.81
487.953	94.81
488.171	85.81
488.389	94.81
488.607	88.81
488.825	80.81
489.043	93.81
489.261	80.81
489.479	85.81
489.696	86.81
489.914	87.81
490.132	84.81
490.35	86.81
490.568	87.81
490.786	89.81
491.003	89.81
491.221	83.81
491.439	79.81
491.657	87.81
491.874	77.81
492.092	79.81
492.31	84.81
492.527	90.81
492.745	93.81
492.963	87.81
493.18	79.81
493.398	87.81
493.615	73.81
493.833	70.81
494.05	80.81
494.268	78.81
494.485	80.81
494.703	77.81
494.92	83.81
495.138	80.81
495.355	91.81
495.573	87.81
495.79	69.81
496.008	88.81
496.225	84.81
496.442	71.81
496.66	89.81
496.877	80.81
497.094	79.81
497.312	90.81
497.529	83.81
497.746	84.81
497.963	90.81
498.181	76.81
498.398	100.81
498.615	81.81
498.832	87.81
499.049	79.81
499.267	88.81
499.484	89.81
499.701	72.81
499.918	87.81
500.135	99.81
500.352	106.81
500.569	128.81
500.786	156.81
501.003	102.81
501.22	89.81
501.437	77.81
501.654	80.81
501.871	75.81
502.088	71.81
502.305	89.81
502.522	80.81
502.739	90.81
502.956	76.81
503.172	76.81
503.389	81.81
503.606	85.81
503.823	91.81
504.04	79.81
504.256	95.81
504.473	85.81
504.69	86.81
504.907	87.81
505.123	100.81
505.34	87.81
505.557	83.81
505.773	93.81
505.99	73.81
506.207	78.81
506.423	89.81
506.64	90.81
506.856	79.81
507.073	90.81
507.289	91.81
507.506	85.81
507.722	82.81
507.939	69.81
508.155	77.81
508.372	87.81
508.588	88.81
508.805	89.81
509.021	91.81
509.238	85.81
509.454	80.81
509.67	90.81
509.887	89.81
510.103	75.81
510.319	81.81
510.536	92.81
510.752	93.81
510.968	96.81
511.184	89.81
511.401	79.81
511.617	87.81
511.833	85.81
512.049	92.81
512.265	74.81
512.481	78.81
512.698	77.81
512.914	67.81
513.13	74.81
513.346	83.81
513.562	82.81
513.778	86.81
513.994	88.81
514.21	83.81
514.426	90.81
514.642	83.81
514.858	101.81
515.074	96.81
515.29	89.81
515.506	93.81
515.721	93.81
515.937	91.81
516.153	87.81
516.369	87.81
516.585	87.81
516.801	79.81
517.016	86.81
517.232	82.81
517.448	72.81
517.664	106.81
517.879	77.81
518.095	89.81
518.311	87.81
518.527	86.81
518.742	81.81
518.958	81.81
519.173	79.81
519.389	78.81
