Data from StdB_HRD10591_080.txt Node
Date: Fri May 16 15:25:26 EDT 2025
User: Yrep
Spectrometer: HR+D1059
Trigger mode: 1
Integration Time (sec): 1.000000E-1
Scans to average: 1
Electric dark correction enabled: true
Nonlinearity correction enabled: false
Boxcar width: 0
XAxis mode: Wavelengths
Number of Pixels in Spectrum: 2048
>>>>>Begin Spectral Data<<<<<
223.165	-18.06
223.4	-18.06
223.635	-18.06
223.869	-22.06
224.104	-22.06
224.338	-19.06
224.573	-10.06
224.808	-12.06
225.042	-6.06
225.277	11.94
225.511	-17.06
225.746	6.94
225.98	0.94
226.215	7.94
226.449	25.94
226.683	18.94
226.918	25.94
227.152	27.94
227.387	26.94
227.621	50.94
227.856	46.94
228.09	48.94
228.324	50.94
228.559	52.94
228.793	53.94
229.027	68.94
229.262	69.94
229.496	62.94
229.73	63.94
229.964	64.94
230.199	62.94
230.433	71.94
230.667	62.94
230.901	78.94
231.136	83.94
231.37	76.94
231.604	85.94
231.838	80.94
232.072	76.94
232.306	83.94
232.541	60.94
232.775	70.94
233.009	69.94
233.243	85.94
233.477	87.94
233.711	85.94
233.945	73.94
234.179	71.94
234.413	91.94
234.647	71.94
234.881	80.94
235.115	87.94
235.349	86.94
235.583	83.94
235.817	77.94
236.051	83.94
236.285	74.94
236.519	65.94
236.753	75.94
236.987	65.94
237.221	70.94
237.455	76.94
237.689	79.94
237.922	85.94
238.156	83.94
238.39	77.94
238.624	55.94
238.858	72.94
239.091	80.94
239.325	78.94
239.559	79.94
239.793	74.94
240.027	75.94
240.26	80.94
240.494	79.94
240.728	69.94
240.961	86.94
241.195	82.94
241.429	86.94
241.662	81.94
241.896	77.94
242.13	67.94
242.363	79.94
242.597	79.94
242.83	96.94
243.064	75.94
243.298	65.94
243.531	85.94
243.765	85.94
243.998	80.94
244.232	75.94
244.465	65.94
244.699	66.94
244.932	84.94
245.166	75.94
245.399	72.94
245.633	79.94
245.866	86.94
246.099	72.94
246.333	86.94
246.566	85.94
246.8	74.94
247.033	77.94
247.266	78.94
247.5	72.94
247.733	84.94
247.966	72.94
248.2	77.94
248.433	79.94
248.666	84.94
248.899	79.94
249.133	79.94
249.366	89.94
249.599	83.94
249.832	90.94
250.066	89.94
250.299	76.94
250.532	83.94
250.765	90.94
250.998	72.94
251.231	79.94
251.465	72.94
251.698	74.94
251.931	69.94
252.164	73.94
252.397	77.94
252.63	75.94
252.863	79.94
253.096	76.94
253.329	97.94
253.562	83.94
253.795	83.94
254.028	92.94
254.261	89.94
254.494	88.94
254.727	70.94
254.96	76.94
255.193	76.94
255.426	65.94
255.659	78.94
255.892	87.94
256.124	65.94
256.357	81.94
256.59	68.94
256.823	79.94
257.056	90.94
257.289	79.94
257.521	87.94
257.754	66.94
257.987	60.94
258.22	78.94
258.452	75.94
258.685	79.94
258.918	88.94
259.151	73.94
259.383	79.94
259.616	63.94
259.849	66.94
260.081	101.94
260.314	69.94
260.547	92.94
260.779	66.94
261.012	82.94
261.244	92.94
261.477	84.94
261.71	94.94
261.942	77.94
262.175	74.94
262.407	83.94
262.64	81.94
262.872	84.94
263.105	89.94
263.337	72.94
263.57	88.94
263.802	86.94
264.035	88.94
264.267	73.94
264.499	82.94
264.732	81.94
264.964	76.94
265.197	75.94
265.429	77.94
265.661	72.94
265.894	76.94
266.126	83.94
266.358	96.94
266.591	83.94
266.823	88.94
267.055	77.94
267.287	63.94
267.52	96.94
267.752	87.94
267.984	84.94
268.216	77.94
268.448	77.94
268.681	87.94
268.913	90.94
269.145	68.94
269.377	76.94
269.609	75.94
269.841	92.94
270.073	76.94
270.306	78.94
270.538	76.94
270.77	92.94
271.002	73.94
271.234	83.94
271.466	64.94
271.698	88.94
271.93	76.94
272.162	83.94
272.394	91.94
272.626	86.94
272.858	81.94
273.09	89.94
273.322	74.94
273.553	73.94
273.785	83.94
274.017	85.94
274.249	87.94
274.481	99.94
274.713	79.94
274.945	83.94
275.176	76.94
275.408	87.94
275.64	75.94
275.872	78.94
276.104	84.94
276.335	78.94
276.567	75.94
276.799	88.94
277.031	77.94
277.262	86.94
277.494	80.94
277.726	89.94
277.957	93.94
278.189	75.94
278.421	78.94
278.652	90.94
278.884	83.94
279.115	88.94
279.347	79.94
279.579	80.94
279.81	87.94
280.042	107.94
280.273	94.94
280.505	97.94
280.736	88.94
280.968	84.94
281.199	80.94
281.431	72.94
281.662	69.94
281.894	75.94
282.125	95.94
282.356	86.94
282.588	88.94
282.819	84.94
283.051	101.94
283.282	96.94
283.513	117.94
283.745	91.94
283.976	87.94
284.207	79.94
284.439	93.94
284.67	95.94
284.901	82.94
285.132	73.94
285.364	71.94
285.595	78.94
285.826	81.94
286.057	84.94
286.288	87.94
286.52	78.94
286.751	76.94
286.982	84.94
287.213	106.94
287.444	107.94
287.675	99.94
287.906	85.94
288.138	86.94
288.369	77.94
288.6	78.94
288.831	77.94
289.062	102.94
289.293	80.94
289.524	89.94
289.755	88.94
289.986	95.94
290.217	69.94
290.448	70.94
290.679	75.94
290.91	88.94
291.141	73.94
291.371	77.94
291.602	64.94
291.833	82.94
292.064	89.94
292.295	79.94
292.526	83.94
292.757	79.94
292.987	73.94
293.218	86.94
293.449	77.94
293.68	86.94
293.91	91.94
294.141	95.94
294.372	76.94
294.603	83.94
294.833	71.94
295.064	70.94
295.295	88.94
295.525	93.94
295.756	70.94
295.987	84.94
296.217	83.94
296.448	90.94
296.679	83.94
296.909	87.94
297.14	89.94
297.37	84.94
297.601	85.94
297.831	92.94
298.062	89.94
298.292	97.94
298.523	73.94
298.753	85.94
298.984	98.94
299.214	83.94
299.445	96.94
299.675	99.94
299.905	76.94
300.136	88.94
300.366	75.94
300.597	89.94
300.827	99.94
301.057	75.94
301.288	71.94
301.518	85.94
301.748	85.94
301.979	106.94
302.209	79.94
302.439	78.94
302.669	69.94
302.9	67.94
303.13	68.94
303.36	88.94
303.59	85.94
303.82	85.94
304.051	85.94
304.281	84.94
304.511	88.94
304.741	81.94
304.971	78.94
305.201	96.94
305.431	84.94
305.661	85.94
305.891	81.94
306.121	91.94
306.352	77.94
306.582	82.94
306.812	83.94
307.042	92.94
307.272	86.94
307.502	84.94
307.731	74.94
307.961	91.94
308.191	78.94
308.421	73.94
308.651	88.94
308.881	76.94
309.111	85.94
309.341	92.94
309.571	79.94
309.8	84.94
310.03	91.94
310.26	78.94
310.49	78.94
310.72	84.94
310.949	80.94
311.179	74.94
311.409	79.94
311.639	92.94
311.868	105.94
312.098	83.94
312.328	85.94
312.557	86.94
312.787	103.94
313.017	102.94
313.246	92.94
313.476	75.94
313.706	89.94
313.935	83.94
314.165	82.94
314.394	84.94
314.624	84.94
314.853	76.94
315.083	92.94
315.312	79.94
315.542	92.94
315.771	83.94
316.001	91.94
316.23	92.94
316.46	69.94
316.689	86.94
316.919	93.94
317.148	75.94
317.377	64.94
317.607	73.94
317.836	78.94
318.065	87.94
318.295	87.94
318.524	89.94
318.753	69.94
318.983	85.94
319.212	85.94
319.441	87.94
319.67	86.94
319.9	86.94
320.129	87.94
320.358	84.94
320.587	88.94
320.816	83.94
321.046	75.94
321.275	84.94
321.504	95.94
321.733	100.94
321.962	92.94
322.191	90.94
322.42	85.94
322.649	87.94
322.878	84.94
323.108	89.94
323.337	96.94
323.566	87.94
323.795	76.94
324.024	78.94
324.253	88.94
324.482	77.94
324.71	78.94
324.939	88.94
325.168	90.94
325.397	85.94
325.626	88.94
325.855	83.94
326.084	94.94
326.313	73.94
326.542	75.94
326.77	74.94
326.999	87.94
327.228	75.94
327.457	62.94
327.686	74.94
327.914	94.94
328.143	92.94
328.372	84.94
328.6	83.94
328.829	75.94
329.058	75.94
329.287	77.94
329.515	70.94
329.744	79.94
329.972	83.94
330.201	82.94
330.43	85.94
330.658	95.94
330.887	78.94
331.115	83.94
331.344	88.94
331.572	80.94
331.801	76.94
332.03	83.94
332.258	78.94
332.486	84.94
332.715	88.94
332.943	75.94
333.172	86.94
333.4	80.94
333.629	72.94
333.857	66.94
334.085	75.94
334.314	83.94
334.542	78.94
334.771	85.94
334.999	88.94
335.227	76.94
335.455	89.94
335.684	88.94
335.912	84.94
336.14	95.94
336.369	87.94
336.597	78.94
336.825	89.94
337.053	87.94
337.281	91.94
337.51	87.94
337.738	89.94
337.966	73.94
338.194	74.94
338.422	87.94
338.65	85.94
338.878	91.94
339.106	84.94
339.334	83.94
339.562	77.94
339.79	81.94
340.018	80.94
340.246	84.94
340.474	85.94
340.702	76.94
340.93	73.94
341.158	76.94
341.386	104.94
341.614	79.94
341.842	80.94
342.07	92.94
342.298	74.94
342.526	82.94
342.754	63.94
342.981	81.94
343.209	72.94
343.437	87.94
343.665	69.94
343.893	84.94
344.12	86.94
344.348	85.94
344.576	83.94
344.804	62.94
345.031	75.94
345.259	78.94
345.487	84.94
345.714	82.94
345.942	74.94
346.17	86.94
346.397	89.94
346.625	80.94
346.853	80.94
347.08	72.94
347.308	85.94
347.535	86.94
347.763	94.94
347.99	73.94
348.218	87.94
348.445	81.94
348.673	85.94
348.9	74.94
349.128	72.94
349.355	89.94
349.583	58.94
349.81	81.94
350.037	67.94
350.265	85.94
350.492	77.94
350.72	95.94
350.947	79.94
351.174	80.94
351.402	67.94
351.629	85.94
351.856	89.94
352.083	87.94
352.311	72.94
352.538	81.94
352.765	88.94
352.992	92.94
353.22	90.94
353.447	92.94
353.674	63.94
353.901	81.94
354.128	85.94
354.355	84.94
354.583	83.94
354.81	95.94
355.037	81.94
355.264	91.94
355.491	97.94
355.718	81.94
355.945	83.94
356.172	83.94
356.399	71.94
356.626	100.94
356.853	107.94
357.08	127.94
357.307	147.94
357.534	117.94
357.761	72.94
357.988	80.94
358.215	96.94
358.441	88.94
358.668	69.94
358.895	80.94
359.122	68.94
359.349	82.94
359.576	77.94
359.802	87.94
360.029	88.94
360.256	85.94
360.483	91.94
360.709	89.94
360.936	83.94
361.163	79.94
361.39	81.94
361.616	67.94
361.843	79.94
362.07	93.94
362.296	80.94
362.523	98.94
362.749	89.94
362.976	85.94
363.203	89.94
363.429	95.94
363.656	129.94
363.882	152.94
364.109	179.94
364.335	122.94
364.562	108.94
364.788	77.94
365.015	94.94
365.241	76.94
365.468	80.94
365.694	74.94
365.92	78.94
366.147	75.94
366.373	70.94
366.599	79.94
366.826	94.94
367.052	99.94
367.278	109.94
367.505	110.94
367.731	105.94
367.957	127.94
368.184	177.94
368.41	237.94
368.636	175.94
368.862	108.94
369.089	73.94
369.315	96.94
369.541	76.94
369.767	92.94
369.993	81.94
370.219	78.94
370.445	79.94
370.672	80.94
370.898	78.94
371.124	77.94
371.35	84.94
371.576	80.94
371.802	93.94
372.028	69.94
372.254	75.94
372.48	78.94
372.706	74.94
372.932	83.94
373.158	80.94
373.384	90.94
373.61	91.94
373.835	113.94
374.061	148.94
374.287	101.94
374.513	97.94
374.739	80.94
374.965	88.94
375.191	94.94
375.416	92.94
375.642	68.94
375.868	86.94
376.094	78.94
376.319	69.94
376.545	94.94
376.771	88.94
376.997	76.94
377.222	72.94
377.448	70.94
377.674	89.94
377.899	69.94
378.125	70.94
378.35	80.94
378.576	79.94
378.802	81.94
379.027	80.94
379.253	82.94
379.478	76.94
379.704	70.94
379.929	71.94
380.155	76.94
380.38	89.94
380.606	85.94
380.831	80.94
381.057	92.94
381.282	83.94
381.507	84.94
381.733	103.94
381.958	87.94
382.184	79.94
382.409	76.94
382.634	78.94
382.86	80.94
383.085	85.94
383.31	84.94
383.535	86.94
383.761	77.94
383.986	68.94
384.211	65.94
384.436	69.94
384.662	75.94
384.887	86.94
385.112	83.94
385.337	85.94
385.562	76.94
385.787	79.94
386.013	85.94
386.238	72.94
386.463	86.94
386.688	101.94
386.913	79.94
387.138	88.94
387.363	88.94
387.588	69.94
387.813	79.94
388.038	84.94
388.263	76.94
388.488	80.94
388.713	73.94
388.938	72.94
389.163	79.94
389.387	92.94
389.612	63.94
389.837	88.94
390.062	85.94
390.287	89.94
390.512	88.94
390.736	90.94
390.961	77.94
391.186	87.94
391.411	65.94
391.636	82.94
391.86	66.94
392.085	83.94
392.31	76.94
392.534	66.94
392.759	84.94
392.984	82.94
393.208	73.94
393.433	80.94
393.658	82.94
393.882	80.94
394.107	74.94
394.331	73.94
394.556	90.94
394.78	77.94
395.005	84.94
395.229	89.94
395.454	94.94
395.678	85.94
395.903	88.94
396.127	92.94
396.352	79.94
396.576	89.94
396.801	76.94
397.025	80.94
397.249	78.94
397.474	85.94
397.698	80.94
397.922	76.94
398.147	86.94
398.371	93.94
398.595	74.94
398.82	71.94
399.044	77.94
399.268	82.94
399.492	83.94
399.717	82.94
399.941	65.94
400.165	93.94
400.389	83.94
400.613	76.94
400.837	87.94
401.062	71.94
401.286	85.94
401.51	83.94
401.734	82.94
401.958	99.94
402.182	88.94
402.406	92.94
402.63	92.94
402.854	91.94
403.078	81.94
403.302	88.94
403.526	87.94
403.75	74.94
403.974	80.94
404.198	76.94
404.422	78.94
404.645	89.94
404.869	90.94
405.093	102.94
405.317	102.94
405.541	195.94
405.765	327.94
405.988	351.94
406.212	186.94
406.436	133.94
406.66	89.94
406.883	89.94
407.107	93.94
407.331	91.94
407.555	94.94
407.778	73.94
408.002	81.94
408.226	86.94
408.449	79.94
408.673	76.94
408.896	85.94
409.12	93.94
409.344	88.94
409.567	91.94
409.791	83.94
410.014	76.94
410.238	88.94
410.461	83.94
410.685	84.94
410.908	69.94
411.132	88.94
411.355	85.94
411.578	88.94
411.802	97.94
412.025	96.94
412.249	77.94
412.472	98.94
412.695	82.94
412.919	81.94
413.142	97.94
413.365	91.94
413.589	77.94
413.812	87.94
414.035	87.94
414.258	81.94
414.482	80.94
414.705	72.94
414.928	80.94
415.151	77.94
415.374	84.94
415.597	84.94
415.821	83.94
416.044	76.94
416.267	80.94
416.49	89.94
416.713	80.94
416.936	105.94
417.159	88.94
417.382	78.94
417.605	80.94
417.828	87.94
418.051	92.94
418.274	72.94
418.497	76.94
418.72	72.94
418.943	84.94
419.166	88.94
419.389	87.94
419.611	83.94
419.834	95.94
420.057	70.94
420.28	83.94
420.503	83.94
420.726	75.94
420.948	79.94
421.171	77.94
421.394	76.94
421.617	73.94
421.839	77.94
422.062	99.94
422.285	75.94
422.507	72.94
422.73	81.94
422.953	91.94
423.175	91.94
423.398	72.94
423.621	73.94
423.843	81.94
424.066	80.94
424.288	88.94
424.511	83.94
424.733	72.94
424.956	78.94
425.178	71.94
425.401	76.94
425.623	84.94
425.846	86.94
426.068	85.94
426.291	80.94
426.513	72.94
426.735	77.94
426.958	80.94
427.18	87.94
427.402	90.94
427.625	77.94
427.847	80.94
428.069	83.94
428.292	75.94
428.514	77.94
428.736	83.94
428.958	73.94
429.181	81.94
429.403	85.94
429.625	71.94
429.847	84.94
430.069	81.94
430.292	90.94
430.514	86.94
430.736	77.94
430.958	89.94
431.18	81.94
431.402	79.94
431.624	85.94
431.846	70.94
432.068	69.94
432.29	86.94
432.512	85.94
432.734	81.94
432.956	94.94
433.178	80.94
433.4	70.94
433.622	88.94
433.844	93.94
434.066	83.94
434.287	75.94
434.509	80.94
434.731	64.94
434.953	79.94
435.175	89.94
435.397	77.94
435.618	72.94
435.84	75.94
436.062	84.94
436.284	82.94
436.505	65.94
436.727	91.94
436.949	75.94
437.17	72.94
437.392	77.94
437.614	80.94
437.835	89.94
438.057	75.94
438.278	78.94
438.5	81.94
438.721	95.94
438.943	83.94
439.165	85.94
439.386	86.94
439.608	73.94
439.829	91.94
440.05	86.94
440.272	71.94
440.493	88.94
440.715	79.94
440.936	85.94
441.158	87.94
441.379	83.94
441.6	63.94
441.822	80.94
442.043	78.94
442.264	85.94
442.486	79.94
442.707	88.94
442.928	69.94
443.149	69.94
443.371	77.94
443.592	71.94
443.813	89.94
444.034	87.94
444.255	78.94
444.476	88.94
444.698	86.94
444.919	75.94
445.14	154.94
445.361	125.94
445.582	78.94
445.803	81.94
446.024	72.94
446.245	94.94
446.466	89.94
446.687	89.94
446.908	85.94
447.129	86.94
447.35	76.94
447.571	80.94
447.792	79.94
448.013	76.94
448.234	73.94
448.455	84.94
448.675	90.94
448.896	68.94
449.117	81.94
449.338	90.94
449.559	77.94
449.779	82.94
450	82.94
450.221	86.94
450.442	76.94
450.662	73.94
450.883	84.94
451.104	84.94
451.324	83.94
451.545	71.94
451.766	85.94
451.986	79.94
452.207	84.94
452.428	79.94
452.648	84.94
452.869	88.94
453.089	72.94
453.31	75.94
453.53	81.94
453.751	73.94
453.971	79.94
454.192	79.94
454.412	76.94
454.633	80.94
454.853	69.94
455.073	69.94
455.294	75.94
455.514	78.94
455.734	87.94
455.955	84.94
456.175	69.94
456.395	79.94
456.616	80.94
456.836	77.94
457.056	62.94
457.276	75.94
457.497	87.94
457.717	87.94
457.937	75.94
458.157	94.94
458.377	80.94
458.598	88.94
458.818	78.94
459.038	92.94
459.258	70.94
459.478	85.94
459.698	75.94
459.918	79.94
460.138	85.94
460.358	75.94
460.578	79.94
460.798	90.94
461.018	81.94
461.238	77.94
461.458	81.94
461.678	79.94
461.898	74.94
462.118	82.94
462.338	90.94
462.558	79.94
462.777	87.94
462.997	85.94
463.217	80.94
463.437	79.94
463.657	88.94
463.876	83.94
464.096	72.94
464.316	88.94
464.536	73.94
464.755	87.94
464.975	95.94
465.195	80.94
465.414	81.94
465.634	83.94
465.854	78.94
466.073	87.94
466.293	83.94
466.512	84.94
466.732	84.94
466.951	88.94
467.171	88.94
467.391	80.94
467.61	86.94
467.829	84.94
468.049	82.94
468.268	71.94
468.488	80.94
468.707	79.94
468.927	77.94
469.146	94.94
469.365	70.94
469.585	82.94
469.804	84.94
470.023	90.94
470.243	80.94
470.462	72.94
470.681	76.94
470.901	78.94
471.12	87.94
471.339	95.94
471.558	66.94
471.777	91.94
471.997	85.94
472.216	75.94
472.435	87.94
472.654	74.94
472.873	81.94
473.092	71.94
473.311	77.94
473.53	78.94
473.749	78.94
473.968	89.94
474.187	91.94
474.406	83.94
474.625	80.94
474.844	96.94
475.063	88.94
475.282	79.94
475.501	74.94
475.72	71.94
475.939	81.94
476.158	78.94
476.377	77.94
476.596	89.94
476.814	80.94
477.033	86.94
477.252	78.94
477.471	89.94
477.69	86.94
477.908	68.94
478.127	92.94
478.346	89.94
478.564	81.94
478.783	81.94
479.002	103.94
479.22	86.94
479.439	83.94
479.658	86.94
479.876	80.94
480.095	78.94
480.313	89.94
480.532	89.94
480.751	86.94
480.969	86.94
481.188	88.94
481.406	79.94
481.624	83.94
481.843	98.94
482.061	84.94
482.28	92.94
482.498	71.94
482.717	67.94
482.935	83.94
483.153	83.94
483.372	74.94
483.59	99.94
483.808	82.94
484.027	83.94
484.245	87.94
484.463	78.94
484.681	76.94
484.9	85.94
485.118	86.94
485.336	74.94
485.554	74.94
485.772	78.94
485.99	79.94
486.209	83.94
486.427	66.94
486.645	66.94
486.863	86.94
487.081	80.94
487.299	87.94
487.517	86.94
487.735	89.94
487.953	84.94
488.171	76.94
488.389	87.94
488.607	73.94
488.825	71.94
489.043	89.94
489.261	71.94
489.479	79.94
489.696	88.94
489.914	85.94
490.132	85.94
490.35	94.94
490.568	77.94
490.786	100.94
491.003	73.94
491.221	88.94
491.439	94.94
491.657	78.94
491.874	92.94
492.092	97.94
492.31	95.94
492.527	96.94
492.745	88.94
492.963	83.94
493.18	73.94
493.398	80.94
493.615	93.94
493.833	81.94
494.05	94.94
494.268	82.94
494.485	73.94
494.703	88.94
494.92	85.94
495.138	69.94
495.355	80.94
495.573	83.94
495.79	77.94
496.008	89.94
496.225	73.94
496.442	80.94
496.66	88.94
496.877	84.94
497.094	80.94
497.312	84.94
497.529	95.94
497.746	85.94
497.963	84.94
498.181	83.94
498.398	79.94
498.615	87.94
498.832	84.94
499.049	84.94
499.267	90.94
499.484	79.94
499.701	90.94
499.918	89.94
500.135	95.94
500.352	88.94
500.569	101.94
500.786	123.94
501.003	78.94
501.22	90.94
501.437	89.94
501.654	80.94
501.871	87.94
502.088	86.94
502.305	86.94
502.522	77.94
502.739	81.94
502.956	87.94
503.172	94.94
503.389	88.94
503.606	75.94
503.823	71.94
504.04	84.94
504.256	75.94
504.473	93.94
504.69	93.94
504.907	91.94
505.123	89.94
505.34	69.94
505.557	89.94
505.773	77.94
505.99	89.94
506.207	78.94
506.423	81.94
506.64	80.94
506.856	89.94
507.073	88.94
507.289	86.94
507.506	89.94
507.722	86.94
507.939	91.94
508.155	73.94
508.372	75.94
508.588	76.94
508.805	75.94
509.021	92.94
509.238	79.94
509.454	80.94
509.67	81.94
509.887	87.94
510.103	71.94
510.319	100.94
510.536	79.94
510.752	77.94
510.968	85.94
511.184	78.94
511.401	86.94
511.617	89.94
511.833	91.94
512.049	71.94
512.265	92.94
512.481	77.94
512.698	80.94
512.914	85.94
513.13	85.94
513.346	94.94
513.562	84.94
513.778	81.94
513.994	76.94
514.21	80.94
514.426	81.94
514.642	81.94
514.858	73.94
515.074	81.94
515.29	95.94
515.506	77.94
515.721	80.94
515.937	88.94
516.153	101.94
516.369	79.94
516.585	61.94
516.801	68.94
517.016	91.94
517.232	74.94
517.448	71.94
517.664	89.94
517.879	79.94
518.095	62.94
518.311	79.94
518.527	75.94
518.742	90.94
518.958	89.94
519.173	66.94
519.389	84.94
519.605	86.94
