Data from StdB_HRD10591_061.txt Node
Date: Fri May 16 15:25:16 EDT 2025
User: Yrep
Spectrometer: HR+D1059
Trigger mode: 1
Integration Time (sec): 1.000000E-1
Scans to average: 1
Electric dark correction enabled: true
Nonlinearity correction enabled: false
Boxcar width: 0
XAxis mode: Wavelengths
Number of Pixels in Spectrum: 2048
>>>>>Begin Spectral Data<<<<<
223.165	-26.38
223.4	-26.38
223.635	-26.38
223.869	-16.38
224.104	-14.38
224.338	-18.38
224.573	-19.38
224.808	-22.38
225.042	7.62
225.277	0.62
225.511	1.62
225.746	4.62
225.98	-0.38
226.215	13.62
226.449	16.62
226.683	24.62
226.918	10.62
227.152	37.62
227.387	33.62
227.621	49.62
227.856	66.62
228.09	33.62
228.324	60.62
228.559	68.62
228.793	56.62
229.027	52.62
229.262	59.62
229.496	80.62
229.73	92.62
229.964	63.62
230.199	61.62
230.433	72.62
230.667	74.62
230.901	77.62
231.136	81.62
231.37	85.62
231.604	73.62
231.838	73.62
232.072	81.62
232.306	70.62
232.541	76.62
232.775	82.62
233.009	86.62
233.243	71.62
233.477	90.62
233.711	82.62
233.945	85.62
234.179	95.62
234.413	88.62
234.647	72.62
234.881	78.62
235.115	84.62
235.349	87.62
235.583	81.62
235.817	95.62
236.051	77.62
236.285	68.62
236.519	68.62
236.753	79.62
236.987	81.62
237.221	76.62
237.455	91.62
237.689	82.62
237.922	72.62
238.156	84.62
238.39	66.62
238.624	81.62
238.858	82.62
239.091	82.62
239.325	81.62
239.559	77.62
239.793	74.62
240.027	86.62
240.26	62.62
240.494	78.62
240.728	86.62
240.961	83.62
241.195	75.62
241.429	79.62
241.662	85.62
241.896	58.62
242.13	81.62
242.363	80.62
242.597	85.62
242.83	76.62
243.064	86.62
243.298	84.62
243.531	77.62
243.765	85.62
243.998	77.62
244.232	86.62
244.465	63.62
244.699	92.62
244.932	66.62
245.166	95.62
245.399	78.62
245.633	72.62
245.866	72.62
246.099	69.62
246.333	77.62
246.566	77.62
246.8	65.62
247.033	71.62
247.266	84.62
247.5	81.62
247.733	79.62
247.966	74.62
248.2	91.62
248.433	79.62
248.666	83.62
248.899	78.62
249.133	74.62
249.366	85.62
249.599	84.62
249.832	82.62
250.066	79.62
250.299	97.62
250.532	76.62
250.765	77.62
250.998	76.62
251.231	88.62
251.465	89.62
251.698	76.62
251.931	78.62
252.164	78.62
252.397	89.62
252.63	101.62
252.863	81.62
253.096	81.62
253.329	70.62
253.562	90.62
253.795	84.62
254.028	88.62
254.261	83.62
254.494	72.62
254.727	84.62
254.96	78.62
255.193	80.62
255.426	95.62
255.659	81.62
255.892	90.62
256.124	87.62
256.357	79.62
256.59	82.62
256.823	82.62
257.056	73.62
257.289	89.62
257.521	81.62
257.754	96.62
257.987	90.62
258.22	93.62
258.452	70.62
258.685	73.62
258.918	76.62
259.151	91.62
259.383	90.62
259.616	78.62
259.849	100.62
260.081	89.62
260.314	80.62
260.547	85.62
260.779	86.62
261.012	92.62
261.244	96.62
261.477	112.62
261.71	90.62
261.942	96.62
262.175	82.62
262.407	91.62
262.64	84.62
262.872	93.62
263.105	91.62
263.337	79.62
263.57	98.62
263.802	86.62
264.035	86.62
264.267	84.62
264.499	90.62
264.732	91.62
264.964	102.62
265.197	90.62
265.429	102.62
265.661	80.62
265.894	92.62
266.126	85.62
266.358	106.62
266.591	101.62
266.823	92.62
267.055	89.62
267.287	94.62
267.52	86.62
267.752	78.62
267.984	54.62
268.216	84.62
268.448	86.62
268.681	88.62
268.913	70.62
269.145	60.62
269.377	76.62
269.609	74.62
269.841	96.62
270.073	87.62
270.306	90.62
270.538	81.62
270.77	92.62
271.002	88.62
271.234	86.62
271.466	90.62
271.698	76.62
271.93	73.62
272.162	78.62
272.394	71.62
272.626	69.62
272.858	75.62
273.09	80.62
273.322	87.62
273.553	74.62
273.785	82.62
274.017	86.62
274.249	95.62
274.481	88.62
274.713	86.62
274.945	91.62
275.176	84.62
275.408	84.62
275.64	75.62
275.872	74.62
276.104	76.62
276.335	100.62
276.567	84.62
276.799	89.62
277.031	93.62
277.262	79.62
277.494	77.62
277.726	72.62
277.957	93.62
278.189	89.62
278.421	84.62
278.652	88.62
278.884	70.62
279.115	86.62
279.347	76.62
279.579	93.62
279.81	88.62
280.042	89.62
280.273	121.62
280.505	120.62
280.736	92.62
280.968	80.62
281.199	88.62
281.431	88.62
281.662	98.62
281.894	88.62
282.125	95.62
282.356	96.62
282.588	92.62
282.819	99.62
283.051	101.62
283.282	110.62
283.513	112.62
283.745	103.62
283.976	73.62
284.207	86.62
284.439	85.62
284.67	63.62
284.901	86.62
285.132	96.62
285.364	90.62
285.595	88.62
285.826	89.62
286.057	89.62
286.288	92.62
286.52	93.62
286.751	88.62
286.982	89.62
287.213	95.62
287.444	100.62
287.675	94.62
287.906	88.62
288.138	83.62
288.369	93.62
288.6	79.62
288.831	90.62
289.062	84.62
289.293	92.62
289.524	83.62
289.755	70.62
289.986	78.62
290.217	94.62
290.448	75.62
290.679	86.62
290.91	90.62
291.141	76.62
291.371	86.62
291.602	84.62
291.833	77.62
292.064	77.62
292.295	71.62
292.526	76.62
292.757	81.62
292.987	87.62
293.218	88.62
293.449	86.62
293.68	105.62
293.91	83.62
294.141	85.62
294.372	78.62
294.603	68.62
294.833	78.62
295.064	80.62
295.295	81.62
295.525	75.62
295.756	84.62
295.987	89.62
296.217	88.62
296.448	79.62
296.679	81.62
296.909	86.62
297.14	87.62
297.37	86.62
297.601	79.62
297.831	84.62
298.062	86.62
298.292	77.62
298.523	83.62
298.753	76.62
298.984	80.62
299.214	87.62
299.445	89.62
299.675	97.62
299.905	90.62
300.136	87.62
300.366	84.62
300.597	91.62
300.827	86.62
301.057	88.62
301.288	85.62
301.518	80.62
301.748	81.62
301.979	105.62
302.209	91.62
302.439	88.62
302.669	84.62
302.9	82.62
303.13	102.62
303.36	76.62
303.59	85.62
303.82	69.62
304.051	94.62
304.281	93.62
304.511	85.62
304.741	77.62
304.971	85.62
305.201	87.62
305.431	85.62
305.661	84.62
305.891	100.62
306.121	82.62
306.352	94.62
306.582	87.62
306.812	88.62
307.042	93.62
307.272	76.62
307.502	91.62
307.731	82.62
307.961	84.62
308.191	81.62
308.421	78.62
308.651	74.62
308.881	86.62
309.111	78.62
309.341	85.62
309.571	72.62
309.8	85.62
310.03	108.62
310.26	97.62
310.49	96.62
310.72	90.62
310.949	78.62
311.179	87.62
311.409	86.62
311.639	92.62
311.868	104.62
312.098	74.62
312.328	84.62
312.557	89.62
312.787	79.62
313.017	82.62
313.246	90.62
313.476	94.62
313.706	82.62
313.935	86.62
314.165	84.62
314.394	89.62
314.624	85.62
314.853	98.62
315.083	108.62
315.312	90.62
315.542	92.62
315.771	82.62
316.001	88.62
316.23	96.62
316.46	111.62
316.689	90.62
316.919	79.62
317.148	83.62
317.377	92.62
317.607	82.62
317.836	81.62
318.065	84.62
318.295	88.62
318.524	89.62
318.753	86.62
318.983	82.62
319.212	91.62
319.441	80.62
319.67	87.62
319.9	80.62
320.129	81.62
320.358	92.62
320.587	92.62
320.816	88.62
321.046	92.62
321.275	89.62
321.504	94.62
321.733	86.62
321.962	98.62
322.191	85.62
322.42	92.62
322.649	69.62
322.878	82.62
323.108	91.62
323.337	93.62
323.566	76.62
323.795	96.62
324.024	93.62
324.253	72.62
324.482	58.62
324.71	67.62
324.939	91.62
325.168	77.62
325.397	93.62
325.626	81.62
325.855	79.62
326.084	94.62
326.313	78.62
326.542	91.62
326.77	89.62
326.999	85.62
327.228	81.62
327.457	71.62
327.686	93.62
327.914	94.62
328.143	101.62
328.372	85.62
328.6	90.62
328.829	85.62
329.058	87.62
329.287	77.62
329.515	88.62
329.744	90.62
329.972	78.62
330.201	86.62
330.43	91.62
330.658	85.62
330.887	87.62
331.115	85.62
331.344	73.62
331.572	92.62
331.801	82.62
332.03	103.62
332.258	98.62
332.486	92.62
332.715	85.62
332.943	83.62
333.172	84.62
333.4	77.62
333.629	91.62
333.857	101.62
334.085	82.62
334.314	70.62
334.542	92.62
334.771	90.62
334.999	89.62
335.227	100.62
335.455	86.62
335.684	91.62
335.912	96.62
336.14	93.62
336.369	89.62
336.597	89.62
336.825	98.62
337.053	80.62
337.281	93.62
337.51	73.62
337.738	93.62
337.966	95.62
338.194	84.62
338.422	78.62
338.65	80.62
338.878	91.62
339.106	91.62
339.334	97.62
339.562	77.62
339.79	81.62
340.018	89.62
340.246	87.62
340.474	89.62
340.702	89.62
340.93	73.62
341.158	81.62
341.386	95.62
341.614	88.62
341.842	93.62
342.07	80.62
342.298	102.62
342.526	82.62
342.754	96.62
342.981	75.62
343.209	79.62
343.437	83.62
343.665	78.62
343.893	82.62
344.12	74.62
344.348	89.62
344.576	90.62
344.804	82.62
345.031	80.62
345.259	79.62
345.487	83.62
345.714	94.62
345.942	76.62
346.17	83.62
346.397	86.62
346.625	91.62
346.853	93.62
347.08	81.62
347.308	95.62
347.535	79.62
347.763	78.62
347.99	83.62
348.218	89.62
348.445	93.62
348.673	90.62
348.9	74.62
349.128	88.62
349.355	85.62
349.583	95.62
349.81	98.62
350.037	94.62
350.265	80.62
350.492	92.62
350.72	90.62
350.947	90.62
351.174	82.62
351.402	92.62
351.629	95.62
351.856	79.62
352.083	74.62
352.311	98.62
352.538	72.62
352.765	84.62
352.992	89.62
353.22	98.62
353.447	95.62
353.674	95.62
353.901	89.62
354.128	96.62
354.355	95.62
354.583	71.62
354.81	82.62
355.037	89.62
355.264	85.62
355.491	92.62
355.718	83.62
355.945	85.62
356.172	82.62
356.399	89.62
356.626	94.62
356.853	105.62
357.08	113.62
357.307	148.62
357.534	126.62
357.761	92.62
357.988	85.62
358.215	73.62
358.441	79.62
358.668	84.62
358.895	89.62
359.122	81.62
359.349	88.62
359.576	67.62
359.802	85.62
360.029	84.62
360.256	89.62
360.483	88.62
360.709	97.62
360.936	96.62
361.163	76.62
361.39	97.62
361.616	82.62
361.843	87.62
362.07	74.62
362.296	76.62
362.523	102.62
362.749	88.62
362.976	83.62
363.203	82.62
363.429	92.62
363.656	128.62
363.882	180.62
364.109	209.62
364.335	131.62
364.562	103.62
364.788	94.62
365.015	81.62
365.241	98.62
365.468	92.62
365.694	84.62
365.92	89.62
366.147	76.62
366.373	94.62
366.599	104.62
366.826	96.62
367.052	112.62
367.278	122.62
367.505	107.62
367.731	109.62
367.957	136.62
368.184	200.62
368.41	258.62
368.636	194.62
368.862	113.62
369.089	89.62
369.315	85.62
369.541	81.62
369.767	78.62
369.993	74.62
370.219	81.62
370.445	84.62
370.672	84.62
370.898	82.62
371.124	75.62
371.35	77.62
371.576	71.62
371.802	79.62
372.028	95.62
372.254	78.62
372.48	66.62
372.706	88.62
372.932	85.62
373.158	80.62
373.384	95.62
373.61	117.62
373.835	113.62
374.061	150.62
374.287	126.62
374.513	99.62
374.739	89.62
374.965	88.62
375.191	80.62
375.416	79.62
375.642	81.62
375.868	76.62
376.094	84.62
376.319	91.62
376.545	88.62
376.771	90.62
376.997	82.62
377.222	78.62
377.448	91.62
377.674	80.62
377.899	79.62
378.125	77.62
378.35	77.62
378.576	86.62
378.802	77.62
379.027	80.62
379.253	80.62
379.478	88.62
379.704	86.62
379.929	80.62
380.155	92.62
380.38	89.62
380.606	85.62
380.831	95.62
381.057	79.62
381.282	73.62
381.507	80.62
381.733	81.62
381.958	86.62
382.184	72.62
382.409	86.62
382.634	88.62
382.86	88.62
383.085	86.62
383.31	84.62
383.535	84.62
383.761	78.62
383.986	81.62
384.211	79.62
384.436	84.62
384.662	80.62
384.887	88.62
385.112	92.62
385.337	89.62
385.562	75.62
385.787	89.62
386.013	101.62
386.238	76.62
386.463	73.62
386.688	82.62
386.913	87.62
387.138	80.62
387.363	86.62
387.588	83.62
387.813	82.62
388.038	77.62
388.263	65.62
388.488	96.62
388.713	96.62
388.938	86.62
389.163	78.62
389.387	87.62
389.612	78.62
389.837	70.62
390.062	71.62
390.287	79.62
390.512	80.62
390.736	84.62
390.961	76.62
391.186	78.62
391.411	77.62
391.636	70.62
391.86	86.62
392.085	71.62
392.31	80.62
392.534	80.62
392.759	82.62
392.984	80.62
393.208	81.62
393.433	89.62
393.658	84.62
393.882	81.62
394.107	98.62
394.331	87.62
394.556	95.62
394.78	89.62
395.005	91.62
395.229	77.62
395.454	80.62
395.678	80.62
395.903	89.62
396.127	74.62
396.352	90.62
396.576	87.62
396.801	82.62
397.025	75.62
397.249	97.62
397.474	81.62
397.698	74.62
397.922	85.62
398.147	87.62
398.371	94.62
398.595	100.62
398.82	82.62
399.044	70.62
399.268	81.62
399.492	84.62
399.717	82.62
399.941	74.62
400.165	89.62
400.389	93.62
400.613	81.62
400.837	90.62
401.062	71.62
401.286	79.62
401.51	75.62
401.734	92.62
401.958	105.62
402.182	88.62
402.406	79.62
402.63	88.62
402.854	92.62
403.078	85.62
403.302	78.62
403.526	90.62
403.75	86.62
403.974	83.62
404.198	81.62
404.422	73.62
404.645	90.62
404.869	105.62
405.093	100.62
405.317	123.62
405.541	213.62
405.765	362.62
405.988	357.62
406.212	209.62
406.436	138.62
406.66	92.62
406.883	95.62
407.107	77.62
407.331	82.62
407.555	90.62
407.778	73.62
408.002	82.62
408.226	83.62
408.449	79.62
408.673	86.62
408.896	82.62
409.12	77.62
409.344	75.62
409.567	81.62
409.791	65.62
410.014	74.62
410.238	86.62
410.461	80.62
410.685	70.62
410.908	75.62
411.132	98.62
411.355	85.62
411.578	80.62
411.802	70.62
412.025	78.62
412.249	92.62
412.472	78.62
412.695	80.62
412.919	81.62
413.142	81.62
413.365	88.62
413.589	92.62
413.812	89.62
414.035	87.62
414.258	89.62
414.482	77.62
414.705	81.62
414.928	82.62
415.151	84.62
415.374	79.62
415.597	80.62
415.821	78.62
416.044	93.62
416.267	87.62
416.49	72.62
416.713	73.62
416.936	106.62
417.159	85.62
417.382	87.62
417.605	77.62
417.828	90.62
418.051	85.62
418.274	80.62
418.497	82.62
418.72	80.62
418.943	84.62
419.166	71.62
419.389	74.62
419.611	71.62
419.834	88.62
420.057	80.62
420.28	80.62
420.503	87.62
420.726	90.62
420.948	81.62
421.171	71.62
421.394	87.62
421.617	94.62
421.839	81.62
422.062	81.62
422.285	76.62
422.507	71.62
422.73	76.62
422.953	77.62
423.175	80.62
423.398	81.62
423.621	70.62
423.843	79.62
424.066	76.62
424.288	78.62
424.511	89.62
424.733	72.62
424.956	82.62
425.178	79.62
425.401	87.62
425.623	85.62
425.846	70.62
426.068	76.62
426.291	81.62
426.513	80.62
426.735	84.62
426.958	72.62
427.18	86.62
427.402	86.62
427.625	86.62
427.847	78.62
428.069	94.62
428.292	78.62
428.514	88.62
428.736	86.62
428.958	88.62
429.181	71.62
429.403	83.62
429.625	72.62
429.847	73.62
430.069	73.62
430.292	89.62
430.514	87.62
430.736	73.62
430.958	68.62
431.18	89.62
431.402	79.62
431.624	74.62
431.846	66.62
432.068	82.62
432.29	96.62
432.512	84.62
432.734	87.62
432.956	92.62
433.178	85.62
433.4	84.62
433.622	95.62
433.844	84.62
434.066	78.62
434.287	90.62
434.509	79.62
434.731	89.62
434.953	74.62
435.175	80.62
435.397	87.62
435.618	86.62
435.84	82.62
436.062	85.62
436.284	94.62
436.505	84.62
436.727	97.62
436.949	75.62
437.17	87.62
437.392	84.62
437.614	72.62
437.835	77.62
438.057	70.62
438.278	81.62
438.5	80.62
438.721	81.62
438.943	76.62
439.165	79.62
439.386	75.62
439.608	78.62
439.829	88.62
440.05	78.62
440.272	84.62
440.493	80.62
440.715	76.62
440.936	88.62
441.158	97.62
441.379	73.62
441.6	84.62
441.822	88.62
442.043	79.62
442.264	82.62
442.486	76.62
442.707	85.62
442.928	75.62
443.149	80.62
443.371	82.62
443.592	72.62
443.813	92.62
444.034	81.62
444.255	80.62
444.476	73.62
444.698	82.62
444.919	91.62
445.14	155.62
445.361	129.62
445.582	82.62
445.803	76.62
446.024	82.62
446.245	81.62
446.466	82.62
446.687	78.62
446.908	75.62
447.129	96.62
447.35	73.62
447.571	60.62
447.792	82.62
448.013	81.62
448.234	92.62
448.455	88.62
448.675	95.62
448.896	72.62
449.117	95.62
449.338	90.62
449.559	83.62
449.779	84.62
450	93.62
450.221	86.62
450.442	88.62
450.662	76.62
450.883	81.62
451.104	81.62
451.324	72.62
451.545	89.62
451.766	96.62
451.986	80.62
452.207	82.62
452.428	77.62
452.648	90.62
452.869	88.62
453.089	76.62
453.31	80.62
453.53	79.62
453.751	106.62
453.971	99.62
454.192	76.62
454.412	66.62
454.633	86.62
454.853	66.62
455.073	85.62
455.294	81.62
455.514	81.62
455.734	73.62
455.955	65.62
456.175	70.62
456.395	85.62
456.616	95.62
456.836	88.62
457.056	85.62
457.276	62.62
457.497	79.62
457.717	79.62
457.937	81.62
458.157	83.62
458.377	102.62
458.598	81.62
458.818	86.62
459.038	86.62
459.258	70.62
459.478	76.62
459.698	77.62
459.918	78.62
460.138	78.62
460.358	85.62
460.578	88.62
460.798	86.62
461.018	88.62
461.238	82.62
461.458	84.62
461.678	84.62
461.898	76.62
462.118	79.62
462.338	80.62
462.558	93.62
462.777	72.62
462.997	94.62
463.217	75.62
463.437	93.62
463.657	90.62
463.876	81.62
464.096	84.62
464.316	81.62
464.536	90.62
464.755	90.62
464.975	83.62
465.195	81.62
465.414	86.62
465.634	80.62
465.854	86.62
466.073	77.62
466.293	79.62
466.512	78.62
466.732	75.62
466.951	92.62
467.171	88.62
467.391	88.62
467.61	89.62
467.829	88.62
468.049	80.62
468.268	75.62
468.488	84.62
468.707	75.62
468.927	79.62
469.146	77.62
469.365	67.62
469.585	81.62
469.804	88.62
470.023	76.62
470.243	92.62
470.462	85.62
470.681	75.62
470.901	88.62
471.12	86.62
471.339	80.62
471.558	84.62
471.777	82.62
471.997	73.62
472.216	85.62
472.435	80.62
472.654	76.62
472.873	86.62
473.092	85.62
473.311	75.62
473.53	89.62
473.749	77.62
473.968	95.62
474.187	75.62
474.406	61.62
474.625	73.62
474.844	82.62
475.063	81.62
475.282	66.62
475.501	66.62
475.72	90.62
475.939	101.62
476.158	82.62
476.377	95.62
476.596	81.62
476.814	85.62
477.033	87.62
477.252	72.62
477.471	89.62
477.69	92.62
477.908	76.62
478.127	80.62
478.346	75.62
478.564	84.62
478.783	79.62
479.002	86.62
479.22	87.62
479.439	80.62
479.658	84.62
479.876	89.62
480.095	82.62
480.313	85.62
480.532	78.62
480.751	76.62
480.969	87.62
481.188	82.62
481.406	95.62
481.624	85.62
481.843	89.62
482.061	85.62
482.28	103.62
482.498	70.62
482.717	70.62
482.935	72.62
483.153	83.62
483.372	87.62
483.59	89.62
483.808	91.62
484.027	72.62
484.245	80.62
484.463	77.62
484.681	91.62
484.9	88.62
485.118	80.62
485.336	86.62
485.554	71.62
485.772	76.62
485.99	81.62
486.209	90.62
486.427	81.62
486.645	78.62
486.863	81.62
487.081	73.62
487.299	85.62
487.517	92.62
487.735	76.62
487.953	80.62
488.171	92.62
488.389	87.62
488.607	88.62
488.825	106.62
489.043	82.62
489.261	82.62
489.479	88.62
489.696	81.62
489.914	76.62
490.132	74.62
490.35	73.62
490.568	91.62
490.786	104.62
491.003	80.62
491.221	69.62
491.439	75.62
491.657	82.62
491.874	106.62
492.092	86.62
492.31	92.62
492.527	90.62
492.745	86.62
492.963	95.62
493.18	84.62
493.398	78.62
493.615	99.62
493.833	80.62
494.05	92.62
494.268	78.62
494.485	92.62
494.703	91.62
494.92	82.62
495.138	89.62
495.355	82.62
495.573	92.62
495.79	80.62
496.008	94.62
496.225	77.62
496.442	94.62
496.66	93.62
496.877	82.62
497.094	85.62
497.312	97.62
497.529	93.62
497.746	75.62
497.963	85.62
498.181	86.62
498.398	83.62
498.615	72.62
498.832	88.62
499.049	93.62
499.267	108.62
499.484	62.62
499.701	84.62
499.918	80.62
500.135	92.62
500.352	92.62
500.569	120.62
500.786	134.62
501.003	94.62
501.22	75.62
501.437	85.62
501.654	84.62
501.871	82.62
502.088	71.62
502.305	88.62
502.522	72.62
502.739	83.62
502.956	80.62
503.172	84.62
503.389	72.62
503.606	84.62
503.823	80.62
504.04	80.62
504.256	95.62
504.473	92.62
504.69	85.62
504.907	91.62
505.123	72.62
505.34	80.62
505.557	90.62
505.773	78.62
505.99	77.62
506.207	76.62
506.423	87.62
506.64	86.62
506.856	90.62
507.073	79.62
507.289	79.62
507.506	87.62
507.722	84.62
507.939	79.62
508.155	82.62
508.372	87.62
508.588	88.62
508.805	77.62
509.021	85.62
509.238	100.62
509.454	84.62
509.67	89.62
509.887	84.62
510.103	86.62
510.319	85.62
510.536	78.62
510.752	91.62
510.968	96.62
511.184	101.62
511.401	75.62
511.617	87.62
511.833	82.62
512.049	82.62
512.265	84.62
512.481	84.62
512.698	76.62
512.914	96.62
513.13	69.62
513.346	88.62
513.562	82.62
513.778	91.62
513.994	84.62
514.21	84.62
514.426	75.62
514.642	88.62
514.858	80.62
515.074	86.62
515.29	84.62
515.506	81.62
515.721	90.62
515.937	87.62
516.153	87.62
516.369	87.62
516.585	76.62
516.801	78.62
517.016	73.62
517.232	78.62
517.448	78.62
517.664	93.62
517.879	97.62
518.095	78.62
518.311	88.62
518.527	77.62
518.742	81.62
518.958	88.62
519.173	87.62
