Data from StdB_HRD10591_026.txt Node
Date: Fri May 16 15:24:59 EDT 2025
User: Yrep
Spectrometer: HR+D1059
Trigger mode: 1
Integration Time (sec): 1.000000E-1
Scans to average: 1
Electric dark correction enabled: true
Nonlinearity correction enabled: false
Boxcar width: 0
XAxis mode: Wavelengths
Number of Pixels in Spectrum: 2048
>>>>>Begin Spectral Data<<<<<
223.165	-25.31
223.4	-25.31
223.635	-25.31
223.869	-18.31
224.104	-8.31
224.338	-25.31
224.573	-19.31
224.808	-9.31
225.042	-23.31
225.277	4.69
225.511	-0.31
225.746	8.69
225.98	4.69
226.215	3.69
226.449	18.69
226.683	26.69
226.918	22.69
227.152	39.69
227.387	19.69
227.621	42.69
227.856	34.69
228.09	45.69
228.324	59.69
228.559	50.69
228.793	64.69
229.027	74.69
229.262	68.69
229.496	79.69
229.73	72.69
229.964	85.69
230.199	83.69
230.433	79.69
230.667	96.69
230.901	68.69
231.136	81.69
231.37	84.69
231.604	79.69
231.838	79.69
232.072	87.69
232.306	87.69
232.541	85.69
232.775	90.69
233.009	77.69
233.243	104.69
233.477	90.69
233.711	81.69
233.945	85.69
234.179	98.69
234.413	98.69
234.647	89.69
234.881	93.69
235.115	87.69
235.349	100.69
235.583	82.69
235.817	77.69
236.051	88.69
236.285	78.69
236.519	85.69
236.753	93.69
236.987	92.69
237.221	78.69
237.455	86.69
237.689	86.69
237.922	89.69
238.156	102.69
238.39	102.69
238.624	90.69
238.858	91.69
239.091	98.69
239.325	105.69
239.559	114.69
239.793	104.69
240.027	104.69
240.26	99.69
240.494	86.69
240.728	102.69
240.961	92.69
241.195	99.69
241.429	89.69
241.662	100.69
241.896	91.69
242.13	92.69
242.363	85.69
242.597	92.69
242.83	98.69
243.064	90.69
243.298	103.69
243.531	91.69
243.765	103.69
243.998	116.69
244.232	108.69
244.465	122.69
244.699	106.69
244.932	95.69
245.166	106.69
245.399	100.69
245.633	87.69
245.866	103.69
246.099	90.69
246.333	93.69
246.566	96.69
246.8	96.69
247.033	102.69
247.266	116.69
247.5	115.69
247.733	119.69
247.966	115.69
248.2	121.69
248.433	102.69
248.666	110.69
248.899	114.69
249.133	114.69
249.366	127.69
249.599	102.69
249.832	107.69
250.066	96.69
250.299	93.69
250.532	109.69
250.765	90.69
250.998	114.69
251.231	104.69
251.465	122.69
251.698	113.69
251.931	116.69
252.164	123.69
252.397	127.69
252.63	119.69
252.863	135.69
253.096	136.69
253.329	133.69
253.562	127.69
253.795	137.69
254.028	138.69
254.261	118.69
254.494	127.69
254.727	132.69
254.96	139.69
255.193	126.69
255.426	128.69
255.659	123.69
255.892	130.69
256.124	123.69
256.357	151.69
256.59	136.69
256.823	137.69
257.056	140.69
257.289	159.69
257.521	158.69
257.754	180.69
257.987	171.69
258.22	178.69
258.452	140.69
258.685	143.69
258.918	136.69
259.151	144.69
259.383	125.69
259.616	147.69
259.849	149.69
260.081	163.69
260.314	147.69
260.547	170.69
260.779	176.69
261.012	212.69
261.244	246.69
261.477	346.69
261.71	328.69
261.942	247.69
262.175	187.69
262.407	167.69
262.64	168.69
262.872	149.69
263.105	161.69
263.337	154.69
263.57	158.69
263.802	137.69
264.035	138.69
264.267	148.69
264.499	140.69
264.732	166.69
264.964	181.69
265.197	184.69
265.429	171.69
265.661	164.69
265.894	163.69
266.126	188.69
266.358	221.69
266.591	238.69
266.823	200.69
267.055	156.69
267.287	158.69
267.52	128.69
267.752	148.69
267.984	128.69
268.216	120.69
268.448	129.69
268.681	135.69
268.913	148.69
269.145	131.69
269.377	133.69
269.609	140.69
269.841	149.69
270.073	158.69
270.306	125.69
270.538	144.69
270.77	135.69
271.002	126.69
271.234	115.69
271.466	136.69
271.698	129.69
271.93	143.69
272.162	153.69
272.394	132.69
272.626	153.69
272.858	135.69
273.09	137.69
273.322	147.69
273.553	127.69
273.785	145.69
274.017	142.69
274.249	132.69
274.481	125.69
274.713	129.69
274.945	133.69
275.176	138.69
275.408	136.69
275.64	135.69
275.872	145.69
276.104	141.69
276.335	141.69
276.567	129.69
276.799	136.69
277.031	149.69
277.262	146.69
277.494	158.69
277.726	158.69
277.957	179.69
278.189	165.69
278.421	186.69
278.652	171.69
278.884	181.69
279.115	194.69
279.347	217.69
279.579	264.69
279.81	322.69
280.042	446.69
280.273	509.69
280.505	448.69
280.736	287.69
280.968	226.69
281.199	220.69
281.431	198.69
281.662	213.69
281.894	206.69
282.125	241.69
282.356	271.69
282.588	285.69
282.819	236.69
283.051	272.69
283.282	344.69
283.513	411.69
283.745	315.69
283.976	231.69
284.207	222.69
284.439	182.69
284.67	189.69
284.901	194.69
285.132	153.69
285.364	174.69
285.595	162.69
285.826	167.69
286.057	178.69
286.288	177.69
286.52	208.69
286.751	207.69
286.982	245.69
287.213	296.69
287.444	320.69
287.675	253.69
287.906	204.69
288.138	178.69
288.369	176.69
288.6	169.69
288.831	178.69
289.062	162.69
289.293	151.69
289.524	164.69
289.755	164.69
289.986	153.69
290.217	168.69
290.448	154.69
290.679	156.69
290.91	165.69
291.141	157.69
291.371	162.69
291.602	172.69
291.833	149.69
292.064	138.69
292.295	157.69
292.526	170.69
292.757	144.69
292.987	168.69
293.218	157.69
293.449	163.69
293.68	155.69
293.91	153.69
294.141	176.69
294.372	173.69
294.603	181.69
294.833	174.69
295.064	180.69
295.295	166.69
295.525	162.69
295.756	178.69
295.987	160.69
296.217	167.69
296.448	166.69
296.679	177.69
296.909	170.69
297.14	170.69
297.37	151.69
297.601	170.69
297.831	156.69
298.062	163.69
298.292	165.69
298.523	169.69
298.753	167.69
298.984	165.69
299.214	149.69
299.445	163.69
299.675	157.69
299.905	174.69
300.136	172.69
300.366	165.69
300.597	182.69
300.827	156.69
301.057	158.69
301.288	170.69
301.518	181.69
301.748	175.69
301.979	190.69
302.209	152.69
302.439	167.69
302.669	169.69
302.9	176.69
303.13	167.69
303.36	167.69
303.59	173.69
303.82	158.69
304.051	182.69
304.281	166.69
304.511	174.69
304.741	184.69
304.971	168.69
305.201	167.69
305.431	172.69
305.661	181.69
305.891	167.69
306.121	171.69
306.352	183.69
306.582	184.69
306.812	153.69
307.042	164.69
307.272	161.69
307.502	170.69
307.731	165.69
307.961	176.69
308.191	160.69
308.421	176.69
308.651	167.69
308.881	185.69
309.111	182.69
309.341	197.69
309.571	176.69
309.8	167.69
310.03	171.69
310.26	168.69
310.49	171.69
310.72	171.69
310.949	164.69
311.179	186.69
311.409	171.69
311.639	169.69
311.868	178.69
312.098	180.69
312.328	196.69
312.557	181.69
312.787	183.69
313.017	172.69
313.246	193.69
313.476	199.69
313.706	204.69
313.935	214.69
314.165	211.69
314.394	216.69
314.624	206.69
314.853	205.69
315.083	225.69
315.312	204.69
315.542	203.69
315.771	220.69
316.001	193.69
316.23	207.69
316.46	213.69
316.689	214.69
316.919	197.69
317.148	210.69
317.377	210.69
317.607	216.69
317.836	193.69
318.065	192.69
318.295	191.69
318.524	200.69
318.753	201.69
318.983	196.69
319.212	193.69
319.441	190.69
319.67	176.69
319.9	198.69
320.129	187.69
320.358	193.69
320.587	186.69
320.816	170.69
321.046	202.69
321.275	186.69
321.504	186.69
321.733	197.69
321.962	191.69
322.191	190.69
322.42	191.69
322.649	196.69
322.878	176.69
323.108	192.69
323.337	192.69
323.566	187.69
323.795	184.69
324.024	205.69
324.253	180.69
324.482	172.69
324.71	207.69
324.939	210.69
325.168	201.69
325.397	197.69
325.626	195.69
325.855	189.69
326.084	211.69
326.313	191.69
326.542	202.69
326.77	201.69
326.999	191.69
327.228	184.69
327.457	197.69
327.686	198.69
327.914	201.69
328.143	191.69
328.372	189.69
328.6	192.69
328.829	193.69
329.058	177.69
329.287	198.69
329.515	221.69
329.744	194.69
329.972	171.69
330.201	198.69
330.43	204.69
330.658	183.69
330.887	197.69
331.115	210.69
331.344	200.69
331.572	192.69
331.801	206.69
332.03	197.69
332.258	194.69
332.486	208.69
332.715	198.69
332.943	203.69
333.172	182.69
333.4	172.69
333.629	197.69
333.857	197.69
334.085	207.69
334.314	200.69
334.542	196.69
334.771	211.69
334.999	200.69
335.227	191.69
335.455	205.69
335.684	195.69
335.912	188.69
336.14	172.69
336.369	190.69
336.597	178.69
336.825	197.69
337.053	193.69
337.281	178.69
337.51	186.69
337.738	204.69
337.966	192.69
338.194	195.69
338.422	186.69
338.65	207.69
338.878	183.69
339.106	178.69
339.334	198.69
339.562	190.69
339.79	187.69
340.018	200.69
340.246	182.69
340.474	176.69
340.702	187.69
340.93	192.69
341.158	192.69
341.386	176.69
341.614	165.69
341.842	186.69
342.07	180.69
342.298	187.69
342.526	198.69
342.754	194.69
342.981	195.69
343.209	198.69
343.437	219.69
343.665	194.69
343.893	209.69
344.12	219.69
344.348	187.69
344.576	188.69
344.804	198.69
345.031	190.69
345.259	198.69
345.487	184.69
345.714	203.69
345.942	206.69
346.17	209.69
346.397	202.69
346.625	192.69
346.853	191.69
347.08	181.69
347.308	189.69
347.535	193.69
347.763	198.69
347.99	200.69
348.218	202.69
348.445	197.69
348.673	180.69
348.9	203.69
349.128	188.69
349.355	203.69
349.583	174.69
349.81	187.69
350.037	190.69
350.265	189.69
350.492	185.69
350.72	182.69
350.947	208.69
351.174	194.69
351.402	196.69
351.629	192.69
351.856	198.69
352.083	183.69
352.311	191.69
352.538	186.69
352.765	171.69
352.992	192.69
353.22	196.69
353.447	183.69
353.674	179.69
353.901	205.69
354.128	200.69
354.355	196.69
354.583	202.69
354.81	188.69
355.037	200.69
355.264	200.69
355.491	219.69
355.718	218.69
355.945	210.69
356.172	203.69
356.399	231.69
356.626	248.69
356.853	296.69
357.08	438.69
357.307	585.69
357.534	590.69
357.761	412.69
357.988	319.69
358.215	297.69
358.441	261.69
358.668	244.69
358.895	235.69
359.122	237.69
359.349	226.69
359.576	223.69
359.802	204.69
360.029	215.69
360.256	236.69
360.483	211.69
360.709	216.69
360.936	196.69
361.163	211.69
361.39	208.69
361.616	213.69
361.843	209.69
362.07	219.69
362.296	212.69
362.523	222.69
362.749	223.69
362.976	230.69
363.203	262.69
363.429	305.69
363.656	462.69
363.882	674.69
364.109	763.69
364.335	522.69
364.562	345.69
364.788	298.69
365.015	252.69
365.241	247.69
365.468	249.69
365.694	243.69
365.92	235.69
366.147	211.69
366.373	228.69
366.599	244.69
366.826	264.69
367.052	315.69
367.278	358.69
367.505	344.69
367.731	356.69
367.957	476.69
368.184	787.69
368.41	1039.69
368.636	876.69
368.862	516.69
369.089	358.69
369.315	322.69
369.541	274.69
369.767	254.69
369.993	238.69
370.219	240.69
370.445	221.69
370.672	231.69
370.898	238.69
371.124	217.69
371.35	219.69
371.576	227.69
371.802	231.69
372.028	226.69
372.254	234.69
372.48	215.69
372.706	234.69
372.932	240.69
373.158	250.69
373.384	266.69
373.61	335.69
373.835	511.69
374.061	628.69
374.287	559.69
374.513	381.69
374.739	306.69
374.965	267.69
375.191	238.69
375.416	239.69
375.642	229.69
375.868	216.69
376.094	223.69
376.319	204.69
376.545	212.69
376.771	213.69
376.997	207.69
377.222	210.69
377.448	222.69
377.674	214.69
377.899	206.69
378.125	200.69
378.35	238.69
378.576	219.69
378.802	218.69
379.027	207.69
379.253	211.69
379.478	207.69
379.704	226.69
379.929	216.69
380.155	204.69
380.38	218.69
380.606	216.69
380.831	205.69
381.057	209.69
381.282	198.69
381.507	192.69
381.733	210.69
381.958	213.69
382.184	206.69
382.409	204.69
382.634	215.69
382.86	196.69
383.085	199.69
383.31	225.69
383.535	213.69
383.761	214.69
383.986	208.69
384.211	212.69
384.436	222.69
384.662	206.69
384.887	223.69
385.112	232.69
385.337	230.69
385.562	221.69
385.787	212.69
386.013	222.69
386.238	232.69
386.463	234.69
386.688	225.69
386.913	216.69
387.138	217.69
387.363	211.69
387.588	224.69
387.813	215.69
388.038	210.69
388.263	200.69
388.488	207.69
388.713	207.69
388.938	217.69
389.163	230.69
389.387	202.69
389.612	206.69
389.837	210.69
390.062	221.69
390.287	226.69
390.512	220.69
390.736	196.69
390.961	205.69
391.186	212.69
391.411	199.69
391.636	198.69
391.86	228.69
392.085	219.69
392.31	227.69
392.534	229.69
392.759	247.69
392.984	222.69
393.208	234.69
393.433	229.69
393.658	209.69
393.882	222.69
394.107	214.69
394.331	227.69
394.556	208.69
394.78	211.69
395.005	216.69
395.229	226.69
395.454	235.69
395.678	235.69
395.903	221.69
396.127	223.69
396.352	224.69
396.576	231.69
396.801	221.69
397.025	230.69
397.249	235.69
397.474	232.69
397.698	215.69
397.922	228.69
398.147	228.69
398.371	218.69
398.595	240.69
398.82	234.69
399.044	242.69
399.268	252.69
399.492	260.69
399.717	257.69
399.941	260.69
400.165	264.69
400.389	248.69
400.613	248.69
400.837	239.69
401.062	236.69
401.286	249.69
401.51	267.69
401.734	286.69
401.958	306.69
402.182	316.69
402.406	268.69
402.63	252.69
402.854	255.69
403.078	239.69
403.302	245.69
403.526	262.69
403.75	249.69
403.974	284.69
404.198	293.69
404.422	302.69
404.645	326.69
404.869	319.69
405.093	378.69
405.317	508.69
405.541	840.69
405.765	1421.69
405.988	1622.69
406.212	1030.69
406.436	674.69
406.66	492.69
406.883	380.69
407.107	350.69
407.331	330.69
407.555	331.69
407.778	310.69
408.002	304.69
408.226	294.69
408.449	267.69
408.673	269.69
408.896	255.69
409.12	262.69
409.344	270.69
409.567	245.69
409.791	253.69
410.014	259.69
410.238	238.69
410.461	240.69
410.685	249.69
410.908	239.69
411.132	242.69
411.355	241.69
411.578	247.69
411.802	251.69
412.025	243.69
412.249	247.69
412.472	251.69
412.695	245.69
412.919	250.69
413.142	240.69
413.365	244.69
413.589	242.69
413.812	230.69
414.035	235.69
414.258	248.69
414.482	231.69
414.705	234.69
414.928	241.69
415.151	235.69
415.374	244.69
415.597	241.69
415.821	234.69
416.044	243.69
416.267	232.69
416.49	238.69
416.713	263.69
416.936	274.69
417.159	233.69
417.382	231.69
417.605	234.69
417.828	217.69
418.051	236.69
418.274	241.69
418.497	233.69
418.72	236.69
418.943	239.69
419.166	236.69
419.389	266.69
419.611	248.69
419.834	252.69
420.057	250.69
420.28	255.69
420.503	245.69
420.726	238.69
420.948	240.69
421.171	248.69
421.394	268.69
421.617	263.69
421.839	257.69
422.062	263.69
422.285	272.69
422.507	286.69
422.73	290.69
422.953	282.69
423.175	286.69
423.398	315.69
423.621	336.69
423.843	370.69
424.066	421.69
424.288	496.69
424.511	679.69
424.733	718.69
424.956	602.69
425.178	503.69
425.401	429.69
425.623	402.69
425.846	370.69
426.068	351.69
426.291	330.69
426.513	317.69
426.735	331.69
426.958	297.69
427.18	287.69
427.402	294.69
427.625	271.69
427.847	286.69
428.069	283.69
428.292	245.69
428.514	244.69
428.736	252.69
428.958	256.69
429.181	255.69
429.403	255.69
429.625	245.69
429.847	251.69
430.069	247.69
430.292	239.69
430.514	230.69
430.736	246.69
430.958	251.69
431.18	234.69
431.402	259.69
431.624	242.69
431.846	242.69
432.068	244.69
432.29	249.69
432.512	253.69
432.734	257.69
432.956	251.69
433.178	244.69
433.4	243.69
433.622	262.69
433.844	260.69
434.066	256.69
434.287	278.69
434.509	261.69
434.731	260.69
434.953	264.69
435.175	263.69
435.397	256.69
435.618	262.69
435.84	270.69
436.062	246.69
436.284	268.69
436.505	274.69
436.727	258.69
436.949	277.69
437.17	287.69
437.392	279.69
437.614	295.69
437.835	318.69
438.057	356.69
438.278	383.69
438.5	473.69
438.721	606.69
438.943	630.69
439.165	547.69
439.386	499.69
439.608	439.69
439.829	407.69
440.05	388.69
440.272	376.69
440.493	394.69
440.715	399.69
440.936	451.69
441.158	408.69
441.379	376.69
441.6	363.69
441.822	318.69
442.043	319.69
442.264	304.69
442.486	302.69
442.707	287.69
442.928	292.69
443.149	262.69
443.371	262.69
443.592	258.69
443.813	264.69
444.034	268.69
444.255	260.69
444.476	236.69
444.698	239.69
444.919	262.69
445.14	315.69
445.361	278.69
445.582	254.69
445.803	250.69
446.024	229.69
446.245	231.69
446.466	243.69
446.687	228.69
446.908	252.69
447.129	231.69
447.35	230.69
447.571	234.69
447.792	230.69
448.013	226.69
448.234	228.69
448.455	222.69
448.675	219.69
448.896	231.69
449.117	228.69
449.338	219.69
449.559	234.69
449.779	219.69
450	219.69
450.221	229.69
450.442	227.69
450.662	198.69
450.883	202.69
451.104	214.69
451.324	192.69
451.545	210.69
451.766	215.69
451.986	210.69
452.207	217.69
452.428	207.69
452.648	201.69
452.869	204.69
453.089	212.69
453.31	194.69
453.53	202.69
453.751	223.69
453.971	180.69
454.192	191.69
454.412	210.69
454.633	208.69
454.853	200.69
455.073	214.69
455.294	213.69
455.514	200.69
455.734	201.69
455.955	191.69
456.175	203.69
456.395	197.69
456.616	211.69
456.836	231.69
457.056	203.69
457.276	199.69
457.497	223.69
457.717	202.69
457.937	201.69
458.157	205.69
458.377	202.69
458.598	211.69
458.818	199.69
459.038	203.69
459.258	217.69
459.478	206.69
459.698	190.69
459.918	217.69
460.138	203.69
460.358	215.69
460.578	230.69
460.798	221.69
461.018	219.69
461.238	230.69
461.458	226.69
461.678	233.69
461.898	238.69
462.118	210.69
462.338	240.69
462.558	224.69
462.777	240.69
462.997	256.69
463.217	222.69
463.437	248.69
463.657	251.69
463.876	230.69
464.096	214.69
464.316	221.69
464.536	235.69
464.755	238.69
464.975	234.69
465.195	212.69
465.414	216.69
465.634	221.69
465.854	207.69
466.073	209.69
466.293	211.69
466.512	221.69
466.732	199.69
466.951	207.69
467.171	202.69
467.391	203.69
467.61	211.69
467.829	202.69
468.049	198.69
468.268	204.69
468.488	211.69
468.707	191.69
468.927	207.69
469.146	207.69
469.365	215.69
469.585	211.69
469.804	201.69
470.023	206.69
470.243	204.69
470.462	229.69
470.681	205.69
470.901	208.69
471.12	205.69
471.339	217.69
471.558	199.69
471.777	191.69
471.997	196.69
472.216	226.69
472.435	213.69
472.654	193.69
472.873	222.69
473.092	215.69
473.311	202.69
473.53	214.69
473.749	211.69
473.968	222.69
474.187	210.69
474.406	210.69
474.625	220.69
474.844	208.69
475.063	224.69
475.282	230.69
475.501	214.69
475.72	232.69
475.939	226.69
476.158	202.69
476.377	201.69
476.596	219.69
476.814	232.69
477.033	226.69
477.252	228.69
477.471	227.69
477.69	240.69
477.908	232.69
478.127	242.69
478.346	237.69
478.564	248.69
478.783	244.69
479.002	269.69
479.22	262.69
479.439	262.69
479.658	254.69
479.876	234.69
480.095	245.69
480.313	253.69
480.532	245.69
480.751	264.69
480.969	250.69
481.188	239.69
481.406	238.69
481.624	235.69
481.843	215.69
482.061	246.69
482.28	242.69
482.498	233.69
482.717	234.69
482.935	230.69
483.153	220.69
483.372	239.69
483.59	243.69
483.808	241.69
484.027	239.69
484.245	243.69
484.463	234.69
484.681	259.69
484.9	247.69
485.118	244.69
485.336	240.69
485.554	240.69
485.772	223.69
485.99	237.69
486.209	234.69
486.427	241.69
486.645	250.69
486.863	226.69
487.081	234.69
487.299	239.69
487.517	246.69
487.735	241.69
487.953	256.69
488.171	247.69
488.389	235.69
488.607	238.69
488.825	243.69
489.043	250.69
489.261	243.69
489.479	254.69
489.696	231.69
489.914	244.69
490.132	260.69
490.35	254.69
490.568	239.69
490.786	238.69
491.003	241.69
491.221	250.69
491.439	255.69
491.657	263.69
491.874	238.69
492.092	255.69
492.31	264.69
492.527	259.69
492.745	255.69
492.963	246.69
493.18	251.69
493.398	260.69
493.615	243.69
493.833	247.69
494.05	248.69
494.268	254.69
494.485	255.69
494.703	262.69
494.92	260.69
495.138	273.69
495.355	260.69
495.573	299.69
495.79	268.69
496.008	271.69
496.225	276.69
496.442	267.69
496.66	279.69
496.877	274.69
497.094	281.69
497.312	277.69
497.529	262.69
497.746	277.69
497.963	267.69
498.181	274.69
498.398	298.69
498.615	294.69
498.832	303.69
499.049	324.69
499.267	319.69
499.484	332.69
499.701	349.69
499.918	350.69
500.135	366.69
500.352	413.69
500.569	484.69
500.786	550.69
501.003	446.69
501.22	405.69
501.437	389.69
501.654	365.69
501.871	343.69
502.088	330.69
502.305	343.69
502.522	325.69
502.739	306.69
502.956	326.69
503.172	310.69
503.389	329.69
503.606	320.69
