Data from StdB_HRD10591_088.txt Node
Date: Fri May 16 15:25:30 EDT 2025
User: Yrep
Spectrometer: HR+D1059
Trigger mode: 1
Integration Time (sec): 1.000000E-1
Scans to average: 1
Electric dark correction enabled: true
Nonlinearity correction enabled: false
Boxcar width: 0
XAxis mode: Wavelengths
Number of Pixels in Spectrum: 2048
>>>>>Begin Spectral Data<<<<<
223.165	-13.25
223.4	-13.25
223.635	-13.25
223.869	-20.25
224.104	-21.25
224.338	-11.25
224.573	-17.25
224.808	-13.25
225.042	-5.25
225.277	-0.25
225.511	-12.25
225.746	-3.25
225.98	-8.25
226.215	14.75
226.449	20.75
226.683	22.75
226.918	29.75
227.152	37.75
227.387	30.75
227.621	47.75
227.856	50.75
228.09	39.75
228.324	52.75
228.559	68.75
228.793	59.75
229.027	72.75
229.262	68.75
229.496	86.75
229.73	72.75
229.964	76.75
230.199	83.75
230.433	65.75
230.667	72.75
230.901	76.75
231.136	68.75
231.37	98.75
231.604	86.75
231.838	80.75
232.072	83.75
232.306	83.75
232.541	74.75
232.775	67.75
233.009	68.75
233.243	73.75
233.477	85.75
233.711	80.75
233.945	76.75
234.179	95.75
234.413	74.75
234.647	79.75
234.881	79.75
235.115	74.75
235.349	76.75
235.583	79.75
235.817	88.75
236.051	77.75
236.285	68.75
236.519	84.75
236.753	76.75
236.987	61.75
237.221	58.75
237.455	70.75
237.689	77.75
237.922	59.75
238.156	89.75
238.39	72.75
238.624	75.75
238.858	70.75
239.091	71.75
239.325	75.75
239.559	84.75
239.793	71.75
240.027	85.75
240.26	95.75
240.494	70.75
240.728	72.75
240.961	83.75
241.195	59.75
241.429	75.75
241.662	76.75
241.896	79.75
242.13	59.75
242.363	63.75
242.597	65.75
242.83	74.75
243.064	71.75
243.298	86.75
243.531	72.75
243.765	76.75
243.998	83.75
244.232	65.75
244.465	79.75
244.699	80.75
244.932	81.75
245.166	68.75
245.399	68.75
245.633	65.75
245.866	84.75
246.099	91.75
246.333	88.75
246.566	73.75
246.8	62.75
247.033	74.75
247.266	68.75
247.5	59.75
247.733	84.75
247.966	68.75
248.2	100.75
248.433	78.75
248.666	69.75
248.899	74.75
249.133	77.75
249.366	87.75
249.599	65.75
249.832	82.75
250.066	73.75
250.299	71.75
250.532	84.75
250.765	78.75
250.998	81.75
251.231	76.75
251.465	77.75
251.698	91.75
251.931	79.75
252.164	81.75
252.397	79.75
252.63	87.75
252.863	71.75
253.096	82.75
253.329	89.75
253.562	84.75
253.795	82.75
254.028	85.75
254.261	64.75
254.494	89.75
254.727	92.75
254.96	87.75
255.193	78.75
255.426	78.75
255.659	70.75
255.892	75.75
256.124	69.75
256.357	82.75
256.59	78.75
256.823	88.75
257.056	81.75
257.289	78.75
257.521	88.75
257.754	84.75
257.987	92.75
258.22	90.75
258.452	73.75
258.685	78.75
258.918	80.75
259.151	86.75
259.383	80.75
259.616	88.75
259.849	82.75
260.081	96.75
260.314	79.75
260.547	88.75
260.779	84.75
261.012	84.75
261.244	87.75
261.477	85.75
261.71	83.75
261.942	91.75
262.175	85.75
262.407	89.75
262.64	83.75
262.872	74.75
263.105	79.75
263.337	75.75
263.57	72.75
263.802	79.75
264.035	89.75
264.267	75.75
264.499	91.75
264.732	79.75
264.964	79.75
265.197	72.75
265.429	87.75
265.661	80.75
265.894	77.75
266.126	71.75
266.358	84.75
266.591	82.75
266.823	68.75
267.055	86.75
267.287	79.75
267.52	84.75
267.752	77.75
267.984	68.75
268.216	76.75
268.448	81.75
268.681	88.75
268.913	75.75
269.145	82.75
269.377	84.75
269.609	78.75
269.841	78.75
270.073	82.75
270.306	73.75
270.538	74.75
270.77	75.75
271.002	84.75
271.234	76.75
271.466	79.75
271.698	68.75
271.93	91.75
272.162	74.75
272.394	75.75
272.626	68.75
272.858	76.75
273.09	95.75
273.322	84.75
273.553	76.75
273.785	81.75
274.017	72.75
274.249	78.75
274.481	92.75
274.713	75.75
274.945	75.75
275.176	70.75
275.408	83.75
275.64	77.75
275.872	82.75
276.104	67.75
276.335	70.75
276.567	90.75
276.799	77.75
277.031	83.75
277.262	69.75
277.494	90.75
277.726	71.75
277.957	84.75
278.189	84.75
278.421	83.75
278.652	77.75
278.884	87.75
279.115	87.75
279.347	75.75
279.579	68.75
279.81	86.75
280.042	107.75
280.273	104.75
280.505	101.75
280.736	83.75
280.968	84.75
281.199	79.75
281.431	88.75
281.662	80.75
281.894	96.75
282.125	95.75
282.356	94.75
282.588	102.75
282.819	76.75
283.051	92.75
283.282	92.75
283.513	110.75
283.745	82.75
283.976	98.75
284.207	82.75
284.439	82.75
284.67	80.75
284.901	74.75
285.132	99.75
285.364	87.75
285.595	89.75
285.826	71.75
286.057	78.75
286.288	92.75
286.52	90.75
286.751	90.75
286.982	99.75
287.213	92.75
287.444	103.75
287.675	94.75
287.906	78.75
288.138	87.75
288.369	72.75
288.6	72.75
288.831	76.75
289.062	80.75
289.293	86.75
289.524	88.75
289.755	78.75
289.986	79.75
290.217	84.75
290.448	74.75
290.679	78.75
290.91	89.75
291.141	88.75
291.371	75.75
291.602	83.75
291.833	80.75
292.064	88.75
292.295	81.75
292.526	78.75
292.757	95.75
292.987	72.75
293.218	85.75
293.449	88.75
293.68	82.75
293.91	85.75
294.141	91.75
294.372	80.75
294.603	85.75
294.833	91.75
295.064	84.75
295.295	76.75
295.525	89.75
295.756	93.75
295.987	87.75
296.217	70.75
296.448	83.75
296.679	82.75
296.909	85.75
297.14	85.75
297.37	74.75
297.601	86.75
297.831	77.75
298.062	93.75
298.292	88.75
298.523	88.75
298.753	91.75
298.984	90.75
299.214	85.75
299.445	85.75
299.675	85.75
299.905	90.75
300.136	84.75
300.366	85.75
300.597	83.75
300.827	87.75
301.057	85.75
301.288	102.75
301.518	93.75
301.748	76.75
301.979	86.75
302.209	85.75
302.439	87.75
302.669	78.75
302.9	82.75
303.13	85.75
303.36	85.75
303.59	72.75
303.82	87.75
304.051	82.75
304.281	66.75
304.511	86.75
304.741	81.75
304.971	82.75
305.201	77.75
305.431	86.75
305.661	82.75
305.891	71.75
306.121	80.75
306.352	82.75
306.582	79.75
306.812	78.75
307.042	80.75
307.272	88.75
307.502	79.75
307.731	83.75
307.961	84.75
308.191	80.75
308.421	80.75
308.651	83.75
308.881	102.75
309.111	77.75
309.341	90.75
309.571	68.75
309.8	83.75
310.03	70.75
310.26	77.75
310.49	92.75
310.72	77.75
310.949	72.75
311.179	84.75
311.409	67.75
311.639	92.75
311.868	82.75
312.098	84.75
312.328	80.75
312.557	94.75
312.787	95.75
313.017	88.75
313.246	79.75
313.476	76.75
313.706	94.75
313.935	85.75
314.165	84.75
314.394	85.75
314.624	66.75
314.853	76.75
315.083	84.75
315.312	93.75
315.542	89.75
315.771	100.75
316.001	79.75
316.23	82.75
316.46	84.75
316.689	72.75
316.919	89.75
317.148	86.75
317.377	87.75
317.607	86.75
317.836	73.75
318.065	88.75
318.295	86.75
318.524	77.75
318.753	87.75
318.983	72.75
319.212	83.75
319.441	89.75
319.67	91.75
319.9	77.75
320.129	74.75
320.358	79.75
320.587	84.75
320.816	76.75
321.046	64.75
321.275	98.75
321.504	86.75
321.733	68.75
321.962	76.75
322.191	90.75
322.42	78.75
322.649	84.75
322.878	69.75
323.108	74.75
323.337	85.75
323.566	77.75
323.795	91.75
324.024	89.75
324.253	85.75
324.482	81.75
324.71	73.75
324.939	79.75
325.168	78.75
325.397	77.75
325.626	79.75
325.855	83.75
326.084	92.75
326.313	90.75
326.542	73.75
326.77	84.75
326.999	88.75
327.228	77.75
327.457	89.75
327.686	89.75
327.914	93.75
328.143	76.75
328.372	75.75
328.6	79.75
328.829	76.75
329.058	82.75
329.287	85.75
329.515	81.75
329.744	72.75
329.972	83.75
330.201	92.75
330.43	78.75
330.658	83.75
330.887	84.75
331.115	73.75
331.344	70.75
331.572	76.75
331.801	88.75
332.03	80.75
332.258	82.75
332.486	80.75
332.715	88.75
332.943	77.75
333.172	69.75
333.4	61.75
333.629	89.75
333.857	75.75
334.085	74.75
334.314	76.75
334.542	79.75
334.771	93.75
334.999	77.75
335.227	77.75
335.455	88.75
335.684	79.75
335.912	84.75
336.14	74.75
336.369	79.75
336.597	94.75
336.825	82.75
337.053	78.75
337.281	75.75
337.51	73.75
337.738	87.75
337.966	100.75
338.194	86.75
338.422	86.75
338.65	87.75
338.878	80.75
339.106	63.75
339.334	74.75
339.562	95.75
339.79	75.75
340.018	79.75
340.246	88.75
340.474	85.75
340.702	78.75
340.93	80.75
341.158	88.75
341.386	78.75
341.614	79.75
341.842	83.75
342.07	83.75
342.298	89.75
342.526	79.75
342.754	71.75
342.981	87.75
343.209	96.75
343.437	85.75
343.665	74.75
343.893	82.75
344.12	75.75
344.348	78.75
344.576	88.75
344.804	82.75
345.031	73.75
345.259	74.75
345.487	79.75
345.714	80.75
345.942	84.75
346.17	87.75
346.397	82.75
346.625	86.75
346.853	77.75
347.08	70.75
347.308	83.75
347.535	61.75
347.763	69.75
347.99	79.75
348.218	73.75
348.445	79.75
348.673	69.75
348.9	84.75
349.128	84.75
349.355	71.75
349.583	83.75
349.81	72.75
350.037	79.75
350.265	89.75
350.492	90.75
350.72	77.75
350.947	77.75
351.174	77.75
351.402	80.75
351.629	87.75
351.856	84.75
352.083	72.75
352.311	90.75
352.538	72.75
352.765	84.75
352.992	80.75
353.22	84.75
353.447	78.75
353.674	92.75
353.901	92.75
354.128	70.75
354.355	91.75
354.583	84.75
354.81	93.75
355.037	80.75
355.264	82.75
355.491	79.75
355.718	79.75
355.945	70.75
356.172	75.75
356.399	78.75
356.626	95.75
356.853	93.75
357.08	120.75
357.307	128.75
357.534	123.75
357.761	103.75
357.988	86.75
358.215	74.75
358.441	78.75
358.668	82.75
358.895	93.75
359.122	92.75
359.349	91.75
359.576	82.75
359.802	78.75
360.029	76.75
360.256	86.75
360.483	77.75
360.709	87.75
360.936	75.75
361.163	86.75
361.39	80.75
361.616	78.75
361.843	83.75
362.07	70.75
362.296	62.75
362.523	87.75
362.749	87.75
362.976	79.75
363.203	80.75
363.429	93.75
363.656	92.75
363.882	135.75
364.109	165.75
364.335	115.75
364.562	91.75
364.788	106.75
365.015	68.75
365.241	79.75
365.468	87.75
365.694	75.75
365.92	92.75
366.147	77.75
366.373	84.75
366.599	84.75
366.826	86.75
367.052	98.75
367.278	95.75
367.505	94.75
367.731	100.75
367.957	119.75
368.184	159.75
368.41	190.75
368.636	146.75
368.862	93.75
369.089	104.75
369.315	94.75
369.541	83.75
369.767	80.75
369.993	86.75
370.219	64.75
370.445	82.75
370.672	69.75
370.898	89.75
371.124	86.75
371.35	80.75
371.576	75.75
371.802	88.75
372.028	74.75
372.254	95.75
372.48	74.75
372.706	76.75
372.932	94.75
373.158	79.75
373.384	100.75
373.61	100.75
373.835	116.75
374.061	131.75
374.287	102.75
374.513	87.75
374.739	78.75
374.965	91.75
375.191	82.75
375.416	88.75
375.642	72.75
375.868	72.75
376.094	80.75
376.319	94.75
376.545	88.75
376.771	84.75
376.997	87.75
377.222	70.75
377.448	84.75
377.674	69.75
377.899	78.75
378.125	77.75
378.35	83.75
378.576	84.75
378.802	72.75
379.027	80.75
379.253	80.75
379.478	84.75
379.704	77.75
379.929	92.75
380.155	75.75
380.38	84.75
380.606	76.75
380.831	74.75
381.057	94.75
381.282	75.75
381.507	91.75
381.733	78.75
381.958	66.75
382.184	81.75
382.409	78.75
382.634	80.75
382.86	65.75
383.085	84.75
383.31	75.75
383.535	91.75
383.761	74.75
383.986	85.75
384.211	62.75
384.436	71.75
384.662	76.75
384.887	65.75
385.112	72.75
385.337	79.75
385.562	80.75
385.787	80.75
386.013	74.75
386.238	84.75
386.463	89.75
386.688	80.75
386.913	80.75
387.138	93.75
387.363	87.75
387.588	75.75
387.813	87.75
388.038	80.75
388.263	83.75
388.488	85.75
388.713	72.75
388.938	87.75
389.163	70.75
389.387	84.75
389.612	84.75
389.837	87.75
390.062	98.75
390.287	86.75
390.512	82.75
390.736	86.75
390.961	77.75
391.186	86.75
391.411	88.75
391.636	75.75
391.86	75.75
392.085	78.75
392.31	83.75
392.534	86.75
392.759	74.75
392.984	72.75
393.208	94.75
393.433	83.75
393.658	73.75
393.882	80.75
394.107	77.75
394.331	86.75
394.556	80.75
394.78	75.75
395.005	55.75
395.229	88.75
395.454	85.75
395.678	77.75
395.903	83.75
396.127	78.75
396.352	70.75
396.576	86.75
396.801	80.75
397.025	74.75
397.249	88.75
397.474	83.75
397.698	71.75
397.922	73.75
398.147	83.75
398.371	85.75
398.595	87.75
398.82	76.75
399.044	74.75
399.268	68.75
399.492	85.75
399.717	79.75
399.941	82.75
400.165	76.75
400.389	70.75
400.613	87.75
400.837	88.75
401.062	64.75
401.286	94.75
401.51	82.75
401.734	69.75
401.958	106.75
402.182	106.75
402.406	76.75
402.63	90.75
402.854	84.75
403.078	81.75
403.302	81.75
403.526	77.75
403.75	79.75
403.974	88.75
404.198	82.75
404.422	72.75
404.645	96.75
404.869	95.75
405.093	84.75
405.317	107.75
405.541	170.75
405.765	264.75
405.988	296.75
406.212	184.75
406.436	105.75
406.66	96.75
406.883	78.75
407.107	77.75
407.331	78.75
407.555	80.75
407.778	63.75
408.002	83.75
408.226	68.75
408.449	73.75
408.673	86.75
408.896	61.75
409.12	76.75
409.344	80.75
409.567	71.75
409.791	68.75
410.014	68.75
410.238	67.75
410.461	90.75
410.685	78.75
410.908	60.75
411.132	76.75
411.355	82.75
411.578	84.75
411.802	73.75
412.025	74.75
412.249	78.75
412.472	80.75
412.695	82.75
412.919	88.75
413.142	73.75
413.365	80.75
413.589	83.75
413.812	80.75
414.035	86.75
414.258	81.75
414.482	70.75
414.705	93.75
414.928	81.75
415.151	76.75
415.374	67.75
415.597	73.75
415.821	73.75
416.044	88.75
416.267	81.75
416.49	74.75
416.713	83.75
416.936	88.75
417.159	91.75
417.382	79.75
417.605	86.75
417.828	78.75
418.051	83.75
418.274	86.75
418.497	67.75
418.72	72.75
418.943	83.75
419.166	78.75
419.389	86.75
419.611	84.75
419.834	85.75
420.057	78.75
420.28	89.75
420.503	85.75
420.726	86.75
420.948	93.75
421.171	79.75
421.394	86.75
421.617	76.75
421.839	70.75
422.062	76.75
422.285	70.75
422.507	75.75
422.73	94.75
422.953	81.75
423.175	76.75
423.398	80.75
423.621	80.75
423.843	74.75
424.066	77.75
424.288	79.75
424.511	81.75
424.733	84.75
424.956	92.75
425.178	85.75
425.401	78.75
425.623	72.75
425.846	91.75
426.068	84.75
426.291	72.75
426.513	72.75
426.735	94.75
426.958	87.75
427.18	87.75
427.402	81.75
427.625	69.75
427.847	78.75
428.069	78.75
428.292	82.75
428.514	65.75
428.736	70.75
428.958	82.75
429.181	91.75
429.403	72.75
429.625	84.75
429.847	87.75
430.069	101.75
430.292	76.75
430.514	81.75
430.736	91.75
430.958	93.75
431.18	80.75
431.402	92.75
431.624	78.75
431.846	93.75
432.068	90.75
432.29	79.75
432.512	84.75
432.734	73.75
432.956	90.75
433.178	80.75
433.4	92.75
433.622	82.75
433.844	84.75
434.066	84.75
434.287	79.75
434.509	79.75
434.731	80.75
434.953	75.75
435.175	77.75
435.397	83.75
435.618	94.75
435.84	68.75
436.062	86.75
436.284	87.75
436.505	93.75
436.727	65.75
436.949	74.75
437.17	76.75
437.392	83.75
437.614	85.75
437.835	71.75
438.057	58.75
438.278	81.75
438.5	77.75
438.721	93.75
438.943	87.75
439.165	86.75
439.386	86.75
439.608	92.75
439.829	76.75
440.05	84.75
440.272	68.75
440.493	74.75
440.715	91.75
440.936	78.75
441.158	82.75
441.379	85.75
441.6	87.75
441.822	82.75
442.043	83.75
442.264	83.75
442.486	85.75
442.707	87.75
442.928	82.75
443.149	87.75
443.371	76.75
443.592	82.75
443.813	74.75
444.034	82.75
444.255	89.75
444.476	84.75
444.698	85.75
444.919	82.75
445.14	162.75
445.361	118.75
445.582	84.75
445.803	88.75
446.024	71.75
446.245	95.75
446.466	78.75
446.687	87.75
446.908	89.75
447.129	86.75
447.35	59.75
447.571	80.75
447.792	84.75
448.013	87.75
448.234	72.75
448.455	71.75
448.675	79.75
448.896	85.75
449.117	81.75
449.338	83.75
449.559	81.75
449.779	65.75
450	93.75
450.221	87.75
450.442	95.75
450.662	73.75
450.883	95.75
451.104	85.75
451.324	68.75
451.545	62.75
451.766	80.75
451.986	77.75
452.207	83.75
452.428	70.75
452.648	85.75
452.869	91.75
453.089	77.75
453.31	82.75
453.53	72.75
453.751	78.75
453.971	82.75
454.192	87.75
454.412	74.75
454.633	77.75
454.853	81.75
455.073	70.75
455.294	83.75
455.514	82.75
455.734	82.75
455.955	81.75
456.175	66.75
456.395	78.75
456.616	75.75
456.836	76.75
457.056	72.75
457.276	81.75
457.497	76.75
457.717	78.75
457.937	69.75
458.157	81.75
458.377	85.75
458.598	91.75
458.818	75.75
459.038	73.75
459.258	65.75
459.478	79.75
459.698	75.75
459.918	71.75
460.138	92.75
460.358	82.75
460.578	89.75
460.798	96.75
461.018	80.75
461.238	79.75
461.458	82.75
461.678	72.75
461.898	79.75
462.118	78.75
462.338	81.75
462.558	87.75
462.777	90.75
462.997	74.75
463.217	73.75
463.437	83.75
463.657	93.75
463.876	83.75
464.096	79.75
464.316	75.75
464.536	75.75
464.755	95.75
464.975	85.75
465.195	71.75
465.414	89.75
465.634	89.75
465.854	65.75
466.073	82.75
466.293	81.75
466.512	78.75
466.732	89.75
466.951	70.75
467.171	82.75
467.391	73.75
467.61	71.75
467.829	81.75
468.049	100.75
468.268	80.75
468.488	70.75
468.707	67.75
468.927	90.75
469.146	83.75
469.365	90.75
469.585	84.75
469.804	91.75
470.023	78.75
470.243	84.75
470.462	78.75
470.681	78.75
470.901	75.75
471.12	78.75
471.339	76.75
471.558	75.75
471.777	67.75
471.997	65.75
472.216	79.75
472.435	78.75
472.654	82.75
472.873	78.75
473.092	75.75
473.311	76.75
473.53	91.75
473.749	88.75
473.968	77.75
474.187	78.75
474.406	75.75
474.625	75.75
474.844	74.75
475.063	72.75
475.282	79.75
475.501	83.75
475.72	76.75
475.939	73.75
476.158	73.75
476.377	85.75
476.596	79.75
476.814	78.75
477.033	79.75
477.252	73.75
477.471	76.75
477.69	82.75
477.908	80.75
478.127	78.75
478.346	83.75
478.564	100.75
478.783	70.75
479.002	80.75
479.22	64.75
479.439	77.75
479.658	84.75
479.876	62.75
480.095	74.75
480.313	74.75
480.532	80.75
480.751	67.75
480.969	86.75
481.188	79.75
481.406	83.75
481.624	71.75
481.843	72.75
482.061	73.75
482.28	80.75
482.498	89.75
482.717	90.75
482.935	79.75
483.153	76.75
483.372	72.75
483.59	83.75
483.808	73.75
484.027	97.75
484.245	80.75
484.463	70.75
484.681	81.75
484.9	79.75
485.118	87.75
485.336	79.75
485.554	89.75
485.772	83.75
485.99	92.75
486.209	87.75
486.427	76.75
486.645	74.75
486.863	84.75
487.081	74.75
487.299	92.75
487.517	87.75
487.735	74.75
487.953	98.75
488.171	85.75
488.389	85.75
488.607	81.75
488.825	64.75
489.043	85.75
489.261	95.75
489.479	94.75
489.696	89.75
489.914	90.75
490.132	64.75
490.35	78.75
490.568	67.75
490.786	84.75
491.003	100.75
491.221	92.75
491.439	88.75
491.657	83.75
491.874	90.75
492.092	89.75
492.31	76.75
492.527	74.75
492.745	93.75
492.963	91.75
493.18	79.75
493.398	93.75
493.615	100.75
493.833	80.75
494.05	85.75
494.268	89.75
494.485	80.75
494.703	91.75
494.92	86.75
495.138	81.75
495.355	103.75
495.573	84.75
495.79	77.75
496.008	96.75
496.225	67.75
496.442	87.75
496.66	78.75
496.877	77.75
497.094	87.75
497.312	83.75
497.529	80.75
497.746	84.75
497.963	83.75
498.181	73.75
498.398	72.75
498.615	82.75
498.832	77.75
499.049	78.75
499.267	80.75
499.484	79.75
499.701	80.75
499.918	90.75
500.135	78.75
500.352	98.75
500.569	102.75
500.786	117.75
501.003	80.75
501.22	97.75
501.437	93.75
501.654	91.75
501.871	68.75
502.088	93.75
502.305	87.75
502.522	86.75
502.739	69.75
502.956	72.75
503.172	84.75
503.389	91.75
503.606	78.75
503.823	68.75
504.04	82.75
504.256	72.75
504.473	71.75
504.69	85.75
504.907	99.75
505.123	90.75
505.34	80.75
505.557	87.75
505.773	78.75
505.99	82.75
506.207	83.75
506.423	76.75
506.64	75.75
506.856	74.75
507.073	65.75
507.289	79.75
507.506	92.75
507.722	87.75
507.939	75.75
508.155	79.75
508.372	82.75
508.588	80.75
508.805	92.75
509.021	80.75
509.238	82.75
509.454	70.75
509.67	75.75
509.887	71.75
510.103	96.75
510.319	80.75
510.536	69.75
510.752	76.75
510.968	79.75
511.184	83.75
511.401	73.75
511.617	78.75
511.833	85.75
512.049	79.75
512.265	83.75
512.481	86.75
512.698	86.75
512.914	89.75
513.13	74.75
513.346	82.75
513.562	71.75
513.778	88.75
513.994	94.75
514.21	88.75
514.426	78.75
514.642	81.75
514.858	86.75
515.074	83.75
515.29	74.75
515.506	82.75
515.721	70.75
515.937	80.75
516.153	81.75
516.369	90.75
516.585	90.75
516.801	87.75
517.016	83.75
517.232	85.75
517.448	93.75
517.664	74.75
517.879	75.75
518.095	70.75
518.311	83.75
518.527	78.75
518.742	90.75
518.958	88.75
519.173	90.75
519.389	86.75
519.605	64.75
