Data from StdB_HRD10591_086.txt Node
Date: Fri May 16 15:25:29 EDT 2025
User: Yrep
Spectrometer: HR+D1059
Trigger mode: 1
Integration Time (sec): 1.000000E-1
Scans to average: 1
Electric dark correction enabled: true
Nonlinearity correction enabled: false
Boxcar width: 0
XAxis mode: Wavelengths
Number of Pixels in Spectrum: 2048
>>>>>Begin Spectral Data<<<<<
223.165	-16
223.4	-16
223.635	-16
223.869	-23
224.104	-24
224.338	-16
224.573	-32
224.808	-14
225.042	-7
225.277	11
225.511	-7
225.746	14
225.98	15
226.215	8
226.449	13
226.683	24
226.918	22
227.152	32
227.387	35
227.621	33
227.856	56
228.09	57
228.324	54
228.559	52
228.793	50
229.027	74
229.262	65
229.496	71
229.73	61
229.964	84
230.199	64
230.433	76
230.667	82
230.901	82
231.136	91
231.37	77
231.604	89
231.838	77
232.072	80
232.306	85
232.541	79
232.775	89
233.009	92
233.243	84
233.477	89
233.711	93
233.945	89
234.179	80
234.413	96
234.647	76
234.881	78
235.115	82
235.349	79
235.583	70
235.817	93
236.051	79
236.285	82
236.519	85
236.753	71
236.987	81
237.221	74
237.455	77
237.689	59
237.922	81
238.156	69
238.39	78
238.624	89
238.858	66
239.091	73
239.325	75
239.559	89
239.793	90
240.027	79
240.26	83
240.494	84
240.728	93
240.961	67
241.195	82
241.429	81
241.662	85
241.896	76
242.13	79
242.363	77
242.597	74
242.83	84
243.064	64
243.298	88
243.531	83
243.765	82
243.998	82
244.232	84
244.465	78
244.699	82
244.932	89
245.166	75
245.399	79
245.633	74
245.866	79
246.099	77
246.333	78
246.566	76
246.8	94
247.033	93
247.266	81
247.5	83
247.733	83
247.966	89
248.2	88
248.433	85
248.666	91
248.899	84
249.133	78
249.366	78
249.599	79
249.832	74
250.066	81
250.299	84
250.532	86
250.765	83
250.998	77
251.231	89
251.465	77
251.698	71
251.931	72
252.164	97
252.397	92
252.63	77
252.863	66
253.096	83
253.329	90
253.562	84
253.795	94
254.028	99
254.261	81
254.494	88
254.727	80
254.96	77
255.193	93
255.426	83
255.659	85
255.892	80
256.124	94
256.357	81
256.59	96
256.823	88
257.056	82
257.289	82
257.521	80
257.754	86
257.987	100
258.22	91
258.452	73
258.685	85
258.918	90
259.151	90
259.383	76
259.616	80
259.849	98
260.081	98
260.314	94
260.547	97
260.779	85
261.012	81
261.244	80
261.477	85
261.71	98
261.942	92
262.175	93
262.407	84
262.64	96
262.872	95
263.105	97
263.337	84
263.57	97
263.802	79
264.035	72
264.267	80
264.499	80
264.732	95
264.964	91
265.197	80
265.429	79
265.661	78
265.894	83
266.126	84
266.358	79
266.591	83
266.823	92
267.055	77
267.287	83
267.52	79
267.752	77
267.984	60
268.216	76
268.448	88
268.681	89
268.913	94
269.145	73
269.377	81
269.609	90
269.841	93
270.073	60
270.306	95
270.538	92
270.77	97
271.002	89
271.234	77
271.466	80
271.698	90
271.93	84
272.162	88
272.394	90
272.626	84
272.858	100
273.09	88
273.322	88
273.553	95
273.785	84
274.017	88
274.249	90
274.481	80
274.713	91
274.945	87
275.176	81
275.408	81
275.64	88
275.872	94
276.104	75
276.335	65
276.567	96
276.799	71
277.031	87
277.262	79
277.494	87
277.726	92
277.957	88
278.189	80
278.421	89
278.652	88
278.884	89
279.115	78
279.347	83
279.579	85
279.81	83
280.042	95
280.273	108
280.505	106
280.736	79
280.968	75
281.199	80
281.431	80
281.662	82
281.894	84
282.125	88
282.356	82
282.588	80
282.819	82
283.051	88
283.282	105
283.513	107
283.745	85
283.976	93
284.207	83
284.439	108
284.67	77
284.901	88
285.132	89
285.364	89
285.595	88
285.826	81
286.057	79
286.288	81
286.52	65
286.751	90
286.982	89
287.213	83
287.444	100
287.675	86
287.906	91
288.138	80
288.369	97
288.6	79
288.831	75
289.062	79
289.293	85
289.524	85
289.755	92
289.986	107
290.217	89
290.448	95
290.679	73
290.91	82
291.141	80
291.371	80
291.602	72
291.833	93
292.064	93
292.295	87
292.526	87
292.757	95
292.987	92
293.218	91
293.449	88
293.68	82
293.91	85
294.141	75
294.372	96
294.603	95
294.833	85
295.064	83
295.295	88
295.525	75
295.756	86
295.987	91
296.217	92
296.448	74
296.679	83
296.909	86
297.14	91
297.37	79
297.601	89
297.831	94
298.062	83
298.292	85
298.523	75
298.753	99
298.984	84
299.214	86
299.445	84
299.675	84
299.905	77
300.136	95
300.366	79
300.597	92
300.827	85
301.057	81
301.288	93
301.518	76
301.748	96
301.979	82
302.209	91
302.439	81
302.669	79
302.9	68
303.13	90
303.36	79
303.59	89
303.82	87
304.051	112
304.281	93
304.511	87
304.741	85
304.971	88
305.201	89
305.431	95
305.661	93
305.891	91
306.121	80
306.352	87
306.582	80
306.812	91
307.042	87
307.272	88
307.502	86
307.731	76
307.961	87
308.191	78
308.421	98
308.651	72
308.881	88
309.111	89
309.341	79
309.571	85
309.8	103
310.03	81
310.26	79
310.49	96
310.72	85
310.949	93
311.179	86
311.409	77
311.639	107
311.868	106
312.098	103
312.328	89
312.557	85
312.787	91
313.017	97
313.246	98
313.476	85
313.706	92
313.935	111
314.165	91
314.394	82
314.624	98
314.853	91
315.083	88
315.312	83
315.542	98
315.771	72
316.001	91
316.23	91
316.46	100
316.689	88
316.919	87
317.148	79
317.377	87
317.607	84
317.836	83
318.065	74
318.295	88
318.524	83
318.753	92
318.983	89
319.212	81
319.441	81
319.67	92
319.9	86
320.129	87
320.358	96
320.587	74
320.816	85
321.046	87
321.275	94
321.504	74
321.733	89
321.962	98
322.191	92
322.42	96
322.649	83
322.878	93
323.108	103
323.337	87
323.566	98
323.795	88
324.024	89
324.253	72
324.482	95
324.71	87
324.939	102
325.168	103
325.397	70
325.626	81
325.855	77
326.084	89
326.313	87
326.542	91
326.77	75
326.999	74
327.228	81
327.457	87
327.686	74
327.914	73
328.143	89
328.372	90
328.6	71
328.829	101
329.058	81
329.287	89
329.515	82
329.744	79
329.972	87
330.201	96
330.43	90
330.658	89
330.887	92
331.115	91
331.344	79
331.572	92
331.801	95
332.03	89
332.258	99
332.486	79
332.715	74
332.943	84
333.172	98
333.4	95
333.629	80
333.857	92
334.085	87
334.314	91
334.542	84
334.771	92
334.999	76
335.227	82
335.455	95
335.684	83
335.912	81
336.14	92
336.369	99
336.597	88
336.825	94
337.053	89
337.281	100
337.51	92
337.738	80
337.966	73
338.194	87
338.422	82
338.65	79
338.878	91
339.106	86
339.334	87
339.562	68
339.79	85
340.018	92
340.246	85
340.474	77
340.702	87
340.93	106
341.158	66
341.386	85
341.614	83
341.842	84
342.07	87
342.298	79
342.526	99
342.754	94
342.981	89
343.209	81
343.437	79
343.665	90
343.893	94
344.12	89
344.348	93
344.576	91
344.804	82
345.031	76
345.259	84
345.487	75
345.714	84
345.942	95
346.17	82
346.397	82
346.625	85
346.853	80
347.08	97
347.308	94
347.535	78
347.763	80
347.99	74
348.218	89
348.445	82
348.673	72
348.9	82
349.128	93
349.355	87
349.583	84
349.81	93
350.037	83
350.265	93
350.492	84
350.72	94
350.947	91
351.174	85
351.402	78
351.629	84
351.856	78
352.083	87
352.311	93
352.538	78
352.765	79
352.992	83
353.22	87
353.447	77
353.674	98
353.901	93
354.128	93
354.355	101
354.583	82
354.81	92
355.037	74
355.264	95
355.491	81
355.718	80
355.945	85
356.172	82
356.399	83
356.626	89
356.853	95
357.08	121
357.307	143
357.534	132
357.761	83
357.988	84
358.215	83
358.441	83
358.668	83
358.895	84
359.122	82
359.349	88
359.576	87
359.802	78
360.029	92
360.256	100
360.483	105
360.709	79
360.936	91
361.163	92
361.39	83
361.616	95
361.843	85
362.07	100
362.296	88
362.523	85
362.749	100
362.976	78
363.203	105
363.429	107
363.656	140
363.882	136
364.109	171
364.335	115
364.562	99
364.788	83
365.015	78
365.241	97
365.468	73
365.694	83
365.92	107
366.147	88
366.373	99
366.599	85
366.826	104
367.052	105
367.278	114
367.505	109
367.731	106
367.957	123
368.184	171
368.41	216
368.636	169
368.862	105
369.089	83
369.315	82
369.541	92
369.767	90
369.993	86
370.219	90
370.445	80
370.672	83
370.898	83
371.124	66
371.35	84
371.576	83
371.802	112
372.028	56
372.254	67
372.48	66
372.706	90
372.932	72
373.158	99
373.384	108
373.61	103
373.835	114
374.061	122
374.287	128
374.513	91
374.739	100
374.965	74
375.191	76
375.416	79
375.642	89
375.868	83
376.094	77
376.319	85
376.545	91
376.771	86
376.997	91
377.222	92
377.448	77
377.674	82
377.899	82
378.125	82
378.35	94
378.576	77
378.802	81
379.027	79
379.253	82
379.478	89
379.704	91
379.929	95
380.155	83
380.38	81
380.606	89
380.831	77
381.057	86
381.282	84
381.507	73
381.733	78
381.958	93
382.184	89
382.409	83
382.634	93
382.86	83
383.085	81
383.31	86
383.535	82
383.761	84
383.986	73
384.211	87
384.436	78
384.662	67
384.887	67
385.112	75
385.337	80
385.562	91
385.787	83
386.013	96
386.238	97
386.463	80
386.688	108
386.913	88
387.138	78
387.363	73
387.588	84
387.813	76
388.038	79
388.263	78
388.488	82
388.713	83
388.938	89
389.163	97
389.387	88
389.612	77
389.837	99
390.062	78
390.287	85
390.512	91
390.736	75
390.961	91
391.186	83
391.411	94
391.636	72
391.86	71
392.085	79
392.31	84
392.534	85
392.759	80
392.984	84
393.208	82
393.433	82
393.658	71
393.882	76
394.107	87
394.331	100
394.556	98
394.78	91
395.005	82
395.229	68
395.454	87
395.678	96
395.903	92
396.127	82
396.352	73
396.576	83
396.801	74
397.025	92
397.249	88
397.474	104
397.698	83
397.922	89
398.147	82
398.371	83
398.595	84
398.82	76
399.044	79
399.268	78
399.492	87
399.717	90
399.941	83
400.165	92
400.389	83
400.613	89
400.837	80
401.062	81
401.286	89
401.51	100
401.734	98
401.958	99
402.182	103
402.406	90
402.63	90
402.854	85
403.078	84
403.302	83
403.526	104
403.75	83
403.974	79
404.198	86
404.422	69
404.645	109
404.869	88
405.093	103
405.317	112
405.541	167
405.765	321
405.988	331
406.212	192
406.436	125
406.66	92
406.883	84
407.107	95
407.331	83
407.555	83
407.778	97
408.002	82
408.226	84
408.449	81
408.673	85
408.896	90
409.12	93
409.344	98
409.567	83
409.791	74
410.014	84
410.238	96
410.461	86
410.685	73
410.908	91
411.132	80
411.355	90
411.578	82
411.802	90
412.025	75
412.249	86
412.472	76
412.695	83
412.919	89
413.142	80
413.365	84
413.589	95
413.812	91
414.035	90
414.258	96
414.482	94
414.705	71
414.928	89
415.151	88
415.374	84
415.597	78
415.821	73
416.044	79
416.267	75
416.49	84
416.713	87
416.936	96
417.159	88
417.382	83
417.605	71
417.828	85
418.051	83
418.274	88
418.497	89
418.72	83
418.943	85
419.166	89
419.389	73
419.611	83
419.834	94
420.057	84
420.28	92
420.503	90
420.726	82
420.948	83
421.171	83
421.394	89
421.617	77
421.839	88
422.062	74
422.285	85
422.507	88
422.73	94
422.953	81
423.175	88
423.398	83
423.621	81
423.843	87
424.066	78
424.288	86
424.511	75
424.733	92
424.956	83
425.178	91
425.401	84
425.623	83
425.846	80
426.068	68
426.291	82
426.513	92
426.735	85
426.958	100
427.18	85
427.402	83
427.625	81
427.847	81
428.069	89
428.292	80
428.514	63
428.736	80
428.958	90
429.181	79
429.403	73
429.625	81
429.847	92
430.069	81
430.292	87
430.514	81
430.736	83
430.958	93
431.18	94
431.402	83
431.624	84
431.846	78
432.068	88
432.29	90
432.512	88
432.734	87
432.956	75
433.178	92
433.4	89
433.622	82
433.844	85
434.066	92
434.287	86
434.509	83
434.731	85
434.953	82
435.175	89
435.397	83
435.618	87
435.84	77
436.062	101
436.284	91
436.505	90
436.727	66
436.949	91
437.17	69
437.392	84
437.614	88
437.835	85
438.057	79
438.278	89
438.5	84
438.721	91
438.943	87
439.165	72
439.386	72
439.608	67
439.829	81
440.05	80
440.272	88
440.493	75
440.715	93
440.936	96
441.158	91
441.379	91
441.6	76
441.822	98
442.043	96
442.264	87
442.486	88
442.707	84
442.928	95
443.149	81
443.371	82
443.592	79
443.813	79
444.034	84
444.255	74
444.476	76
444.698	79
444.919	69
445.14	162
445.361	112
445.582	75
445.803	93
446.024	85
446.245	78
446.466	92
446.687	83
446.908	87
447.129	89
447.35	85
447.571	84
447.792	83
448.013	85
448.234	70
448.455	84
448.675	82
448.896	72
449.117	94
449.338	81
449.559	91
449.779	87
450	82
450.221	75
450.442	80
450.662	85
450.883	80
451.104	91
451.324	70
451.545	77
451.766	73
451.986	87
452.207	90
452.428	83
452.648	101
452.869	100
453.089	75
453.31	90
453.53	76
453.751	83
453.971	97
454.192	79
454.412	86
454.633	85
454.853	97
455.073	86
455.294	84
455.514	67
455.734	80
455.955	70
456.175	76
456.395	80
456.616	79
456.836	82
457.056	73
457.276	78
457.497	85
457.717	80
457.937	81
458.157	92
458.377	82
458.598	87
458.818	75
459.038	78
459.258	76
459.478	69
459.698	83
459.918	80
460.138	97
460.358	67
460.578	88
460.798	81
461.018	93
461.238	87
461.458	89
461.678	82
461.898	87
462.118	83
462.338	73
462.558	93
462.777	98
462.997	80
463.217	72
463.437	87
463.657	78
463.876	77
464.096	88
464.316	75
464.536	93
464.755	83
464.975	77
465.195	72
465.414	93
465.634	83
465.854	78
466.073	89
466.293	91
466.512	68
466.732	88
466.951	84
467.171	100
467.391	97
467.61	79
467.829	82
468.049	74
468.268	91
468.488	97
468.707	85
468.927	76
469.146	81
469.365	84
469.585	90
469.804	69
470.023	88
470.243	77
470.462	90
470.681	96
470.901	65
471.12	80
471.339	90
471.558	87
471.777	87
471.997	73
472.216	78
472.435	84
472.654	87
472.873	75
473.092	85
473.311	81
473.53	88
473.749	99
473.968	89
474.187	78
474.406	89
474.625	80
474.844	83
475.063	85
475.282	93
475.501	85
475.72	77
475.939	95
476.158	92
476.377	77
476.596	74
476.814	77
477.033	78
477.252	67
477.471	79
477.69	83
477.908	92
478.127	81
478.346	85
478.564	87
478.783	79
479.002	78
479.22	91
479.439	83
479.658	92
479.876	97
480.095	78
480.313	82
480.532	80
480.751	76
480.969	80
481.188	76
481.406	87
481.624	82
481.843	88
482.061	83
482.28	81
482.498	95
482.717	91
482.935	85
483.153	80
483.372	79
483.59	89
483.808	95
484.027	76
484.245	92
484.463	82
484.681	104
484.9	82
485.118	77
485.336	98
485.554	93
485.772	83
485.99	79
486.209	76
486.427	76
486.645	84
486.863	72
487.081	83
487.299	79
487.517	104
487.735	96
487.953	82
488.171	95
488.389	77
488.607	101
488.825	83
489.043	85
489.261	85
489.479	84
489.696	76
489.914	81
490.132	77
490.35	73
490.568	95
490.786	96
491.003	85
491.221	87
491.439	92
491.657	95
491.874	80
492.092	97
492.31	86
492.527	85
492.745	72
492.963	92
493.18	94
493.398	85
493.615	95
493.833	98
494.05	89
494.268	97
494.485	91
494.703	66
494.92	78
495.138	84
495.355	90
495.573	96
495.79	83
496.008	91
496.225	89
496.442	83
496.66	92
496.877	86
497.094	95
497.312	89
497.529	95
497.746	77
497.963	96
498.181	86
498.398	87
498.615	96
498.832	77
499.049	96
499.267	68
499.484	90
499.701	95
499.918	81
500.135	83
500.352	77
500.569	110
500.786	144
501.003	93
501.22	86
501.437	103
501.654	75
501.871	80
502.088	91
502.305	85
502.522	87
502.739	91
502.956	88
503.172	93
503.389	92
503.606	78
503.823	86
504.04	93
504.256	106
504.473	84
504.69	80
504.907	83
505.123	95
505.34	88
505.557	92
505.773	108
505.99	101
506.207	100
506.423	82
506.64	77
506.856	69
507.073	83
507.289	94
507.506	84
507.722	84
507.939	91
508.155	90
508.372	72
508.588	93
508.805	90
509.021	89
509.238	77
509.454	83
509.67	105
509.887	83
510.103	93
510.319	94
510.536	83
510.752	87
510.968	78
511.184	83
511.401	87
511.617	87
511.833	87
512.049	79
512.265	87
512.481	85
512.698	89
512.914	84
513.13	112
513.346	87
513.562	71
513.778	93
513.994	94
514.21	78
514.426	90
514.642	78
514.858	80
515.074	88
515.29	106
515.506	89
515.721	94
515.937	80
516.153	88
516.369	85
516.585	89
516.801	88
517.016	85
517.232	85
517.448	87
517.664	77
517.879	84
518.095	85
518.311	87
518.527	93
518.742	75
518.958	73
519.173	80
519.389	83
519.605	85
519.82	78
520.036	80
520.251	92
520.467	85
520.682	76
520.898	83
521.113	86
521.329	82
521.544	75
521.76	77
521.975	84
522.19	103
522.406	74
522.621	91
522.836	103
523.052	87
523.267	91
523.482	92
523.698	81
523.913	98
524.128	93
524.343	77
524.559	100
524.774	88
524.989	91
525.204	83
525.419	87
525.634	91
525.849	92
526.064	95
526.28	98
526.495	80
526.71	81
526.925	82
527.14	67
527.355	98
527.57	82
527.785	83
527.999	97
528.214	99
528.429	92
528.644	88
528.859	85
529.074	73
529.289	68
529.503	73
529.718	90
529.933	83
530.148	81
530.363	97
530.577	87
530.792	73
531.007	87
531.221	84
531.436	96
531.651	92
531.865	79
532.08	77
532.295	76
532.509	99
532.724	103
532.938	81
533.153	89
533.367	77
533.582	82
533.796	76
534.011	84
534.225	100
534.44	87
534.654	87
534.868	83
535.083	85
535.297	84
535.511	74
535.726	83
535.94	93
536.154	97
536.369	89
536.583	87
536.797	90
537.011	79
537.225	76
537.44	77
537.654	80
537.868	84
538.082	88
538.296	96
538.51	90
538.724	91
538.938	97
539.153	102
539.367	93
539.581	107
539.795	84
540.009	83
540.222	80
540.436	84
540.65	80
540.864	85
541.078	80
541.292	85
541.506	93
541.72	96
541.934	79
542.147	96
542.361	85
542.575	94
542.789	77
543.002	79
543.216	84
543.43	75
543.644	91
543.857	85
544.071	76
544.285	99
544.498	91
544.712	84
544.925	82
545.139	89
545.352	89
545.566	89
545.779	89
545.993	79
546.206	100
546.42	88
546.633	81
546.847	85
547.06	79
547.274	83
547.487	84
547.7	79
547.914	81
548.127	95
548.34	87
548.554	88
548.767	80
548.98	93
549.193	85
549.407	97
549.62	89
549.833	88
550.046	84
550.259	95
550.473	95
550.686	98
550.899	92
551.112	92
551.325	72
551.538	81
551.751	75
551.964	93
552.177	95
552.39	73
552.603	95
552.816	97
553.029	99
553.242	98
553.455	84
553.667	78
553.88	81
554.093	89
554.306	88
554.519	76
554.732	91
554.944	91
555.157	83
555.37	88
555.583	75
555.795	93
556.008	95
556.221	88
556.433	91
556.646	105
556.859	90
557.071	84
557.284	94
557.496	89
557.709	66
557.921	89
558.134	97
558.346	98
558.559	83
558.771	80
558.984	100
559.196	86
559.409	83
559.621	83
559.833	81
560.046	83
560.258	85
560.47	80
560.683	90
560.895	92
561.107	88
561.32	64
561.532	89
561.744	108
561.956	87
562.168	84
562.381	78
562.593	84
562.805	91
563.017	89
563.229	90
563.441	97
563.653	85
563.865	92
564.077	95
564.289	93
564.501	92
564.713	102
564.925	105
565.137	79
565.349	93
565.561	89
565.773	98
565.985	82
566.197	72
566.408	81
566.62	92
566.832	96
567.044	87
567.255	84
567.467	100
567.679	81
567.891	96
568.102	78
568.314	80
568.526	81
568.737	100
568.949	79
569.161	91
569.372	80
569.584	81
569.795	83
570.007	88
570.218	81
570.43	79
570.641	87
570.853	90
571.064	93
571.276	83
571.487	98
571.698	92
571.91	94
572.121	104
572.333	81
572.544	83
572.755	103
572.966	91
573.178	80
573.389	83
573.6	108
573.811	101
574.023	91
574.234	84
574.445	88
574.656	93
574.867	99
575.078	81
575.289	92
575.501	93
575.712	98
575.923	89
576.134	95
576.345	84
576.556	81
576.767	84
576.978	94
577.188	83
577.399	88
577.61	93
577.821	92
578.032	93
578.243	77
578.454	85
578.665	92
578.875	93
579.086	85
579.297	93
579.508	90
579.718	92
579.929	74
580.14	91
580.35	98
580.561	93
580.772	87
580.982	97
581.193	80
581.403	84
581.614	91
581.825	87
582.035	99
582.246	87
582.456	81
582.667	91
582.877	88
583.087	83
583.298	97
583.508	79
583.719	69
583.929	89
584.139	92
584.35	91
584.56	75
584.77	85
584.981	99
585.191	94
585.401	95
585.611	89
585.821	97
586.032	91
586.242	98
586.452	96
586.662	74
586.872	68
587.082	80
587.292	84
587.502	80
587.713	75
587.923	85
588.133	78
588.343	83
588.553	80
588.762	95
588.972	88
589.182	83
