Data from StdB_HRD10591_033.txt Node
Date: Fri May 16 15:25:02 EDT 2025
User: Yrep
Spectrometer: HR+D1059
Trigger mode: 1
Integration Time (sec): 1.000000E-1
Scans to average: 1
Electric dark correction enabled: true
Nonlinearity correction enabled: false
Boxcar width: 0
XAxis mode: Wavelengths
Number of Pixels in Spectrum: 2048
>>>>>Begin Spectral Data<<<<<
223.165	-20.44
223.4	-20.44
223.635	-20.44
223.869	-27.44
224.104	-8.44
224.338	-5.44
224.573	-16.44
224.808	-13.44
225.042	-0.44
225.277	-30.44
225.511	3.56
225.746	4.56
225.98	4.56
226.215	20.56
226.449	22.56
226.683	20.56
226.918	14.56
227.152	31.56
227.387	37.56
227.621	43.56
227.856	29.56
228.09	36.56
228.324	56.56
228.559	54.56
228.793	56.56
229.027	62.56
229.262	74.56
229.496	54.56
229.73	61.56
229.964	67.56
230.199	82.56
230.433	72.56
230.667	80.56
230.901	78.56
231.136	71.56
231.37	82.56
231.604	97.56
231.838	89.56
232.072	96.56
232.306	95.56
232.541	90.56
232.775	89.56
233.009	77.56
233.243	95.56
233.477	91.56
233.711	69.56
233.945	76.56
234.179	76.56
234.413	81.56
234.647	87.56
234.881	80.56
235.115	73.56
235.349	84.56
235.583	77.56
235.817	86.56
236.051	71.56
236.285	78.56
236.519	73.56
236.753	81.56
236.987	79.56
237.221	69.56
237.455	74.56
237.689	82.56
237.922	75.56
238.156	72.56
238.39	90.56
238.624	82.56
238.858	78.56
239.091	75.56
239.325	76.56
239.559	73.56
239.793	79.56
240.027	68.56
240.26	74.56
240.494	87.56
240.728	82.56
240.961	76.56
241.195	86.56
241.429	79.56
241.662	78.56
241.896	82.56
242.13	69.56
242.363	77.56
242.597	81.56
242.83	88.56
243.064	83.56
243.298	78.56
243.531	85.56
243.765	61.56
243.998	86.56
244.232	82.56
244.465	84.56
244.699	65.56
244.932	66.56
245.166	80.56
245.399	75.56
245.633	84.56
245.866	75.56
246.099	86.56
246.333	74.56
246.566	88.56
246.8	76.56
247.033	73.56
247.266	79.56
247.5	74.56
247.733	60.56
247.966	68.56
248.2	72.56
248.433	81.56
248.666	81.56
248.899	76.56
249.133	81.56
249.366	77.56
249.599	90.56
249.832	66.56
250.066	75.56
250.299	78.56
250.532	74.56
250.765	77.56
250.998	74.56
251.231	87.56
251.465	81.56
251.698	75.56
251.931	78.56
252.164	71.56
252.397	89.56
252.63	77.56
252.863	80.56
253.096	88.56
253.329	86.56
253.562	76.56
253.795	98.56
254.028	81.56
254.261	74.56
254.494	82.56
254.727	90.56
254.96	76.56
255.193	93.56
255.426	79.56
255.659	80.56
255.892	83.56
256.124	69.56
256.357	78.56
256.59	82.56
256.823	78.56
257.056	90.56
257.289	71.56
257.521	98.56
257.754	87.56
257.987	90.56
258.22	79.56
258.452	86.56
258.685	70.56
258.918	99.56
259.151	81.56
259.383	99.56
259.616	89.56
259.849	78.56
260.081	81.56
260.314	87.56
260.547	69.56
260.779	88.56
261.012	82.56
261.244	96.56
261.477	98.56
261.71	106.56
261.942	86.56
262.175	90.56
262.407	73.56
262.64	70.56
262.872	69.56
263.105	86.56
263.337	74.56
263.57	91.56
263.802	83.56
264.035	90.56
264.267	75.56
264.499	65.56
264.732	78.56
264.964	91.56
265.197	82.56
265.429	91.56
265.661	82.56
265.894	74.56
266.126	85.56
266.358	99.56
266.591	97.56
266.823	70.56
267.055	88.56
267.287	85.56
267.52	86.56
267.752	79.56
267.984	80.56
268.216	84.56
268.448	86.56
268.681	83.56
268.913	74.56
269.145	70.56
269.377	74.56
269.609	80.56
269.841	106.56
270.073	90.56
270.306	83.56
270.538	88.56
270.77	76.56
271.002	92.56
271.234	100.56
271.466	89.56
271.698	85.56
271.93	94.56
272.162	95.56
272.394	82.56
272.626	76.56
272.858	82.56
273.09	74.56
273.322	87.56
273.553	84.56
273.785	89.56
274.017	90.56
274.249	88.56
274.481	77.56
274.713	84.56
274.945	84.56
275.176	90.56
275.408	95.56
275.64	65.56
275.872	83.56
276.104	79.56
276.335	91.56
276.567	89.56
276.799	78.56
277.031	79.56
277.262	71.56
277.494	91.56
277.726	82.56
277.957	77.56
278.189	91.56
278.421	92.56
278.652	76.56
278.884	94.56
279.115	89.56
279.347	90.56
279.579	96.56
279.81	102.56
280.042	120.56
280.273	120.56
280.505	123.56
280.736	106.56
280.968	94.56
281.199	99.56
281.431	80.56
281.662	87.56
281.894	89.56
282.125	97.56
282.356	109.56
282.588	82.56
282.819	92.56
283.051	101.56
283.282	116.56
283.513	106.56
283.745	106.56
283.976	98.56
284.207	74.56
284.439	95.56
284.67	92.56
284.901	102.56
285.132	93.56
285.364	78.56
285.595	72.56
285.826	77.56
286.057	82.56
286.288	89.56
286.52	78.56
286.751	89.56
286.982	82.56
287.213	99.56
287.444	106.56
287.675	96.56
287.906	80.56
288.138	90.56
288.369	92.56
288.6	80.56
288.831	92.56
289.062	82.56
289.293	94.56
289.524	80.56
289.755	87.56
289.986	88.56
290.217	74.56
290.448	81.56
290.679	83.56
290.91	76.56
291.141	90.56
291.371	80.56
291.602	93.56
291.833	78.56
292.064	90.56
292.295	90.56
292.526	77.56
292.757	76.56
292.987	80.56
293.218	81.56
293.449	84.56
293.68	82.56
293.91	86.56
294.141	93.56
294.372	84.56
294.603	90.56
294.833	88.56
295.064	82.56
295.295	80.56
295.525	81.56
295.756	77.56
295.987	84.56
296.217	99.56
296.448	84.56
296.679	90.56
296.909	87.56
297.14	86.56
297.37	95.56
297.601	93.56
297.831	86.56
298.062	91.56
298.292	90.56
298.523	66.56
298.753	96.56
298.984	87.56
299.214	93.56
299.445	78.56
299.675	82.56
299.905	85.56
300.136	88.56
300.366	82.56
300.597	87.56
300.827	82.56
301.057	90.56
301.288	71.56
301.518	96.56
301.748	69.56
301.979	89.56
302.209	82.56
302.439	87.56
302.669	91.56
302.9	87.56
303.13	79.56
303.36	84.56
303.59	86.56
303.82	79.56
304.051	81.56
304.281	81.56
304.511	94.56
304.741	81.56
304.971	76.56
305.201	94.56
305.431	102.56
305.661	105.56
305.891	85.56
306.121	69.56
306.352	79.56
306.582	96.56
306.812	84.56
307.042	86.56
307.272	84.56
307.502	83.56
307.731	88.56
307.961	83.56
308.191	82.56
308.421	92.56
308.651	96.56
308.881	69.56
309.111	82.56
309.341	87.56
309.571	84.56
309.8	83.56
310.03	96.56
310.26	97.56
310.49	92.56
310.72	81.56
310.949	93.56
311.179	95.56
311.409	93.56
311.639	95.56
311.868	90.56
312.098	66.56
312.328	95.56
312.557	88.56
312.787	84.56
313.017	88.56
313.246	97.56
313.476	83.56
313.706	79.56
313.935	95.56
314.165	76.56
314.394	90.56
314.624	86.56
314.853	74.56
315.083	90.56
315.312	80.56
315.542	81.56
315.771	78.56
316.001	82.56
316.23	92.56
316.46	95.56
316.689	101.56
316.919	88.56
317.148	88.56
317.377	92.56
317.607	87.56
317.836	73.56
318.065	79.56
318.295	74.56
318.524	96.56
318.753	80.56
318.983	84.56
319.212	92.56
319.441	92.56
319.67	88.56
319.9	86.56
320.129	66.56
320.358	75.56
320.587	69.56
320.816	82.56
321.046	88.56
321.275	100.56
321.504	87.56
321.733	80.56
321.962	91.56
322.191	92.56
322.42	82.56
322.649	94.56
322.878	96.56
323.108	86.56
323.337	82.56
323.566	79.56
323.795	83.56
324.024	97.56
324.253	78.56
324.482	78.56
324.71	91.56
324.939	82.56
325.168	84.56
325.397	83.56
325.626	93.56
325.855	102.56
326.084	84.56
326.313	90.56
326.542	86.56
326.77	100.56
326.999	82.56
327.228	90.56
327.457	94.56
327.686	76.56
327.914	88.56
328.143	88.56
328.372	93.56
328.6	88.56
328.829	80.56
329.058	89.56
329.287	86.56
329.515	94.56
329.744	112.56
329.972	92.56
330.201	88.56
330.43	91.56
330.658	93.56
330.887	67.56
331.115	93.56
331.344	90.56
331.572	83.56
331.801	76.56
332.03	77.56
332.258	87.56
332.486	87.56
332.715	87.56
332.943	76.56
333.172	81.56
333.4	68.56
333.629	71.56
333.857	82.56
334.085	75.56
334.314	94.56
334.542	86.56
334.771	85.56
334.999	94.56
335.227	80.56
335.455	83.56
335.684	79.56
335.912	85.56
336.14	92.56
336.369	76.56
336.597	77.56
336.825	82.56
337.053	73.56
337.281	71.56
337.51	88.56
337.738	93.56
337.966	89.56
338.194	88.56
338.422	86.56
338.65	80.56
338.878	84.56
339.106	74.56
339.334	86.56
339.562	85.56
339.79	81.56
340.018	88.56
340.246	87.56
340.474	80.56
340.702	86.56
340.93	90.56
341.158	80.56
341.386	82.56
341.614	82.56
341.842	92.56
342.07	73.56
342.298	86.56
342.526	75.56
342.754	82.56
342.981	73.56
343.209	96.56
343.437	90.56
343.665	90.56
343.893	72.56
344.12	86.56
344.348	94.56
344.576	83.56
344.804	80.56
345.031	73.56
345.259	88.56
345.487	99.56
345.714	94.56
345.942	75.56
346.17	84.56
346.397	98.56
346.625	88.56
346.853	88.56
347.08	75.56
347.308	88.56
347.535	78.56
347.763	101.56
347.99	87.56
348.218	90.56
348.445	87.56
348.673	74.56
348.9	96.56
349.128	84.56
349.355	97.56
349.583	90.56
349.81	87.56
350.037	92.56
350.265	92.56
350.492	83.56
350.72	69.56
350.947	77.56
351.174	86.56
351.402	88.56
351.629	98.56
351.856	83.56
352.083	93.56
352.311	96.56
352.538	93.56
352.765	97.56
352.992	97.56
353.22	93.56
353.447	82.56
353.674	80.56
353.901	78.56
354.128	89.56
354.355	88.56
354.583	68.56
354.81	74.56
355.037	79.56
355.264	86.56
355.491	91.56
355.718	79.56
355.945	97.56
356.172	96.56
356.399	81.56
356.626	94.56
356.853	95.56
357.08	128.56
357.307	162.56
357.534	154.56
357.761	118.56
357.988	81.56
358.215	102.56
358.441	77.56
358.668	82.56
358.895	83.56
359.122	96.56
359.349	87.56
359.576	84.56
359.802	81.56
360.029	82.56
360.256	91.56
360.483	85.56
360.709	79.56
360.936	86.56
361.163	93.56
361.39	80.56
361.616	79.56
361.843	88.56
362.07	87.56
362.296	87.56
362.523	104.56
362.749	83.56
362.976	65.56
363.203	96.56
363.429	102.56
363.656	136.56
363.882	191.56
364.109	218.56
364.335	132.56
364.562	102.56
364.788	90.56
365.015	90.56
365.241	84.56
365.468	82.56
365.694	84.56
365.92	88.56
366.147	87.56
366.373	97.56
366.599	92.56
366.826	110.56
367.052	108.56
367.278	132.56
367.505	130.56
367.731	103.56
367.957	151.56
368.184	226.56
368.41	280.56
368.636	221.56
368.862	116.56
369.089	87.56
369.315	86.56
369.541	91.56
369.767	78.56
369.993	80.56
370.219	85.56
370.445	83.56
370.672	78.56
370.898	80.56
371.124	98.56
371.35	84.56
371.576	98.56
371.802	82.56
372.028	80.56
372.254	95.56
372.48	90.56
372.706	87.56
372.932	91.56
373.158	83.56
373.384	96.56
373.61	102.56
373.835	132.56
374.061	153.56
374.287	126.56
374.513	94.56
374.739	83.56
374.965	82.56
375.191	83.56
375.416	83.56
375.642	93.56
375.868	90.56
376.094	91.56
376.319	72.56
376.545	74.56
376.771	79.56
376.997	84.56
377.222	74.56
377.448	94.56
377.674	83.56
377.899	84.56
378.125	80.56
378.35	91.56
378.576	79.56
378.802	86.56
379.027	77.56
379.253	90.56
379.478	83.56
379.704	73.56
379.929	97.56
380.155	78.56
380.38	84.56
380.606	69.56
380.831	90.56
381.057	87.56
381.282	82.56
381.507	89.56
381.733	86.56
381.958	104.56
382.184	90.56
382.409	82.56
382.634	79.56
382.86	85.56
383.085	92.56
383.31	95.56
383.535	82.56
383.761	105.56
383.986	97.56
384.211	80.56
384.436	86.56
384.662	78.56
384.887	96.56
385.112	88.56
385.337	80.56
385.562	78.56
385.787	91.56
386.013	80.56
386.238	74.56
386.463	82.56
386.688	95.56
386.913	101.56
387.138	98.56
387.363	72.56
387.588	79.56
387.813	98.56
388.038	82.56
388.263	91.56
388.488	88.56
388.713	82.56
388.938	79.56
389.163	80.56
389.387	81.56
389.612	66.56
389.837	70.56
390.062	82.56
390.287	86.56
390.512	88.56
390.736	72.56
390.961	88.56
391.186	74.56
391.411	93.56
391.636	84.56
391.86	74.56
392.085	90.56
392.31	78.56
392.534	89.56
392.759	89.56
392.984	87.56
393.208	99.56
393.433	89.56
393.658	84.56
393.882	74.56
394.107	92.56
394.331	84.56
394.556	77.56
394.78	86.56
395.005	91.56
395.229	95.56
395.454	90.56
395.678	83.56
395.903	81.56
396.127	80.56
396.352	85.56
396.576	91.56
396.801	83.56
397.025	79.56
397.249	83.56
397.474	82.56
397.698	81.56
397.922	91.56
398.147	87.56
398.371	80.56
398.595	86.56
398.82	84.56
399.044	68.56
399.268	79.56
399.492	76.56
399.717	97.56
399.941	86.56
400.165	83.56
400.389	88.56
400.613	85.56
400.837	95.56
401.062	87.56
401.286	82.56
401.51	105.56
401.734	100.56
401.958	110.56
402.182	106.56
402.406	89.56
402.63	86.56
402.854	91.56
403.078	86.56
403.302	84.56
403.526	90.56
403.75	80.56
403.974	94.56
404.198	92.56
404.422	84.56
404.645	90.56
404.869	89.56
405.093	97.56
405.317	140.56
405.541	244.56
405.765	407.56
405.988	450.56
406.212	246.56
406.436	141.56
406.66	104.56
406.883	82.56
407.107	86.56
407.331	81.56
407.555	90.56
407.778	101.56
408.002	90.56
408.226	76.56
408.449	82.56
408.673	86.56
408.896	86.56
409.12	82.56
409.344	88.56
409.567	76.56
409.791	80.56
410.014	83.56
410.238	86.56
410.461	86.56
410.685	96.56
410.908	92.56
411.132	81.56
411.355	67.56
411.578	83.56
411.802	97.56
412.025	75.56
412.249	92.56
412.472	85.56
412.695	85.56
412.919	77.56
413.142	80.56
413.365	81.56
413.589	78.56
413.812	82.56
414.035	86.56
414.258	94.56
414.482	100.56
414.705	81.56
414.928	80.56
415.151	76.56
415.374	81.56
415.597	82.56
415.821	74.56
416.044	68.56
416.267	75.56
416.49	87.56
416.713	90.56
416.936	99.56
417.159	78.56
417.382	84.56
417.605	72.56
417.828	82.56
418.051	91.56
418.274	97.56
418.497	97.56
418.72	84.56
418.943	92.56
419.166	82.56
419.389	72.56
419.611	81.56
419.834	81.56
420.057	78.56
420.28	60.56
420.503	66.56
420.726	96.56
420.948	78.56
421.171	78.56
421.394	92.56
421.617	82.56
421.839	84.56
422.062	83.56
422.285	81.56
422.507	89.56
422.73	85.56
422.953	73.56
423.175	78.56
423.398	72.56
423.621	87.56
423.843	84.56
424.066	78.56
424.288	85.56
424.511	97.56
424.733	85.56
424.956	83.56
425.178	87.56
425.401	67.56
425.623	85.56
425.846	87.56
426.068	91.56
426.291	83.56
426.513	78.56
426.735	82.56
426.958	90.56
427.18	74.56
427.402	82.56
427.625	82.56
427.847	76.56
428.069	74.56
428.292	80.56
428.514	78.56
428.736	96.56
428.958	75.56
429.181	82.56
429.403	93.56
429.625	89.56
429.847	78.56
430.069	92.56
430.292	97.56
430.514	70.56
430.736	83.56
430.958	85.56
431.18	94.56
431.402	73.56
431.624	90.56
431.846	77.56
432.068	76.56
432.29	85.56
432.512	86.56
432.734	86.56
432.956	86.56
433.178	88.56
433.4	90.56
433.622	83.56
433.844	88.56
434.066	87.56
434.287	88.56
434.509	81.56
434.731	85.56
434.953	72.56
435.175	83.56
435.397	93.56
435.618	76.56
435.84	79.56
436.062	92.56
436.284	94.56
436.505	83.56
436.727	84.56
436.949	78.56
437.17	85.56
437.392	88.56
437.614	87.56
437.835	96.56
438.057	87.56
438.278	88.56
438.5	76.56
438.721	86.56
438.943	80.56
439.165	87.56
439.386	86.56
439.608	90.56
439.829	82.56
440.05	78.56
440.272	91.56
440.493	89.56
440.715	99.56
440.936	84.56
441.158	104.56
441.379	87.56
441.6	84.56
441.822	86.56
442.043	89.56
442.264	90.56
442.486	81.56
442.707	68.56
442.928	79.56
443.149	84.56
443.371	83.56
443.592	87.56
443.813	86.56
444.034	74.56
444.255	81.56
444.476	74.56
444.698	79.56
444.919	82.56
445.14	148.56
445.361	110.56
445.582	89.56
445.803	86.56
446.024	80.56
446.245	86.56
446.466	81.56
446.687	66.56
446.908	67.56
447.129	79.56
447.35	89.56
447.571	95.56
447.792	87.56
448.013	90.56
448.234	84.56
448.455	75.56
448.675	87.56
448.896	74.56
449.117	87.56
449.338	78.56
449.559	88.56
449.779	76.56
450	89.56
450.221	72.56
450.442	90.56
450.662	84.56
450.883	89.56
451.104	84.56
451.324	90.56
451.545	90.56
451.766	88.56
451.986	83.56
452.207	93.56
452.428	91.56
452.648	78.56
452.869	71.56
453.089	90.56
453.31	81.56
453.53	87.56
453.751	86.56
453.971	81.56
454.192	70.56
454.412	82.56
454.633	85.56
454.853	90.56
455.073	75.56
455.294	77.56
455.514	80.56
455.734	71.56
455.955	88.56
456.175	90.56
456.395	81.56
456.616	80.56
456.836	75.56
457.056	67.56
457.276	86.56
457.497	88.56
457.717	77.56
457.937	83.56
458.157	74.56
458.377	86.56
458.598	87.56
458.818	94.56
459.038	84.56
459.258	75.56
459.478	76.56
459.698	83.56
459.918	84.56
460.138	66.56
460.358	77.56
460.578	78.56
460.798	67.56
461.018	79.56
461.238	78.56
461.458	71.56
461.678	85.56
461.898	76.56
462.118	84.56
462.338	91.56
462.558	90.56
462.777	74.56
462.997	70.56
463.217	77.56
463.437	69.56
463.657	85.56
463.876	92.56
464.096	80.56
464.316	76.56
464.536	78.56
464.755	83.56
464.975	86.56
465.195	88.56
465.414	69.56
465.634	88.56
465.854	78.56
466.073	80.56
466.293	91.56
466.512	73.56
466.732	81.56
466.951	77.56
467.171	97.56
467.391	74.56
467.61	76.56
467.829	72.56
468.049	84.56
468.268	86.56
468.488	73.56
468.707	76.56
468.927	88.56
469.146	76.56
469.365	79.56
469.585	96.56
469.804	85.56
470.023	71.56
470.243	78.56
470.462	79.56
470.681	96.56
470.901	82.56
471.12	81.56
471.339	73.56
471.558	87.56
471.777	87.56
471.997	82.56
472.216	94.56
472.435	83.56
472.654	82.56
472.873	91.56
473.092	78.56
473.311	92.56
473.53	80.56
473.749	79.56
473.968	80.56
474.187	88.56
474.406	90.56
474.625	93.56
474.844	86.56
475.063	91.56
475.282	92.56
475.501	89.56
475.72	80.56
475.939	81.56
476.158	84.56
476.377	92.56
476.596	76.56
476.814	99.56
477.033	75.56
477.252	83.56
477.471	88.56
477.69	100.56
477.908	96.56
478.127	87.56
478.346	83.56
478.564	81.56
478.783	87.56
479.002	88.56
479.22	97.56
479.439	83.56
479.658	75.56
479.876	79.56
480.095	79.56
480.313	80.56
480.532	97.56
480.751	102.56
480.969	78.56
481.188	88.56
481.406	72.56
481.624	89.56
481.843	91.56
482.061	78.56
482.28	86.56
482.498	96.56
482.717	94.56
482.935	86.56
483.153	82.56
483.372	87.56
483.59	95.56
483.808	81.56
484.027	81.56
484.245	76.56
484.463	68.56
484.681	92.56
484.9	78.56
485.118	81.56
485.336	79.56
485.554	99.56
485.772	100.56
485.99	88.56
486.209	73.56
486.427	75.56
486.645	79.56
486.863	81.56
487.081	82.56
487.299	86.56
487.517	79.56
487.735	74.56
487.953	79.56
488.171	95.56
488.389	91.56
488.607	88.56
488.825	84.56
489.043	83.56
489.261	88.56
489.479	96.56
489.696	82.56
489.914	96.56
490.132	92.56
490.35	75.56
490.568	78.56
490.786	84.56
491.003	80.56
491.221	91.56
491.439	97.56
491.657	56.56
491.874	99.56
492.092	86.56
492.31	96.56
492.527	85.56
492.745	95.56
492.963	89.56
493.18	94.56
493.398	86.56
493.615	88.56
493.833	64.56
494.05	76.56
494.268	79.56
494.485	93.56
494.703	89.56
494.92	79.56
495.138	81.56
495.355	94.56
495.573	73.56
495.79	65.56
496.008	90.56
496.225	87.56
496.442	82.56
496.66	84.56
496.877	73.56
497.094	87.56
497.312	74.56
497.529	96.56
497.746	77.56
497.963	79.56
498.181	76.56
498.398	78.56
498.615	86.56
498.832	97.56
499.049	76.56
499.267	75.56
499.484	84.56
499.701	91.56
499.918	88.56
500.135	83.56
500.352	89.56
500.569	130.56
500.786	151.56
501.003	91.56
501.22	86.56
501.437	78.56
501.654	92.56
501.871	84.56
502.088	99.56
502.305	88.56
502.522	82.56
502.739	92.56
502.956	75.56
503.172	72.56
503.389	79.56
503.606	83.56
503.823	87.56
504.04	81.56
504.256	93.56
504.473	87.56
504.69	82.56
504.907	91.56
505.123	92.56
505.34	74.56
505.557	79.56
505.773	87.56
505.99	97.56
506.207	81.56
506.423	88.56
506.64	95.56
506.856	81.56
507.073	87.56
507.289	80.56
507.506	69.56
507.722	87.56
507.939	82.56
508.155	86.56
508.372	94.56
508.588	82.56
508.805	92.56
509.021	78.56
509.238	82.56
509.454	86.56
509.67	86.56
509.887	95.56
510.103	84.56
510.319	87.56
510.536	76.56
510.752	83.56
510.968	79.56
511.184	64.56
511.401	81.56
511.617	82.56
511.833	73.56
512.049	93.56
512.265	84.56
512.481	74.56
512.698	85.56
512.914	86.56
513.13	86.56
513.346	74.56
513.562	83.56
513.778	100.56
513.994	83.56
514.21	81.56
514.426	76.56
514.642	105.56
514.858	86.56
515.074	94.56
515.29	78.56
515.506	78.56
515.721	77.56
515.937	82.56
516.153	83.56
516.369	79.56
516.585	72.56
516.801	95.56
517.016	92.56
517.232	74.56
517.448	79.56
517.664	79.56
517.879	95.56
518.095	90.56
518.311	88.56
518.527	76.56
518.742	92.56
518.958	92.56
519.173	88.56
519.389	94.56
