Data from StdB_HRD10591_047.txt Node
Date: Fri May 16 15:25:09 EDT 2025
User: Yrep
Spectrometer: HR+D1059
Trigger mode: 1
Integration Time (sec): 1.000000E-1
Scans to average: 1
Electric dark correction enabled: true
Nonlinearity correction enabled: false
Boxcar width: 0
XAxis mode: Wavelengths
Number of Pixels in Spectrum: 2048
>>>>>Begin Spectral Data<<<<<
223.165	-13.62
223.4	-13.62
223.635	-13.62
223.869	-31.62
224.104	-21.62
224.338	-15.62
224.573	-15.62
224.808	-13.62
225.042	1.38
225.277	-6.62
225.511	1.38
225.746	17.38
225.98	12.38
226.215	11.38
226.449	19.38
226.683	20.38
226.918	19.38
227.152	15.38
227.387	36.38
227.621	47.38
227.856	41.38
228.09	47.38
228.324	57.38
228.559	46.38
228.793	58.38
229.027	68.38
229.262	61.38
229.496	59.38
229.73	73.38
229.964	72.38
230.199	80.38
230.433	71.38
230.667	79.38
230.901	81.38
231.136	73.38
231.37	87.38
231.604	63.38
231.838	63.38
232.072	67.38
232.306	83.38
232.541	89.38
232.775	85.38
233.009	84.38
233.243	84.38
233.477	93.38
233.711	77.38
233.945	74.38
234.179	80.38
234.413	82.38
234.647	81.38
234.881	72.38
235.115	83.38
235.349	78.38
235.583	83.38
235.817	96.38
236.051	92.38
236.285	76.38
236.519	75.38
236.753	88.38
236.987	86.38
237.221	80.38
237.455	90.38
237.689	76.38
237.922	83.38
238.156	75.38
238.39	81.38
238.624	72.38
238.858	87.38
239.091	85.38
239.325	76.38
239.559	76.38
239.793	76.38
240.027	92.38
240.26	71.38
240.494	73.38
240.728	75.38
240.961	70.38
241.195	71.38
241.429	63.38
241.662	94.38
241.896	74.38
242.13	69.38
242.363	86.38
242.597	71.38
242.83	88.38
243.064	70.38
243.298	76.38
243.531	72.38
243.765	67.38
243.998	84.38
244.232	77.38
244.465	83.38
244.699	79.38
244.932	77.38
245.166	71.38
245.399	74.38
245.633	83.38
245.866	89.38
246.099	60.38
246.333	79.38
246.566	80.38
246.8	75.38
247.033	88.38
247.266	71.38
247.5	65.38
247.733	78.38
247.966	86.38
248.2	77.38
248.433	74.38
248.666	80.38
248.899	85.38
249.133	78.38
249.366	94.38
249.599	84.38
249.832	64.38
250.066	78.38
250.299	80.38
250.532	95.38
250.765	91.38
250.998	60.38
251.231	103.38
251.465	76.38
251.698	68.38
251.931	82.38
252.164	74.38
252.397	79.38
252.63	89.38
252.863	82.38
253.096	71.38
253.329	76.38
253.562	72.38
253.795	91.38
254.028	90.38
254.261	84.38
254.494	80.38
254.727	95.38
254.96	76.38
255.193	81.38
255.426	86.38
255.659	98.38
255.892	74.38
256.124	78.38
256.357	75.38
256.59	76.38
256.823	90.38
257.056	92.38
257.289	93.38
257.521	76.38
257.754	79.38
257.987	78.38
258.22	91.38
258.452	82.38
258.685	86.38
258.918	94.38
259.151	75.38
259.383	91.38
259.616	95.38
259.849	83.38
260.081	84.38
260.314	86.38
260.547	86.38
260.779	84.38
261.012	91.38
261.244	88.38
261.477	80.38
261.71	98.38
261.942	90.38
262.175	83.38
262.407	82.38
262.64	88.38
262.872	81.38
263.105	92.38
263.337	86.38
263.57	82.38
263.802	86.38
264.035	86.38
264.267	68.38
264.499	83.38
264.732	100.38
264.964	99.38
265.197	105.38
265.429	85.38
265.661	77.38
265.894	87.38
266.126	80.38
266.358	87.38
266.591	85.38
266.823	86.38
267.055	71.38
267.287	80.38
267.52	91.38
267.752	82.38
267.984	90.38
268.216	75.38
268.448	84.38
268.681	91.38
268.913	72.38
269.145	86.38
269.377	84.38
269.609	75.38
269.841	86.38
270.073	88.38
270.306	84.38
270.538	85.38
270.77	84.38
271.002	75.38
271.234	96.38
271.466	96.38
271.698	95.38
271.93	86.38
272.162	80.38
272.394	89.38
272.626	70.38
272.858	81.38
273.09	84.38
273.322	90.38
273.553	83.38
273.785	95.38
274.017	59.38
274.249	80.38
274.481	91.38
274.713	88.38
274.945	73.38
275.176	99.38
275.408	81.38
275.64	89.38
275.872	83.38
276.104	72.38
276.335	69.38
276.567	78.38
276.799	91.38
277.031	94.38
277.262	84.38
277.494	97.38
277.726	84.38
277.957	98.38
278.189	77.38
278.421	99.38
278.652	94.38
278.884	79.38
279.115	95.38
279.347	92.38
279.579	104.38
279.81	99.38
280.042	108.38
280.273	116.38
280.505	118.38
280.736	106.38
280.968	91.38
281.199	82.38
281.431	102.38
281.662	78.38
281.894	90.38
282.125	94.38
282.356	106.38
282.588	120.38
282.819	90.38
283.051	106.38
283.282	110.38
283.513	129.38
283.745	92.38
283.976	94.38
284.207	94.38
284.439	77.38
284.67	90.38
284.901	90.38
285.132	95.38
285.364	92.38
285.595	97.38
285.826	104.38
286.057	91.38
286.288	90.38
286.52	92.38
286.751	96.38
286.982	107.38
287.213	94.38
287.444	112.38
287.675	107.38
287.906	79.38
288.138	93.38
288.369	84.38
288.6	95.38
288.831	92.38
289.062	93.38
289.293	67.38
289.524	84.38
289.755	87.38
289.986	71.38
290.217	91.38
290.448	89.38
290.679	83.38
290.91	81.38
291.141	89.38
291.371	92.38
291.602	93.38
291.833	80.38
292.064	77.38
292.295	90.38
292.526	94.38
292.757	89.38
292.987	88.38
293.218	82.38
293.449	81.38
293.68	84.38
293.91	80.38
294.141	93.38
294.372	84.38
294.603	88.38
294.833	83.38
295.064	77.38
295.295	79.38
295.525	87.38
295.756	98.38
295.987	94.38
296.217	86.38
296.448	87.38
296.679	78.38
296.909	74.38
297.14	86.38
297.37	104.38
297.601	86.38
297.831	90.38
298.062	81.38
298.292	99.38
298.523	82.38
298.753	88.38
298.984	90.38
299.214	87.38
299.445	88.38
299.675	93.38
299.905	77.38
300.136	88.38
300.366	96.38
300.597	84.38
300.827	89.38
301.057	84.38
301.288	81.38
301.518	82.38
301.748	94.38
301.979	108.38
302.209	95.38
302.439	80.38
302.669	88.38
302.9	93.38
303.13	79.38
303.36	68.38
303.59	90.38
303.82	86.38
304.051	86.38
304.281	86.38
304.511	88.38
304.741	91.38
304.971	86.38
305.201	90.38
305.431	89.38
305.661	99.38
305.891	74.38
306.121	86.38
306.352	92.38
306.582	83.38
306.812	79.38
307.042	88.38
307.272	88.38
307.502	87.38
307.731	86.38
307.961	79.38
308.191	81.38
308.421	87.38
308.651	84.38
308.881	79.38
309.111	77.38
309.341	98.38
309.571	85.38
309.8	79.38
310.03	80.38
310.26	68.38
310.49	90.38
310.72	75.38
310.949	87.38
311.179	80.38
311.409	89.38
311.639	72.38
311.868	93.38
312.098	91.38
312.328	95.38
312.557	78.38
312.787	86.38
313.017	79.38
313.246	82.38
313.476	104.38
313.706	88.38
313.935	106.38
314.165	76.38
314.394	89.38
314.624	92.38
314.853	89.38
315.083	90.38
315.312	87.38
315.542	80.38
315.771	77.38
316.001	108.38
316.23	88.38
316.46	92.38
316.689	77.38
316.919	67.38
317.148	84.38
317.377	70.38
317.607	81.38
317.836	76.38
318.065	81.38
318.295	95.38
318.524	85.38
318.753	94.38
318.983	94.38
319.212	74.38
319.441	84.38
319.67	95.38
319.9	71.38
320.129	76.38
320.358	75.38
320.587	98.38
320.816	82.38
321.046	94.38
321.275	86.38
321.504	81.38
321.733	78.38
321.962	73.38
322.191	95.38
322.42	82.38
322.649	83.38
322.878	102.38
323.108	87.38
323.337	94.38
323.566	87.38
323.795	94.38
324.024	97.38
324.253	91.38
324.482	89.38
324.71	87.38
324.939	84.38
325.168	87.38
325.397	72.38
325.626	95.38
325.855	96.38
326.084	82.38
326.313	82.38
326.542	92.38
326.77	89.38
326.999	76.38
327.228	71.38
327.457	102.38
327.686	95.38
327.914	96.38
328.143	97.38
328.372	90.38
328.6	95.38
328.829	88.38
329.058	94.38
329.287	75.38
329.515	82.38
329.744	87.38
329.972	80.38
330.201	75.38
330.43	88.38
330.658	75.38
330.887	82.38
331.115	74.38
331.344	79.38
331.572	78.38
331.801	77.38
332.03	86.38
332.258	90.38
332.486	76.38
332.715	83.38
332.943	75.38
333.172	75.38
333.4	92.38
333.629	89.38
333.857	93.38
334.085	76.38
334.314	82.38
334.542	89.38
334.771	83.38
334.999	92.38
335.227	86.38
335.455	81.38
335.684	79.38
335.912	91.38
336.14	78.38
336.369	82.38
336.597	81.38
336.825	74.38
337.053	90.38
337.281	81.38
337.51	79.38
337.738	99.38
337.966	83.38
338.194	90.38
338.422	91.38
338.65	82.38
338.878	92.38
339.106	93.38
339.334	95.38
339.562	84.38
339.79	74.38
340.018	61.38
340.246	69.38
340.474	86.38
340.702	88.38
340.93	94.38
341.158	90.38
341.386	96.38
341.614	88.38
341.842	84.38
342.07	79.38
342.298	88.38
342.526	79.38
342.754	90.38
342.981	82.38
343.209	81.38
343.437	96.38
343.665	90.38
343.893	73.38
344.12	80.38
344.348	90.38
344.576	76.38
344.804	86.38
345.031	86.38
345.259	72.38
345.487	82.38
345.714	92.38
345.942	93.38
346.17	81.38
346.397	97.38
346.625	80.38
346.853	81.38
347.08	89.38
347.308	74.38
347.535	91.38
347.763	83.38
347.99	82.38
348.218	71.38
348.445	84.38
348.673	79.38
348.9	88.38
349.128	90.38
349.355	103.38
349.583	88.38
349.81	102.38
350.037	86.38
350.265	87.38
350.492	79.38
350.72	78.38
350.947	82.38
351.174	87.38
351.402	95.38
351.629	93.38
351.856	81.38
352.083	82.38
352.311	87.38
352.538	83.38
352.765	88.38
352.992	85.38
353.22	89.38
353.447	90.38
353.674	87.38
353.901	75.38
354.128	92.38
354.355	76.38
354.583	91.38
354.81	87.38
355.037	88.38
355.264	89.38
355.491	76.38
355.718	87.38
355.945	89.38
356.172	74.38
356.399	90.38
356.626	98.38
356.853	112.38
357.08	131.38
357.307	145.38
357.534	146.38
357.761	89.38
357.988	84.38
358.215	95.38
358.441	89.38
358.668	97.38
358.895	83.38
359.122	81.38
359.349	89.38
359.576	83.38
359.802	73.38
360.029	79.38
360.256	91.38
360.483	96.38
360.709	76.38
360.936	86.38
361.163	72.38
361.39	87.38
361.616	85.38
361.843	83.38
362.07	99.38
362.296	78.38
362.523	76.38
362.749	96.38
362.976	103.38
363.203	94.38
363.429	108.38
363.656	143.38
363.882	176.38
364.109	208.38
364.335	127.38
364.562	100.38
364.788	92.38
365.015	94.38
365.241	104.38
365.468	81.38
365.694	86.38
365.92	99.38
366.147	95.38
366.373	90.38
366.599	98.38
366.826	103.38
367.052	118.38
367.278	125.38
367.505	104.38
367.731	114.38
367.957	141.38
368.184	219.38
368.41	284.38
368.636	204.38
368.862	120.38
369.089	88.38
369.315	94.38
369.541	102.38
369.767	88.38
369.993	91.38
370.219	87.38
370.445	87.38
370.672	91.38
370.898	78.38
371.124	82.38
371.35	83.38
371.576	67.38
371.802	76.38
372.028	79.38
372.254	76.38
372.48	79.38
372.706	77.38
372.932	104.38
373.158	86.38
373.384	102.38
373.61	114.38
373.835	134.38
374.061	152.38
374.287	124.38
374.513	95.38
374.739	71.38
374.965	87.38
375.191	78.38
375.416	81.38
375.642	92.38
375.868	80.38
376.094	68.38
376.319	81.38
376.545	81.38
376.771	87.38
376.997	78.38
377.222	90.38
377.448	86.38
377.674	79.38
377.899	80.38
378.125	81.38
378.35	88.38
378.576	72.38
378.802	83.38
379.027	95.38
379.253	98.38
379.478	92.38
379.704	76.38
379.929	80.38
380.155	84.38
380.38	77.38
380.606	72.38
380.831	73.38
381.057	82.38
381.282	77.38
381.507	79.38
381.733	86.38
381.958	83.38
382.184	78.38
382.409	66.38
382.634	85.38
382.86	80.38
383.085	83.38
383.31	92.38
383.535	87.38
383.761	85.38
383.986	79.38
384.211	85.38
384.436	74.38
384.662	111.38
384.887	82.38
385.112	76.38
385.337	95.38
385.562	82.38
385.787	87.38
386.013	89.38
386.238	86.38
386.463	84.38
386.688	90.38
386.913	96.38
387.138	83.38
387.363	79.38
387.588	75.38
387.813	76.38
388.038	93.38
388.263	78.38
388.488	71.38
388.713	93.38
388.938	89.38
389.163	84.38
389.387	85.38
389.612	79.38
389.837	72.38
390.062	89.38
390.287	76.38
390.512	80.38
390.736	65.38
390.961	89.38
391.186	82.38
391.411	75.38
391.636	94.38
391.86	91.38
392.085	83.38
392.31	80.38
392.534	91.38
392.759	88.38
392.984	82.38
393.208	81.38
393.433	79.38
393.658	86.38
393.882	74.38
394.107	76.38
394.331	66.38
394.556	89.38
394.78	85.38
395.005	83.38
395.229	106.38
395.454	74.38
395.678	96.38
395.903	92.38
396.127	89.38
396.352	85.38
396.576	84.38
396.801	81.38
397.025	79.38
397.249	72.38
397.474	86.38
397.698	69.38
397.922	86.38
398.147	80.38
398.371	73.38
398.595	84.38
398.82	89.38
399.044	78.38
399.268	75.38
399.492	85.38
399.717	82.38
399.941	84.38
400.165	111.38
400.389	84.38
400.613	73.38
400.837	85.38
401.062	86.38
401.286	95.38
401.51	82.38
401.734	106.38
401.958	108.38
402.182	105.38
402.406	94.38
402.63	90.38
402.854	67.38
403.078	80.38
403.302	71.38
403.526	94.38
403.75	91.38
403.974	83.38
404.198	91.38
404.422	87.38
404.645	80.38
404.869	90.38
405.093	98.38
405.317	140.38
405.541	232.38
405.765	390.38
405.988	419.38
406.212	224.38
406.436	154.38
406.66	112.38
406.883	96.38
407.107	81.38
407.331	78.38
407.555	75.38
407.778	92.38
408.002	76.38
408.226	79.38
408.449	79.38
408.673	78.38
408.896	80.38
409.12	93.38
409.344	89.38
409.567	76.38
409.791	81.38
410.014	75.38
410.238	78.38
410.461	81.38
410.685	74.38
410.908	76.38
411.132	83.38
411.355	89.38
411.578	74.38
411.802	91.38
412.025	93.38
412.249	88.38
412.472	77.38
412.695	92.38
412.919	76.38
413.142	83.38
413.365	81.38
413.589	96.38
413.812	88.38
414.035	84.38
414.258	88.38
414.482	94.38
414.705	89.38
414.928	94.38
415.151	85.38
415.374	84.38
415.597	78.38
415.821	98.38
416.044	72.38
416.267	88.38
416.49	87.38
416.713	86.38
416.936	83.38
417.159	94.38
417.382	88.38
417.605	91.38
417.828	87.38
418.051	72.38
418.274	97.38
418.497	82.38
418.72	91.38
418.943	98.38
419.166	87.38
419.389	77.38
419.611	82.38
419.834	98.38
420.057	79.38
420.28	90.38
420.503	108.38
420.726	81.38
420.948	91.38
421.171	103.38
421.394	87.38
421.617	74.38
421.839	72.38
422.062	87.38
422.285	76.38
422.507	95.38
422.73	82.38
422.953	84.38
423.175	92.38
423.398	81.38
423.621	76.38
423.843	62.38
424.066	68.38
424.288	89.38
424.511	82.38
424.733	77.38
424.956	80.38
425.178	87.38
425.401	91.38
425.623	95.38
425.846	79.38
426.068	81.38
426.291	74.38
426.513	77.38
426.735	82.38
426.958	88.38
427.18	80.38
427.402	79.38
427.625	77.38
427.847	96.38
428.069	73.38
428.292	92.38
428.514	89.38
428.736	70.38
428.958	72.38
429.181	72.38
429.403	85.38
429.625	82.38
429.847	77.38
430.069	88.38
430.292	77.38
430.514	87.38
430.736	92.38
430.958	87.38
431.18	82.38
431.402	83.38
431.624	92.38
431.846	79.38
432.068	89.38
432.29	95.38
432.512	83.38
432.734	71.38
432.956	88.38
433.178	91.38
433.4	79.38
433.622	82.38
433.844	94.38
434.066	85.38
434.287	74.38
434.509	66.38
434.731	86.38
434.953	73.38
435.175	72.38
435.397	93.38
435.618	71.38
435.84	91.38
436.062	69.38
436.284	64.38
436.505	87.38
436.727	70.38
436.949	75.38
437.17	108.38
437.392	88.38
437.614	75.38
437.835	76.38
438.057	88.38
438.278	77.38
438.5	86.38
438.721	73.38
438.943	89.38
439.165	74.38
439.386	74.38
439.608	96.38
439.829	98.38
440.05	91.38
440.272	79.38
440.493	90.38
440.715	87.38
440.936	97.38
441.158	79.38
441.379	83.38
441.6	88.38
441.822	82.38
442.043	98.38
442.264	75.38
442.486	82.38
442.707	88.38
442.928	83.38
443.149	76.38
443.371	86.38
443.592	86.38
443.813	84.38
444.034	76.38
444.255	84.38
444.476	82.38
444.698	89.38
444.919	78.38
445.14	163.38
445.361	121.38
445.582	88.38
445.803	96.38
446.024	80.38
446.245	85.38
446.466	79.38
446.687	75.38
446.908	95.38
447.129	100.38
447.35	68.38
447.571	88.38
447.792	78.38
448.013	75.38
448.234	104.38
448.455	80.38
448.675	82.38
448.896	80.38
449.117	89.38
449.338	95.38
449.559	87.38
449.779	75.38
450	83.38
450.221	81.38
450.442	86.38
450.662	80.38
450.883	91.38
451.104	81.38
451.324	82.38
451.545	82.38
451.766	88.38
451.986	76.38
452.207	78.38
452.428	77.38
452.648	77.38
452.869	90.38
453.089	73.38
453.31	84.38
453.53	83.38
453.751	79.38
453.971	76.38
454.192	81.38
454.412	92.38
454.633	89.38
454.853	82.38
455.073	79.38
455.294	94.38
455.514	77.38
455.734	82.38
455.955	78.38
456.175	83.38
456.395	83.38
456.616	84.38
456.836	89.38
457.056	88.38
457.276	73.38
457.497	78.38
457.717	68.38
457.937	86.38
458.157	94.38
458.377	80.38
458.598	85.38
458.818	85.38
459.038	83.38
459.258	80.38
459.478	75.38
459.698	85.38
459.918	92.38
460.138	82.38
460.358	76.38
460.578	84.38
460.798	77.38
461.018	83.38
461.238	87.38
461.458	89.38
461.678	64.38
461.898	86.38
462.118	97.38
462.338	76.38
462.558	94.38
462.777	83.38
462.997	87.38
463.217	87.38
463.437	82.38
463.657	98.38
463.876	90.38
464.096	85.38
464.316	86.38
464.536	78.38
464.755	83.38
464.975	91.38
465.195	83.38
465.414	81.38
465.634	85.38
465.854	85.38
466.073	72.38
466.293	98.38
466.512	93.38
466.732	90.38
466.951	73.38
467.171	93.38
467.391	82.38
467.61	84.38
467.829	87.38
468.049	71.38
468.268	89.38
468.488	75.38
468.707	81.38
468.927	83.38
469.146	86.38
469.365	80.38
469.585	86.38
469.804	88.38
470.023	80.38
470.243	87.38
470.462	83.38
470.681	83.38
470.901	83.38
471.12	80.38
471.339	75.38
471.558	80.38
471.777	94.38
471.997	87.38
472.216	80.38
472.435	88.38
472.654	86.38
472.873	90.38
473.092	87.38
473.311	91.38
473.53	93.38
473.749	94.38
473.968	91.38
474.187	90.38
474.406	86.38
474.625	86.38
474.844	66.38
475.063	87.38
475.282	77.38
475.501	89.38
475.72	88.38
475.939	87.38
476.158	70.38
476.377	77.38
476.596	79.38
476.814	76.38
477.033	88.38
477.252	87.38
477.471	80.38
477.69	90.38
477.908	63.38
478.127	84.38
478.346	92.38
478.564	90.38
478.783	88.38
479.002	95.38
479.22	87.38
479.439	90.38
479.658	92.38
479.876	86.38
480.095	82.38
480.313	87.38
480.532	91.38
480.751	79.38
480.969	85.38
481.188	63.38
481.406	83.38
481.624	88.38
481.843	75.38
482.061	82.38
482.28	84.38
482.498	81.38
482.717	99.38
482.935	79.38
483.153	90.38
483.372	74.38
483.59	79.38
483.808	80.38
484.027	80.38
484.245	94.38
484.463	91.38
484.681	89.38
484.9	96.38
485.118	83.38
485.336	92.38
485.554	83.38
485.772	95.38
485.99	77.38
486.209	91.38
486.427	97.38
486.645	73.38
486.863	102.38
487.081	76.38
487.299	86.38
487.517	90.38
487.735	79.38
487.953	78.38
488.171	89.38
488.389	95.38
488.607	81.38
488.825	88.38
489.043	102.38
489.261	85.38
489.479	84.38
489.696	90.38
489.914	69.38
490.132	90.38
490.35	91.38
490.568	73.38
490.786	89.38
491.003	85.38
491.221	82.38
491.439	94.38
491.657	102.38
491.874	78.38
492.092	86.38
492.31	97.38
492.527	98.38
492.745	91.38
492.963	93.38
493.18	82.38
493.398	87.38
493.615	91.38
493.833	76.38
494.05	73.38
494.268	82.38
494.485	89.38
494.703	74.38
494.92	83.38
495.138	85.38
495.355	76.38
495.573	89.38
495.79	92.38
496.008	100.38
496.225	79.38
496.442	82.38
496.66	95.38
496.877	101.38
497.094	83.38
497.312	88.38
497.529	96.38
497.746	91.38
497.963	77.38
498.181	83.38
498.398	80.38
498.615	91.38
498.832	75.38
499.049	71.38
499.267	82.38
499.484	86.38
499.701	87.38
499.918	90.38
500.135	91.38
500.352	82.38
500.569	133.38
500.786	146.38
501.003	90.38
501.22	88.38
501.437	87.38
501.654	80.38
501.871	90.38
502.088	87.38
502.305	85.38
502.522	75.38
502.739	83.38
502.956	93.38
503.172	81.38
503.389	80.38
503.606	81.38
503.823	91.38
504.04	78.38
504.256	93.38
504.473	104.38
504.69	81.38
504.907	85.38
505.123	96.38
505.34	92.38
505.557	73.38
505.773	78.38
505.99	89.38
506.207	95.38
506.423	84.38
506.64	68.38
506.856	93.38
507.073	77.38
507.289	99.38
507.506	74.38
507.722	88.38
507.939	80.38
508.155	74.38
508.372	79.38
508.588	83.38
508.805	97.38
509.021	91.38
509.238	93.38
509.454	92.38
509.67	87.38
509.887	88.38
510.103	82.38
510.319	103.38
510.536	82.38
510.752	80.38
510.968	69.38
511.184	82.38
511.401	90.38
511.617	89.38
511.833	80.38
512.049	96.38
512.265	100.38
512.481	78.38
512.698	72.38
512.914	76.38
513.13	88.38
513.346	76.38
513.562	97.38
513.778	84.38
513.994	86.38
514.21	88.38
514.426	76.38
514.642	81.38
514.858	74.38
515.074	80.38
515.29	74.38
515.506	91.38
515.721	80.38
515.937	73.38
516.153	94.38
516.369	90.38
516.585	99.38
516.801	86.38
517.016	86.38
517.232	72.38
517.448	88.38
517.664	86.38
517.879	88.38
518.095	97.38
518.311	82.38
518.527	90.38
518.742	89.38
518.958	91.38
519.173	78.38
