Data from StdB_HRD10591_071.txt Node
Date: Fri May 16 15:25:21 EDT 2025
User: Yrep
Spectrometer: HR+D1059
Trigger mode: 1
Integration Time (sec): 1.000000E-1
Scans to average: 1
Electric dark correction enabled: true
Nonlinearity correction enabled: false
Boxcar width: 0
XAxis mode: Wavelengths
Number of Pixels in Spectrum: 2048
>>>>>Begin Spectral Data<<<<<
223.165	-29.94
223.4	-29.94
223.635	-29.94
223.869	-24.94
224.104	-24.94
224.338	-14.94
224.573	-10.94
224.808	-6.94
225.042	-5.94
225.277	-5.94
225.511	0.06
225.746	0.06
225.98	7.06
226.215	7.06
226.449	12.06
226.683	19.06
226.918	37.06
227.152	42.06
227.387	37.06
227.621	25.06
227.856	34.06
228.09	47.06
228.324	28.06
228.559	57.06
228.793	42.06
229.027	61.06
229.262	67.06
229.496	55.06
229.73	75.06
229.964	74.06
230.199	64.06
230.433	78.06
230.667	80.06
230.901	64.06
231.136	78.06
231.37	75.06
231.604	79.06
231.838	78.06
232.072	70.06
232.306	63.06
232.541	69.06
232.775	75.06
233.009	73.06
233.243	80.06
233.477	67.06
233.711	71.06
233.945	82.06
234.179	57.06
234.413	73.06
234.647	69.06
234.881	65.06
235.115	89.06
235.349	84.06
235.583	64.06
235.817	85.06
236.051	72.06
236.285	65.06
236.519	74.06
236.753	79.06
236.987	79.06
237.221	70.06
237.455	68.06
237.689	87.06
237.922	70.06
238.156	74.06
238.39	73.06
238.624	72.06
238.858	55.06
239.091	63.06
239.325	71.06
239.559	77.06
239.793	82.06
240.027	76.06
240.26	62.06
240.494	71.06
240.728	54.06
240.961	67.06
241.195	69.06
241.429	89.06
241.662	71.06
241.896	72.06
242.13	65.06
242.363	70.06
242.597	87.06
242.83	75.06
243.064	83.06
243.298	64.06
243.531	60.06
243.765	82.06
243.998	87.06
244.232	73.06
244.465	80.06
244.699	71.06
244.932	87.06
245.166	80.06
245.399	73.06
245.633	66.06
245.866	78.06
246.099	70.06
246.333	70.06
246.566	74.06
246.8	64.06
247.033	74.06
247.266	65.06
247.5	71.06
247.733	77.06
247.966	70.06
248.2	70.06
248.433	89.06
248.666	90.06
248.899	65.06
249.133	88.06
249.366	79.06
249.599	81.06
249.832	79.06
250.066	81.06
250.299	67.06
250.532	68.06
250.765	68.06
250.998	72.06
251.231	67.06
251.465	66.06
251.698	72.06
251.931	75.06
252.164	79.06
252.397	67.06
252.63	77.06
252.863	66.06
253.096	66.06
253.329	82.06
253.562	79.06
253.795	87.06
254.028	82.06
254.261	83.06
254.494	70.06
254.727	79.06
254.96	66.06
255.193	77.06
255.426	81.06
255.659	67.06
255.892	77.06
256.124	69.06
256.357	66.06
256.59	62.06
256.823	83.06
257.056	84.06
257.289	67.06
257.521	92.06
257.754	81.06
257.987	78.06
258.22	82.06
258.452	85.06
258.685	70.06
258.918	66.06
259.151	64.06
259.383	76.06
259.616	81.06
259.849	72.06
260.081	69.06
260.314	70.06
260.547	79.06
260.779	87.06
261.012	75.06
261.244	95.06
261.477	82.06
261.71	80.06
261.942	102.06
262.175	78.06
262.407	76.06
262.64	83.06
262.872	79.06
263.105	87.06
263.337	86.06
263.57	74.06
263.802	82.06
264.035	79.06
264.267	84.06
264.499	73.06
264.732	75.06
264.964	92.06
265.197	87.06
265.429	81.06
265.661	85.06
265.894	63.06
266.126	83.06
266.358	79.06
266.591	78.06
266.823	76.06
267.055	71.06
267.287	80.06
267.52	86.06
267.752	82.06
267.984	74.06
268.216	88.06
268.448	87.06
268.681	64.06
268.913	80.06
269.145	87.06
269.377	78.06
269.609	76.06
269.841	79.06
270.073	86.06
270.306	70.06
270.538	75.06
270.77	60.06
271.002	74.06
271.234	79.06
271.466	70.06
271.698	72.06
271.93	75.06
272.162	69.06
272.394	86.06
272.626	79.06
272.858	73.06
273.09	86.06
273.322	70.06
273.553	78.06
273.785	69.06
274.017	71.06
274.249	86.06
274.481	84.06
274.713	74.06
274.945	65.06
275.176	70.06
275.408	74.06
275.64	59.06
275.872	78.06
276.104	74.06
276.335	69.06
276.567	79.06
276.799	68.06
277.031	64.06
277.262	82.06
277.494	68.06
277.726	80.06
277.957	79.06
278.189	86.06
278.421	84.06
278.652	76.06
278.884	72.06
279.115	98.06
279.347	77.06
279.579	91.06
279.81	79.06
280.042	94.06
280.273	97.06
280.505	114.06
280.736	82.06
280.968	84.06
281.199	79.06
281.431	84.06
281.662	79.06
281.894	64.06
282.125	77.06
282.356	96.06
282.588	94.06
282.819	83.06
283.051	108.06
283.282	98.06
283.513	96.06
283.745	82.06
283.976	73.06
284.207	82.06
284.439	71.06
284.67	84.06
284.901	80.06
285.132	78.06
285.364	87.06
285.595	89.06
285.826	83.06
286.057	76.06
286.288	82.06
286.52	85.06
286.751	83.06
286.982	83.06
287.213	97.06
287.444	96.06
287.675	85.06
287.906	80.06
288.138	86.06
288.369	81.06
288.6	79.06
288.831	80.06
289.062	85.06
289.293	94.06
289.524	78.06
289.755	80.06
289.986	72.06
290.217	70.06
290.448	83.06
290.679	77.06
290.91	78.06
291.141	75.06
291.371	73.06
291.602	81.06
291.833	71.06
292.064	78.06
292.295	78.06
292.526	84.06
292.757	79.06
292.987	89.06
293.218	81.06
293.449	78.06
293.68	72.06
293.91	66.06
294.141	85.06
294.372	79.06
294.603	82.06
294.833	82.06
295.064	75.06
295.295	66.06
295.525	79.06
295.756	88.06
295.987	78.06
296.217	71.06
296.448	78.06
296.679	81.06
296.909	83.06
297.14	92.06
297.37	88.06
297.601	87.06
297.831	77.06
298.062	75.06
298.292	66.06
298.523	85.06
298.753	73.06
298.984	86.06
299.214	79.06
299.445	65.06
299.675	85.06
299.905	80.06
300.136	70.06
300.366	79.06
300.597	79.06
300.827	96.06
301.057	74.06
301.288	76.06
301.518	104.06
301.748	73.06
301.979	89.06
302.209	77.06
302.439	76.06
302.669	70.06
302.9	85.06
303.13	80.06
303.36	82.06
303.59	84.06
303.82	84.06
304.051	86.06
304.281	84.06
304.511	77.06
304.741	87.06
304.971	85.06
305.201	102.06
305.431	72.06
305.661	88.06
305.891	87.06
306.121	86.06
306.352	81.06
306.582	75.06
306.812	89.06
307.042	86.06
307.272	76.06
307.502	87.06
307.731	70.06
307.961	73.06
308.191	77.06
308.421	86.06
308.651	83.06
308.881	76.06
309.111	84.06
309.341	76.06
309.571	75.06
309.8	76.06
310.03	84.06
310.26	79.06
310.49	57.06
310.72	65.06
310.949	74.06
311.179	83.06
311.409	79.06
311.639	89.06
311.868	76.06
312.098	80.06
312.328	77.06
312.557	79.06
312.787	78.06
313.017	86.06
313.246	76.06
313.476	82.06
313.706	86.06
313.935	76.06
314.165	78.06
314.394	92.06
314.624	66.06
314.853	82.06
315.083	86.06
315.312	73.06
315.542	86.06
315.771	82.06
316.001	88.06
316.23	87.06
316.46	86.06
316.689	82.06
316.919	78.06
317.148	84.06
317.377	87.06
317.607	80.06
317.836	70.06
318.065	85.06
318.295	87.06
318.524	83.06
318.753	65.06
318.983	61.06
319.212	78.06
319.441	82.06
319.67	82.06
319.9	79.06
320.129	79.06
320.358	83.06
320.587	76.06
320.816	78.06
321.046	90.06
321.275	66.06
321.504	84.06
321.733	74.06
321.962	68.06
322.191	86.06
322.42	76.06
322.649	81.06
322.878	81.06
323.108	83.06
323.337	75.06
323.566	88.06
323.795	78.06
324.024	95.06
324.253	88.06
324.482	82.06
324.71	85.06
324.939	80.06
325.168	91.06
325.397	86.06
325.626	86.06
325.855	91.06
326.084	81.06
326.313	74.06
326.542	78.06
326.77	74.06
326.999	68.06
327.228	77.06
327.457	85.06
327.686	75.06
327.914	86.06
328.143	89.06
328.372	77.06
328.6	78.06
328.829	57.06
329.058	87.06
329.287	76.06
329.515	79.06
329.744	83.06
329.972	88.06
330.201	79.06
330.43	90.06
330.658	80.06
330.887	81.06
331.115	78.06
331.344	76.06
331.572	74.06
331.801	73.06
332.03	78.06
332.258	80.06
332.486	75.06
332.715	72.06
332.943	89.06
333.172	82.06
333.4	88.06
333.629	89.06
333.857	70.06
334.085	64.06
334.314	81.06
334.542	73.06
334.771	73.06
334.999	74.06
335.227	87.06
335.455	76.06
335.684	88.06
335.912	78.06
336.14	77.06
336.369	72.06
336.597	86.06
336.825	85.06
337.053	74.06
337.281	82.06
337.51	83.06
337.738	80.06
337.966	90.06
338.194	71.06
338.422	83.06
338.65	82.06
338.878	85.06
339.106	75.06
339.334	80.06
339.562	80.06
339.79	77.06
340.018	91.06
340.246	88.06
340.474	76.06
340.702	65.06
340.93	80.06
341.158	69.06
341.386	60.06
341.614	68.06
341.842	82.06
342.07	70.06
342.298	76.06
342.526	78.06
342.754	84.06
342.981	80.06
343.209	74.06
343.437	89.06
343.665	91.06
343.893	76.06
344.12	85.06
344.348	82.06
344.576	86.06
344.804	86.06
345.031	74.06
345.259	69.06
345.487	78.06
345.714	78.06
345.942	74.06
346.17	78.06
346.397	75.06
346.625	82.06
346.853	76.06
347.08	67.06
347.308	53.06
347.535	76.06
347.763	81.06
347.99	91.06
348.218	77.06
348.445	74.06
348.673	78.06
348.9	84.06
349.128	72.06
349.355	89.06
349.583	68.06
349.81	73.06
350.037	80.06
350.265	85.06
350.492	74.06
350.72	85.06
350.947	84.06
351.174	70.06
351.402	87.06
351.629	81.06
351.856	89.06
352.083	75.06
352.311	73.06
352.538	73.06
352.765	80.06
352.992	78.06
353.22	66.06
353.447	84.06
353.674	84.06
353.901	75.06
354.128	87.06
354.355	97.06
354.583	86.06
354.81	90.06
355.037	81.06
355.264	75.06
355.491	73.06
355.718	73.06
355.945	76.06
356.172	84.06
356.399	87.06
356.626	88.06
356.853	94.06
357.08	106.06
357.307	140.06
357.534	124.06
357.761	84.06
357.988	104.06
358.215	91.06
358.441	88.06
358.668	75.06
358.895	74.06
359.122	86.06
359.349	73.06
359.576	83.06
359.802	73.06
360.029	65.06
360.256	66.06
360.483	68.06
360.709	81.06
360.936	75.06
361.163	81.06
361.39	69.06
361.616	86.06
361.843	78.06
362.07	99.06
362.296	74.06
362.523	98.06
362.749	83.06
362.976	91.06
363.203	70.06
363.429	75.06
363.656	123.06
363.882	162.06
364.109	168.06
364.335	115.06
364.562	100.06
364.788	82.06
365.015	82.06
365.241	81.06
365.468	79.06
365.694	74.06
365.92	80.06
366.147	75.06
366.373	86.06
366.599	88.06
366.826	73.06
367.052	92.06
367.278	118.06
367.505	83.06
367.731	108.06
367.957	132.06
368.184	189.06
368.41	232.06
368.636	180.06
368.862	100.06
369.089	78.06
369.315	72.06
369.541	89.06
369.767	72.06
369.993	75.06
370.219	74.06
370.445	87.06
370.672	81.06
370.898	100.06
371.124	78.06
371.35	71.06
371.576	82.06
371.802	87.06
372.028	72.06
372.254	80.06
372.48	78.06
372.706	82.06
372.932	82.06
373.158	84.06
373.384	100.06
373.61	95.06
373.835	116.06
374.061	152.06
374.287	125.06
374.513	87.06
374.739	80.06
374.965	73.06
375.191	94.06
375.416	75.06
375.642	76.06
375.868	72.06
376.094	74.06
376.319	59.06
376.545	75.06
376.771	79.06
376.997	74.06
377.222	66.06
377.448	92.06
377.674	82.06
377.899	75.06
378.125	90.06
378.35	80.06
378.576	79.06
378.802	80.06
379.027	84.06
379.253	79.06
379.478	77.06
379.704	76.06
379.929	66.06
380.155	74.06
380.38	74.06
380.606	78.06
380.831	82.06
381.057	65.06
381.282	79.06
381.507	80.06
381.733	78.06
381.958	82.06
382.184	82.06
382.409	74.06
382.634	80.06
382.86	82.06
383.085	84.06
383.31	73.06
383.535	80.06
383.761	85.06
383.986	66.06
384.211	72.06
384.436	67.06
384.662	70.06
384.887	79.06
385.112	73.06
385.337	75.06
385.562	72.06
385.787	71.06
386.013	80.06
386.238	70.06
386.463	83.06
386.688	82.06
386.913	80.06
387.138	71.06
387.363	63.06
387.588	79.06
387.813	86.06
388.038	86.06
388.263	75.06
388.488	81.06
388.713	74.06
388.938	83.06
389.163	81.06
389.387	67.06
389.612	65.06
389.837	59.06
390.062	65.06
390.287	81.06
390.512	71.06
390.736	74.06
390.961	73.06
391.186	74.06
391.411	73.06
391.636	74.06
391.86	83.06
392.085	75.06
392.31	66.06
392.534	77.06
392.759	70.06
392.984	92.06
393.208	84.06
393.433	91.06
393.658	87.06
393.882	76.06
394.107	75.06
394.331	72.06
394.556	75.06
394.78	68.06
395.005	88.06
395.229	71.06
395.454	73.06
395.678	75.06
395.903	84.06
396.127	85.06
396.352	74.06
396.576	70.06
396.801	83.06
397.025	89.06
397.249	94.06
397.474	78.06
397.698	86.06
397.922	90.06
398.147	63.06
398.371	92.06
398.595	71.06
398.82	67.06
399.044	65.06
399.268	82.06
399.492	76.06
399.717	83.06
399.941	84.06
400.165	83.06
400.389	77.06
400.613	72.06
400.837	86.06
401.062	70.06
401.286	82.06
401.51	74.06
401.734	83.06
401.958	99.06
402.182	96.06
402.406	92.06
402.63	78.06
402.854	85.06
403.078	86.06
403.302	67.06
403.526	54.06
403.75	78.06
403.974	75.06
404.198	79.06
404.422	70.06
404.645	79.06
404.869	70.06
405.093	90.06
405.317	119.06
405.541	197.06
405.765	326.06
405.988	346.06
406.212	193.06
406.436	146.06
406.66	89.06
406.883	83.06
407.107	84.06
407.331	73.06
407.555	62.06
407.778	78.06
408.002	68.06
408.226	70.06
408.449	91.06
408.673	82.06
408.896	86.06
409.12	84.06
409.344	64.06
409.567	83.06
409.791	77.06
410.014	78.06
410.238	80.06
410.461	82.06
410.685	79.06
410.908	69.06
411.132	79.06
411.355	74.06
411.578	62.06
411.802	75.06
412.025	86.06
412.249	73.06
412.472	81.06
412.695	80.06
412.919	84.06
413.142	75.06
413.365	84.06
413.589	86.06
413.812	94.06
414.035	82.06
414.258	66.06
414.482	79.06
414.705	62.06
414.928	85.06
415.151	82.06
415.374	83.06
415.597	67.06
415.821	82.06
416.044	84.06
416.267	76.06
416.49	79.06
416.713	83.06
416.936	84.06
417.159	85.06
417.382	75.06
417.605	74.06
417.828	76.06
418.051	82.06
418.274	98.06
418.497	87.06
418.72	90.06
418.943	70.06
419.166	58.06
419.389	74.06
419.611	85.06
419.834	68.06
420.057	78.06
420.28	88.06
420.503	84.06
420.726	79.06
420.948	68.06
421.171	80.06
421.394	79.06
421.617	69.06
421.839	64.06
422.062	78.06
422.285	75.06
422.507	69.06
422.73	79.06
422.953	70.06
423.175	82.06
423.398	86.06
423.621	78.06
423.843	74.06
424.066	89.06
424.288	73.06
424.511	78.06
424.733	78.06
424.956	78.06
425.178	67.06
425.401	82.06
425.623	74.06
425.846	75.06
426.068	79.06
426.291	74.06
426.513	66.06
426.735	76.06
426.958	77.06
427.18	74.06
427.402	83.06
427.625	82.06
427.847	84.06
428.069	66.06
428.292	77.06
428.514	86.06
428.736	75.06
428.958	74.06
429.181	70.06
429.403	88.06
429.625	67.06
429.847	84.06
430.069	73.06
430.292	67.06
430.514	71.06
430.736	69.06
430.958	88.06
431.18	73.06
431.402	79.06
431.624	68.06
431.846	86.06
432.068	74.06
432.29	76.06
432.512	79.06
432.734	68.06
432.956	76.06
433.178	82.06
433.4	82.06
433.622	84.06
433.844	95.06
434.066	83.06
434.287	73.06
434.509	76.06
434.731	85.06
434.953	74.06
435.175	71.06
435.397	79.06
435.618	60.06
435.84	88.06
436.062	75.06
436.284	61.06
436.505	64.06
436.727	74.06
436.949	85.06
437.17	88.06
437.392	80.06
437.614	75.06
437.835	77.06
438.057	95.06
438.278	85.06
438.5	68.06
438.721	82.06
438.943	70.06
439.165	83.06
439.386	74.06
439.608	73.06
439.829	76.06
440.05	73.06
440.272	79.06
440.493	86.06
440.715	74.06
440.936	73.06
441.158	69.06
441.379	82.06
441.6	80.06
441.822	74.06
442.043	82.06
442.264	76.06
442.486	75.06
442.707	74.06
442.928	72.06
443.149	78.06
443.371	76.06
443.592	75.06
443.813	59.06
444.034	94.06
444.255	76.06
444.476	69.06
444.698	84.06
444.919	85.06
445.14	158.06
445.361	106.06
445.582	89.06
445.803	68.06
446.024	86.06
446.245	81.06
446.466	72.06
446.687	74.06
446.908	81.06
447.129	78.06
447.35	64.06
447.571	69.06
447.792	88.06
448.013	86.06
448.234	83.06
448.455	74.06
448.675	70.06
448.896	94.06
449.117	59.06
449.338	60.06
449.559	80.06
449.779	82.06
450	82.06
450.221	65.06
450.442	79.06
450.662	72.06
450.883	81.06
451.104	84.06
451.324	63.06
451.545	77.06
451.766	81.06
451.986	82.06
452.207	83.06
452.428	72.06
452.648	79.06
452.869	75.06
453.089	67.06
453.31	72.06
453.53	65.06
453.751	66.06
453.971	67.06
454.192	79.06
454.412	73.06
454.633	78.06
454.853	69.06
455.073	79.06
455.294	83.06
455.514	86.06
455.734	78.06
455.955	73.06
456.175	79.06
456.395	72.06
456.616	70.06
456.836	88.06
457.056	70.06
457.276	94.06
457.497	79.06
457.717	75.06
457.937	75.06
458.157	76.06
458.377	60.06
458.598	75.06
458.818	71.06
459.038	80.06
459.258	84.06
459.478	80.06
459.698	85.06
459.918	78.06
460.138	66.06
460.358	70.06
460.578	66.06
460.798	94.06
461.018	79.06
461.238	80.06
461.458	88.06
461.678	70.06
461.898	79.06
462.118	87.06
462.338	63.06
462.558	77.06
462.777	84.06
462.997	70.06
463.217	78.06
463.437	76.06
463.657	71.06
463.876	73.06
464.096	82.06
464.316	81.06
464.536	72.06
464.755	90.06
464.975	71.06
465.195	66.06
465.414	75.06
465.634	81.06
465.854	75.06
466.073	94.06
466.293	77.06
466.512	83.06
466.732	80.06
466.951	79.06
467.171	74.06
467.391	96.06
467.61	86.06
467.829	84.06
468.049	81.06
468.268	68.06
468.488	77.06
468.707	91.06
468.927	72.06
469.146	81.06
469.365	91.06
469.585	73.06
469.804	70.06
470.023	85.06
470.243	81.06
470.462	75.06
470.681	84.06
470.901	81.06
471.12	86.06
471.339	73.06
471.558	83.06
471.777	105.06
471.997	83.06
472.216	90.06
472.435	67.06
472.654	84.06
472.873	95.06
473.092	86.06
473.311	73.06
473.53	70.06
473.749	83.06
473.968	67.06
474.187	79.06
474.406	74.06
474.625	69.06
474.844	61.06
475.063	74.06
475.282	85.06
475.501	84.06
475.72	80.06
475.939	87.06
476.158	77.06
476.377	85.06
476.596	84.06
476.814	79.06
477.033	81.06
477.252	82.06
477.471	74.06
477.69	80.06
477.908	78.06
478.127	71.06
478.346	64.06
478.564	87.06
478.783	82.06
479.002	78.06
479.22	68.06
479.439	80.06
479.658	75.06
479.876	69.06
480.095	80.06
480.313	74.06
480.532	93.06
480.751	70.06
480.969	66.06
481.188	83.06
481.406	79.06
481.624	68.06
481.843	82.06
482.061	78.06
482.28	63.06
482.498	83.06
482.717	80.06
482.935	80.06
483.153	74.06
483.372	68.06
483.59	81.06
483.808	71.06
484.027	75.06
484.245	77.06
484.463	80.06
484.681	85.06
484.9	81.06
485.118	80.06
485.336	96.06
485.554	96.06
485.772	68.06
485.99	69.06
486.209	70.06
486.427	84.06
486.645	66.06
486.863	78.06
487.081	66.06
487.299	95.06
487.517	81.06
487.735	83.06
487.953	89.06
488.171	74.06
488.389	74.06
488.607	74.06
488.825	70.06
489.043	74.06
489.261	76.06
489.479	73.06
489.696	69.06
489.914	78.06
490.132	80.06
490.35	84.06
490.568	81.06
490.786	72.06
491.003	76.06
491.221	87.06
491.439	75.06
491.657	71.06
491.874	73.06
492.092	68.06
492.31	81.06
492.527	68.06
492.745	85.06
492.963	99.06
493.18	75.06
493.398	85.06
493.615	76.06
493.833	95.06
494.05	70.06
494.268	84.06
494.485	87.06
494.703	82.06
494.92	80.06
495.138	74.06
495.355	70.06
495.573	82.06
495.79	74.06
496.008	70.06
496.225	73.06
496.442	80.06
496.66	83.06
496.877	75.06
497.094	94.06
497.312	89.06
497.529	78.06
497.746	92.06
497.963	69.06
498.181	81.06
498.398	79.06
498.615	71.06
498.832	81.06
499.049	72.06
499.267	70.06
499.484	82.06
499.701	88.06
499.918	80.06
500.135	86.06
500.352	76.06
500.569	92.06
500.786	134.06
501.003	87.06
501.22	72.06
501.437	77.06
501.654	74.06
501.871	56.06
502.088	78.06
502.305	80.06
502.522	80.06
502.739	79.06
502.956	84.06
503.172	75.06
503.389	71.06
503.606	82.06
503.823	66.06
504.04	90.06
504.256	83.06
504.473	60.06
504.69	70.06
504.907	87.06
505.123	88.06
505.34	75.06
505.557	77.06
505.773	77.06
505.99	68.06
506.207	78.06
506.423	76.06
506.64	66.06
506.856	67.06
507.073	79.06
507.289	74.06
507.506	81.06
507.722	90.06
507.939	84.06
508.155	75.06
508.372	84.06
508.588	71.06
508.805	82.06
509.021	75.06
509.238	89.06
509.454	84.06
509.67	81.06
509.887	84.06
510.103	90.06
510.319	68.06
510.536	76.06
510.752	74.06
510.968	78.06
511.184	74.06
511.401	80.06
511.617	72.06
511.833	75.06
512.049	79.06
512.265	86.06
512.481	71.06
512.698	78.06
512.914	71.06
513.13	75.06
513.346	91.06
513.562	74.06
513.778	78.06
513.994	78.06
514.21	66.06
514.426	83.06
514.642	92.06
514.858	75.06
515.074	68.06
515.29	89.06
515.506	83.06
515.721	76.06
515.937	81.06
516.153	83.06
516.369	56.06
516.585	73.06
516.801	64.06
517.016	68.06
517.232	83.06
517.448	68.06
517.664	73.06
517.879	84.06
518.095	86.06
518.311	79.06
518.527	76.06
518.742	83.06
518.958	79.06
519.173	87.06
519.389	76.06
519.605	85.06
519.82	79.06
