Data from StdB_HRD10591_016.txt Node
Date: Fri May 16 15:24:54 EDT 2025
User: Yrep
Spectrometer: HR+D1059
Trigger mode: 1
Integration Time (sec): 1.000000E-1
Scans to average: 1
Electric dark correction enabled: true
Nonlinearity correction enabled: false
Boxcar width: 0
XAxis mode: Wavelengths
Number of Pixels in Spectrum: 2048
>>>>>Begin Spectral Data<<<<<
223.165	-3.25
223.4	-3.25
223.635	-3.25
223.869	-24.25
224.104	-20.25
224.338	-14.25
224.573	-17.25
224.808	-19.25
225.042	-1.25
225.277	-14.25
225.511	5.75
225.746	-8.25
225.98	20.75
226.215	0.75
226.449	17.75
226.683	17.75
226.918	25.75
227.152	33.75
227.387	36.75
227.621	40.75
227.856	36.75
228.09	48.75
228.324	48.75
228.559	46.75
228.793	53.75
229.027	64.75
229.262	80.75
229.496	84.75
229.73	68.75
229.964	95.75
230.199	84.75
230.433	80.75
230.667	89.75
230.901	87.75
231.136	83.75
231.37	87.75
231.604	99.75
231.838	85.75
232.072	84.75
232.306	90.75
232.541	76.75
232.775	94.75
233.009	76.75
233.243	90.75
233.477	109.75
233.711	79.75
233.945	93.75
234.179	73.75
234.413	92.75
234.647	83.75
234.881	77.75
235.115	84.75
235.349	86.75
235.583	90.75
235.817	78.75
236.051	68.75
236.285	86.75
236.519	74.75
236.753	85.75
236.987	81.75
237.221	91.75
237.455	82.75
237.689	92.75
237.922	94.75
238.156	73.75
238.39	100.75
238.624	84.75
238.858	106.75
239.091	81.75
239.325	100.75
239.559	93.75
239.793	118.75
240.027	102.75
240.26	93.75
240.494	100.75
240.728	98.75
240.961	85.75
241.195	112.75
241.429	94.75
241.662	103.75
241.896	100.75
242.13	80.75
242.363	83.75
242.597	92.75
242.83	97.75
243.064	112.75
243.298	91.75
243.531	92.75
243.765	108.75
243.998	94.75
244.232	100.75
244.465	106.75
244.699	102.75
244.932	112.75
245.166	101.75
245.399	91.75
245.633	92.75
245.866	91.75
246.099	98.75
246.333	96.75
246.566	86.75
246.8	110.75
247.033	116.75
247.266	88.75
247.5	105.75
247.733	121.75
247.966	140.75
248.2	116.75
248.433	118.75
248.666	98.75
248.899	94.75
249.133	114.75
249.366	115.75
249.599	97.75
249.832	86.75
250.066	101.75
250.299	104.75
250.532	128.75
250.765	107.75
250.998	101.75
251.231	104.75
251.465	122.75
251.698	121.75
251.931	101.75
252.164	98.75
252.397	118.75
252.63	140.75
252.863	116.75
253.096	126.75
253.329	136.75
253.562	119.75
253.795	123.75
254.028	127.75
254.261	128.75
254.494	132.75
254.727	141.75
254.96	133.75
255.193	124.75
255.426	132.75
255.659	119.75
255.892	132.75
256.124	97.75
256.357	112.75
256.59	137.75
256.823	133.75
257.056	134.75
257.289	141.75
257.521	138.75
257.754	150.75
257.987	170.75
258.22	166.75
258.452	148.75
258.685	129.75
258.918	132.75
259.151	136.75
259.383	144.75
259.616	131.75
259.849	131.75
260.081	149.75
260.314	162.75
260.547	145.75
260.779	157.75
261.012	199.75
261.244	241.75
261.477	316.75
261.71	322.75
261.942	226.75
262.175	174.75
262.407	150.75
262.64	158.75
262.872	149.75
263.105	157.75
263.337	154.75
263.57	139.75
263.802	136.75
264.035	136.75
264.267	134.75
264.499	131.75
264.732	155.75
264.964	167.75
265.197	182.75
265.429	160.75
265.661	151.75
265.894	151.75
266.126	165.75
266.358	204.75
266.591	227.75
266.823	176.75
267.055	153.75
267.287	150.75
267.52	138.75
267.752	125.75
267.984	127.75
268.216	135.75
268.448	134.75
268.681	121.75
268.913	146.75
269.145	121.75
269.377	124.75
269.609	124.75
269.841	139.75
270.073	138.75
270.306	128.75
270.538	126.75
270.77	135.75
271.002	144.75
271.234	117.75
271.466	134.75
271.698	142.75
271.93	133.75
272.162	127.75
272.394	137.75
272.626	130.75
272.858	132.75
273.09	127.75
273.322	118.75
273.553	135.75
273.785	148.75
274.017	123.75
274.249	120.75
274.481	138.75
274.713	131.75
274.945	150.75
275.176	161.75
275.408	142.75
275.64	148.75
275.872	125.75
276.104	144.75
276.335	153.75
276.567	131.75
276.799	143.75
277.031	164.75
277.262	145.75
277.494	146.75
277.726	141.75
277.957	158.75
278.189	134.75
278.421	153.75
278.652	179.75
278.884	184.75
279.115	198.75
279.347	196.75
279.579	245.75
279.81	311.75
280.042	417.75
280.273	515.75
280.505	442.75
280.736	298.75
280.968	235.75
281.199	204.75
281.431	200.75
281.662	197.75
281.894	209.75
282.125	242.75
282.356	259.75
282.588	260.75
282.819	245.75
283.051	263.75
283.282	340.75
283.513	398.75
283.745	316.75
283.976	232.75
284.207	191.75
284.439	172.75
284.67	195.75
284.901	147.75
285.132	156.75
285.364	178.75
285.595	164.75
285.826	157.75
286.057	167.75
286.288	180.75
286.52	167.75
286.751	198.75
286.982	226.75
287.213	267.75
287.444	288.75
287.675	250.75
287.906	194.75
288.138	176.75
288.369	178.75
288.6	153.75
288.831	147.75
289.062	139.75
289.293	157.75
289.524	157.75
289.755	144.75
289.986	157.75
290.217	141.75
290.448	145.75
290.679	138.75
290.91	145.75
291.141	146.75
291.371	145.75
291.602	146.75
291.833	142.75
292.064	135.75
292.295	144.75
292.526	145.75
292.757	140.75
292.987	146.75
293.218	143.75
293.449	158.75
293.68	160.75
293.91	169.75
294.141	161.75
294.372	164.75
294.603	160.75
294.833	171.75
295.064	162.75
295.295	154.75
295.525	144.75
295.756	158.75
295.987	151.75
296.217	153.75
296.448	161.75
296.679	161.75
296.909	165.75
297.14	180.75
297.37	170.75
297.601	163.75
297.831	162.75
298.062	166.75
298.292	161.75
298.523	157.75
298.753	156.75
298.984	158.75
299.214	156.75
299.445	147.75
299.675	152.75
299.905	161.75
300.136	148.75
300.366	158.75
300.597	153.75
300.827	165.75
301.057	156.75
301.288	160.75
301.518	178.75
301.748	175.75
301.979	182.75
302.209	165.75
302.439	154.75
302.669	160.75
302.9	167.75
303.13	164.75
303.36	181.75
303.59	169.75
303.82	180.75
304.051	174.75
304.281	182.75
304.511	171.75
304.741	178.75
304.971	160.75
305.201	162.75
305.431	191.75
305.661	182.75
305.891	162.75
306.121	170.75
306.352	154.75
306.582	163.75
306.812	155.75
307.042	160.75
307.272	161.75
307.502	160.75
307.731	157.75
307.961	149.75
308.191	174.75
308.421	153.75
308.651	143.75
308.881	162.75
309.111	165.75
309.341	158.75
309.571	164.75
309.8	163.75
310.03	168.75
310.26	176.75
310.49	171.75
310.72	168.75
310.949	180.75
311.179	167.75
311.409	163.75
311.639	162.75
311.868	162.75
312.098	151.75
312.328	184.75
312.557	185.75
312.787	170.75
313.017	186.75
313.246	186.75
313.476	182.75
313.706	195.75
313.935	196.75
314.165	201.75
314.394	176.75
314.624	196.75
314.853	211.75
315.083	215.75
315.312	221.75
315.542	186.75
315.771	203.75
316.001	190.75
316.23	210.75
316.46	211.75
316.689	205.75
316.919	208.75
317.148	194.75
317.377	207.75
317.607	196.75
317.836	205.75
318.065	213.75
318.295	202.75
318.524	194.75
318.753	176.75
318.983	173.75
319.212	179.75
319.441	193.75
319.67	164.75
319.9	184.75
320.129	179.75
320.358	179.75
320.587	190.75
320.816	181.75
321.046	175.75
321.275	182.75
321.504	175.75
321.733	189.75
321.962	199.75
322.191	188.75
322.42	176.75
322.649	181.75
322.878	182.75
323.108	170.75
323.337	176.75
323.566	188.75
323.795	169.75
324.024	200.75
324.253	168.75
324.482	193.75
324.71	181.75
324.939	193.75
325.168	182.75
325.397	175.75
325.626	194.75
325.855	176.75
326.084	177.75
326.313	180.75
326.542	190.75
326.77	184.75
326.999	193.75
327.228	178.75
327.457	185.75
327.686	194.75
327.914	181.75
328.143	182.75
328.372	184.75
328.6	186.75
328.829	184.75
329.058	194.75
329.287	190.75
329.515	184.75
329.744	196.75
329.972	184.75
330.201	163.75
330.43	179.75
330.658	176.75
330.887	178.75
331.115	180.75
331.344	187.75
331.572	184.75
331.801	200.75
332.03	201.75
332.258	186.75
332.486	174.75
332.715	191.75
332.943	192.75
333.172	185.75
333.4	180.75
333.629	189.75
333.857	204.75
334.085	172.75
334.314	201.75
334.542	202.75
334.771	190.75
334.999	191.75
335.227	188.75
335.455	200.75
335.684	179.75
335.912	200.75
336.14	185.75
336.369	187.75
336.597	178.75
336.825	175.75
337.053	182.75
337.281	171.75
337.51	167.75
337.738	211.75
337.966	180.75
338.194	188.75
338.422	196.75
338.65	176.75
338.878	172.75
339.106	179.75
339.334	199.75
339.562	189.75
339.79	185.75
340.018	176.75
340.246	184.75
340.474	184.75
340.702	194.75
340.93	181.75
341.158	182.75
341.386	182.75
341.614	167.75
341.842	169.75
342.07	183.75
342.298	189.75
342.526	175.75
342.754	174.75
342.981	175.75
343.209	186.75
343.437	180.75
343.665	201.75
343.893	190.75
344.12	200.75
344.348	178.75
344.576	189.75
344.804	170.75
345.031	185.75
345.259	183.75
345.487	177.75
345.714	191.75
345.942	176.75
346.17	188.75
346.397	180.75
346.625	179.75
346.853	184.75
347.08	179.75
347.308	164.75
347.535	177.75
347.763	184.75
347.99	182.75
348.218	190.75
348.445	163.75
348.673	176.75
348.9	188.75
349.128	177.75
349.355	188.75
349.583	184.75
349.81	179.75
350.037	166.75
350.265	172.75
350.492	171.75
350.72	170.75
350.947	181.75
351.174	194.75
351.402	197.75
351.629	186.75
351.856	177.75
352.083	186.75
352.311	184.75
352.538	186.75
352.765	176.75
352.992	186.75
353.22	193.75
353.447	178.75
353.674	172.75
353.901	199.75
354.128	179.75
354.355	187.75
354.583	186.75
354.81	188.75
355.037	196.75
355.264	191.75
355.491	199.75
355.718	205.75
355.945	211.75
356.172	198.75
356.399	187.75
356.626	246.75
356.853	295.75
357.08	402.75
357.307	567.75
357.534	540.75
357.761	396.75
357.988	317.75
358.215	274.75
358.441	248.75
358.668	257.75
358.895	225.75
359.122	219.75
359.349	206.75
359.576	216.75
359.802	213.75
360.029	208.75
360.256	188.75
360.483	194.75
360.709	186.75
360.936	192.75
361.163	211.75
361.39	193.75
361.616	199.75
361.843	177.75
362.07	201.75
362.296	191.75
362.523	214.75
362.749	212.75
362.976	211.75
363.203	245.75
363.429	305.75
363.656	434.75
363.882	603.75
364.109	722.75
364.335	496.75
364.562	324.75
364.788	265.75
365.015	251.75
365.241	225.75
365.468	222.75
365.694	216.75
365.92	209.75
366.147	232.75
366.373	210.75
366.599	221.75
366.826	256.75
367.052	298.75
367.278	338.75
367.505	319.75
367.731	339.75
367.957	458.75
368.184	691.75
368.41	938.75
368.636	805.75
368.862	481.75
369.089	350.75
369.315	316.75
369.541	285.75
369.767	245.75
369.993	218.75
370.219	220.75
370.445	234.75
370.672	218.75
370.898	214.75
371.124	224.75
371.35	209.75
371.576	226.75
371.802	209.75
372.028	209.75
372.254	221.75
372.48	203.75
372.706	210.75
372.932	227.75
373.158	256.75
373.384	261.75
373.61	311.75
373.835	482.75
374.061	603.75
374.287	558.75
374.513	363.75
374.739	267.75
374.965	243.75
375.191	233.75
375.416	225.75
375.642	226.75
375.868	224.75
376.094	197.75
376.319	196.75
376.545	191.75
376.771	203.75
376.997	212.75
377.222	189.75
377.448	203.75
377.674	207.75
377.899	201.75
378.125	198.75
378.35	209.75
378.576	190.75
378.802	210.75
379.027	211.75
379.253	206.75
379.478	204.75
379.704	194.75
379.929	207.75
380.155	194.75
380.38	195.75
380.606	195.75
380.831	189.75
381.057	184.75
381.282	219.75
381.507	215.75
381.733	210.75
381.958	196.75
382.184	210.75
382.409	205.75
382.634	207.75
382.86	214.75
383.085	202.75
383.31	197.75
383.535	191.75
383.761	202.75
383.986	214.75
384.211	210.75
384.436	212.75
384.662	204.75
384.887	221.75
385.112	197.75
385.337	218.75
385.562	212.75
385.787	213.75
386.013	204.75
386.238	198.75
386.463	197.75
386.688	209.75
386.913	208.75
387.138	223.75
387.363	204.75
387.588	204.75
387.813	207.75
388.038	211.75
388.263	210.75
388.488	197.75
388.713	212.75
388.938	184.75
389.163	201.75
389.387	202.75
389.612	195.75
389.837	200.75
390.062	199.75
390.287	185.75
390.512	207.75
390.736	182.75
390.961	210.75
391.186	211.75
391.411	209.75
391.636	228.75
391.86	193.75
392.085	206.75
392.31	205.75
392.534	213.75
392.759	207.75
392.984	211.75
393.208	231.75
393.433	241.75
393.658	229.75
393.882	214.75
394.107	219.75
394.331	194.75
394.556	196.75
394.78	216.75
395.005	199.75
395.229	212.75
395.454	206.75
395.678	212.75
395.903	207.75
396.127	216.75
396.352	202.75
396.576	217.75
396.801	238.75
397.025	225.75
397.249	210.75
397.474	212.75
397.698	221.75
397.922	221.75
398.147	215.75
398.371	218.75
398.595	206.75
398.82	203.75
399.044	227.75
399.268	224.75
399.492	243.75
399.717	252.75
399.941	237.75
400.165	241.75
400.389	238.75
400.613	226.75
400.837	221.75
401.062	212.75
401.286	242.75
401.51	258.75
401.734	257.75
401.958	283.75
402.182	297.75
402.406	250.75
402.63	244.75
402.854	242.75
403.078	240.75
403.302	246.75
403.526	253.75
403.75	252.75
403.974	251.75
404.198	273.75
404.422	256.75
404.645	287.75
404.869	304.75
405.093	362.75
405.317	468.75
405.541	785.75
405.765	1322.75
405.988	1508.75
406.212	972.75
406.436	665.75
406.66	443.75
406.883	371.75
407.107	347.75
407.331	323.75
407.555	310.75
407.778	278.75
408.002	268.75
408.226	281.75
408.449	267.75
408.673	267.75
408.896	252.75
409.12	259.75
409.344	245.75
409.567	259.75
409.791	236.75
410.014	220.75
410.238	237.75
410.461	229.75
410.685	212.75
410.908	237.75
411.132	235.75
411.355	237.75
411.578	235.75
411.802	218.75
412.025	240.75
412.249	226.75
412.472	228.75
412.695	232.75
412.919	236.75
413.142	235.75
413.365	233.75
413.589	235.75
413.812	228.75
414.035	239.75
414.258	228.75
414.482	242.75
414.705	214.75
414.928	224.75
415.151	214.75
415.374	231.75
415.597	228.75
415.821	228.75
416.044	231.75
416.267	215.75
416.49	230.75
416.713	247.75
416.936	252.75
417.159	250.75
417.382	226.75
417.605	220.75
417.828	234.75
418.051	232.75
418.274	234.75
418.497	217.75
418.72	221.75
418.943	233.75
419.166	228.75
419.389	238.75
419.611	254.75
419.834	221.75
420.057	216.75
420.28	227.75
420.503	226.75
420.726	227.75
420.948	238.75
421.171	236.75
421.394	242.75
421.617	236.75
421.839	252.75
422.062	251.75
422.285	264.75
422.507	268.75
422.73	278.75
422.953	275.75
423.175	299.75
423.398	308.75
423.621	312.75
423.843	344.75
424.066	394.75
424.288	489.75
424.511	617.75
424.733	661.75
424.956	572.75
425.178	488.75
425.401	430.75
425.623	380.75
425.846	357.75
426.068	322.75
426.291	326.75
426.513	324.75
426.735	294.75
426.958	275.75
427.18	292.75
427.402	264.75
427.625	277.75
427.847	246.75
428.069	250.75
428.292	242.75
428.514	251.75
428.736	258.75
428.958	254.75
429.181	233.75
429.403	227.75
429.625	246.75
429.847	234.75
430.069	226.75
430.292	239.75
430.514	237.75
430.736	220.75
430.958	227.75
431.18	226.75
431.402	219.75
431.624	232.75
431.846	240.75
432.068	213.75
432.29	235.75
432.512	238.75
432.734	231.75
432.956	237.75
433.178	242.75
433.4	249.75
433.622	253.75
433.844	243.75
434.066	261.75
434.287	248.75
434.509	247.75
434.731	268.75
434.953	244.75
435.175	238.75
435.397	233.75
435.618	248.75
435.84	253.75
436.062	242.75
436.284	245.75
436.505	265.75
436.727	255.75
436.949	252.75
437.17	265.75
437.392	262.75
437.614	304.75
437.835	314.75
438.057	326.75
438.278	348.75
438.5	449.75
438.721	552.75
438.943	588.75
439.165	508.75
439.386	441.75
439.608	420.75
439.829	375.75
440.05	358.75
440.272	372.75
440.493	364.75
440.715	379.75
440.936	425.75
441.158	421.75
441.379	366.75
441.6	322.75
441.822	301.75
442.043	301.75
442.264	301.75
442.486	276.75
442.707	254.75
442.928	272.75
443.149	259.75
443.371	256.75
443.592	237.75
443.813	264.75
444.034	272.75
444.255	260.75
444.476	234.75
444.698	267.75
444.919	235.75
445.14	326.75
445.361	262.75
445.582	240.75
445.803	233.75
446.024	232.75
446.245	219.75
446.466	218.75
446.687	228.75
446.908	219.75
447.129	242.75
447.35	227.75
447.571	222.75
447.792	193.75
448.013	210.75
448.234	211.75
448.455	226.75
448.675	228.75
448.896	221.75
449.117	206.75
449.338	209.75
449.559	226.75
449.779	230.75
450	217.75
450.221	200.75
450.442	209.75
450.662	213.75
450.883	205.75
451.104	205.75
451.324	193.75
451.545	182.75
451.766	205.75
451.986	200.75
452.207	188.75
452.428	221.75
452.648	200.75
452.869	202.75
453.089	185.75
453.31	197.75
453.53	177.75
453.751	197.75
453.971	201.75
454.192	204.75
454.412	199.75
454.633	197.75
454.853	190.75
455.073	184.75
455.294	205.75
455.514	178.75
455.734	192.75
455.955	191.75
456.175	200.75
456.395	206.75
456.616	210.75
456.836	192.75
457.056	175.75
457.276	171.75
457.497	185.75
457.717	196.75
457.937	187.75
458.157	187.75
458.377	198.75
458.598	182.75
458.818	179.75
459.038	174.75
459.258	200.75
459.478	204.75
459.698	210.75
459.918	206.75
460.138	209.75
460.358	206.75
460.578	229.75
460.798	201.75
461.018	226.75
461.238	202.75
461.458	202.75
461.678	206.75
461.898	212.75
462.118	194.75
462.338	214.75
462.558	219.75
462.777	218.75
462.997	219.75
463.217	240.75
463.437	232.75
463.657	230.75
463.876	224.75
464.096	214.75
464.316	212.75
464.536	213.75
464.755	212.75
464.975	216.75
465.195	230.75
465.414	199.75
465.634	215.75
465.854	198.75
466.073	194.75
466.293	217.75
466.512	211.75
466.732	204.75
466.951	207.75
467.171	203.75
467.391	203.75
467.61	198.75
467.829	212.75
468.049	206.75
468.268	212.75
468.488	210.75
468.707	204.75
468.927	206.75
469.146	184.75
469.365	196.75
469.585	192.75
469.804	199.75
470.023	196.75
470.243	193.75
470.462	208.75
470.681	188.75
470.901	220.75
471.12	195.75
471.339	198.75
471.558	202.75
471.777	206.75
471.997	202.75
472.216	216.75
472.435	199.75
472.654	184.75
472.873	207.75
473.092	199.75
473.311	198.75
473.53	210.75
473.749	198.75
473.968	184.75
474.187	196.75
474.406	201.75
474.625	208.75
474.844	204.75
475.063	220.75
475.282	213.75
475.501	197.75
475.72	213.75
475.939	213.75
476.158	204.75
476.377	208.75
476.596	209.75
476.814	208.75
477.033	211.75
477.252	194.75
477.471	215.75
477.69	207.75
477.908	222.75
478.127	236.75
478.346	231.75
478.564	235.75
478.783	234.75
479.002	243.75
479.22	246.75
479.439	224.75
479.658	232.75
479.876	230.75
480.095	238.75
480.313	246.75
480.532	237.75
480.751	237.75
480.969	244.75
481.188	231.75
481.406	226.75
481.624	209.75
481.843	228.75
482.061	217.75
482.28	228.75
482.498	230.75
482.717	234.75
482.935	228.75
483.153	224.75
483.372	224.75
483.59	219.75
483.808	216.75
484.027	217.75
484.245	244.75
484.463	227.75
484.681	239.75
484.9	242.75
485.118	232.75
485.336	232.75
485.554	215.75
485.772	203.75
485.99	215.75
486.209	240.75
486.427	206.75
486.645	223.75
486.863	230.75
487.081	235.75
487.299	223.75
487.517	228.75
487.735	220.75
487.953	226.75
488.171	225.75
488.389	230.75
488.607	238.75
488.825	231.75
489.043	235.75
489.261	240.75
489.479	243.75
489.696	242.75
489.914	226.75
490.132	231.75
490.35	250.75
490.568	218.75
490.786	226.75
491.003	216.75
491.221	243.75
491.439	250.75
491.657	231.75
491.874	240.75
492.092	250.75
492.31	262.75
492.527	240.75
492.745	251.75
492.963	248.75
493.18	235.75
493.398	238.75
493.615	249.75
493.833	249.75
494.05	248.75
494.268	253.75
494.485	235.75
494.703	235.75
494.92	242.75
495.138	249.75
495.355	253.75
495.573	261.75
495.79	276.75
496.008	244.75
496.225	228.75
496.442	258.75
496.66	253.75
496.877	267.75
497.094	260.75
497.312	256.75
497.529	258.75
497.746	260.75
497.963	261.75
498.181	264.75
498.398	261.75
498.615	290.75
498.832	277.75
499.049	284.75
499.267	298.75
499.484	294.75
499.701	304.75
499.918	347.75
500.135	360.75
500.352	369.75
500.569	461.75
500.786	507.75
501.003	413.75
501.22	376.75
501.437	345.75
501.654	348.75
501.871	309.75
502.088	310.75
502.305	285.75
502.522	306.75
502.739	300.75
502.956	301.75
503.172	286.75
503.389	312.75
503.606	304.75
