Data from StdB_HRD10591_095.txt Node
Date: Fri May 16 15:25:33 EDT 2025
User: Yrep
Spectrometer: HR+D1059
Trigger mode: 1
Integration Time (sec): 1.000000E-1
Scans to average: 1
Electric dark correction enabled: true
Nonlinearity correction enabled: false
Boxcar width: 0
XAxis mode: Wavelengths
Number of Pixels in Spectrum: 2048
>>>>>Begin Spectral Data<<<<<
223.165	-11.31
223.4	-11.31
223.635	-11.31
223.869	-17.31
224.104	-33.31
224.338	-13.31
224.573	-13.31
224.808	-16.31
225.042	-7.31
225.277	-7.31
225.511	7.69
225.746	1.69
225.98	3.69
226.215	-0.31
226.449	14.69
226.683	23.69
226.918	40.69
227.152	27.69
227.387	31.69
227.621	44.69
227.856	60.69
228.09	62.69
228.324	44.69
228.559	67.69
228.793	66.69
229.027	60.69
229.262	68.69
229.496	73.69
229.73	66.69
229.964	72.69
230.199	72.69
230.433	86.69
230.667	73.69
230.901	71.69
231.136	88.69
231.37	79.69
231.604	85.69
231.838	90.69
232.072	84.69
232.306	87.69
232.541	74.69
232.775	78.69
233.009	71.69
233.243	88.69
233.477	78.69
233.711	88.69
233.945	96.69
234.179	98.69
234.413	85.69
234.647	76.69
234.881	70.69
235.115	82.69
235.349	79.69
235.583	82.69
235.817	83.69
236.051	83.69
236.285	73.69
236.519	64.69
236.753	80.69
236.987	82.69
237.221	80.69
237.455	82.69
237.689	78.69
237.922	96.69
238.156	71.69
238.39	90.69
238.624	78.69
238.858	76.69
239.091	82.69
239.325	81.69
239.559	80.69
239.793	96.69
240.027	89.69
240.26	78.69
240.494	94.69
240.728	64.69
240.961	89.69
241.195	70.69
241.429	73.69
241.662	78.69
241.896	86.69
242.13	81.69
242.363	78.69
242.597	88.69
242.83	76.69
243.064	90.69
243.298	88.69
243.531	71.69
243.765	81.69
243.998	82.69
244.232	79.69
244.465	80.69
244.699	94.69
244.932	84.69
245.166	64.69
245.399	102.69
245.633	78.69
245.866	82.69
246.099	83.69
246.333	69.69
246.566	90.69
246.8	91.69
247.033	88.69
247.266	94.69
247.5	83.69
247.733	90.69
247.966	69.69
248.2	80.69
248.433	80.69
248.666	73.69
248.899	87.69
249.133	78.69
249.366	88.69
249.599	87.69
249.832	73.69
250.066	104.69
250.299	81.69
250.532	84.69
250.765	81.69
250.998	74.69
251.231	91.69
251.465	89.69
251.698	71.69
251.931	82.69
252.164	96.69
252.397	86.69
252.63	76.69
252.863	83.69
253.096	80.69
253.329	86.69
253.562	92.69
253.795	79.69
254.028	95.69
254.261	88.69
254.494	88.69
254.727	98.69
254.96	95.69
255.193	72.69
255.426	75.69
255.659	68.69
255.892	87.69
256.124	86.69
256.357	77.69
256.59	76.69
256.823	68.69
257.056	82.69
257.289	80.69
257.521	71.69
257.754	79.69
257.987	78.69
258.22	79.69
258.452	96.69
258.685	106.69
258.918	90.69
259.151	91.69
259.383	84.69
259.616	83.69
259.849	82.69
260.081	73.69
260.314	94.69
260.547	82.69
260.779	83.69
261.012	79.69
261.244	66.69
261.477	84.69
261.71	95.69
261.942	86.69
262.175	82.69
262.407	87.69
262.64	87.69
262.872	91.69
263.105	91.69
263.337	95.69
263.57	82.69
263.802	73.69
264.035	83.69
264.267	91.69
264.499	68.69
264.732	91.69
264.964	78.69
265.197	81.69
265.429	86.69
265.661	97.69
265.894	80.69
266.126	84.69
266.358	79.69
266.591	77.69
266.823	86.69
267.055	72.69
267.287	90.69
267.52	75.69
267.752	80.69
267.984	79.69
268.216	83.69
268.448	80.69
268.681	77.69
268.913	74.69
269.145	92.69
269.377	76.69
269.609	67.69
269.841	89.69
270.073	78.69
270.306	70.69
270.538	73.69
270.77	74.69
271.002	79.69
271.234	79.69
271.466	95.69
271.698	81.69
271.93	94.69
272.162	84.69
272.394	91.69
272.626	104.69
272.858	94.69
273.09	69.69
273.322	74.69
273.553	81.69
273.785	80.69
274.017	83.69
274.249	93.69
274.481	78.69
274.713	85.69
274.945	86.69
275.176	69.69
275.408	76.69
275.64	78.69
275.872	91.69
276.104	87.69
276.335	92.69
276.567	83.69
276.799	80.69
277.031	78.69
277.262	87.69
277.494	79.69
277.726	85.69
277.957	81.69
278.189	80.69
278.421	77.69
278.652	98.69
278.884	76.69
279.115	93.69
279.347	90.69
279.579	64.69
279.81	86.69
280.042	109.69
280.273	123.69
280.505	107.69
280.736	85.69
280.968	90.69
281.199	91.69
281.431	91.69
281.662	90.69
281.894	96.69
282.125	107.69
282.356	89.69
282.588	98.69
282.819	95.69
283.051	90.69
283.282	110.69
283.513	118.69
283.745	99.69
283.976	88.69
284.207	80.69
284.439	81.69
284.67	104.69
284.901	82.69
285.132	81.69
285.364	93.69
285.595	83.69
285.826	91.69
286.057	96.69
286.288	74.69
286.52	73.69
286.751	80.69
286.982	87.69
287.213	96.69
287.444	93.69
287.675	90.69
287.906	93.69
288.138	102.69
288.369	80.69
288.6	94.69
288.831	86.69
289.062	80.69
289.293	100.69
289.524	76.69
289.755	94.69
289.986	80.69
290.217	94.69
290.448	86.69
290.679	87.69
290.91	63.69
291.141	65.69
291.371	102.69
291.602	81.69
291.833	89.69
292.064	85.69
292.295	87.69
292.526	83.69
292.757	76.69
292.987	93.69
293.218	74.69
293.449	94.69
293.68	104.69
293.91	95.69
294.141	87.69
294.372	82.69
294.603	81.69
294.833	76.69
295.064	80.69
295.295	91.69
295.525	78.69
295.756	86.69
295.987	82.69
296.217	90.69
296.448	70.69
296.679	89.69
296.909	81.69
297.14	96.69
297.37	77.69
297.601	80.69
297.831	104.69
298.062	94.69
298.292	84.69
298.523	93.69
298.753	79.69
298.984	90.69
299.214	90.69
299.445	98.69
299.675	73.69
299.905	80.69
300.136	77.69
300.366	87.69
300.597	89.69
300.827	95.69
301.057	94.69
301.288	83.69
301.518	89.69
301.748	88.69
301.979	112.69
302.209	106.69
302.439	80.69
302.669	87.69
302.9	77.69
303.13	93.69
303.36	90.69
303.59	67.69
303.82	91.69
304.051	90.69
304.281	90.69
304.511	90.69
304.741	94.69
304.971	85.69
305.201	78.69
305.431	74.69
305.661	83.69
305.891	92.69
306.121	94.69
306.352	92.69
306.582	83.69
306.812	88.69
307.042	72.69
307.272	79.69
307.502	87.69
307.731	94.69
307.961	90.69
308.191	84.69
308.421	90.69
308.651	79.69
308.881	76.69
309.111	95.69
309.341	87.69
309.571	89.69
309.8	96.69
310.03	81.69
310.26	81.69
310.49	99.69
310.72	89.69
310.949	78.69
311.179	68.69
311.409	87.69
311.639	76.69
311.868	86.69
312.098	81.69
312.328	103.69
312.557	88.69
312.787	92.69
313.017	95.69
313.246	77.69
313.476	80.69
313.706	65.69
313.935	84.69
314.165	75.69
314.394	91.69
314.624	88.69
314.853	92.69
315.083	74.69
315.312	90.69
315.542	77.69
315.771	92.69
316.001	80.69
316.23	82.69
316.46	85.69
316.689	91.69
316.919	85.69
317.148	102.69
317.377	88.69
317.607	85.69
317.836	95.69
318.065	82.69
318.295	93.69
318.524	93.69
318.753	94.69
318.983	91.69
319.212	82.69
319.441	100.69
319.67	79.69
319.9	84.69
320.129	81.69
320.358	70.69
320.587	93.69
320.816	90.69
321.046	79.69
321.275	76.69
321.504	86.69
321.733	90.69
321.962	92.69
322.191	82.69
322.42	83.69
322.649	87.69
322.878	93.69
323.108	87.69
323.337	79.69
323.566	81.69
323.795	77.69
324.024	90.69
324.253	93.69
324.482	81.69
324.71	91.69
324.939	84.69
325.168	87.69
325.397	88.69
325.626	87.69
325.855	94.69
326.084	88.69
326.313	81.69
326.542	86.69
326.77	85.69
326.999	91.69
327.228	82.69
327.457	84.69
327.686	82.69
327.914	90.69
328.143	85.69
328.372	95.69
328.6	76.69
328.829	82.69
329.058	82.69
329.287	78.69
329.515	95.69
329.744	76.69
329.972	85.69
330.201	87.69
330.43	100.69
330.658	76.69
330.887	84.69
331.115	98.69
331.344	83.69
331.572	90.69
331.801	78.69
332.03	93.69
332.258	95.69
332.486	80.69
332.715	78.69
332.943	82.69
333.172	86.69
333.4	80.69
333.629	75.69
333.857	87.69
334.085	83.69
334.314	86.69
334.542	92.69
334.771	91.69
334.999	92.69
335.227	93.69
335.455	80.69
335.684	87.69
335.912	96.69
336.14	100.69
336.369	71.69
336.597	88.69
336.825	89.69
337.053	87.69
337.281	82.69
337.51	88.69
337.738	84.69
337.966	89.69
338.194	99.69
338.422	79.69
338.65	89.69
338.878	92.69
339.106	78.69
339.334	84.69
339.562	90.69
339.79	82.69
340.018	93.69
340.246	82.69
340.474	87.69
340.702	88.69
340.93	83.69
341.158	88.69
341.386	72.69
341.614	83.69
341.842	67.69
342.07	84.69
342.298	82.69
342.526	82.69
342.754	86.69
342.981	92.69
343.209	88.69
343.437	103.69
343.665	95.69
343.893	99.69
344.12	76.69
344.348	72.69
344.576	79.69
344.804	81.69
345.031	96.69
345.259	91.69
345.487	93.69
345.714	69.69
345.942	82.69
346.17	87.69
346.397	90.69
346.625	95.69
346.853	97.69
347.08	69.69
347.308	77.69
347.535	78.69
347.763	103.69
347.99	95.69
348.218	92.69
348.445	82.69
348.673	68.69
348.9	80.69
349.128	85.69
349.355	86.69
349.583	95.69
349.81	74.69
350.037	69.69
350.265	86.69
350.492	92.69
350.72	86.69
350.947	96.69
351.174	87.69
351.402	88.69
351.629	79.69
351.856	71.69
352.083	72.69
352.311	97.69
352.538	89.69
352.765	95.69
352.992	87.69
353.22	86.69
353.447	87.69
353.674	85.69
353.901	71.69
354.128	88.69
354.355	80.69
354.583	78.69
354.81	91.69
355.037	93.69
355.264	90.69
355.491	74.69
355.718	95.69
355.945	100.69
356.172	86.69
356.399	89.69
356.626	98.69
356.853	95.69
357.08	112.69
357.307	131.69
357.534	107.69
357.761	94.69
357.988	82.69
358.215	88.69
358.441	82.69
358.668	87.69
358.895	74.69
359.122	97.69
359.349	83.69
359.576	80.69
359.802	91.69
360.029	87.69
360.256	68.69
360.483	86.69
360.709	85.69
360.936	85.69
361.163	82.69
361.39	95.69
361.616	90.69
361.843	88.69
362.07	71.69
362.296	86.69
362.523	80.69
362.749	88.69
362.976	105.69
363.203	106.69
363.429	98.69
363.656	123.69
363.882	162.69
364.109	157.69
364.335	116.69
364.562	87.69
364.788	84.69
365.015	70.69
365.241	95.69
365.468	90.69
365.694	77.69
365.92	82.69
366.147	96.69
366.373	79.69
366.599	77.69
366.826	105.69
367.052	106.69
367.278	116.69
367.505	93.69
367.731	93.69
367.957	122.69
368.184	164.69
368.41	209.69
368.636	164.69
368.862	96.69
369.089	87.69
369.315	83.69
369.541	73.69
369.767	63.69
369.993	71.69
370.219	83.69
370.445	77.69
370.672	79.69
370.898	87.69
371.124	91.69
371.35	85.69
371.576	85.69
371.802	90.69
372.028	91.69
372.254	100.69
372.48	94.69
372.706	75.69
372.932	78.69
373.158	81.69
373.384	96.69
373.61	97.69
373.835	120.69
374.061	145.69
374.287	119.69
374.513	94.69
374.739	72.69
374.965	72.69
375.191	76.69
375.416	98.69
375.642	83.69
375.868	93.69
376.094	86.69
376.319	94.69
376.545	74.69
376.771	78.69
376.997	69.69
377.222	82.69
377.448	76.69
377.674	86.69
377.899	78.69
378.125	97.69
378.35	86.69
378.576	74.69
378.802	79.69
379.027	82.69
379.253	88.69
379.478	82.69
379.704	85.69
379.929	87.69
380.155	84.69
380.38	78.69
380.606	104.69
380.831	94.69
381.057	89.69
381.282	86.69
381.507	102.69
381.733	76.69
381.958	85.69
382.184	82.69
382.409	78.69
382.634	79.69
382.86	95.69
383.085	88.69
383.31	83.69
383.535	79.69
383.761	91.69
383.986	78.69
384.211	82.69
384.436	72.69
384.662	99.69
384.887	85.69
385.112	84.69
385.337	92.69
385.562	79.69
385.787	79.69
386.013	87.69
386.238	87.69
386.463	87.69
386.688	91.69
386.913	67.69
387.138	79.69
387.363	96.69
387.588	94.69
387.813	92.69
388.038	87.69
388.263	91.69
388.488	87.69
388.713	84.69
388.938	79.69
389.163	91.69
389.387	74.69
389.612	82.69
389.837	90.69
390.062	79.69
390.287	97.69
390.512	78.69
390.736	85.69
390.961	85.69
391.186	90.69
391.411	91.69
391.636	87.69
391.86	79.69
392.085	65.69
392.31	84.69
392.534	65.69
392.759	88.69
392.984	86.69
393.208	81.69
393.433	86.69
393.658	82.69
393.882	80.69
394.107	75.69
394.331	81.69
394.556	87.69
394.78	82.69
395.005	84.69
395.229	91.69
395.454	84.69
395.678	86.69
395.903	83.69
396.127	83.69
396.352	82.69
396.576	84.69
396.801	93.69
397.025	71.69
397.249	82.69
397.474	90.69
397.698	70.69
397.922	81.69
398.147	71.69
398.371	76.69
398.595	90.69
398.82	79.69
399.044	93.69
399.268	80.69
399.492	91.69
399.717	82.69
399.941	92.69
400.165	73.69
400.389	92.69
400.613	71.69
400.837	92.69
401.062	79.69
401.286	94.69
401.51	102.69
401.734	88.69
401.958	77.69
402.182	90.69
402.406	78.69
402.63	96.69
402.854	89.69
403.078	78.69
403.302	87.69
403.526	87.69
403.75	78.69
403.974	80.69
404.198	81.69
404.422	88.69
404.645	86.69
404.869	91.69
405.093	96.69
405.317	121.69
405.541	188.69
405.765	287.69
405.988	309.69
406.212	178.69
406.436	123.69
406.66	90.69
406.883	88.69
407.107	86.69
407.331	83.69
407.555	76.69
407.778	83.69
408.002	86.69
408.226	80.69
408.449	79.69
408.673	78.69
408.896	84.69
409.12	82.69
409.344	86.69
409.567	78.69
409.791	78.69
410.014	95.69
410.238	80.69
410.461	83.69
410.685	68.69
410.908	74.69
411.132	89.69
411.355	77.69
411.578	80.69
411.802	80.69
412.025	82.69
412.249	69.69
412.472	83.69
412.695	92.69
412.919	88.69
413.142	87.69
413.365	81.69
413.589	66.69
413.812	78.69
414.035	80.69
414.258	93.69
414.482	82.69
414.705	99.69
414.928	70.69
415.151	88.69
415.374	76.69
415.597	95.69
415.821	83.69
416.044	93.69
416.267	97.69
416.49	93.69
416.713	97.69
416.936	87.69
417.159	77.69
417.382	80.69
417.605	92.69
417.828	86.69
418.051	84.69
418.274	80.69
418.497	77.69
418.72	75.69
418.943	78.69
419.166	76.69
419.389	84.69
419.611	89.69
419.834	82.69
420.057	85.69
420.28	82.69
420.503	79.69
420.726	82.69
420.948	82.69
421.171	83.69
421.394	84.69
421.617	81.69
421.839	88.69
422.062	75.69
422.285	84.69
422.507	80.69
422.73	83.69
422.953	93.69
423.175	81.69
423.398	88.69
423.621	84.69
423.843	72.69
424.066	73.69
424.288	86.69
424.511	74.69
424.733	91.69
424.956	89.69
425.178	87.69
425.401	95.69
425.623	89.69
425.846	77.69
426.068	79.69
426.291	72.69
426.513	97.69
426.735	96.69
426.958	87.69
427.18	83.69
427.402	84.69
427.625	83.69
427.847	78.69
428.069	80.69
428.292	94.69
428.514	83.69
428.736	98.69
428.958	94.69
429.181	83.69
429.403	81.69
429.625	84.69
429.847	76.69
430.069	95.69
430.292	81.69
430.514	86.69
430.736	85.69
430.958	83.69
431.18	81.69
431.402	79.69
431.624	85.69
431.846	82.69
432.068	94.69
432.29	63.69
432.512	78.69
432.734	87.69
432.956	79.69
433.178	70.69
433.4	83.69
433.622	85.69
433.844	69.69
434.066	83.69
434.287	81.69
434.509	79.69
434.731	78.69
434.953	80.69
435.175	73.69
435.397	97.69
435.618	82.69
435.84	85.69
436.062	74.69
436.284	91.69
436.505	80.69
436.727	70.69
436.949	84.69
437.17	80.69
437.392	76.69
437.614	84.69
437.835	69.69
438.057	90.69
438.278	82.69
438.5	78.69
438.721	80.69
438.943	86.69
439.165	93.69
439.386	78.69
439.608	83.69
439.829	95.69
440.05	81.69
440.272	81.69
440.493	79.69
440.715	71.69
440.936	66.69
441.158	78.69
441.379	87.69
441.6	98.69
441.822	73.69
442.043	80.69
442.264	82.69
442.486	73.69
442.707	94.69
442.928	90.69
443.149	80.69
443.371	77.69
443.592	80.69
443.813	72.69
444.034	85.69
444.255	84.69
444.476	97.69
444.698	73.69
444.919	78.69
445.14	139.69
445.361	123.69
445.582	105.69
445.803	88.69
446.024	65.69
446.245	65.69
446.466	87.69
446.687	82.69
446.908	79.69
447.129	75.69
447.35	97.69
447.571	86.69
447.792	81.69
448.013	90.69
448.234	90.69
448.455	83.69
448.675	77.69
448.896	91.69
449.117	86.69
449.338	92.69
449.559	72.69
449.779	83.69
450	82.69
450.221	88.69
450.442	92.69
450.662	78.69
450.883	82.69
451.104	80.69
451.324	82.69
451.545	90.69
451.766	98.69
451.986	95.69
452.207	78.69
452.428	84.69
452.648	77.69
452.869	84.69
453.089	83.69
453.31	74.69
453.53	85.69
453.751	94.69
453.971	81.69
454.192	87.69
454.412	80.69
454.633	85.69
454.853	94.69
455.073	79.69
455.294	82.69
455.514	80.69
455.734	73.69
455.955	87.69
456.175	74.69
456.395	83.69
456.616	79.69
456.836	82.69
457.056	91.69
457.276	87.69
457.497	79.69
457.717	76.69
457.937	70.69
458.157	86.69
458.377	90.69
458.598	74.69
458.818	88.69
459.038	78.69
459.258	82.69
459.478	78.69
459.698	76.69
459.918	89.69
460.138	83.69
460.358	83.69
460.578	79.69
460.798	78.69
461.018	86.69
461.238	84.69
461.458	87.69
461.678	80.69
461.898	88.69
462.118	85.69
462.338	74.69
462.558	76.69
462.777	82.69
462.997	102.69
463.217	89.69
463.437	79.69
463.657	81.69
463.876	86.69
464.096	84.69
464.316	78.69
464.536	77.69
464.755	86.69
464.975	80.69
465.195	68.69
465.414	75.69
465.634	91.69
465.854	74.69
466.073	81.69
466.293	83.69
466.512	82.69
466.732	86.69
466.951	85.69
467.171	83.69
467.391	78.69
467.61	94.69
467.829	95.69
468.049	81.69
468.268	87.69
468.488	87.69
468.707	82.69
468.927	74.69
469.146	81.69
469.365	104.69
469.585	87.69
469.804	89.69
470.023	92.69
470.243	90.69
470.462	89.69
470.681	88.69
470.901	86.69
471.12	75.69
471.339	82.69
471.558	67.69
471.777	92.69
471.997	89.69
472.216	87.69
472.435	66.69
472.654	78.69
472.873	87.69
473.092	76.69
473.311	90.69
473.53	91.69
473.749	78.69
473.968	89.69
474.187	82.69
474.406	84.69
474.625	74.69
474.844	94.69
475.063	88.69
475.282	89.69
475.501	64.69
475.72	98.69
475.939	81.69
476.158	76.69
476.377	80.69
476.596	69.69
476.814	72.69
477.033	74.69
477.252	89.69
477.471	95.69
477.69	92.69
477.908	76.69
478.127	93.69
478.346	91.69
478.564	78.69
478.783	98.69
479.002	77.69
479.22	80.69
479.439	90.69
479.658	74.69
479.876	91.69
480.095	95.69
480.313	72.69
480.532	75.69
480.751	81.69
480.969	79.69
481.188	84.69
481.406	82.69
481.624	89.69
481.843	85.69
482.061	85.69
482.28	76.69
482.498	75.69
482.717	82.69
482.935	87.69
483.153	94.69
483.372	76.69
483.59	88.69
483.808	91.69
484.027	95.69
484.245	74.69
484.463	96.69
484.681	94.69
484.9	79.69
485.118	95.69
485.336	81.69
485.554	81.69
485.772	83.69
485.99	74.69
486.209	77.69
486.427	76.69
486.645	80.69
486.863	75.69
487.081	81.69
487.299	87.69
487.517	84.69
487.735	91.69
487.953	88.69
488.171	87.69
488.389	78.69
488.607	92.69
488.825	86.69
489.043	81.69
489.261	86.69
489.479	93.69
489.696	80.69
489.914	74.69
490.132	90.69
490.35	96.69
490.568	89.69
490.786	93.69
491.003	85.69
491.221	95.69
491.439	83.69
491.657	80.69
491.874	87.69
492.092	97.69
492.31	85.69
492.527	72.69
492.745	91.69
492.963	87.69
493.18	87.69
493.398	77.69
493.615	89.69
493.833	82.69
494.05	86.69
494.268	74.69
494.485	79.69
494.703	87.69
494.92	78.69
495.138	80.69
495.355	95.69
495.573	88.69
495.79	88.69
496.008	98.69
496.225	90.69
496.442	94.69
496.66	88.69
496.877	83.69
497.094	86.69
497.312	81.69
497.529	89.69
497.746	102.69
497.963	97.69
498.181	85.69
498.398	80.69
498.615	67.69
498.832	82.69
499.049	91.69
499.267	83.69
499.484	83.69
499.701	95.69
499.918	83.69
500.135	83.69
500.352	99.69
500.569	110.69
500.786	134.69
501.003	105.69
501.22	88.69
501.437	85.69
501.654	81.69
501.871	99.69
502.088	83.69
502.305	89.69
502.522	90.69
502.739	81.69
502.956	74.69
503.172	97.69
503.389	83.69
503.606	81.69
503.823	75.69
504.04	87.69
504.256	77.69
504.473	87.69
504.69	85.69
504.907	88.69
505.123	92.69
505.34	77.69
505.557	97.69
505.773	106.69
505.99	70.69
506.207	90.69
506.423	74.69
506.64	82.69
506.856	76.69
507.073	86.69
507.289	97.69
507.506	87.69
507.722	80.69
507.939	97.69
508.155	78.69
508.372	86.69
508.588	91.69
508.805	86.69
509.021	84.69
509.238	87.69
509.454	82.69
509.67	78.69
509.887	91.69
510.103	82.69
510.319	90.69
510.536	100.69
510.752	100.69
510.968	76.69
511.184	90.69
511.401	84.69
511.617	76.69
511.833	81.69
512.049	95.69
512.265	80.69
512.481	89.69
512.698	88.69
512.914	89.69
513.13	75.69
513.346	78.69
513.562	87.69
513.778	82.69
513.994	87.69
514.21	78.69
514.426	85.69
514.642	106.69
514.858	86.69
515.074	76.69
515.29	94.69
515.506	89.69
515.721	83.69
515.937	79.69
516.153	86.69
516.369	86.69
516.585	72.69
516.801	98.69
517.016	92.69
517.232	92.69
517.448	87.69
517.664	84.69
517.879	82.69
518.095	86.69
518.311	86.69
518.527	99.69
518.742	85.69
518.958	84.69
519.173	102.69
519.389	95.69
