Data from StdB_HRD10591_075.txt Node
Date: Fri May 16 15:25:23 EDT 2025
User: Yrep
Spectrometer: HR+D1059
Trigger mode: 1
Integration Time (sec): 1.000000E-1
Scans to average: 1
Electric dark correction enabled: true
Nonlinearity correction enabled: false
Boxcar width: 0
XAxis mode: Wavelengths
Number of Pixels in Spectrum: 2048
>>>>>Begin Spectral Data<<<<<
223.165	-7.94
223.4	-7.94
223.635	-7.94
223.869	-34.94
224.104	-19.94
224.338	-21.94
224.573	-14.94
224.808	-9.94
225.042	-3.94
225.277	8.06
225.511	-5.94
225.746	16.06
225.98	12.06
226.215	4.06
226.449	8.06
226.683	25.06
226.918	26.06
227.152	20.06
227.387	31.06
227.621	46.06
227.856	44.06
228.09	48.06
228.324	42.06
228.559	65.06
228.793	48.06
229.027	52.06
229.262	54.06
229.496	62.06
229.73	72.06
229.964	78.06
230.199	74.06
230.433	81.06
230.667	66.06
230.901	75.06
231.136	72.06
231.37	68.06
231.604	72.06
231.838	78.06
232.072	79.06
232.306	73.06
232.541	74.06
232.775	69.06
233.009	72.06
233.243	76.06
233.477	73.06
233.711	71.06
233.945	84.06
234.179	84.06
234.413	73.06
234.647	79.06
234.881	77.06
235.115	68.06
235.349	71.06
235.583	68.06
235.817	77.06
236.051	73.06
236.285	83.06
236.519	76.06
236.753	72.06
236.987	70.06
237.221	82.06
237.455	77.06
237.689	60.06
237.922	80.06
238.156	63.06
238.39	67.06
238.624	75.06
238.858	72.06
239.091	88.06
239.325	76.06
239.559	74.06
239.793	77.06
240.027	58.06
240.26	66.06
240.494	80.06
240.728	74.06
240.961	91.06
241.195	82.06
241.429	72.06
241.662	84.06
241.896	72.06
242.13	73.06
242.363	87.06
242.597	71.06
242.83	68.06
243.064	66.06
243.298	83.06
243.531	78.06
243.765	62.06
243.998	69.06
244.232	69.06
244.465	81.06
244.699	77.06
244.932	61.06
245.166	57.06
245.399	71.06
245.633	77.06
245.866	66.06
246.099	77.06
246.333	81.06
246.566	85.06
246.8	66.06
247.033	76.06
247.266	77.06
247.5	80.06
247.733	78.06
247.966	98.06
248.2	73.06
248.433	73.06
248.666	72.06
248.899	73.06
249.133	61.06
249.366	73.06
249.599	82.06
249.832	65.06
250.066	73.06
250.299	73.06
250.532	77.06
250.765	61.06
250.998	75.06
251.231	72.06
251.465	89.06
251.698	72.06
251.931	72.06
252.164	64.06
252.397	80.06
252.63	68.06
252.863	71.06
253.096	66.06
253.329	86.06
253.562	86.06
253.795	84.06
254.028	79.06
254.261	76.06
254.494	85.06
254.727	82.06
254.96	68.06
255.193	83.06
255.426	75.06
255.659	69.06
255.892	97.06
256.124	82.06
256.357	62.06
256.59	89.06
256.823	86.06
257.056	77.06
257.289	85.06
257.521	84.06
257.754	78.06
257.987	83.06
258.22	72.06
258.452	76.06
258.685	86.06
258.918	75.06
259.151	68.06
259.383	78.06
259.616	77.06
259.849	71.06
260.081	76.06
260.314	84.06
260.547	75.06
260.779	88.06
261.012	76.06
261.244	83.06
261.477	110.06
261.71	87.06
261.942	78.06
262.175	86.06
262.407	80.06
262.64	86.06
262.872	86.06
263.105	65.06
263.337	71.06
263.57	66.06
263.802	92.06
264.035	84.06
264.267	86.06
264.499	88.06
264.732	80.06
264.964	80.06
265.197	88.06
265.429	80.06
265.661	89.06
265.894	77.06
266.126	103.06
266.358	84.06
266.591	96.06
266.823	84.06
267.055	62.06
267.287	78.06
267.52	76.06
267.752	80.06
267.984	71.06
268.216	87.06
268.448	76.06
268.681	76.06
268.913	72.06
269.145	73.06
269.377	74.06
269.609	86.06
269.841	78.06
270.073	80.06
270.306	64.06
270.538	73.06
270.77	65.06
271.002	77.06
271.234	84.06
271.466	86.06
271.698	82.06
271.93	76.06
272.162	65.06
272.394	70.06
272.626	70.06
272.858	75.06
273.09	76.06
273.322	68.06
273.553	70.06
273.785	83.06
274.017	63.06
274.249	78.06
274.481	74.06
274.713	94.06
274.945	72.06
275.176	69.06
275.408	91.06
275.64	94.06
275.872	75.06
276.104	82.06
276.335	82.06
276.567	90.06
276.799	83.06
277.031	90.06
277.262	79.06
277.494	86.06
277.726	72.06
277.957	77.06
278.189	84.06
278.421	79.06
278.652	77.06
278.884	79.06
279.115	86.06
279.347	86.06
279.579	93.06
279.81	81.06
280.042	102.06
280.273	114.06
280.505	97.06
280.736	88.06
280.968	85.06
281.199	90.06
281.431	88.06
281.662	75.06
281.894	69.06
282.125	80.06
282.356	76.06
282.588	87.06
282.819	82.06
283.051	68.06
283.282	94.06
283.513	111.06
283.745	87.06
283.976	79.06
284.207	86.06
284.439	78.06
284.67	92.06
284.901	71.06
285.132	79.06
285.364	71.06
285.595	79.06
285.826	82.06
286.057	84.06
286.288	66.06
286.52	85.06
286.751	80.06
286.982	85.06
287.213	86.06
287.444	106.06
287.675	89.06
287.906	82.06
288.138	82.06
288.369	71.06
288.6	85.06
288.831	84.06
289.062	83.06
289.293	86.06
289.524	93.06
289.755	83.06
289.986	82.06
290.217	74.06
290.448	70.06
290.679	71.06
290.91	96.06
291.141	70.06
291.371	91.06
291.602	73.06
291.833	88.06
292.064	81.06
292.295	71.06
292.526	87.06
292.757	77.06
292.987	80.06
293.218	79.06
293.449	83.06
293.68	77.06
293.91	75.06
294.141	79.06
294.372	102.06
294.603	63.06
294.833	78.06
295.064	85.06
295.295	84.06
295.525	77.06
295.756	74.06
295.987	85.06
296.217	74.06
296.448	78.06
296.679	87.06
296.909	72.06
297.14	71.06
297.37	81.06
297.601	75.06
297.831	81.06
298.062	98.06
298.292	74.06
298.523	87.06
298.753	81.06
298.984	73.06
299.214	77.06
299.445	87.06
299.675	83.06
299.905	76.06
300.136	83.06
300.366	65.06
300.597	79.06
300.827	83.06
301.057	94.06
301.288	82.06
301.518	83.06
301.748	86.06
301.979	99.06
302.209	82.06
302.439	68.06
302.669	88.06
302.9	87.06
303.13	74.06
303.36	94.06
303.59	88.06
303.82	71.06
304.051	85.06
304.281	88.06
304.511	95.06
304.741	80.06
304.971	74.06
305.201	84.06
305.431	80.06
305.661	94.06
305.891	84.06
306.121	76.06
306.352	85.06
306.582	80.06
306.812	68.06
307.042	83.06
307.272	89.06
307.502	87.06
307.731	80.06
307.961	87.06
308.191	91.06
308.421	73.06
308.651	84.06
308.881	61.06
309.111	88.06
309.341	78.06
309.571	80.06
309.8	96.06
310.03	68.06
310.26	82.06
310.49	77.06
310.72	80.06
310.949	78.06
311.179	76.06
311.409	66.06
311.639	81.06
311.868	81.06
312.098	60.06
312.328	83.06
312.557	74.06
312.787	68.06
313.017	75.06
313.246	87.06
313.476	92.06
313.706	75.06
313.935	72.06
314.165	70.06
314.394	85.06
314.624	80.06
314.853	89.06
315.083	88.06
315.312	81.06
315.542	87.06
315.771	76.06
316.001	90.06
316.23	83.06
316.46	83.06
316.689	72.06
316.919	86.06
317.148	85.06
317.377	69.06
317.607	88.06
317.836	72.06
318.065	92.06
318.295	66.06
318.524	80.06
318.753	84.06
318.983	76.06
319.212	75.06
319.441	76.06
319.67	82.06
319.9	85.06
320.129	86.06
320.358	85.06
320.587	90.06
320.816	76.06
321.046	68.06
321.275	70.06
321.504	71.06
321.733	70.06
321.962	69.06
322.191	74.06
322.42	76.06
322.649	93.06
322.878	81.06
323.108	74.06
323.337	80.06
323.566	87.06
323.795	89.06
324.024	80.06
324.253	90.06
324.482	77.06
324.71	68.06
324.939	74.06
325.168	75.06
325.397	76.06
325.626	96.06
325.855	78.06
326.084	85.06
326.313	82.06
326.542	81.06
326.77	95.06
326.999	104.06
327.228	87.06
327.457	73.06
327.686	76.06
327.914	97.06
328.143	89.06
328.372	80.06
328.6	69.06
328.829	90.06
329.058	87.06
329.287	80.06
329.515	89.06
329.744	70.06
329.972	82.06
330.201	71.06
330.43	76.06
330.658	92.06
330.887	86.06
331.115	89.06
331.344	77.06
331.572	97.06
331.801	91.06
332.03	82.06
332.258	74.06
332.486	87.06
332.715	82.06
332.943	86.06
333.172	82.06
333.4	71.06
333.629	75.06
333.857	81.06
334.085	70.06
334.314	68.06
334.542	83.06
334.771	74.06
334.999	81.06
335.227	87.06
335.455	84.06
335.684	93.06
335.912	100.06
336.14	78.06
336.369	89.06
336.597	76.06
336.825	80.06
337.053	66.06
337.281	90.06
337.51	82.06
337.738	84.06
337.966	83.06
338.194	86.06
338.422	76.06
338.65	71.06
338.878	80.06
339.106	85.06
339.334	90.06
339.562	93.06
339.79	73.06
340.018	77.06
340.246	73.06
340.474	101.06
340.702	81.06
340.93	73.06
341.158	76.06
341.386	89.06
341.614	82.06
341.842	79.06
342.07	81.06
342.298	84.06
342.526	72.06
342.754	85.06
342.981	82.06
343.209	70.06
343.437	90.06
343.665	72.06
343.893	87.06
344.12	86.06
344.348	80.06
344.576	84.06
344.804	85.06
345.031	80.06
345.259	68.06
345.487	83.06
345.714	78.06
345.942	90.06
346.17	74.06
346.397	79.06
346.625	67.06
346.853	77.06
347.08	86.06
347.308	85.06
347.535	80.06
347.763	78.06
347.99	67.06
348.218	84.06
348.445	87.06
348.673	75.06
348.9	83.06
349.128	81.06
349.355	58.06
349.583	70.06
349.81	76.06
350.037	88.06
350.265	80.06
350.492	80.06
350.72	73.06
350.947	74.06
351.174	79.06
351.402	79.06
351.629	78.06
351.856	73.06
352.083	82.06
352.311	84.06
352.538	80.06
352.765	82.06
352.992	80.06
353.22	75.06
353.447	80.06
353.674	76.06
353.901	78.06
354.128	80.06
354.355	88.06
354.583	75.06
354.81	85.06
355.037	72.06
355.264	82.06
355.491	74.06
355.718	85.06
355.945	72.06
356.172	81.06
356.399	91.06
356.626	80.06
356.853	93.06
357.08	114.06
357.307	149.06
357.534	115.06
357.761	81.06
357.988	79.06
358.215	85.06
358.441	76.06
358.668	91.06
358.895	86.06
359.122	72.06
359.349	91.06
359.576	75.06
359.802	72.06
360.029	80.06
360.256	68.06
360.483	80.06
360.709	87.06
360.936	84.06
361.163	84.06
361.39	81.06
361.616	76.06
361.843	73.06
362.07	75.06
362.296	80.06
362.523	72.06
362.749	88.06
362.976	92.06
363.203	82.06
363.429	99.06
363.656	121.06
363.882	153.06
364.109	192.06
364.335	101.06
364.562	68.06
364.788	85.06
365.015	86.06
365.241	74.06
365.468	81.06
365.694	88.06
365.92	87.06
366.147	86.06
366.373	81.06
366.599	79.06
366.826	88.06
367.052	101.06
367.278	104.06
367.505	100.06
367.731	102.06
367.957	136.06
368.184	180.06
368.41	234.06
368.636	170.06
368.862	110.06
369.089	82.06
369.315	80.06
369.541	84.06
369.767	82.06
369.993	62.06
370.219	76.06
370.445	80.06
370.672	85.06
370.898	71.06
371.124	66.06
371.35	86.06
371.576	74.06
371.802	70.06
372.028	77.06
372.254	84.06
372.48	86.06
372.706	88.06
372.932	85.06
373.158	82.06
373.384	88.06
373.61	96.06
373.835	117.06
374.061	128.06
374.287	109.06
374.513	84.06
374.739	63.06
374.965	82.06
375.191	83.06
375.416	80.06
375.642	79.06
375.868	72.06
376.094	77.06
376.319	77.06
376.545	85.06
376.771	82.06
376.997	72.06
377.222	93.06
377.448	91.06
377.674	82.06
377.899	82.06
378.125	83.06
378.35	76.06
378.576	68.06
378.802	84.06
379.027	91.06
379.253	77.06
379.478	64.06
379.704	66.06
379.929	72.06
380.155	68.06
380.38	75.06
380.606	75.06
380.831	82.06
381.057	89.06
381.282	82.06
381.507	88.06
381.733	78.06
381.958	90.06
382.184	81.06
382.409	56.06
382.634	78.06
382.86	82.06
383.085	77.06
383.31	70.06
383.535	60.06
383.761	69.06
383.986	69.06
384.211	76.06
384.436	60.06
384.662	84.06
384.887	79.06
385.112	67.06
385.337	97.06
385.562	91.06
385.787	78.06
386.013	83.06
386.238	77.06
386.463	84.06
386.688	86.06
386.913	74.06
387.138	62.06
387.363	82.06
387.588	58.06
387.813	69.06
388.038	76.06
388.263	84.06
388.488	80.06
388.713	84.06
388.938	81.06
389.163	73.06
389.387	74.06
389.612	75.06
389.837	80.06
390.062	73.06
390.287	76.06
390.512	86.06
390.736	78.06
390.961	83.06
391.186	73.06
391.411	85.06
391.636	76.06
391.86	78.06
392.085	60.06
392.31	80.06
392.534	82.06
392.759	83.06
392.984	81.06
393.208	83.06
393.433	73.06
393.658	67.06
393.882	68.06
394.107	78.06
394.331	78.06
394.556	73.06
394.78	83.06
395.005	86.06
395.229	70.06
395.454	72.06
395.678	77.06
395.903	87.06
396.127	83.06
396.352	83.06
396.576	73.06
396.801	68.06
397.025	85.06
397.249	76.06
397.474	74.06
397.698	79.06
397.922	74.06
398.147	76.06
398.371	83.06
398.595	72.06
398.82	80.06
399.044	70.06
399.268	89.06
399.492	87.06
399.717	74.06
399.941	75.06
400.165	86.06
400.389	88.06
400.613	74.06
400.837	80.06
401.062	73.06
401.286	74.06
401.51	83.06
401.734	92.06
401.958	102.06
402.182	99.06
402.406	85.06
402.63	84.06
402.854	89.06
403.078	60.06
403.302	71.06
403.526	75.06
403.75	85.06
403.974	71.06
404.198	80.06
404.422	66.06
404.645	77.06
404.869	83.06
405.093	102.06
405.317	102.06
405.541	201.06
405.765	324.06
405.988	348.06
406.212	172.06
406.436	144.06
406.66	89.06
406.883	86.06
407.107	92.06
407.331	76.06
407.555	86.06
407.778	80.06
408.002	64.06
408.226	65.06
408.449	85.06
408.673	82.06
408.896	70.06
409.12	79.06
409.344	63.06
409.567	69.06
409.791	83.06
410.014	83.06
410.238	76.06
410.461	76.06
410.685	71.06
410.908	91.06
411.132	92.06
411.355	67.06
411.578	74.06
411.802	82.06
412.025	80.06
412.249	83.06
412.472	86.06
412.695	68.06
412.919	70.06
413.142	78.06
413.365	79.06
413.589	80.06
413.812	83.06
414.035	88.06
414.258	87.06
414.482	76.06
414.705	63.06
414.928	90.06
415.151	79.06
415.374	75.06
415.597	84.06
415.821	68.06
416.044	74.06
416.267	70.06
416.49	64.06
416.713	83.06
416.936	70.06
417.159	76.06
417.382	80.06
417.605	70.06
417.828	81.06
418.051	88.06
418.274	85.06
418.497	77.06
418.72	81.06
418.943	77.06
419.166	85.06
419.389	75.06
419.611	75.06
419.834	75.06
420.057	85.06
420.28	68.06
420.503	82.06
420.726	75.06
420.948	83.06
421.171	72.06
421.394	64.06
421.617	71.06
421.839	80.06
422.062	68.06
422.285	93.06
422.507	93.06
422.73	73.06
422.953	81.06
423.175	81.06
423.398	74.06
423.621	88.06
423.843	78.06
424.066	80.06
424.288	85.06
424.511	88.06
424.733	80.06
424.956	76.06
425.178	63.06
425.401	76.06
425.623	72.06
425.846	70.06
426.068	82.06
426.291	75.06
426.513	74.06
426.735	89.06
426.958	70.06
427.18	82.06
427.402	71.06
427.625	84.06
427.847	70.06
428.069	78.06
428.292	89.06
428.514	88.06
428.736	79.06
428.958	75.06
429.181	82.06
429.403	84.06
429.625	71.06
429.847	68.06
430.069	81.06
430.292	74.06
430.514	73.06
430.736	78.06
430.958	68.06
431.18	88.06
431.402	81.06
431.624	87.06
431.846	72.06
432.068	76.06
432.29	79.06
432.512	89.06
432.734	71.06
432.956	80.06
433.178	77.06
433.4	63.06
433.622	81.06
433.844	79.06
434.066	80.06
434.287	87.06
434.509	80.06
434.731	78.06
434.953	61.06
435.175	82.06
435.397	81.06
435.618	72.06
435.84	74.06
436.062	75.06
436.284	68.06
436.505	84.06
436.727	86.06
436.949	72.06
437.17	74.06
437.392	88.06
437.614	83.06
437.835	80.06
438.057	81.06
438.278	83.06
438.5	62.06
438.721	78.06
438.943	86.06
439.165	83.06
439.386	71.06
439.608	76.06
439.829	76.06
440.05	68.06
440.272	75.06
440.493	76.06
440.715	75.06
440.936	83.06
441.158	91.06
441.379	75.06
441.6	66.06
441.822	81.06
442.043	89.06
442.264	82.06
442.486	72.06
442.707	83.06
442.928	89.06
443.149	83.06
443.371	86.06
443.592	82.06
443.813	76.06
444.034	91.06
444.255	84.06
444.476	80.06
444.698	69.06
444.919	82.06
445.14	139.06
445.361	123.06
445.582	94.06
445.803	86.06
446.024	79.06
446.245	77.06
446.466	73.06
446.687	72.06
446.908	71.06
447.129	71.06
447.35	76.06
447.571	83.06
447.792	80.06
448.013	80.06
448.234	72.06
448.455	71.06
448.675	75.06
448.896	70.06
449.117	91.06
449.338	81.06
449.559	82.06
449.779	79.06
450	74.06
450.221	71.06
450.442	92.06
450.662	91.06
450.883	84.06
451.104	76.06
451.324	70.06
451.545	89.06
451.766	92.06
451.986	83.06
452.207	59.06
452.428	77.06
452.648	68.06
452.869	85.06
453.089	66.06
453.31	81.06
453.53	78.06
453.751	69.06
453.971	78.06
454.192	86.06
454.412	65.06
454.633	88.06
454.853	83.06
455.073	77.06
455.294	68.06
455.514	80.06
455.734	81.06
455.955	85.06
456.175	83.06
456.395	74.06
456.616	80.06
456.836	64.06
457.056	71.06
457.276	74.06
457.497	62.06
457.717	86.06
457.937	87.06
458.157	79.06
458.377	100.06
458.598	55.06
458.818	73.06
459.038	82.06
459.258	76.06
459.478	90.06
459.698	90.06
459.918	85.06
460.138	78.06
460.358	86.06
460.578	75.06
460.798	71.06
461.018	78.06
461.238	94.06
461.458	80.06
461.678	74.06
461.898	82.06
462.118	91.06
462.338	74.06
462.558	90.06
462.777	77.06
462.997	91.06
463.217	69.06
463.437	75.06
463.657	88.06
463.876	82.06
464.096	77.06
464.316	76.06
464.536	61.06
464.755	75.06
464.975	87.06
465.195	68.06
465.414	71.06
465.634	70.06
465.854	89.06
466.073	84.06
466.293	80.06
466.512	83.06
466.732	64.06
466.951	86.06
467.171	77.06
467.391	88.06
467.61	75.06
467.829	66.06
468.049	74.06
468.268	73.06
468.488	74.06
468.707	68.06
468.927	84.06
469.146	87.06
469.365	83.06
469.585	75.06
469.804	77.06
470.023	80.06
470.243	74.06
470.462	87.06
470.681	81.06
470.901	83.06
471.12	79.06
471.339	86.06
471.558	83.06
471.777	87.06
471.997	83.06
472.216	77.06
472.435	78.06
472.654	72.06
472.873	68.06
473.092	77.06
473.311	68.06
473.53	78.06
473.749	91.06
473.968	90.06
474.187	70.06
474.406	82.06
474.625	75.06
474.844	78.06
475.063	73.06
475.282	70.06
475.501	79.06
475.72	84.06
475.939	80.06
476.158	80.06
476.377	89.06
476.596	85.06
476.814	83.06
477.033	78.06
477.252	62.06
477.471	80.06
477.69	82.06
477.908	72.06
478.127	90.06
478.346	74.06
478.564	81.06
478.783	74.06
479.002	89.06
479.22	97.06
479.439	85.06
479.658	68.06
479.876	73.06
480.095	76.06
480.313	81.06
480.532	77.06
480.751	73.06
480.969	75.06
481.188	74.06
481.406	75.06
481.624	71.06
481.843	73.06
482.061	63.06
482.28	90.06
482.498	74.06
482.717	81.06
482.935	72.06
483.153	87.06
483.372	77.06
483.59	92.06
483.808	85.06
484.027	74.06
484.245	74.06
484.463	79.06
484.681	80.06
484.9	75.06
485.118	84.06
485.336	74.06
485.554	82.06
485.772	80.06
485.99	74.06
486.209	70.06
486.427	65.06
486.645	81.06
486.863	70.06
487.081	61.06
487.299	74.06
487.517	86.06
487.735	74.06
487.953	83.06
488.171	75.06
488.389	67.06
488.607	81.06
488.825	101.06
489.043	89.06
489.261	70.06
489.479	77.06
489.696	93.06
489.914	80.06
490.132	76.06
490.35	75.06
490.568	62.06
490.786	75.06
491.003	91.06
491.221	92.06
491.439	76.06
491.657	88.06
491.874	83.06
492.092	91.06
492.31	92.06
492.527	89.06
492.745	89.06
492.963	82.06
493.18	80.06
493.398	89.06
493.615	71.06
493.833	76.06
494.05	86.06
494.268	80.06
494.485	83.06
494.703	77.06
494.92	89.06
495.138	87.06
495.355	84.06
495.573	89.06
495.79	96.06
496.008	89.06
496.225	80.06
496.442	77.06
496.66	76.06
496.877	80.06
497.094	82.06
497.312	76.06
497.529	86.06
497.746	86.06
497.963	88.06
498.181	66.06
498.398	68.06
498.615	81.06
498.832	91.06
499.049	84.06
499.267	79.06
499.484	78.06
499.701	90.06
499.918	80.06
500.135	73.06
500.352	93.06
500.569	113.06
500.786	132.06
501.003	87.06
501.22	98.06
501.437	102.06
501.654	86.06
501.871	93.06
502.088	92.06
502.305	79.06
502.522	103.06
502.739	84.06
502.956	89.06
503.172	94.06
503.389	77.06
503.606	91.06
503.823	70.06
504.04	88.06
504.256	76.06
504.473	83.06
504.69	84.06
504.907	89.06
505.123	82.06
505.34	81.06
505.557	75.06
505.773	78.06
505.99	86.06
506.207	60.06
506.423	79.06
506.64	80.06
506.856	90.06
507.073	72.06
507.289	74.06
507.506	60.06
507.722	74.06
507.939	81.06
508.155	81.06
508.372	82.06
508.588	91.06
508.805	82.06
509.021	73.06
509.238	77.06
509.454	77.06
509.67	72.06
509.887	74.06
510.103	90.06
510.319	81.06
510.536	84.06
510.752	68.06
510.968	85.06
511.184	84.06
511.401	74.06
511.617	84.06
511.833	82.06
512.049	72.06
512.265	72.06
512.481	77.06
512.698	83.06
512.914	89.06
513.13	83.06
513.346	80.06
513.562	66.06
513.778	74.06
513.994	86.06
514.21	75.06
514.426	96.06
514.642	72.06
514.858	86.06
515.074	74.06
515.29	80.06
515.506	80.06
515.721	69.06
515.937	82.06
516.153	96.06
516.369	80.06
516.585	74.06
516.801	82.06
517.016	78.06
517.232	77.06
517.448	71.06
517.664	68.06
517.879	78.06
518.095	74.06
518.311	83.06
518.527	77.06
518.742	82.06
518.958	78.06
519.173	77.06
519.389	75.06
519.605	77.06
519.82	77.06
