Data from StdB_HRD10591_045.txt Node
Date: Fri May 16 15:25:08 EDT 2025
User: Yrep
Spectrometer: HR+D1059
Trigger mode: 1
Integration Time (sec): 1.000000E-1
Scans to average: 1
Electric dark correction enabled: true
Nonlinearity correction enabled: false
Boxcar width: 0
XAxis mode: Wavelengths
Number of Pixels in Spectrum: 2048
>>>>>Begin Spectral Data<<<<<
223.165	-24.88
223.4	-24.88
223.635	-24.88
223.869	-17.88
224.104	-8.88
224.338	-8.88
224.573	-13.88
224.808	-0.88
225.042	-11.88
225.277	-10.88
225.511	4.12
225.746	6.12
225.98	9.12
226.215	2.12
226.449	13.12
226.683	14.12
226.918	23.12
227.152	26.12
227.387	30.12
227.621	27.12
227.856	37.12
228.09	42.12
228.324	41.12
228.559	59.12
228.793	60.12
229.027	57.12
229.262	68.12
229.496	79.12
229.73	76.12
229.964	77.12
230.199	75.12
230.433	57.12
230.667	79.12
230.901	74.12
231.136	71.12
231.37	81.12
231.604	79.12
231.838	82.12
232.072	80.12
232.306	82.12
232.541	72.12
232.775	94.12
233.009	90.12
233.243	86.12
233.477	86.12
233.711	75.12
233.945	88.12
234.179	63.12
234.413	65.12
234.647	70.12
234.881	83.12
235.115	73.12
235.349	56.12
235.583	68.12
235.817	65.12
236.051	58.12
236.285	75.12
236.519	74.12
236.753	74.12
236.987	76.12
237.221	62.12
237.455	60.12
237.689	63.12
237.922	68.12
238.156	70.12
238.39	78.12
238.624	70.12
238.858	72.12
239.091	79.12
239.325	65.12
239.559	82.12
239.793	73.12
240.027	71.12
240.26	89.12
240.494	80.12
240.728	77.12
240.961	68.12
241.195	75.12
241.429	60.12
241.662	67.12
241.896	64.12
242.13	73.12
242.363	64.12
242.597	76.12
242.83	55.12
243.064	42.12
243.298	66.12
243.531	64.12
243.765	92.12
243.998	77.12
244.232	64.12
244.465	86.12
244.699	85.12
244.932	67.12
245.166	70.12
245.399	79.12
245.633	75.12
245.866	62.12
246.099	78.12
246.333	87.12
246.566	78.12
246.8	80.12
247.033	89.12
247.266	86.12
247.5	75.12
247.733	71.12
247.966	77.12
248.2	77.12
248.433	86.12
248.666	72.12
248.899	64.12
249.133	70.12
249.366	80.12
249.599	82.12
249.832	69.12
250.066	87.12
250.299	70.12
250.532	72.12
250.765	68.12
250.998	92.12
251.231	75.12
251.465	85.12
251.698	64.12
251.931	81.12
252.164	72.12
252.397	90.12
252.63	92.12
252.863	74.12
253.096	79.12
253.329	70.12
253.562	85.12
253.795	81.12
254.028	75.12
254.261	81.12
254.494	76.12
254.727	81.12
254.96	90.12
255.193	78.12
255.426	64.12
255.659	70.12
255.892	74.12
256.124	67.12
256.357	81.12
256.59	78.12
256.823	78.12
257.056	87.12
257.289	65.12
257.521	86.12
257.754	75.12
257.987	91.12
258.22	87.12
258.452	86.12
258.685	71.12
258.918	82.12
259.151	68.12
259.383	87.12
259.616	72.12
259.849	67.12
260.081	67.12
260.314	85.12
260.547	75.12
260.779	87.12
261.012	79.12
261.244	91.12
261.477	107.12
261.71	90.12
261.942	75.12
262.175	79.12
262.407	81.12
262.64	79.12
262.872	84.12
263.105	78.12
263.337	94.12
263.57	85.12
263.802	74.12
264.035	78.12
264.267	82.12
264.499	86.12
264.732	83.12
264.964	87.12
265.197	102.12
265.429	91.12
265.661	96.12
265.894	81.12
266.126	74.12
266.358	86.12
266.591	84.12
266.823	74.12
267.055	75.12
267.287	88.12
267.52	76.12
267.752	77.12
267.984	99.12
268.216	71.12
268.448	88.12
268.681	77.12
268.913	73.12
269.145	78.12
269.377	70.12
269.609	72.12
269.841	87.12
270.073	84.12
270.306	77.12
270.538	82.12
270.77	82.12
271.002	82.12
271.234	91.12
271.466	94.12
271.698	78.12
271.93	73.12
272.162	88.12
272.394	86.12
272.626	84.12
272.858	69.12
273.09	78.12
273.322	67.12
273.553	74.12
273.785	79.12
274.017	69.12
274.249	86.12
274.481	75.12
274.713	87.12
274.945	84.12
275.176	81.12
275.408	67.12
275.64	71.12
275.872	75.12
276.104	83.12
276.335	83.12
276.567	80.12
276.799	76.12
277.031	92.12
277.262	70.12
277.494	79.12
277.726	79.12
277.957	87.12
278.189	84.12
278.421	90.12
278.652	74.12
278.884	90.12
279.115	100.12
279.347	78.12
279.579	76.12
279.81	96.12
280.042	112.12
280.273	113.12
280.505	92.12
280.736	88.12
280.968	88.12
281.199	92.12
281.431	79.12
281.662	77.12
281.894	86.12
282.125	87.12
282.356	100.12
282.588	79.12
282.819	84.12
283.051	101.12
283.282	102.12
283.513	113.12
283.745	99.12
283.976	85.12
284.207	78.12
284.439	70.12
284.67	89.12
284.901	77.12
285.132	78.12
285.364	93.12
285.595	72.12
285.826	70.12
286.057	73.12
286.288	87.12
286.52	77.12
286.751	75.12
286.982	95.12
287.213	94.12
287.444	105.12
287.675	100.12
287.906	83.12
288.138	76.12
288.369	74.12
288.6	85.12
288.831	84.12
289.062	76.12
289.293	70.12
289.524	94.12
289.755	88.12
289.986	77.12
290.217	75.12
290.448	70.12
290.679	87.12
290.91	79.12
291.141	82.12
291.371	86.12
291.602	90.12
291.833	72.12
292.064	80.12
292.295	76.12
292.526	74.12
292.757	86.12
292.987	79.12
293.218	78.12
293.449	85.12
293.68	76.12
293.91	89.12
294.141	93.12
294.372	78.12
294.603	82.12
294.833	96.12
295.064	68.12
295.295	78.12
295.525	80.12
295.756	78.12
295.987	73.12
296.217	89.12
296.448	94.12
296.679	91.12
296.909	85.12
297.14	80.12
297.37	65.12
297.601	69.12
297.831	87.12
298.062	90.12
298.292	80.12
298.523	73.12
298.753	84.12
298.984	69.12
299.214	82.12
299.445	64.12
299.675	73.12
299.905	88.12
300.136	85.12
300.366	80.12
300.597	84.12
300.827	91.12
301.057	87.12
301.288	90.12
301.518	83.12
301.748	103.12
301.979	102.12
302.209	94.12
302.439	60.12
302.669	82.12
302.9	87.12
303.13	71.12
303.36	90.12
303.59	79.12
303.82	80.12
304.051	90.12
304.281	70.12
304.511	85.12
304.741	73.12
304.971	94.12
305.201	92.12
305.431	75.12
305.661	75.12
305.891	77.12
306.121	84.12
306.352	87.12
306.582	75.12
306.812	70.12
307.042	86.12
307.272	87.12
307.502	86.12
307.731	78.12
307.961	71.12
308.191	75.12
308.421	88.12
308.651	77.12
308.881	79.12
309.111	85.12
309.341	81.12
309.571	93.12
309.8	80.12
310.03	87.12
310.26	76.12
310.49	79.12
310.72	73.12
310.949	75.12
311.179	83.12
311.409	74.12
311.639	84.12
311.868	76.12
312.098	83.12
312.328	81.12
312.557	86.12
312.787	75.12
313.017	85.12
313.246	90.12
313.476	74.12
313.706	79.12
313.935	93.12
314.165	75.12
314.394	81.12
314.624	98.12
314.853	93.12
315.083	76.12
315.312	85.12
315.542	89.12
315.771	96.12
316.001	87.12
316.23	91.12
316.46	76.12
316.689	91.12
316.919	83.12
317.148	75.12
317.377	81.12
317.607	91.12
317.836	98.12
318.065	77.12
318.295	76.12
318.524	81.12
318.753	85.12
318.983	86.12
319.212	85.12
319.441	82.12
319.67	76.12
319.9	87.12
320.129	73.12
320.358	75.12
320.587	86.12
320.816	88.12
321.046	79.12
321.275	79.12
321.504	72.12
321.733	76.12
321.962	94.12
322.191	87.12
322.42	74.12
322.649	72.12
322.878	84.12
323.108	90.12
323.337	88.12
323.566	82.12
323.795	94.12
324.024	71.12
324.253	83.12
324.482	88.12
324.71	95.12
324.939	82.12
325.168	94.12
325.397	82.12
325.626	89.12
325.855	68.12
326.084	86.12
326.313	98.12
326.542	91.12
326.77	102.12
326.999	88.12
327.228	72.12
327.457	94.12
327.686	79.12
327.914	94.12
328.143	89.12
328.372	89.12
328.6	85.12
328.829	92.12
329.058	85.12
329.287	85.12
329.515	84.12
329.744	78.12
329.972	82.12
330.201	77.12
330.43	88.12
330.658	76.12
330.887	56.12
331.115	83.12
331.344	70.12
331.572	93.12
331.801	86.12
332.03	81.12
332.258	84.12
332.486	75.12
332.715	78.12
332.943	93.12
333.172	84.12
333.4	84.12
333.629	91.12
333.857	77.12
334.085	76.12
334.314	91.12
334.542	85.12
334.771	83.12
334.999	79.12
335.227	86.12
335.455	78.12
335.684	87.12
335.912	88.12
336.14	88.12
336.369	102.12
336.597	89.12
336.825	77.12
337.053	92.12
337.281	75.12
337.51	63.12
337.738	69.12
337.966	89.12
338.194	85.12
338.422	91.12
338.65	94.12
338.878	70.12
339.106	88.12
339.334	90.12
339.562	82.12
339.79	83.12
340.018	87.12
340.246	78.12
340.474	79.12
340.702	73.12
340.93	101.12
341.158	87.12
341.386	100.12
341.614	75.12
341.842	82.12
342.07	72.12
342.298	71.12
342.526	95.12
342.754	91.12
342.981	77.12
343.209	82.12
343.437	85.12
343.665	77.12
343.893	88.12
344.12	84.12
344.348	81.12
344.576	69.12
344.804	73.12
345.031	89.12
345.259	82.12
345.487	93.12
345.714	90.12
345.942	74.12
346.17	63.12
346.397	86.12
346.625	88.12
346.853	83.12
347.08	86.12
347.308	75.12
347.535	94.12
347.763	78.12
347.99	81.12
348.218	78.12
348.445	80.12
348.673	78.12
348.9	88.12
349.128	91.12
349.355	74.12
349.583	83.12
349.81	89.12
350.037	71.12
350.265	88.12
350.492	77.12
350.72	76.12
350.947	76.12
351.174	91.12
351.402	62.12
351.629	72.12
351.856	84.12
352.083	78.12
352.311	81.12
352.538	85.12
352.765	86.12
352.992	89.12
353.22	83.12
353.447	93.12
353.674	82.12
353.901	75.12
354.128	75.12
354.355	65.12
354.583	74.12
354.81	76.12
355.037	82.12
355.264	82.12
355.491	70.12
355.718	75.12
355.945	74.12
356.172	71.12
356.399	81.12
356.626	83.12
356.853	106.12
357.08	118.12
357.307	150.12
357.534	146.12
357.761	93.12
357.988	95.12
358.215	72.12
358.441	81.12
358.668	84.12
358.895	95.12
359.122	88.12
359.349	82.12
359.576	84.12
359.802	80.12
360.029	84.12
360.256	85.12
360.483	74.12
360.709	84.12
360.936	100.12
361.163	83.12
361.39	81.12
361.616	68.12
361.843	80.12
362.07	82.12
362.296	72.12
362.523	79.12
362.749	74.12
362.976	86.12
363.203	106.12
363.429	108.12
363.656	126.12
363.882	200.12
364.109	216.12
364.335	134.12
364.562	104.12
364.788	88.12
365.015	82.12
365.241	78.12
365.468	90.12
365.694	84.12
365.92	66.12
366.147	83.12
366.373	78.12
366.599	81.12
366.826	98.12
367.052	120.12
367.278	112.12
367.505	99.12
367.731	107.12
367.957	132.12
368.184	211.12
368.41	259.12
368.636	200.12
368.862	114.12
369.089	86.12
369.315	76.12
369.541	85.12
369.767	94.12
369.993	64.12
370.219	83.12
370.445	76.12
370.672	93.12
370.898	76.12
371.124	100.12
371.35	71.12
371.576	84.12
371.802	80.12
372.028	80.12
372.254	89.12
372.48	83.12
372.706	79.12
372.932	83.12
373.158	74.12
373.384	84.12
373.61	99.12
373.835	120.12
374.061	140.12
374.287	124.12
374.513	83.12
374.739	81.12
374.965	96.12
375.191	89.12
375.416	72.12
375.642	75.12
375.868	94.12
376.094	82.12
376.319	81.12
376.545	76.12
376.771	82.12
376.997	77.12
377.222	71.12
377.448	86.12
377.674	76.12
377.899	83.12
378.125	74.12
378.35	83.12
378.576	82.12
378.802	95.12
379.027	82.12
379.253	76.12
379.478	84.12
379.704	83.12
379.929	72.12
380.155	65.12
380.38	84.12
380.606	79.12
380.831	78.12
381.057	72.12
381.282	96.12
381.507	62.12
381.733	91.12
381.958	74.12
382.184	63.12
382.409	94.12
382.634	74.12
382.86	83.12
383.085	96.12
383.31	66.12
383.535	92.12
383.761	86.12
383.986	78.12
384.211	68.12
384.436	84.12
384.662	68.12
384.887	71.12
385.112	72.12
385.337	76.12
385.562	82.12
385.787	74.12
386.013	82.12
386.238	70.12
386.463	90.12
386.688	96.12
386.913	77.12
387.138	79.12
387.363	82.12
387.588	70.12
387.813	80.12
388.038	81.12
388.263	60.12
388.488	62.12
388.713	74.12
388.938	63.12
389.163	84.12
389.387	90.12
389.612	82.12
389.837	79.12
390.062	80.12
390.287	76.12
390.512	93.12
390.736	83.12
390.961	93.12
391.186	82.12
391.411	82.12
391.636	78.12
391.86	79.12
392.085	84.12
392.31	63.12
392.534	78.12
392.759	88.12
392.984	74.12
393.208	90.12
393.433	93.12
393.658	99.12
393.882	78.12
394.107	74.12
394.331	93.12
394.556	87.12
394.78	63.12
395.005	88.12
395.229	73.12
395.454	78.12
395.678	72.12
395.903	87.12
396.127	71.12
396.352	74.12
396.576	98.12
396.801	80.12
397.025	87.12
397.249	82.12
397.474	87.12
397.698	76.12
397.922	65.12
398.147	84.12
398.371	100.12
398.595	93.12
398.82	72.12
399.044	91.12
399.268	82.12
399.492	80.12
399.717	81.12
399.941	84.12
400.165	84.12
400.389	84.12
400.613	70.12
400.837	65.12
401.062	72.12
401.286	79.12
401.51	75.12
401.734	85.12
401.958	122.12
402.182	100.12
402.406	75.12
402.63	75.12
402.854	82.12
403.078	79.12
403.302	85.12
403.526	83.12
403.75	73.12
403.974	90.12
404.198	86.12
404.422	86.12
404.645	70.12
404.869	95.12
405.093	106.12
405.317	123.12
405.541	221.12
405.765	383.12
405.988	386.12
406.212	217.12
406.436	138.12
406.66	86.12
406.883	90.12
407.107	83.12
407.331	74.12
407.555	84.12
407.778	84.12
408.002	83.12
408.226	84.12
408.449	87.12
408.673	80.12
408.896	85.12
409.12	86.12
409.344	86.12
409.567	80.12
409.791	85.12
410.014	80.12
410.238	76.12
410.461	77.12
410.685	74.12
410.908	93.12
411.132	81.12
411.355	69.12
411.578	98.12
411.802	85.12
412.025	84.12
412.249	78.12
412.472	73.12
412.695	77.12
412.919	76.12
413.142	70.12
413.365	68.12
413.589	88.12
413.812	85.12
414.035	76.12
414.258	75.12
414.482	73.12
414.705	76.12
414.928	84.12
415.151	72.12
415.374	71.12
415.597	80.12
415.821	72.12
416.044	74.12
416.267	86.12
416.49	74.12
416.713	95.12
416.936	78.12
417.159	83.12
417.382	90.12
417.605	87.12
417.828	76.12
418.051	63.12
418.274	88.12
418.497	71.12
418.72	83.12
418.943	89.12
419.166	90.12
419.389	82.12
419.611	75.12
419.834	79.12
420.057	71.12
420.28	85.12
420.503	79.12
420.726	82.12
420.948	74.12
421.171	77.12
421.394	73.12
421.617	72.12
421.839	75.12
422.062	83.12
422.285	87.12
422.507	91.12
422.73	81.12
422.953	79.12
423.175	74.12
423.398	62.12
423.621	69.12
423.843	72.12
424.066	77.12
424.288	72.12
424.511	79.12
424.733	82.12
424.956	104.12
425.178	60.12
425.401	80.12
425.623	81.12
425.846	79.12
426.068	75.12
426.291	82.12
426.513	66.12
426.735	78.12
426.958	68.12
427.18	73.12
427.402	79.12
427.625	75.12
427.847	74.12
428.069	64.12
428.292	77.12
428.514	74.12
428.736	75.12
428.958	72.12
429.181	76.12
429.403	84.12
429.625	93.12
429.847	77.12
430.069	70.12
430.292	94.12
430.514	89.12
430.736	75.12
430.958	83.12
431.18	80.12
431.402	84.12
431.624	91.12
431.846	75.12
432.068	80.12
432.29	83.12
432.512	84.12
432.734	68.12
432.956	88.12
433.178	104.12
433.4	76.12
433.622	84.12
433.844	89.12
434.066	78.12
434.287	81.12
434.509	74.12
434.731	75.12
434.953	86.12
435.175	95.12
435.397	89.12
435.618	84.12
435.84	74.12
436.062	78.12
436.284	87.12
436.505	78.12
436.727	74.12
436.949	88.12
437.17	87.12
437.392	83.12
437.614	76.12
437.835	79.12
438.057	55.12
438.278	75.12
438.5	89.12
438.721	80.12
438.943	69.12
439.165	93.12
439.386	70.12
439.608	78.12
439.829	83.12
440.05	78.12
440.272	72.12
440.493	84.12
440.715	84.12
440.936	74.12
441.158	80.12
441.379	84.12
441.6	77.12
441.822	76.12
442.043	69.12
442.264	88.12
442.486	75.12
442.707	83.12
442.928	78.12
443.149	84.12
443.371	74.12
443.592	73.12
443.813	98.12
444.034	78.12
444.255	70.12
444.476	72.12
444.698	82.12
444.919	87.12
445.14	151.12
445.361	127.12
445.582	82.12
445.803	87.12
446.024	76.12
446.245	84.12
446.466	88.12
446.687	78.12
446.908	68.12
447.129	85.12
447.35	95.12
447.571	78.12
447.792	81.12
448.013	72.12
448.234	87.12
448.455	67.12
448.675	77.12
448.896	75.12
449.117	86.12
449.338	100.12
449.559	89.12
449.779	75.12
450	83.12
450.221	59.12
450.442	79.12
450.662	83.12
450.883	79.12
451.104	87.12
451.324	69.12
451.545	87.12
451.766	79.12
451.986	90.12
452.207	71.12
452.428	85.12
452.648	88.12
452.869	77.12
453.089	83.12
453.31	84.12
453.53	63.12
453.751	82.12
453.971	65.12
454.192	66.12
454.412	70.12
454.633	100.12
454.853	76.12
455.073	87.12
455.294	87.12
455.514	84.12
455.734	92.12
455.955	71.12
456.175	76.12
456.395	77.12
456.616	74.12
456.836	75.12
457.056	72.12
457.276	77.12
457.497	77.12
457.717	82.12
457.937	71.12
458.157	78.12
458.377	78.12
458.598	86.12
458.818	87.12
459.038	72.12
459.258	77.12
459.478	69.12
459.698	75.12
459.918	83.12
460.138	84.12
460.358	80.12
460.578	78.12
460.798	72.12
461.018	89.12
461.238	80.12
461.458	78.12
461.678	73.12
461.898	101.12
462.118	99.12
462.338	75.12
462.558	73.12
462.777	82.12
462.997	90.12
463.217	80.12
463.437	85.12
463.657	87.12
463.876	87.12
464.096	86.12
464.316	67.12
464.536	74.12
464.755	95.12
464.975	87.12
465.195	91.12
465.414	55.12
465.634	74.12
465.854	72.12
466.073	70.12
466.293	87.12
466.512	80.12
466.732	90.12
466.951	90.12
467.171	77.12
467.391	78.12
467.61	79.12
467.829	86.12
468.049	86.12
468.268	88.12
468.488	75.12
468.707	78.12
468.927	84.12
469.146	77.12
469.365	84.12
469.585	76.12
469.804	70.12
470.023	75.12
470.243	94.12
470.462	85.12
470.681	92.12
470.901	91.12
471.12	86.12
471.339	67.12
471.558	74.12
471.777	82.12
471.997	84.12
472.216	82.12
472.435	92.12
472.654	63.12
472.873	81.12
473.092	84.12
473.311	88.12
473.53	79.12
473.749	89.12
473.968	88.12
474.187	77.12
474.406	82.12
474.625	84.12
474.844	86.12
475.063	69.12
475.282	74.12
475.501	91.12
475.72	79.12
475.939	76.12
476.158	78.12
476.377	79.12
476.596	76.12
476.814	77.12
477.033	74.12
477.252	80.12
477.471	74.12
477.69	79.12
477.908	87.12
478.127	88.12
478.346	89.12
478.564	70.12
478.783	73.12
479.002	88.12
479.22	88.12
479.439	68.12
479.658	78.12
479.876	60.12
480.095	76.12
480.313	90.12
480.532	90.12
480.751	87.12
480.969	78.12
481.188	83.12
481.406	63.12
481.624	74.12
481.843	77.12
482.061	67.12
482.28	88.12
482.498	87.12
482.717	83.12
482.935	81.12
483.153	78.12
483.372	85.12
483.59	86.12
483.808	80.12
484.027	78.12
484.245	77.12
484.463	80.12
484.681	81.12
484.9	78.12
485.118	80.12
485.336	77.12
485.554	74.12
485.772	74.12
485.99	75.12
486.209	88.12
486.427	84.12
486.645	81.12
486.863	87.12
487.081	79.12
487.299	77.12
487.517	80.12
487.735	84.12
487.953	71.12
488.171	70.12
488.389	79.12
488.607	77.12
488.825	65.12
489.043	84.12
489.261	86.12
489.479	95.12
489.696	77.12
489.914	82.12
490.132	83.12
490.35	82.12
490.568	73.12
490.786	82.12
491.003	67.12
491.221	89.12
491.439	79.12
491.657	70.12
491.874	88.12
492.092	79.12
492.31	80.12
492.527	91.12
492.745	95.12
492.963	100.12
493.18	83.12
493.398	70.12
493.615	78.12
493.833	67.12
494.05	84.12
494.268	85.12
494.485	83.12
494.703	85.12
494.92	81.12
495.138	86.12
495.355	89.12
495.573	78.12
495.79	79.12
496.008	72.12
496.225	86.12
496.442	71.12
496.66	83.12
496.877	80.12
497.094	82.12
497.312	82.12
497.529	91.12
497.746	85.12
497.963	77.12
498.181	79.12
498.398	98.12
498.615	74.12
498.832	84.12
499.049	72.12
499.267	80.12
499.484	71.12
499.701	88.12
499.918	91.12
500.135	93.12
500.352	95.12
500.569	107.12
500.786	145.12
501.003	104.12
501.22	86.12
501.437	86.12
501.654	71.12
501.871	86.12
502.088	86.12
502.305	68.12
502.522	101.12
502.739	81.12
502.956	82.12
503.172	83.12
503.389	81.12
503.606	73.12
503.823	78.12
504.04	88.12
504.256	79.12
504.473	64.12
504.69	83.12
504.907	84.12
505.123	79.12
505.34	82.12
505.557	78.12
505.773	86.12
505.99	74.12
506.207	73.12
506.423	86.12
506.64	82.12
506.856	84.12
507.073	81.12
507.289	73.12
507.506	81.12
507.722	79.12
507.939	77.12
508.155	78.12
508.372	76.12
508.588	83.12
508.805	84.12
509.021	76.12
509.238	71.12
509.454	69.12
509.67	75.12
509.887	87.12
510.103	78.12
510.319	65.12
510.536	80.12
510.752	68.12
510.968	89.12
511.184	80.12
511.401	84.12
511.617	93.12
511.833	74.12
512.049	85.12
512.265	84.12
512.481	77.12
512.698	82.12
512.914	88.12
513.13	83.12
513.346	76.12
513.562	76.12
513.778	92.12
513.994	78.12
514.21	86.12
514.426	83.12
514.642	86.12
514.858	102.12
515.074	79.12
515.29	83.12
515.506	74.12
515.721	84.12
515.937	75.12
516.153	75.12
516.369	78.12
516.585	91.12
516.801	82.12
517.016	78.12
517.232	81.12
517.448	89.12
517.664	76.12
517.879	74.12
518.095	80.12
518.311	82.12
518.527	91.12
518.742	70.12
518.958	72.12
519.173	86.12
519.389	88.12
