Data from StdB_HRD10591_018.txt Node
Date: Fri May 16 15:24:55 EDT 2025
User: Yrep
Spectrometer: HR+D1059
Trigger mode: 1
Integration Time (sec): 1.000000E-1
Scans to average: 1
Electric dark correction enabled: true
Nonlinearity correction enabled: false
Boxcar width: 0
XAxis mode: Wavelengths
Number of Pixels in Spectrum: 2048
>>>>>Begin Spectral Data<<<<<
223.165	-13.31
223.4	-13.31
223.635	-13.31
223.869	-19.31
224.104	-15.31
224.338	-4.31
224.573	-16.31
224.808	-4.31
225.042	-5.31
225.277	-10.31
225.511	-11.31
225.746	6.69
225.98	9.69
226.215	15.69
226.449	14.69
226.683	11.69
226.918	18.69
227.152	22.69
227.387	34.69
227.621	39.69
227.856	51.69
228.09	33.69
228.324	58.69
228.559	56.69
228.793	54.69
229.027	66.69
229.262	72.69
229.496	66.69
229.73	70.69
229.964	90.69
230.199	76.69
230.433	82.69
230.667	81.69
230.901	88.69
231.136	65.69
231.37	78.69
231.604	94.69
231.838	84.69
232.072	97.69
232.306	69.69
232.541	80.69
232.775	84.69
233.009	91.69
233.243	87.69
233.477	82.69
233.711	72.69
233.945	87.69
234.179	91.69
234.413	89.69
234.647	90.69
234.881	99.69
235.115	105.69
235.349	86.69
235.583	86.69
235.817	91.69
236.051	104.69
236.285	75.69
236.519	82.69
236.753	85.69
236.987	90.69
237.221	87.69
237.455	82.69
237.689	86.69
237.922	83.69
238.156	90.69
238.39	76.69
238.624	89.69
238.858	98.69
239.091	92.69
239.325	107.69
239.559	101.69
239.793	106.69
240.027	107.69
240.26	93.69
240.494	111.69
240.728	100.69
240.961	99.69
241.195	97.69
241.429	106.69
241.662	105.69
241.896	97.69
242.13	92.69
242.363	89.69
242.597	90.69
242.83	100.69
243.064	99.69
243.298	100.69
243.531	102.69
243.765	78.69
243.998	102.69
244.232	107.69
244.465	99.69
244.699	114.69
244.932	106.69
245.166	113.69
245.399	118.69
245.633	94.69
245.866	95.69
246.099	107.69
246.333	104.69
246.566	95.69
246.8	98.69
247.033	110.69
247.266	118.69
247.5	104.69
247.733	117.69
247.966	133.69
248.2	117.69
248.433	113.69
248.666	97.69
248.899	102.69
249.133	105.69
249.366	101.69
249.599	107.69
249.832	121.69
250.066	116.69
250.299	117.69
250.532	106.69
250.765	110.69
250.998	116.69
251.231	115.69
251.465	123.69
251.698	118.69
251.931	112.69
252.164	123.69
252.397	110.69
252.63	130.69
252.863	110.69
253.096	123.69
253.329	134.69
253.562	132.69
253.795	132.69
254.028	136.69
254.261	137.69
254.494	128.69
254.727	127.69
254.96	125.69
255.193	139.69
255.426	130.69
255.659	124.69
255.892	132.69
256.124	132.69
256.357	138.69
256.59	115.69
256.823	122.69
257.056	132.69
257.289	136.69
257.521	143.69
257.754	171.69
257.987	189.69
258.22	159.69
258.452	151.69
258.685	154.69
258.918	129.69
259.151	135.69
259.383	134.69
259.616	138.69
259.849	144.69
260.081	144.69
260.314	156.69
260.547	166.69
260.779	166.69
261.012	207.69
261.244	241.69
261.477	334.69
261.71	298.69
261.942	245.69
262.175	179.69
262.407	170.69
262.64	146.69
262.872	133.69
263.105	145.69
263.337	147.69
263.57	127.69
263.802	151.69
264.035	150.69
264.267	144.69
264.499	137.69
264.732	168.69
264.964	174.69
265.197	181.69
265.429	162.69
265.661	160.69
265.894	150.69
266.126	173.69
266.358	190.69
266.591	225.69
266.823	187.69
267.055	148.69
267.287	142.69
267.52	132.69
267.752	132.69
267.984	132.69
268.216	127.69
268.448	108.69
268.681	122.69
268.913	131.69
269.145	138.69
269.377	118.69
269.609	124.69
269.841	152.69
270.073	146.69
270.306	132.69
270.538	131.69
270.77	135.69
271.002	131.69
271.234	119.69
271.466	125.69
271.698	121.69
271.93	127.69
272.162	128.69
272.394	139.69
272.626	136.69
272.858	132.69
273.09	139.69
273.322	129.69
273.553	141.69
273.785	153.69
274.017	124.69
274.249	137.69
274.481	143.69
274.713	141.69
274.945	137.69
275.176	131.69
275.408	125.69
275.64	124.69
275.872	144.69
276.104	146.69
276.335	144.69
276.567	145.69
276.799	158.69
277.031	161.69
277.262	132.69
277.494	154.69
277.726	162.69
277.957	153.69
278.189	170.69
278.421	176.69
278.652	175.69
278.884	162.69
279.115	182.69
279.347	218.69
279.579	251.69
279.81	310.69
280.042	403.69
280.273	479.69
280.505	417.69
280.736	290.69
280.968	214.69
281.199	213.69
281.431	182.69
281.662	198.69
281.894	182.69
282.125	238.69
282.356	248.69
282.588	257.69
282.819	258.69
283.051	254.69
283.282	338.69
283.513	384.69
283.745	295.69
283.976	224.69
284.207	178.69
284.439	168.69
284.67	174.69
284.901	169.69
285.132	166.69
285.364	156.69
285.595	158.69
285.826	163.69
286.057	163.69
286.288	169.69
286.52	165.69
286.751	183.69
286.982	213.69
287.213	256.69
287.444	294.69
287.675	240.69
287.906	176.69
288.138	181.69
288.369	169.69
288.6	164.69
288.831	155.69
289.062	159.69
289.293	164.69
289.524	147.69
289.755	144.69
289.986	148.69
290.217	156.69
290.448	155.69
290.679	167.69
290.91	148.69
291.141	150.69
291.371	151.69
291.602	147.69
291.833	152.69
292.064	161.69
292.295	151.69
292.526	151.69
292.757	151.69
292.987	135.69
293.218	144.69
293.449	164.69
293.68	151.69
293.91	141.69
294.141	148.69
294.372	147.69
294.603	167.69
294.833	172.69
295.064	167.69
295.295	171.69
295.525	152.69
295.756	151.69
295.987	158.69
296.217	158.69
296.448	150.69
296.679	167.69
296.909	155.69
297.14	172.69
297.37	155.69
297.601	161.69
297.831	155.69
298.062	160.69
298.292	150.69
298.523	159.69
298.753	159.69
298.984	160.69
299.214	156.69
299.445	150.69
299.675	164.69
299.905	130.69
300.136	142.69
300.366	157.69
300.597	151.69
300.827	142.69
301.057	167.69
301.288	145.69
301.518	169.69
301.748	166.69
301.979	163.69
302.209	173.69
302.439	170.69
302.669	163.69
302.9	172.69
303.13	179.69
303.36	183.69
303.59	185.69
303.82	177.69
304.051	159.69
304.281	166.69
304.511	171.69
304.741	163.69
304.971	164.69
305.201	166.69
305.431	154.69
305.661	174.69
305.891	174.69
306.121	158.69
306.352	167.69
306.582	174.69
306.812	170.69
307.042	163.69
307.272	162.69
307.502	171.69
307.731	184.69
307.961	169.69
308.191	170.69
308.421	175.69
308.651	169.69
308.881	169.69
309.111	156.69
309.341	157.69
309.571	172.69
309.8	161.69
310.03	163.69
310.26	183.69
310.49	183.69
310.72	170.69
310.949	161.69
311.179	150.69
311.409	183.69
311.639	166.69
311.868	159.69
312.098	172.69
312.328	176.69
312.557	192.69
312.787	170.69
313.017	168.69
313.246	183.69
313.476	202.69
313.706	204.69
313.935	200.69
314.165	189.69
314.394	200.69
314.624	198.69
314.853	192.69
315.083	186.69
315.312	191.69
315.542	204.69
315.771	199.69
316.001	200.69
316.23	195.69
316.46	195.69
316.689	173.69
316.919	199.69
317.148	188.69
317.377	193.69
317.607	202.69
317.836	210.69
318.065	184.69
318.295	192.69
318.524	197.69
318.753	174.69
318.983	197.69
319.212	181.69
319.441	167.69
319.67	175.69
319.9	190.69
320.129	174.69
320.358	191.69
320.587	171.69
320.816	183.69
321.046	175.69
321.275	178.69
321.504	182.69
321.733	176.69
321.962	175.69
322.191	173.69
322.42	169.69
322.649	184.69
322.878	173.69
323.108	186.69
323.337	175.69
323.566	179.69
323.795	181.69
324.024	194.69
324.253	180.69
324.482	195.69
324.71	186.69
324.939	160.69
325.168	179.69
325.397	161.69
325.626	183.69
325.855	183.69
326.084	182.69
326.313	194.69
326.542	181.69
326.77	187.69
326.999	159.69
327.228	174.69
327.457	168.69
327.686	190.69
327.914	181.69
328.143	191.69
328.372	167.69
328.6	179.69
328.829	182.69
329.058	189.69
329.287	202.69
329.515	181.69
329.744	175.69
329.972	188.69
330.201	176.69
330.43	169.69
330.658	183.69
330.887	191.69
331.115	195.69
331.344	185.69
331.572	204.69
331.801	168.69
332.03	189.69
332.258	190.69
332.486	185.69
332.715	185.69
332.943	174.69
333.172	190.69
333.4	183.69
333.629	194.69
333.857	194.69
334.085	201.69
334.314	175.69
334.542	179.69
334.771	188.69
334.999	191.69
335.227	183.69
335.455	182.69
335.684	208.69
335.912	168.69
336.14	174.69
336.369	195.69
336.597	187.69
336.825	188.69
337.053	180.69
337.281	186.69
337.51	171.69
337.738	179.69
337.966	199.69
338.194	182.69
338.422	178.69
338.65	153.69
338.878	187.69
339.106	173.69
339.334	184.69
339.562	193.69
339.79	163.69
340.018	169.69
340.246	187.69
340.474	178.69
340.702	174.69
340.93	172.69
341.158	189.69
341.386	184.69
341.614	190.69
341.842	196.69
342.07	186.69
342.298	179.69
342.526	177.69
342.754	166.69
342.981	171.69
343.209	178.69
343.437	187.69
343.665	185.69
343.893	204.69
344.12	192.69
344.348	198.69
344.576	179.69
344.804	186.69
345.031	183.69
345.259	191.69
345.487	196.69
345.714	191.69
345.942	183.69
346.17	197.69
346.397	202.69
346.625	191.69
346.853	163.69
347.08	191.69
347.308	174.69
347.535	202.69
347.763	171.69
347.99	172.69
348.218	183.69
348.445	177.69
348.673	185.69
348.9	177.69
349.128	175.69
349.355	187.69
349.583	193.69
349.81	166.69
350.037	178.69
350.265	189.69
350.492	170.69
350.72	180.69
350.947	199.69
351.174	185.69
351.402	186.69
351.629	170.69
351.856	189.69
352.083	192.69
352.311	191.69
352.538	169.69
352.765	196.69
352.992	200.69
353.22	186.69
353.447	189.69
353.674	185.69
353.901	186.69
354.128	184.69
354.355	188.69
354.583	193.69
354.81	195.69
355.037	193.69
355.264	183.69
355.491	182.69
355.718	210.69
355.945	195.69
356.172	197.69
356.399	212.69
356.626	220.69
356.853	295.69
357.08	424.69
357.307	529.69
357.534	528.69
357.761	377.69
357.988	293.69
358.215	267.69
358.441	250.69
358.668	220.69
358.895	227.69
359.122	208.69
359.349	217.69
359.576	208.69
359.802	208.69
360.029	210.69
360.256	200.69
360.483	187.69
360.709	202.69
360.936	206.69
361.163	198.69
361.39	206.69
361.616	203.69
361.843	197.69
362.07	214.69
362.296	215.69
362.523	194.69
362.749	224.69
362.976	228.69
363.203	230.69
363.429	284.69
363.656	409.69
363.882	593.69
364.109	704.69
364.335	468.69
364.562	322.69
364.788	259.69
365.015	240.69
365.241	226.69
365.468	240.69
365.694	220.69
365.92	229.69
366.147	207.69
366.373	212.69
366.599	219.69
366.826	250.69
367.052	298.69
367.278	331.69
367.505	315.69
367.731	344.69
367.957	419.69
368.184	705.69
368.41	925.69
368.636	775.69
368.862	467.69
369.089	353.69
369.315	301.69
369.541	289.69
369.767	265.69
369.993	231.69
370.219	233.69
370.445	222.69
370.672	215.69
370.898	216.69
371.124	210.69
371.35	211.69
371.576	208.69
371.802	219.69
372.028	206.69
372.254	219.69
372.48	225.69
372.706	235.69
372.932	217.69
373.158	233.69
373.384	258.69
373.61	321.69
373.835	448.69
374.061	574.69
374.287	511.69
374.513	350.69
374.739	284.69
374.965	240.69
375.191	233.69
375.416	238.69
375.642	222.69
375.868	216.69
376.094	210.69
376.319	205.69
376.545	196.69
376.771	194.69
376.997	183.69
377.222	202.69
377.448	205.69
377.674	201.69
377.899	201.69
378.125	193.69
378.35	202.69
378.576	217.69
378.802	212.69
379.027	209.69
379.253	209.69
379.478	189.69
379.704	211.69
379.929	206.69
380.155	193.69
380.38	185.69
380.606	202.69
380.831	192.69
381.057	214.69
381.282	203.69
381.507	188.69
381.733	207.69
381.958	202.69
382.184	203.69
382.409	186.69
382.634	200.69
382.86	211.69
383.085	206.69
383.31	196.69
383.535	192.69
383.761	201.69
383.986	209.69
384.211	219.69
384.436	200.69
384.662	200.69
384.887	210.69
385.112	201.69
385.337	223.69
385.562	207.69
385.787	193.69
386.013	214.69
386.238	220.69
386.463	207.69
386.688	224.69
386.913	199.69
387.138	210.69
387.363	206.69
387.588	202.69
387.813	196.69
388.038	191.69
388.263	208.69
388.488	202.69
388.713	192.69
388.938	203.69
389.163	190.69
389.387	215.69
389.612	198.69
389.837	219.69
390.062	195.69
390.287	203.69
390.512	192.69
390.736	188.69
390.961	203.69
391.186	207.69
391.411	187.69
391.636	204.69
391.86	203.69
392.085	207.69
392.31	208.69
392.534	197.69
392.759	204.69
392.984	215.69
393.208	210.69
393.433	224.69
393.658	211.69
393.882	208.69
394.107	212.69
394.331	206.69
394.556	197.69
394.78	199.69
395.005	191.69
395.229	197.69
395.454	194.69
395.678	200.69
395.903	219.69
396.127	199.69
396.352	219.69
396.576	193.69
396.801	212.69
397.025	212.69
397.249	223.69
397.474	197.69
397.698	235.69
397.922	227.69
398.147	219.69
398.371	217.69
398.595	210.69
398.82	213.69
399.044	226.69
399.268	246.69
399.492	250.69
399.717	220.69
399.941	255.69
400.165	233.69
400.389	239.69
400.613	235.69
400.837	239.69
401.062	232.69
401.286	233.69
401.51	246.69
401.734	243.69
401.958	279.69
402.182	274.69
402.406	252.69
402.63	238.69
402.854	226.69
403.078	227.69
403.302	242.69
403.526	238.69
403.75	232.69
403.974	247.69
404.198	244.69
404.422	274.69
404.645	260.69
404.869	295.69
405.093	344.69
405.317	455.69
405.541	736.69
405.765	1226.69
405.988	1473.69
406.212	948.69
406.436	636.69
406.66	455.69
406.883	375.69
407.107	338.69
407.331	316.69
407.555	294.69
407.778	289.69
408.002	287.69
408.226	246.69
408.449	275.69
408.673	254.69
408.896	259.69
409.12	249.69
409.344	257.69
409.567	249.69
409.791	240.69
410.014	234.69
410.238	230.69
410.461	233.69
410.685	227.69
410.908	240.69
411.132	224.69
411.355	226.69
411.578	231.69
411.802	223.69
412.025	219.69
412.249	237.69
412.472	234.69
412.695	240.69
412.919	232.69
413.142	227.69
413.365	230.69
413.589	236.69
413.812	236.69
414.035	222.69
414.258	223.69
414.482	220.69
414.705	221.69
414.928	222.69
415.151	235.69
415.374	230.69
415.597	214.69
415.821	204.69
416.044	222.69
416.267	211.69
416.49	202.69
416.713	230.69
416.936	258.69
417.159	230.69
417.382	232.69
417.605	230.69
417.828	236.69
418.051	228.69
418.274	218.69
418.497	216.69
418.72	224.69
418.943	209.69
419.166	219.69
419.389	226.69
419.611	235.69
419.834	245.69
420.057	221.69
420.28	221.69
420.503	231.69
420.726	216.69
420.948	224.69
421.171	234.69
421.394	232.69
421.617	234.69
421.839	235.69
422.062	243.69
422.285	256.69
422.507	252.69
422.73	262.69
422.953	283.69
423.175	286.69
423.398	283.69
423.621	302.69
423.843	353.69
424.066	388.69
424.288	470.69
424.511	621.69
424.733	650.69
424.956	547.69
425.178	460.69
425.401	410.69
425.623	359.69
425.846	335.69
426.068	323.69
426.291	319.69
426.513	306.69
426.735	275.69
426.958	285.69
427.18	266.69
427.402	256.69
427.625	251.69
427.847	237.69
428.069	238.69
428.292	251.69
428.514	246.69
428.736	250.69
428.958	243.69
429.181	252.69
429.403	227.69
429.625	234.69
429.847	215.69
430.069	224.69
430.292	230.69
430.514	229.69
430.736	243.69
430.958	218.69
431.18	232.69
431.402	230.69
431.624	227.69
431.846	223.69
432.068	215.69
432.29	225.69
432.512	230.69
432.734	228.69
432.956	214.69
433.178	238.69
433.4	234.69
433.622	240.69
433.844	257.69
434.066	252.69
434.287	255.69
434.509	251.69
434.731	246.69
434.953	243.69
435.175	244.69
435.397	236.69
435.618	242.69
435.84	239.69
436.062	237.69
436.284	251.69
436.505	250.69
436.727	247.69
436.949	245.69
437.17	250.69
437.392	266.69
437.614	299.69
437.835	318.69
438.057	322.69
438.278	356.69
438.5	439.69
438.721	557.69
438.943	562.69
439.165	513.69
439.386	440.69
439.608	395.69
439.829	402.69
440.05	372.69
440.272	339.69
440.493	348.69
440.715	387.69
440.936	416.69
441.158	417.69
441.379	358.69
441.6	324.69
441.822	305.69
442.043	291.69
442.264	289.69
442.486	266.69
442.707	267.69
442.928	243.69
443.149	248.69
443.371	256.69
443.592	239.69
443.813	248.69
444.034	220.69
444.255	243.69
444.476	244.69
444.698	257.69
444.919	243.69
445.14	314.69
445.361	283.69
445.582	221.69
445.803	235.69
446.024	227.69
446.245	236.69
446.466	226.69
446.687	226.69
446.908	216.69
447.129	218.69
447.35	214.69
447.571	236.69
447.792	218.69
448.013	211.69
448.234	207.69
448.455	206.69
448.675	211.69
448.896	209.69
449.117	229.69
449.338	222.69
449.559	218.69
449.779	221.69
450	212.69
450.221	202.69
450.442	208.69
450.662	206.69
450.883	204.69
451.104	197.69
451.324	198.69
451.545	210.69
451.766	219.69
451.986	184.69
452.207	211.69
452.428	210.69
452.648	194.69
452.869	201.69
453.089	188.69
453.31	189.69
453.53	204.69
453.751	204.69
453.971	211.69
454.192	207.69
454.412	183.69
454.633	173.69
454.853	190.69
455.073	198.69
455.294	180.69
455.514	176.69
455.734	199.69
455.955	202.69
456.175	190.69
456.395	193.69
456.616	198.69
456.836	188.69
457.056	182.69
457.276	195.69
457.497	186.69
457.717	196.69
457.937	195.69
458.157	210.69
458.377	189.69
458.598	188.69
458.818	204.69
459.038	194.69
459.258	173.69
459.478	201.69
459.698	202.69
459.918	203.69
460.138	208.69
460.358	194.69
460.578	194.69
460.798	235.69
461.018	208.69
461.238	220.69
461.458	199.69
461.678	205.69
461.898	196.69
462.118	206.69
462.338	204.69
462.558	219.69
462.777	217.69
462.997	233.69
463.217	219.69
463.437	208.69
463.657	209.69
463.876	231.69
464.096	217.69
464.316	220.69
464.536	219.69
464.755	232.69
464.975	206.69
465.195	215.69
465.414	225.69
465.634	197.69
465.854	203.69
466.073	192.69
466.293	194.69
466.512	193.69
466.732	197.69
466.951	201.69
467.171	199.69
467.391	208.69
467.61	200.69
467.829	210.69
468.049	191.69
468.268	184.69
468.488	185.69
468.707	195.69
468.927	186.69
469.146	196.69
469.365	195.69
469.585	194.69
469.804	193.69
470.023	208.69
470.243	195.69
470.462	195.69
470.681	203.69
470.901	207.69
471.12	190.69
471.339	203.69
471.558	206.69
471.777	195.69
471.997	204.69
472.216	213.69
472.435	202.69
472.654	212.69
472.873	216.69
473.092	192.69
473.311	200.69
473.53	195.69
473.749	192.69
473.968	192.69
474.187	187.69
474.406	199.69
474.625	190.69
474.844	206.69
475.063	195.69
475.282	218.69
475.501	200.69
475.72	218.69
475.939	206.69
476.158	218.69
476.377	206.69
476.596	205.69
476.814	220.69
477.033	204.69
477.252	203.69
477.471	204.69
477.69	201.69
477.908	223.69
478.127	221.69
478.346	230.69
478.564	230.69
478.783	222.69
479.002	241.69
479.22	245.69
479.439	243.69
479.658	223.69
479.876	231.69
480.095	246.69
480.313	235.69
480.532	262.69
480.751	239.69
480.969	239.69
481.188	212.69
481.406	232.69
481.624	214.69
481.843	223.69
482.061	209.69
482.28	213.69
482.498	232.69
482.717	223.69
482.935	210.69
483.153	245.69
483.372	234.69
483.59	240.69
483.808	214.69
484.027	226.69
484.245	230.69
484.463	228.69
484.681	222.69
484.9	224.69
485.118	231.69
485.336	212.69
485.554	215.69
485.772	225.69
485.99	218.69
486.209	222.69
486.427	218.69
486.645	235.69
486.863	241.69
487.081	218.69
487.299	224.69
487.517	239.69
487.735	232.69
487.953	224.69
488.171	224.69
488.389	231.69
488.607	220.69
488.825	240.69
489.043	234.69
489.261	244.69
489.479	240.69
489.696	256.69
489.914	235.69
490.132	234.69
490.35	225.69
490.568	246.69
490.786	223.69
491.003	225.69
491.221	237.69
491.439	234.69
491.657	249.69
491.874	248.69
492.092	231.69
492.31	239.69
492.527	228.69
492.745	230.69
492.963	224.69
493.18	244.69
493.398	245.69
493.615	236.69
493.833	241.69
494.05	246.69
494.268	219.69
494.485	233.69
494.703	239.69
494.92	253.69
495.138	232.69
495.355	249.69
495.573	264.69
495.79	255.69
496.008	255.69
496.225	270.69
496.442	254.69
496.66	264.69
496.877	258.69
497.094	245.69
497.312	251.69
497.529	253.69
497.746	249.69
497.963	258.69
498.181	259.69
498.398	266.69
498.615	264.69
498.832	288.69
499.049	280.69
499.267	314.69
499.484	301.69
499.701	320.69
499.918	337.69
500.135	338.69
500.352	365.69
500.569	422.69
500.786	473.69
501.003	409.69
501.22	349.69
501.437	324.69
501.654	312.69
501.871	305.69
502.088	312.69
502.305	310.69
502.522	302.69
502.739	288.69
502.956	279.69
503.172	294.69
503.389	302.69
503.606	315.69
