Data from StdB_HRD10591_002.txt Node
Date: Fri May 16 15:24:47 EDT 2025
User: Yrep
Spectrometer: HR+D1059
Trigger mode: 1
Integration Time (sec): 1.000000E-1
Scans to average: 1
Electric dark correction enabled: true
Nonlinearity correction enabled: false
Boxcar width: 0
XAxis mode: Wavelengths
Number of Pixels in Spectrum: 2048
>>>>>Begin Spectral Data<<<<<
223.165	-18.19
223.4	-18.19
223.635	-18.19
223.869	-28.19
224.104	-17.19
224.338	-14.19
224.573	-21.19
224.808	-9.19
225.042	-3.19
225.277	-9.19
225.511	8.81
225.746	11.81
225.98	4.81
226.215	12.81
226.449	7.81
226.683	21.81
226.918	21.81
227.152	30.81
227.387	33.81
227.621	31.81
227.856	51.81
228.09	50.81
228.324	38.81
228.559	64.81
228.793	62.81
229.027	70.81
229.262	69.81
229.496	73.81
229.73	92.81
229.964	85.81
230.199	75.81
230.433	72.81
230.667	95.81
230.901	83.81
231.136	82.81
231.37	93.81
231.604	88.81
231.838	94.81
232.072	86.81
232.306	83.81
232.541	78.81
232.775	93.81
233.009	93.81
233.243	87.81
233.477	94.81
233.711	77.81
233.945	101.81
234.179	77.81
234.413	78.81
234.647	87.81
234.881	87.81
235.115	86.81
235.349	84.81
235.583	104.81
235.817	84.81
236.051	95.81
236.285	96.81
236.519	82.81
236.753	79.81
236.987	94.81
237.221	85.81
237.455	69.81
237.689	88.81
237.922	85.81
238.156	97.81
238.39	85.81
238.624	90.81
238.858	99.81
239.091	78.81
239.325	105.81
239.559	110.81
239.793	100.81
240.027	105.81
240.26	90.81
240.494	104.81
240.728	91.81
240.961	105.81
241.195	103.81
241.429	99.81
241.662	79.81
241.896	85.81
242.13	89.81
242.363	86.81
242.597	107.81
242.83	97.81
243.064	94.81
243.298	94.81
243.531	87.81
243.765	102.81
243.998	98.81
244.232	100.81
244.465	94.81
244.699	99.81
244.932	92.81
245.166	103.81
245.399	102.81
245.633	106.81
245.866	103.81
246.099	99.81
246.333	92.81
246.566	86.81
246.8	109.81
247.033	97.81
247.266	104.81
247.5	123.81
247.733	96.81
247.966	134.81
248.2	120.81
248.433	107.81
248.666	121.81
248.899	115.81
249.133	104.81
249.366	107.81
249.599	93.81
249.832	107.81
250.066	103.81
250.299	115.81
250.532	119.81
250.765	108.81
250.998	123.81
251.231	107.81
251.465	119.81
251.698	127.81
251.931	119.81
252.164	124.81
252.397	126.81
252.63	123.81
252.863	137.81
253.096	140.81
253.329	127.81
253.562	143.81
253.795	135.81
254.028	148.81
254.261	127.81
254.494	133.81
254.727	139.81
254.96	121.81
255.193	138.81
255.426	128.81
255.659	127.81
255.892	136.81
256.124	143.81
256.357	131.81
256.59	123.81
256.823	119.81
257.056	139.81
257.289	140.81
257.521	141.81
257.754	166.81
257.987	179.81
258.22	149.81
258.452	143.81
258.685	137.81
258.918	146.81
259.151	119.81
259.383	145.81
259.616	135.81
259.849	136.81
260.081	152.81
260.314	154.81
260.547	165.81
260.779	188.81
261.012	220.81
261.244	258.81
261.477	338.81
261.71	334.81
261.942	223.81
262.175	185.81
262.407	165.81
262.64	158.81
262.872	170.81
263.105	169.81
263.337	157.81
263.57	143.81
263.802	147.81
264.035	159.81
264.267	135.81
264.499	152.81
264.732	165.81
264.964	183.81
265.197	171.81
265.429	178.81
265.661	147.81
265.894	165.81
266.126	178.81
266.358	208.81
266.591	230.81
266.823	196.81
267.055	158.81
267.287	141.81
267.52	137.81
267.752	141.81
267.984	133.81
268.216	139.81
268.448	127.81
268.681	137.81
268.913	130.81
269.145	129.81
269.377	136.81
269.609	133.81
269.841	147.81
270.073	148.81
270.306	146.81
270.538	134.81
270.77	149.81
271.002	145.81
271.234	128.81
271.466	133.81
271.698	145.81
271.93	136.81
272.162	137.81
272.394	137.81
272.626	137.81
272.858	149.81
273.09	139.81
273.322	135.81
273.553	146.81
273.785	143.81
274.017	151.81
274.249	148.81
274.481	147.81
274.713	129.81
274.945	139.81
275.176	151.81
275.408	142.81
275.64	133.81
275.872	145.81
276.104	135.81
276.335	157.81
276.567	145.81
276.799	145.81
277.031	161.81
277.262	143.81
277.494	161.81
277.726	171.81
277.957	178.81
278.189	163.81
278.421	174.81
278.652	163.81
278.884	165.81
279.115	205.81
279.347	227.81
279.579	259.81
279.81	349.81
280.042	457.81
280.273	526.81
280.505	446.81
280.736	294.81
280.968	239.81
281.199	213.81
281.431	210.81
281.662	214.81
281.894	222.81
282.125	229.81
282.356	282.81
282.588	245.81
282.819	235.81
283.051	254.81
283.282	345.81
283.513	401.81
283.745	314.81
283.976	229.81
284.207	209.81
284.439	192.81
284.67	177.81
284.901	165.81
285.132	176.81
285.364	172.81
285.595	169.81
285.826	157.81
286.057	193.81
286.288	179.81
286.52	182.81
286.751	201.81
286.982	233.81
287.213	283.81
287.444	338.81
287.675	276.81
287.906	209.81
288.138	187.81
288.369	166.81
288.6	173.81
288.831	167.81
289.062	163.81
289.293	169.81
289.524	145.81
289.755	164.81
289.986	147.81
290.217	170.81
290.448	157.81
290.679	156.81
290.91	153.81
291.141	145.81
291.371	148.81
291.602	138.81
291.833	142.81
292.064	154.81
292.295	157.81
292.526	146.81
292.757	144.81
292.987	173.81
293.218	152.81
293.449	177.81
293.68	167.81
293.91	155.81
294.141	163.81
294.372	154.81
294.603	162.81
294.833	163.81
295.064	169.81
295.295	158.81
295.525	159.81
295.756	147.81
295.987	164.81
296.217	158.81
296.448	161.81
296.679	166.81
296.909	162.81
297.14	166.81
297.37	159.81
297.601	167.81
297.831	169.81
298.062	156.81
298.292	173.81
298.523	164.81
298.753	173.81
298.984	163.81
299.214	171.81
299.445	154.81
299.675	170.81
299.905	154.81
300.136	146.81
300.366	149.81
300.597	167.81
300.827	150.81
301.057	153.81
301.288	156.81
301.518	171.81
301.748	181.81
301.979	177.81
302.209	179.81
302.439	173.81
302.669	175.81
302.9	182.81
303.13	159.81
303.36	170.81
303.59	192.81
303.82	167.81
304.051	173.81
304.281	183.81
304.511	184.81
304.741	180.81
304.971	172.81
305.201	179.81
305.431	171.81
305.661	162.81
305.891	174.81
306.121	179.81
306.352	190.81
306.582	163.81
306.812	161.81
307.042	173.81
307.272	172.81
307.502	182.81
307.731	168.81
307.961	166.81
308.191	177.81
308.421	170.81
308.651	178.81
308.881	151.81
309.111	155.81
309.341	166.81
309.571	158.81
309.8	165.81
310.03	181.81
310.26	177.81
310.49	167.81
310.72	161.81
310.949	171.81
311.179	178.81
311.409	181.81
311.639	187.81
311.868	179.81
312.098	182.81
312.328	204.81
312.557	177.81
312.787	194.81
313.017	205.81
313.246	204.81
313.476	192.81
313.706	214.81
313.935	211.81
314.165	213.81
314.394	197.81
314.624	219.81
314.853	198.81
315.083	216.81
315.312	211.81
315.542	201.81
315.771	207.81
316.001	206.81
316.23	207.81
316.46	214.81
316.689	225.81
316.919	197.81
317.148	207.81
317.377	220.81
317.607	208.81
317.836	202.81
318.065	212.81
318.295	199.81
318.524	189.81
318.753	195.81
318.983	190.81
319.212	188.81
319.441	181.81
319.67	175.81
319.9	187.81
320.129	197.81
320.358	169.81
320.587	185.81
320.816	182.81
321.046	197.81
321.275	187.81
321.504	188.81
321.733	177.81
321.962	197.81
322.191	187.81
322.42	201.81
322.649	192.81
322.878	180.81
323.108	154.81
323.337	187.81
323.566	177.81
323.795	190.81
324.024	195.81
324.253	181.81
324.482	194.81
324.71	187.81
324.939	189.81
325.168	192.81
325.397	177.81
325.626	186.81
325.855	169.81
326.084	192.81
326.313	186.81
326.542	185.81
326.77	196.81
326.999	189.81
327.228	197.81
327.457	193.81
327.686	183.81
327.914	190.81
328.143	199.81
328.372	170.81
328.6	188.81
328.829	174.81
329.058	193.81
329.287	201.81
329.515	175.81
329.744	195.81
329.972	191.81
330.201	166.81
330.43	189.81
330.658	183.81
330.887	189.81
331.115	199.81
331.344	191.81
331.572	185.81
331.801	204.81
332.03	199.81
332.258	188.81
332.486	179.81
332.715	197.81
332.943	193.81
333.172	199.81
333.4	210.81
333.629	210.81
333.857	211.81
334.085	187.81
334.314	188.81
334.542	187.81
334.771	209.81
334.999	188.81
335.227	203.81
335.455	187.81
335.684	183.81
335.912	199.81
336.14	189.81
336.369	180.81
336.597	197.81
336.825	201.81
337.053	191.81
337.281	194.81
337.51	192.81
337.738	198.81
337.966	184.81
338.194	175.81
338.422	197.81
338.65	179.81
338.878	177.81
339.106	195.81
339.334	181.81
339.562	191.81
339.79	193.81
340.018	179.81
340.246	178.81
340.474	189.81
340.702	175.81
340.93	202.81
341.158	196.81
341.386	188.81
341.614	178.81
341.842	194.81
342.07	179.81
342.298	187.81
342.526	189.81
342.754	182.81
342.981	171.81
343.209	196.81
343.437	184.81
343.665	204.81
343.893	196.81
344.12	206.81
344.348	185.81
344.576	198.81
344.804	200.81
345.031	175.81
345.259	186.81
345.487	209.81
345.714	193.81
345.942	174.81
346.17	202.81
346.397	177.81
346.625	205.81
346.853	202.81
347.08	177.81
347.308	193.81
347.535	195.81
347.763	175.81
347.99	191.81
348.218	181.81
348.445	188.81
348.673	187.81
348.9	178.81
349.128	182.81
349.355	187.81
349.583	197.81
349.81	191.81
350.037	190.81
350.265	188.81
350.492	198.81
350.72	184.81
350.947	189.81
351.174	187.81
351.402	181.81
351.629	181.81
351.856	191.81
352.083	178.81
352.311	184.81
352.538	191.81
352.765	193.81
352.992	192.81
353.22	192.81
353.447	185.81
353.674	181.81
353.901	197.81
354.128	180.81
354.355	191.81
354.583	190.81
354.81	188.81
355.037	190.81
355.264	186.81
355.491	197.81
355.718	210.81
355.945	202.81
356.172	216.81
356.399	229.81
356.626	241.81
356.853	323.81
357.08	443.81
357.307	566.81
357.534	568.81
357.761	401.81
357.988	311.81
358.215	278.81
358.441	248.81
358.668	241.81
358.895	244.81
359.122	216.81
359.349	218.81
359.576	201.81
359.802	215.81
360.029	213.81
360.256	208.81
360.483	200.81
360.709	208.81
360.936	234.81
361.163	205.81
361.39	201.81
361.616	210.81
361.843	225.81
362.07	229.81
362.296	219.81
362.523	215.81
362.749	233.81
362.976	234.81
363.203	266.81
363.429	309.81
363.656	434.81
363.882	623.81
364.109	750.81
364.335	525.81
364.562	353.81
364.788	285.81
365.015	256.81
365.241	246.81
365.468	228.81
365.694	226.81
365.92	231.81
366.147	236.81
366.373	213.81
366.599	259.81
366.826	259.81
367.052	295.81
367.278	346.81
367.505	338.81
367.731	357.81
367.957	485.81
368.184	761.81
368.41	1001.81
368.636	839.81
368.862	521.81
369.089	377.81
369.315	323.81
369.541	285.81
369.767	254.81
369.993	254.81
370.219	234.81
370.445	231.81
370.672	227.81
370.898	226.81
371.124	219.81
371.35	216.81
371.576	225.81
371.802	235.81
372.028	229.81
372.254	222.81
372.48	230.81
372.706	229.81
372.932	240.81
373.158	246.81
373.384	291.81
373.61	347.81
373.835	483.81
374.061	621.81
374.287	556.81
374.513	373.81
374.739	297.81
374.965	274.81
375.191	239.81
375.416	243.81
375.642	239.81
375.868	227.81
376.094	223.81
376.319	212.81
376.545	195.81
376.771	210.81
376.997	205.81
377.222	207.81
377.448	209.81
377.674	213.81
377.899	198.81
378.125	216.81
378.35	217.81
378.576	220.81
378.802	231.81
379.027	215.81
379.253	215.81
379.478	212.81
379.704	207.81
379.929	219.81
380.155	195.81
380.38	198.81
380.606	201.81
380.831	221.81
381.057	206.81
381.282	191.81
381.507	204.81
381.733	202.81
381.958	197.81
382.184	205.81
382.409	202.81
382.634	210.81
382.86	205.81
383.085	226.81
383.31	199.81
383.535	217.81
383.761	209.81
383.986	220.81
384.211	215.81
384.436	209.81
384.662	206.81
384.887	220.81
385.112	234.81
385.337	213.81
385.562	203.81
385.787	213.81
386.013	232.81
386.238	211.81
386.463	218.81
386.688	235.81
386.913	219.81
387.138	214.81
387.363	217.81
387.588	218.81
387.813	214.81
388.038	201.81
388.263	207.81
388.488	203.81
388.713	211.81
388.938	217.81
389.163	212.81
389.387	211.81
389.612	208.81
389.837	222.81
390.062	207.81
390.287	218.81
390.512	210.81
390.736	209.81
390.961	209.81
391.186	220.81
391.411	229.81
391.636	225.81
391.86	219.81
392.085	220.81
392.31	218.81
392.534	224.81
392.759	217.81
392.984	229.81
393.208	225.81
393.433	238.81
393.658	234.81
393.882	243.81
394.107	226.81
394.331	202.81
394.556	196.81
394.78	211.81
395.005	211.81
395.229	209.81
395.454	216.81
395.678	223.81
395.903	219.81
396.127	218.81
396.352	228.81
396.576	229.81
396.801	234.81
397.025	227.81
397.249	226.81
397.474	219.81
397.698	220.81
397.922	238.81
398.147	220.81
398.371	210.81
398.595	218.81
398.82	226.81
399.044	244.81
399.268	258.81
399.492	254.81
399.717	255.81
399.941	248.81
400.165	266.81
400.389	241.81
400.613	246.81
400.837	231.81
401.062	255.81
401.286	250.81
401.51	243.81
401.734	275.81
401.958	304.81
402.182	308.81
402.406	246.81
402.63	232.81
402.854	265.81
403.078	247.81
403.302	259.81
403.526	270.81
403.75	262.81
403.974	258.81
404.198	288.81
404.422	283.81
404.645	303.81
404.869	324.81
405.093	375.81
405.317	511.81
405.541	820.81
405.765	1325.81
405.988	1551.81
406.212	1053.81
406.436	721.81
406.66	478.81
406.883	403.81
407.107	375.81
407.331	339.81
407.555	319.81
407.778	298.81
408.002	285.81
408.226	277.81
408.449	269.81
408.673	262.81
408.896	265.81
409.12	279.81
409.344	274.81
409.567	250.81
409.791	249.81
410.014	252.81
410.238	254.81
410.461	251.81
410.685	252.81
410.908	247.81
411.132	250.81
411.355	245.81
411.578	244.81
411.802	254.81
412.025	251.81
412.249	242.81
412.472	234.81
412.695	239.81
412.919	242.81
413.142	233.81
413.365	237.81
413.589	238.81
413.812	248.81
414.035	228.81
414.258	240.81
414.482	239.81
414.705	231.81
414.928	242.81
415.151	242.81
415.374	233.81
415.597	254.81
415.821	215.81
416.044	238.81
416.267	229.81
416.49	251.81
416.713	263.81
416.936	273.81
417.159	235.81
417.382	261.81
417.605	246.81
417.828	239.81
418.051	233.81
418.274	230.81
418.497	227.81
418.72	232.81
418.943	222.81
419.166	249.81
419.389	262.81
419.611	251.81
419.834	222.81
420.057	230.81
420.28	245.81
420.503	237.81
420.726	231.81
420.948	248.81
421.171	246.81
421.394	244.81
421.617	256.81
421.839	255.81
422.062	259.81
422.285	257.81
422.507	262.81
422.73	284.81
422.953	284.81
423.175	275.81
423.398	312.81
423.621	342.81
423.843	352.81
424.066	419.81
424.288	493.81
424.511	619.81
424.733	704.81
424.956	623.81
425.178	517.81
425.401	451.81
425.623	424.81
425.846	366.81
426.068	361.81
426.291	330.81
426.513	318.81
426.735	319.81
426.958	307.81
427.18	280.81
427.402	268.81
427.625	289.81
427.847	256.81
428.069	252.81
428.292	251.81
428.514	254.81
428.736	260.81
428.958	267.81
429.181	259.81
429.403	264.81
429.625	231.81
429.847	229.81
430.069	231.81
430.292	248.81
430.514	233.81
430.736	237.81
430.958	239.81
431.18	243.81
431.402	250.81
431.624	242.81
431.846	243.81
432.068	228.81
432.29	235.81
432.512	252.81
432.734	235.81
432.956	236.81
433.178	230.81
433.4	261.81
433.622	247.81
433.844	263.81
434.066	263.81
434.287	272.81
434.509	258.81
434.731	237.81
434.953	257.81
435.175	246.81
435.397	257.81
435.618	246.81
435.84	252.81
436.062	259.81
436.284	254.81
436.505	242.81
436.727	266.81
436.949	262.81
437.17	289.81
437.392	304.81
437.614	298.81
437.835	332.81
438.057	335.81
438.278	387.81
438.5	469.81
438.721	571.81
438.943	613.81
439.165	538.81
439.386	477.81
439.608	446.81
439.829	400.81
440.05	382.81
440.272	374.81
440.493	409.81
440.715	421.81
440.936	451.81
441.158	437.81
441.379	373.81
441.6	362.81
441.822	325.81
442.043	310.81
442.264	297.81
442.486	286.81
442.707	286.81
442.928	280.81
443.149	276.81
443.371	259.81
443.592	270.81
443.813	260.81
444.034	267.81
444.255	274.81
444.476	274.81
444.698	258.81
444.919	249.81
445.14	312.81
445.361	278.81
445.582	255.81
445.803	231.81
446.024	238.81
446.245	235.81
446.466	250.81
446.687	248.81
446.908	244.81
447.129	237.81
447.35	234.81
447.571	223.81
447.792	225.81
448.013	225.81
448.234	216.81
448.455	221.81
448.675	230.81
448.896	207.81
449.117	232.81
449.338	223.81
449.559	233.81
449.779	216.81
450	219.81
450.221	218.81
450.442	227.81
450.662	210.81
450.883	219.81
451.104	219.81
451.324	217.81
451.545	210.81
451.766	216.81
451.986	207.81
452.207	205.81
452.428	206.81
452.648	202.81
452.869	202.81
453.089	210.81
453.31	210.81
453.53	220.81
453.751	202.81
453.971	217.81
454.192	202.81
454.412	201.81
454.633	200.81
454.853	190.81
455.073	207.81
455.294	221.81
455.514	202.81
455.734	207.81
455.955	203.81
456.175	193.81
456.395	175.81
456.616	196.81
456.836	197.81
457.056	165.81
457.276	190.81
457.497	208.81
457.717	206.81
457.937	204.81
458.157	213.81
458.377	192.81
458.598	190.81
458.818	202.81
459.038	203.81
459.258	201.81
459.478	218.81
459.698	212.81
459.918	217.81
460.138	207.81
460.358	226.81
460.578	227.81
460.798	212.81
461.018	203.81
461.238	221.81
461.458	236.81
461.678	229.81
461.898	235.81
462.118	213.81
462.338	234.81
462.558	231.81
462.777	243.81
462.997	237.81
463.217	233.81
463.437	249.81
463.657	220.81
463.876	210.81
464.096	227.81
464.316	221.81
464.536	209.81
464.755	229.81
464.975	218.81
465.195	234.81
465.414	220.81
465.634	216.81
465.854	210.81
466.073	201.81
466.293	209.81
466.512	219.81
466.732	221.81
466.951	214.81
467.171	230.81
467.391	212.81
467.61	199.81
467.829	196.81
468.049	218.81
468.268	216.81
468.488	212.81
468.707	214.81
468.927	207.81
469.146	189.81
469.365	213.81
469.585	221.81
469.804	208.81
470.023	211.81
470.243	208.81
470.462	229.81
470.681	202.81
470.901	205.81
471.12	211.81
471.339	210.81
471.558	220.81
471.777	213.81
471.997	192.81
472.216	203.81
472.435	197.81
472.654	197.81
472.873	203.81
473.092	210.81
473.311	198.81
473.53	197.81
473.749	226.81
473.968	206.81
474.187	211.81
474.406	211.81
474.625	202.81
474.844	203.81
475.063	218.81
475.282	211.81
475.501	211.81
475.72	214.81
475.939	206.81
476.158	219.81
476.377	218.81
476.596	197.81
476.814	221.81
477.033	225.81
477.252	220.81
477.471	222.81
477.69	227.81
477.908	241.81
478.127	238.81
478.346	251.81
478.564	257.81
478.783	248.81
479.002	264.81
479.22	256.81
479.439	248.81
479.658	234.81
479.876	241.81
480.095	253.81
480.313	261.81
480.532	249.81
480.751	260.81
480.969	231.81
481.188	247.81
481.406	242.81
481.624	232.81
481.843	250.81
482.061	247.81
482.28	259.81
482.498	248.81
482.717	253.81
482.935	232.81
483.153	233.81
483.372	229.81
483.59	238.81
483.808	225.81
484.027	241.81
484.245	226.81
484.463	248.81
484.681	231.81
484.9	236.81
485.118	223.81
485.336	244.81
485.554	246.81
485.772	242.81
485.99	235.81
486.209	254.81
486.427	231.81
486.645	253.81
486.863	241.81
487.081	247.81
487.299	254.81
487.517	234.81
487.735	234.81
487.953	249.81
488.171	241.81
488.389	251.81
488.607	235.81
488.825	236.81
489.043	244.81
489.261	247.81
489.479	253.81
489.696	260.81
489.914	220.81
490.132	237.81
490.35	233.81
490.568	231.81
490.786	243.81
491.003	244.81
491.221	246.81
491.439	250.81
491.657	237.81
491.874	270.81
492.092	263.81
492.31	253.81
492.527	263.81
492.745	265.81
492.963	255.81
493.18	252.81
493.398	262.81
493.615	231.81
493.833	249.81
494.05	257.81
494.268	259.81
494.485	252.81
494.703	249.81
494.92	248.81
495.138	258.81
495.355	269.81
495.573	289.81
495.79	269.81
496.008	286.81
496.225	269.81
496.442	264.81
496.66	271.81
496.877	275.81
497.094	255.81
497.312	268.81
497.529	287.81
497.746	281.81
497.963	276.81
498.181	290.81
498.398	307.81
498.615	310.81
498.832	303.81
499.049	319.81
499.267	318.81
499.484	312.81
499.701	355.81
499.918	360.81
500.135	375.81
500.352	414.81
500.569	470.81
500.786	509.81
501.003	418.81
501.22	403.81
501.437	371.81
501.654	353.81
501.871	348.81
502.088	327.81
502.305	321.81
502.522	317.81
502.739	311.81
502.956	316.81
503.172	307.81
503.389	296.81
503.606	306.81
