Data from StdB_HRD10591_054.txt Node
Date: Fri May 16 15:25:13 EDT 2025
User: Yrep
Spectrometer: HR+D1059
Trigger mode: 1
Integration Time (sec): 1.000000E-1
Scans to average: 1
Electric dark correction enabled: true
Nonlinearity correction enabled: false
Boxcar width: 0
XAxis mode: Wavelengths
Number of Pixels in Spectrum: 2048
>>>>>Begin Spectral Data<<<<<
223.165	-23.69
223.4	-23.69
223.635	-23.69
223.869	-19.69
224.104	-30.69
224.338	-17.69
224.573	-9.69
224.808	-9.69
225.042	1.31
225.277	-7.69
225.511	-1.69
225.746	6.31
225.98	9.31
226.215	18.31
226.449	16.31
226.683	19.31
226.918	27.31
227.152	22.31
227.387	39.31
227.621	31.31
227.856	37.31
228.09	42.31
228.324	42.31
228.559	46.31
228.793	58.31
229.027	70.31
229.262	68.31
229.496	63.31
229.73	63.31
229.964	74.31
230.199	81.31
230.433	80.31
230.667	70.31
230.901	81.31
231.136	63.31
231.37	70.31
231.604	76.31
231.838	75.31
232.072	89.31
232.306	79.31
232.541	76.31
232.775	67.31
233.009	73.31
233.243	76.31
233.477	73.31
233.711	73.31
233.945	66.31
234.179	73.31
234.413	67.31
234.647	71.31
234.881	85.31
235.115	71.31
235.349	84.31
235.583	66.31
235.817	55.31
236.051	61.31
236.285	71.31
236.519	71.31
236.753	79.31
236.987	73.31
237.221	69.31
237.455	70.31
237.689	77.31
237.922	67.31
238.156	61.31
238.39	78.31
238.624	67.31
238.858	85.31
239.091	73.31
239.325	81.31
239.559	90.31
239.793	70.31
240.027	77.31
240.26	65.31
240.494	63.31
240.728	61.31
240.961	66.31
241.195	73.31
241.429	74.31
241.662	88.31
241.896	77.31
242.13	69.31
242.363	79.31
242.597	73.31
242.83	74.31
243.064	69.31
243.298	77.31
243.531	82.31
243.765	90.31
243.998	81.31
244.232	76.31
244.465	70.31
244.699	71.31
244.932	71.31
245.166	67.31
245.399	76.31
245.633	84.31
245.866	74.31
246.099	72.31
246.333	71.31
246.566	69.31
246.8	80.31
247.033	60.31
247.266	75.31
247.5	75.31
247.733	79.31
247.966	73.31
248.2	68.31
248.433	67.31
248.666	60.31
248.899	63.31
249.133	75.31
249.366	82.31
249.599	73.31
249.832	66.31
250.066	76.31
250.299	79.31
250.532	63.31
250.765	84.31
250.998	93.31
251.231	59.31
251.465	70.31
251.698	77.31
251.931	77.31
252.164	98.31
252.397	87.31
252.63	85.31
252.863	77.31
253.096	71.31
253.329	77.31
253.562	86.31
253.795	78.31
254.028	77.31
254.261	71.31
254.494	97.31
254.727	75.31
254.96	76.31
255.193	63.31
255.426	63.31
255.659	75.31
255.892	85.31
256.124	77.31
256.357	85.31
256.59	81.31
256.823	71.31
257.056	71.31
257.289	92.31
257.521	83.31
257.754	67.31
257.987	78.31
258.22	86.31
258.452	81.31
258.685	70.31
258.918	83.31
259.151	80.31
259.383	87.31
259.616	73.31
259.849	71.31
260.081	79.31
260.314	83.31
260.547	83.31
260.779	83.31
261.012	83.31
261.244	82.31
261.477	83.31
261.71	86.31
261.942	76.31
262.175	69.31
262.407	82.31
262.64	85.31
262.872	81.31
263.105	77.31
263.337	71.31
263.57	72.31
263.802	66.31
264.035	67.31
264.267	63.31
264.499	69.31
264.732	82.31
264.964	102.31
265.197	78.31
265.429	80.31
265.661	82.31
265.894	89.31
266.126	77.31
266.358	90.31
266.591	64.31
266.823	89.31
267.055	77.31
267.287	71.31
267.52	77.31
267.752	82.31
267.984	82.31
268.216	83.31
268.448	81.31
268.681	70.31
268.913	82.31
269.145	68.31
269.377	77.31
269.609	84.31
269.841	80.31
270.073	78.31
270.306	81.31
270.538	70.31
270.77	63.31
271.002	67.31
271.234	85.31
271.466	70.31
271.698	83.31
271.93	92.31
272.162	94.31
272.394	72.31
272.626	73.31
272.858	62.31
273.09	69.31
273.322	79.31
273.553	73.31
273.785	82.31
274.017	83.31
274.249	96.31
274.481	81.31
274.713	75.31
274.945	89.31
275.176	88.31
275.408	69.31
275.64	76.31
275.872	74.31
276.104	86.31
276.335	77.31
276.567	84.31
276.799	87.31
277.031	70.31
277.262	67.31
277.494	86.31
277.726	82.31
277.957	86.31
278.189	70.31
278.421	82.31
278.652	93.31
278.884	89.31
279.115	75.31
279.347	82.31
279.579	76.31
279.81	98.31
280.042	100.31
280.273	112.31
280.505	90.31
280.736	67.31
280.968	91.31
281.199	94.31
281.431	82.31
281.662	71.31
281.894	81.31
282.125	80.31
282.356	95.31
282.588	97.31
282.819	81.31
283.051	100.31
283.282	109.31
283.513	93.31
283.745	86.31
283.976	97.31
284.207	76.31
284.439	78.31
284.67	83.31
284.901	97.31
285.132	92.31
285.364	92.31
285.595	77.31
285.826	90.31
286.057	82.31
286.288	78.31
286.52	63.31
286.751	83.31
286.982	67.31
287.213	114.31
287.444	94.31
287.675	101.31
287.906	75.31
288.138	90.31
288.369	67.31
288.6	86.31
288.831	70.31
289.062	98.31
289.293	76.31
289.524	83.31
289.755	83.31
289.986	93.31
290.217	63.31
290.448	97.31
290.679	83.31
290.91	90.31
291.141	82.31
291.371	84.31
291.602	71.31
291.833	70.31
292.064	75.31
292.295	83.31
292.526	80.31
292.757	74.31
292.987	81.31
293.218	66.31
293.449	77.31
293.68	82.31
293.91	85.31
294.141	68.31
294.372	84.31
294.603	71.31
294.833	82.31
295.064	83.31
295.295	84.31
295.525	85.31
295.756	77.31
295.987	77.31
296.217	76.31
296.448	78.31
296.679	74.31
296.909	84.31
297.14	93.31
297.37	82.31
297.601	83.31
297.831	73.31
298.062	92.31
298.292	88.31
298.523	79.31
298.753	74.31
298.984	93.31
299.214	85.31
299.445	76.31
299.675	89.31
299.905	79.31
300.136	58.31
300.366	76.31
300.597	72.31
300.827	76.31
301.057	74.31
301.288	74.31
301.518	83.31
301.748	71.31
301.979	82.31
302.209	84.31
302.439	77.31
302.669	77.31
302.9	84.31
303.13	77.31
303.36	89.31
303.59	72.31
303.82	82.31
304.051	103.31
304.281	74.31
304.511	94.31
304.741	79.31
304.971	75.31
305.201	81.31
305.431	81.31
305.661	69.31
305.891	89.31
306.121	85.31
306.352	88.31
306.582	78.31
306.812	79.31
307.042	69.31
307.272	83.31
307.502	81.31
307.731	99.31
307.961	77.31
308.191	90.31
308.421	73.31
308.651	84.31
308.881	94.31
309.111	80.31
309.341	93.31
309.571	73.31
309.8	87.31
310.03	94.31
310.26	94.31
310.49	77.31
310.72	86.31
310.949	83.31
311.179	77.31
311.409	80.31
311.639	79.31
311.868	82.31
312.098	99.31
312.328	80.31
312.557	73.31
312.787	70.31
313.017	78.31
313.246	78.31
313.476	81.31
313.706	90.31
313.935	74.31
314.165	79.31
314.394	74.31
314.624	82.31
314.853	89.31
315.083	85.31
315.312	94.31
315.542	92.31
315.771	91.31
316.001	101.31
316.23	87.31
316.46	93.31
316.689	83.31
316.919	83.31
317.148	69.31
317.377	87.31
317.607	85.31
317.836	87.31
318.065	94.31
318.295	73.31
318.524	91.31
318.753	69.31
318.983	67.31
319.212	72.31
319.441	88.31
319.67	81.31
319.9	76.31
320.129	89.31
320.358	89.31
320.587	91.31
320.816	63.31
321.046	89.31
321.275	90.31
321.504	83.31
321.733	77.31
321.962	82.31
322.191	67.31
322.42	85.31
322.649	79.31
322.878	83.31
323.108	77.31
323.337	74.31
323.566	83.31
323.795	81.31
324.024	88.31
324.253	82.31
324.482	77.31
324.71	78.31
324.939	70.31
325.168	78.31
325.397	80.31
325.626	86.31
325.855	77.31
326.084	81.31
326.313	76.31
326.542	83.31
326.77	68.31
326.999	79.31
327.228	76.31
327.457	75.31
327.686	76.31
327.914	82.31
328.143	81.31
328.372	86.31
328.6	77.31
328.829	83.31
329.058	73.31
329.287	80.31
329.515	85.31
329.744	77.31
329.972	78.31
330.201	83.31
330.43	84.31
330.658	75.31
330.887	78.31
331.115	66.31
331.344	79.31
331.572	89.31
331.801	76.31
332.03	82.31
332.258	78.31
332.486	83.31
332.715	80.31
332.943	81.31
333.172	83.31
333.4	78.31
333.629	99.31
333.857	99.31
334.085	84.31
334.314	89.31
334.542	79.31
334.771	81.31
334.999	101.31
335.227	75.31
335.455	86.31
335.684	81.31
335.912	78.31
336.14	94.31
336.369	78.31
336.597	72.31
336.825	66.31
337.053	73.31
337.281	85.31
337.51	88.31
337.738	78.31
337.966	75.31
338.194	83.31
338.422	78.31
338.65	75.31
338.878	67.31
339.106	96.31
339.334	81.31
339.562	78.31
339.79	77.31
340.018	83.31
340.246	77.31
340.474	83.31
340.702	74.31
340.93	71.31
341.158	90.31
341.386	68.31
341.614	71.31
341.842	73.31
342.07	83.31
342.298	79.31
342.526	81.31
342.754	76.31
342.981	81.31
343.209	69.31
343.437	82.31
343.665	69.31
343.893	80.31
344.12	85.31
344.348	84.31
344.576	75.31
344.804	77.31
345.031	80.31
345.259	85.31
345.487	80.31
345.714	90.31
345.942	78.31
346.17	86.31
346.397	87.31
346.625	75.31
346.853	82.31
347.08	74.31
347.308	78.31
347.535	77.31
347.763	81.31
347.99	105.31
348.218	85.31
348.445	76.31
348.673	92.31
348.9	88.31
349.128	70.31
349.355	80.31
349.583	82.31
349.81	77.31
350.037	82.31
350.265	91.31
350.492	76.31
350.72	76.31
350.947	74.31
351.174	68.31
351.402	86.31
351.629	94.31
351.856	93.31
352.083	78.31
352.311	75.31
352.538	80.31
352.765	80.31
352.992	88.31
353.22	73.31
353.447	83.31
353.674	77.31
353.901	87.31
354.128	78.31
354.355	76.31
354.583	78.31
354.81	75.31
355.037	87.31
355.264	81.31
355.491	79.31
355.718	75.31
355.945	87.31
356.172	90.31
356.399	99.31
356.626	92.31
356.853	96.31
357.08	127.31
357.307	155.31
357.534	140.31
357.761	84.31
357.988	98.31
358.215	94.31
358.441	89.31
358.668	97.31
358.895	102.31
359.122	73.31
359.349	63.31
359.576	69.31
359.802	77.31
360.029	82.31
360.256	86.31
360.483	71.31
360.709	70.31
360.936	103.31
361.163	94.31
361.39	91.31
361.616	78.31
361.843	93.31
362.07	75.31
362.296	88.31
362.523	72.31
362.749	81.31
362.976	94.31
363.203	101.31
363.429	103.31
363.656	133.31
363.882	173.31
364.109	201.31
364.335	124.31
364.562	103.31
364.788	83.31
365.015	66.31
365.241	72.31
365.468	76.31
365.694	82.31
365.92	88.31
366.147	78.31
366.373	79.31
366.599	79.31
366.826	90.31
367.052	113.31
367.278	135.31
367.505	97.31
367.731	103.31
367.957	117.31
368.184	192.31
368.41	254.31
368.636	210.31
368.862	89.31
369.089	76.31
369.315	71.31
369.541	87.31
369.767	99.31
369.993	94.31
370.219	91.31
370.445	87.31
370.672	95.31
370.898	90.31
371.124	64.31
371.35	74.31
371.576	83.31
371.802	73.31
372.028	74.31
372.254	78.31
372.48	95.31
372.706	94.31
372.932	79.31
373.158	83.31
373.384	76.31
373.61	86.31
373.835	126.31
374.061	140.31
374.287	119.31
374.513	90.31
374.739	77.31
374.965	83.31
375.191	79.31
375.416	88.31
375.642	84.31
375.868	84.31
376.094	92.31
376.319	83.31
376.545	71.31
376.771	64.31
376.997	97.31
377.222	72.31
377.448	79.31
377.674	75.31
377.899	62.31
378.125	67.31
378.35	85.31
378.576	101.31
378.802	80.31
379.027	74.31
379.253	81.31
379.478	79.31
379.704	91.31
379.929	77.31
380.155	93.31
380.38	83.31
380.606	75.31
380.831	94.31
381.057	87.31
381.282	83.31
381.507	83.31
381.733	81.31
381.958	76.31
382.184	71.31
382.409	83.31
382.634	84.31
382.86	85.31
383.085	74.31
383.31	88.31
383.535	93.31
383.761	72.31
383.986	68.31
384.211	90.31
384.436	85.31
384.662	75.31
384.887	82.31
385.112	91.31
385.337	71.31
385.562	90.31
385.787	85.31
386.013	81.31
386.238	71.31
386.463	82.31
386.688	73.31
386.913	81.31
387.138	86.31
387.363	75.31
387.588	87.31
387.813	71.31
388.038	83.31
388.263	69.31
388.488	76.31
388.713	78.31
388.938	84.31
389.163	81.31
389.387	69.31
389.612	76.31
389.837	64.31
390.062	85.31
390.287	90.31
390.512	75.31
390.736	67.31
390.961	77.31
391.186	80.31
391.411	81.31
391.636	67.31
391.86	71.31
392.085	91.31
392.31	85.31
392.534	92.31
392.759	79.31
392.984	75.31
393.208	70.31
393.433	83.31
393.658	107.31
393.882	77.31
394.107	86.31
394.331	84.31
394.556	76.31
394.78	82.31
395.005	79.31
395.229	99.31
395.454	76.31
395.678	76.31
395.903	85.31
396.127	85.31
396.352	79.31
396.576	81.31
396.801	75.31
397.025	72.31
397.249	87.31
397.474	96.31
397.698	71.31
397.922	87.31
398.147	70.31
398.371	75.31
398.595	77.31
398.82	77.31
399.044	76.31
399.268	95.31
399.492	74.31
399.717	78.31
399.941	84.31
400.165	81.31
400.389	89.31
400.613	84.31
400.837	83.31
401.062	72.31
401.286	68.31
401.51	67.31
401.734	103.31
401.958	93.31
402.182	92.31
402.406	91.31
402.63	94.31
402.854	76.31
403.078	76.31
403.302	81.31
403.526	83.31
403.75	75.31
403.974	91.31
404.198	76.31
404.422	97.31
404.645	92.31
404.869	87.31
405.093	97.31
405.317	121.31
405.541	229.31
405.765	372.31
405.988	392.31
406.212	227.31
406.436	126.31
406.66	97.31
406.883	78.31
407.107	87.31
407.331	69.31
407.555	86.31
407.778	82.31
408.002	95.31
408.226	88.31
408.449	81.31
408.673	76.31
408.896	83.31
409.12	76.31
409.344	94.31
409.567	68.31
409.791	78.31
410.014	79.31
410.238	83.31
410.461	69.31
410.685	86.31
410.908	78.31
411.132	82.31
411.355	74.31
411.578	82.31
411.802	75.31
412.025	75.31
412.249	77.31
412.472	75.31
412.695	86.31
412.919	77.31
413.142	85.31
413.365	80.31
413.589	83.31
413.812	68.31
414.035	88.31
414.258	74.31
414.482	76.31
414.705	91.31
414.928	78.31
415.151	74.31
415.374	69.31
415.597	74.31
415.821	79.31
416.044	84.31
416.267	77.31
416.49	79.31
416.713	91.31
416.936	105.31
417.159	82.31
417.382	73.31
417.605	79.31
417.828	64.31
418.051	84.31
418.274	73.31
418.497	78.31
418.72	99.31
418.943	84.31
419.166	77.31
419.389	97.31
419.611	88.31
419.834	83.31
420.057	95.31
420.28	90.31
420.503	89.31
420.726	76.31
420.948	84.31
421.171	77.31
421.394	75.31
421.617	75.31
421.839	85.31
422.062	81.31
422.285	74.31
422.507	77.31
422.73	73.31
422.953	74.31
423.175	80.31
423.398	69.31
423.621	74.31
423.843	78.31
424.066	81.31
424.288	81.31
424.511	77.31
424.733	85.31
424.956	78.31
425.178	85.31
425.401	85.31
425.623	73.31
425.846	86.31
426.068	89.31
426.291	78.31
426.513	86.31
426.735	81.31
426.958	81.31
427.18	73.31
427.402	79.31
427.625	59.31
427.847	73.31
428.069	81.31
428.292	73.31
428.514	75.31
428.736	83.31
428.958	79.31
429.181	81.31
429.403	63.31
429.625	76.31
429.847	84.31
430.069	82.31
430.292	84.31
430.514	84.31
430.736	69.31
430.958	86.31
431.18	61.31
431.402	84.31
431.624	78.31
431.846	77.31
432.068	77.31
432.29	81.31
432.512	68.31
432.734	73.31
432.956	78.31
433.178	73.31
433.4	72.31
433.622	87.31
433.844	73.31
434.066	84.31
434.287	72.31
434.509	75.31
434.731	57.31
434.953	73.31
435.175	54.31
435.397	88.31
435.618	86.31
435.84	77.31
436.062	68.31
436.284	88.31
436.505	76.31
436.727	61.31
436.949	86.31
437.17	90.31
437.392	68.31
437.614	87.31
437.835	81.31
438.057	78.31
438.278	74.31
438.5	81.31
438.721	80.31
438.943	84.31
439.165	75.31
439.386	92.31
439.608	91.31
439.829	83.31
440.05	84.31
440.272	78.31
440.493	79.31
440.715	79.31
440.936	92.31
441.158	87.31
441.379	81.31
441.6	80.31
441.822	90.31
442.043	76.31
442.264	90.31
442.486	71.31
442.707	77.31
442.928	71.31
443.149	81.31
443.371	73.31
443.592	84.31
443.813	68.31
444.034	76.31
444.255	74.31
444.476	69.31
444.698	69.31
444.919	69.31
445.14	150.31
445.361	113.31
445.582	85.31
445.803	78.31
446.024	75.31
446.245	87.31
446.466	87.31
446.687	79.31
446.908	78.31
447.129	76.31
447.35	66.31
447.571	83.31
447.792	80.31
448.013	91.31
448.234	88.31
448.455	87.31
448.675	75.31
448.896	71.31
449.117	74.31
449.338	83.31
449.559	81.31
449.779	75.31
450	64.31
450.221	74.31
450.442	78.31
450.662	75.31
450.883	76.31
451.104	91.31
451.324	74.31
451.545	70.31
451.766	86.31
451.986	85.31
452.207	98.31
452.428	74.31
452.648	85.31
452.869	72.31
453.089	90.31
453.31	83.31
453.53	74.31
453.751	69.31
453.971	60.31
454.192	74.31
454.412	82.31
454.633	73.31
454.853	71.31
455.073	71.31
455.294	69.31
455.514	78.31
455.734	93.31
455.955	87.31
456.175	83.31
456.395	78.31
456.616	65.31
456.836	75.31
457.056	76.31
457.276	77.31
457.497	76.31
457.717	72.31
457.937	71.31
458.157	73.31
458.377	92.31
458.598	86.31
458.818	68.31
459.038	75.31
459.258	75.31
459.478	80.31
459.698	73.31
459.918	75.31
460.138	77.31
460.358	71.31
460.578	74.31
460.798	74.31
461.018	95.31
461.238	79.31
461.458	83.31
461.678	87.31
461.898	81.31
462.118	84.31
462.338	76.31
462.558	75.31
462.777	79.31
462.997	78.31
463.217	84.31
463.437	72.31
463.657	82.31
463.876	71.31
464.096	69.31
464.316	86.31
464.536	82.31
464.755	83.31
464.975	73.31
465.195	89.31
465.414	81.31
465.634	81.31
465.854	90.31
466.073	83.31
466.293	75.31
466.512	90.31
466.732	85.31
466.951	71.31
467.171	84.31
467.391	69.31
467.61	80.31
467.829	69.31
468.049	79.31
468.268	76.31
468.488	72.31
468.707	66.31
468.927	79.31
469.146	84.31
469.365	90.31
469.585	84.31
469.804	92.31
470.023	73.31
470.243	89.31
470.462	83.31
470.681	87.31
470.901	68.31
471.12	71.31
471.339	84.31
471.558	83.31
471.777	79.31
471.997	85.31
472.216	74.31
472.435	71.31
472.654	71.31
472.873	91.31
473.092	76.31
473.311	77.31
473.53	87.31
473.749	74.31
473.968	79.31
474.187	66.31
474.406	77.31
474.625	84.31
474.844	87.31
475.063	85.31
475.282	74.31
475.501	83.31
475.72	92.31
475.939	81.31
476.158	73.31
476.377	80.31
476.596	73.31
476.814	79.31
477.033	82.31
477.252	76.31
477.471	92.31
477.69	90.31
477.908	81.31
478.127	85.31
478.346	73.31
478.564	80.31
478.783	89.31
479.002	78.31
479.22	92.31
479.439	90.31
479.658	76.31
479.876	86.31
480.095	78.31
480.313	73.31
480.532	86.31
480.751	75.31
480.969	81.31
481.188	92.31
481.406	95.31
481.624	77.31
481.843	72.31
482.061	70.31
482.28	88.31
482.498	81.31
482.717	91.31
482.935	74.31
483.153	78.31
483.372	68.31
483.59	75.31
483.808	66.31
484.027	98.31
484.245	78.31
484.463	79.31
484.681	76.31
484.9	77.31
485.118	81.31
485.336	77.31
485.554	85.31
485.772	78.31
485.99	73.31
486.209	72.31
486.427	73.31
486.645	81.31
486.863	77.31
487.081	76.31
487.299	82.31
487.517	83.31
487.735	76.31
487.953	68.31
488.171	81.31
488.389	77.31
488.607	78.31
488.825	92.31
489.043	92.31
489.261	73.31
489.479	82.31
489.696	82.31
489.914	67.31
490.132	75.31
490.35	87.31
490.568	94.31
490.786	87.31
491.003	68.31
491.221	86.31
491.439	79.31
491.657	86.31
491.874	92.31
492.092	92.31
492.31	84.31
492.527	66.31
492.745	81.31
492.963	89.31
493.18	86.31
493.398	86.31
493.615	92.31
493.833	79.31
494.05	77.31
494.268	80.31
494.485	74.31
494.703	82.31
494.92	82.31
495.138	84.31
495.355	77.31
495.573	79.31
495.79	83.31
496.008	94.31
496.225	80.31
496.442	69.31
496.66	86.31
496.877	96.31
497.094	94.31
497.312	76.31
497.529	97.31
497.746	90.31
497.963	62.31
498.181	80.31
498.398	87.31
498.615	86.31
498.832	81.31
499.049	73.31
499.267	85.31
499.484	76.31
499.701	87.31
499.918	82.31
500.135	71.31
500.352	88.31
500.569	107.31
500.786	123.31
501.003	90.31
501.22	85.31
501.437	76.31
501.654	76.31
501.871	68.31
502.088	81.31
502.305	92.31
502.522	73.31
502.739	69.31
502.956	92.31
503.172	74.31
503.389	80.31
503.606	85.31
503.823	81.31
504.04	85.31
504.256	89.31
504.473	82.31
504.69	74.31
504.907	78.31
505.123	78.31
505.34	86.31
505.557	83.31
505.773	93.31
505.99	84.31
506.207	83.31
506.423	87.31
506.64	106.31
506.856	69.31
507.073	88.31
507.289	76.31
507.506	70.31
507.722	75.31
507.939	75.31
508.155	82.31
508.372	73.31
508.588	86.31
508.805	76.31
509.021	71.31
509.238	83.31
509.454	79.31
509.67	73.31
509.887	66.31
510.103	84.31
510.319	77.31
510.536	89.31
510.752	88.31
510.968	78.31
511.184	74.31
511.401	74.31
511.617	75.31
511.833	79.31
512.049	89.31
512.265	89.31
512.481	74.31
512.698	77.31
512.914	86.31
513.13	81.31
513.346	78.31
513.562	79.31
513.778	76.31
513.994	87.31
514.21	72.31
514.426	74.31
514.642	91.31
514.858	70.31
515.074	81.31
515.29	85.31
515.506	77.31
515.721	77.31
515.937	88.31
516.153	74.31
516.369	77.31
516.585	72.31
516.801	86.31
517.016	62.31
517.232	77.31
517.448	84.31
517.664	81.31
517.879	70.31
518.095	75.31
518.311	68.31
518.527	81.31
518.742	72.31
518.958	75.31
519.173	85.31
519.389	89.31
519.605	83.31
519.82	76.31
