Data from StdB_HRD10591_051.txt Node
Date: Fri May 16 15:25:11 EDT 2025
User: Yrep
Spectrometer: HR+D1059
Trigger mode: 1
Integration Time (sec): 1.000000E-1
Scans to average: 1
Electric dark correction enabled: true
Nonlinearity correction enabled: false
Boxcar width: 0
XAxis mode: Wavelengths
Number of Pixels in Spectrum: 2048
>>>>>Begin Spectral Data<<<<<
223.165	-10.69
223.4	-10.69
223.635	-10.69
223.869	-5.69
224.104	-23.69
224.338	-28.69
224.573	-27.69
224.808	-25.69
225.042	-16.69
225.277	2.31
225.511	-4.69
225.746	3.31
225.98	13.31
226.215	18.31
226.449	6.31
226.683	27.31
226.918	33.31
227.152	39.31
227.387	39.31
227.621	31.31
227.856	39.31
228.09	41.31
228.324	42.31
228.559	57.31
228.793	60.31
229.027	41.31
229.262	66.31
229.496	59.31
229.73	76.31
229.964	65.31
230.199	66.31
230.433	74.31
230.667	73.31
230.901	79.31
231.136	105.31
231.37	67.31
231.604	78.31
231.838	79.31
232.072	70.31
232.306	69.31
232.541	81.31
232.775	71.31
233.009	79.31
233.243	75.31
233.477	86.31
233.711	55.31
233.945	75.31
234.179	73.31
234.413	69.31
234.647	78.31
234.881	74.31
235.115	83.31
235.349	73.31
235.583	73.31
235.817	82.31
236.051	81.31
236.285	77.31
236.519	65.31
236.753	76.31
236.987	73.31
237.221	76.31
237.455	70.31
237.689	72.31
237.922	65.31
238.156	76.31
238.39	65.31
238.624	76.31
238.858	60.31
239.091	67.31
239.325	78.31
239.559	59.31
239.793	85.31
240.027	74.31
240.26	69.31
240.494	71.31
240.728	74.31
240.961	86.31
241.195	82.31
241.429	71.31
241.662	79.31
241.896	66.31
242.13	59.31
242.363	76.31
242.597	73.31
242.83	71.31
243.064	73.31
243.298	73.31
243.531	81.31
243.765	76.31
243.998	87.31
244.232	85.31
244.465	86.31
244.699	74.31
244.932	77.31
245.166	68.31
245.399	68.31
245.633	81.31
245.866	88.31
246.099	66.31
246.333	80.31
246.566	61.31
246.8	84.31
247.033	71.31
247.266	78.31
247.5	85.31
247.733	80.31
247.966	77.31
248.2	85.31
248.433	73.31
248.666	67.31
248.899	63.31
249.133	77.31
249.366	87.31
249.599	86.31
249.832	77.31
250.066	86.31
250.299	74.31
250.532	77.31
250.765	81.31
250.998	69.31
251.231	73.31
251.465	79.31
251.698	85.31
251.931	67.31
252.164	80.31
252.397	71.31
252.63	100.31
252.863	72.31
253.096	71.31
253.329	78.31
253.562	74.31
253.795	70.31
254.028	82.31
254.261	88.31
254.494	76.31
254.727	85.31
254.96	62.31
255.193	79.31
255.426	87.31
255.659	92.31
255.892	81.31
256.124	79.31
256.357	87.31
256.59	85.31
256.823	81.31
257.056	82.31
257.289	90.31
257.521	87.31
257.754	81.31
257.987	89.31
258.22	85.31
258.452	85.31
258.685	71.31
258.918	80.31
259.151	85.31
259.383	81.31
259.616	77.31
259.849	73.31
260.081	70.31
260.314	67.31
260.547	78.31
260.779	67.31
261.012	89.31
261.244	87.31
261.477	100.31
261.71	94.31
261.942	93.31
262.175	91.31
262.407	73.31
262.64	81.31
262.872	69.31
263.105	78.31
263.337	89.31
263.57	80.31
263.802	70.31
264.035	87.31
264.267	81.31
264.499	77.31
264.732	63.31
264.964	85.31
265.197	86.31
265.429	78.31
265.661	78.31
265.894	76.31
266.126	73.31
266.358	82.31
266.591	90.31
266.823	96.31
267.055	74.31
267.287	61.31
267.52	70.31
267.752	86.31
267.984	77.31
268.216	85.31
268.448	90.31
268.681	78.31
268.913	81.31
269.145	86.31
269.377	69.31
269.609	78.31
269.841	78.31
270.073	64.31
270.306	77.31
270.538	90.31
270.77	75.31
271.002	71.31
271.234	74.31
271.466	71.31
271.698	86.31
271.93	78.31
272.162	87.31
272.394	85.31
272.626	75.31
272.858	66.31
273.09	73.31
273.322	83.31
273.553	78.31
273.785	90.31
274.017	69.31
274.249	74.31
274.481	91.31
274.713	78.31
274.945	70.31
275.176	76.31
275.408	66.31
275.64	72.31
275.872	77.31
276.104	80.31
276.335	70.31
276.567	81.31
276.799	76.31
277.031	78.31
277.262	66.31
277.494	70.31
277.726	71.31
277.957	76.31
278.189	88.31
278.421	86.31
278.652	71.31
278.884	80.31
279.115	82.31
279.347	75.31
279.579	86.31
279.81	104.31
280.042	113.31
280.273	114.31
280.505	99.31
280.736	102.31
280.968	82.31
281.199	86.31
281.431	96.31
281.662	105.31
281.894	82.31
282.125	91.31
282.356	93.31
282.588	94.31
282.819	82.31
283.051	95.31
283.282	96.31
283.513	125.31
283.745	94.31
283.976	89.31
284.207	83.31
284.439	81.31
284.67	83.31
284.901	77.31
285.132	79.31
285.364	75.31
285.595	92.31
285.826	93.31
286.057	83.31
286.288	81.31
286.52	72.31
286.751	62.31
286.982	86.31
287.213	96.31
287.444	103.31
287.675	87.31
287.906	90.31
288.138	83.31
288.369	92.31
288.6	84.31
288.831	77.31
289.062	103.31
289.293	83.31
289.524	84.31
289.755	75.31
289.986	89.31
290.217	84.31
290.448	79.31
290.679	83.31
290.91	84.31
291.141	67.31
291.371	82.31
291.602	94.31
291.833	95.31
292.064	78.31
292.295	82.31
292.526	69.31
292.757	75.31
292.987	68.31
293.218	78.31
293.449	82.31
293.68	72.31
293.91	72.31
294.141	86.31
294.372	79.31
294.603	75.31
294.833	79.31
295.064	66.31
295.295	75.31
295.525	83.31
295.756	99.31
295.987	79.31
296.217	75.31
296.448	69.31
296.679	84.31
296.909	84.31
297.14	84.31
297.37	92.31
297.601	86.31
297.831	64.31
298.062	79.31
298.292	86.31
298.523	87.31
298.753	69.31
298.984	81.31
299.214	75.31
299.445	82.31
299.675	83.31
299.905	87.31
300.136	87.31
300.366	86.31
300.597	89.31
300.827	76.31
301.057	89.31
301.288	82.31
301.518	82.31
301.748	84.31
301.979	90.31
302.209	84.31
302.439	78.31
302.669	74.31
302.9	87.31
303.13	79.31
303.36	70.31
303.59	68.31
303.82	79.31
304.051	69.31
304.281	82.31
304.511	78.31
304.741	85.31
304.971	87.31
305.201	92.31
305.431	77.31
305.661	64.31
305.891	71.31
306.121	81.31
306.352	86.31
306.582	68.31
306.812	85.31
307.042	78.31
307.272	86.31
307.502	83.31
307.731	82.31
307.961	78.31
308.191	86.31
308.421	84.31
308.651	82.31
308.881	75.31
309.111	81.31
309.341	82.31
309.571	66.31
309.8	78.31
310.03	74.31
310.26	89.31
310.49	95.31
310.72	84.31
310.949	88.31
311.179	75.31
311.409	84.31
311.639	87.31
311.868	83.31
312.098	81.31
312.328	83.31
312.557	81.31
312.787	70.31
313.017	85.31
313.246	72.31
313.476	87.31
313.706	83.31
313.935	78.31
314.165	87.31
314.394	94.31
314.624	87.31
314.853	72.31
315.083	80.31
315.312	93.31
315.542	85.31
315.771	88.31
316.001	85.31
316.23	77.31
316.46	89.31
316.689	83.31
316.919	97.31
317.148	83.31
317.377	89.31
317.607	90.31
317.836	72.31
318.065	82.31
318.295	81.31
318.524	87.31
318.753	70.31
318.983	82.31
319.212	66.31
319.441	79.31
319.67	76.31
319.9	83.31
320.129	79.31
320.358	84.31
320.587	83.31
320.816	85.31
321.046	84.31
321.275	90.31
321.504	81.31
321.733	81.31
321.962	93.31
322.191	87.31
322.42	81.31
322.649	73.31
322.878	92.31
323.108	85.31
323.337	93.31
323.566	84.31
323.795	77.31
324.024	74.31
324.253	80.31
324.482	83.31
324.71	64.31
324.939	85.31
325.168	85.31
325.397	76.31
325.626	79.31
325.855	78.31
326.084	74.31
326.313	101.31
326.542	94.31
326.77	87.31
326.999	78.31
327.228	95.31
327.457	70.31
327.686	81.31
327.914	86.31
328.143	95.31
328.372	87.31
328.6	79.31
328.829	77.31
329.058	77.31
329.287	82.31
329.515	84.31
329.744	82.31
329.972	83.31
330.201	82.31
330.43	85.31
330.658	68.31
330.887	74.31
331.115	84.31
331.344	98.31
331.572	89.31
331.801	87.31
332.03	90.31
332.258	78.31
332.486	63.31
332.715	80.31
332.943	80.31
333.172	85.31
333.4	67.31
333.629	100.31
333.857	86.31
334.085	91.31
334.314	80.31
334.542	71.31
334.771	88.31
334.999	79.31
335.227	81.31
335.455	83.31
335.684	101.31
335.912	79.31
336.14	89.31
336.369	88.31
336.597	84.31
336.825	81.31
337.053	79.31
337.281	70.31
337.51	77.31
337.738	69.31
337.966	84.31
338.194	92.31
338.422	82.31
338.65	87.31
338.878	88.31
339.106	67.31
339.334	72.31
339.562	80.31
339.79	77.31
340.018	70.31
340.246	71.31
340.474	86.31
340.702	62.31
340.93	71.31
341.158	74.31
341.386	74.31
341.614	87.31
341.842	89.31
342.07	77.31
342.298	76.31
342.526	83.31
342.754	72.31
342.981	75.31
343.209	74.31
343.437	90.31
343.665	72.31
343.893	94.31
344.12	78.31
344.348	91.31
344.576	81.31
344.804	67.31
345.031	76.31
345.259	71.31
345.487	68.31
345.714	74.31
345.942	75.31
346.17	82.31
346.397	73.31
346.625	73.31
346.853	82.31
347.08	85.31
347.308	78.31
347.535	76.31
347.763	89.31
347.99	97.31
348.218	85.31
348.445	92.31
348.673	79.31
348.9	72.31
349.128	74.31
349.355	77.31
349.583	68.31
349.81	75.31
350.037	73.31
350.265	78.31
350.492	77.31
350.72	86.31
350.947	82.31
351.174	82.31
351.402	91.31
351.629	80.31
351.856	74.31
352.083	90.31
352.311	75.31
352.538	71.31
352.765	70.31
352.992	93.31
353.22	93.31
353.447	80.31
353.674	92.31
353.901	74.31
354.128	73.31
354.355	89.31
354.583	85.31
354.81	79.31
355.037	73.31
355.264	72.31
355.491	89.31
355.718	84.31
355.945	91.31
356.172	69.31
356.399	82.31
356.626	76.31
356.853	92.31
357.08	121.31
357.307	153.31
357.534	118.31
357.761	84.31
357.988	85.31
358.215	87.31
358.441	79.31
358.668	75.31
358.895	84.31
359.122	87.31
359.349	73.31
359.576	73.31
359.802	92.31
360.029	69.31
360.256	79.31
360.483	78.31
360.709	71.31
360.936	79.31
361.163	82.31
361.39	75.31
361.616	84.31
361.843	81.31
362.07	73.31
362.296	84.31
362.523	80.31
362.749	98.31
362.976	82.31
363.203	76.31
363.429	99.31
363.656	138.31
363.882	182.31
364.109	195.31
364.335	127.31
364.562	82.31
364.788	82.31
365.015	90.31
365.241	82.31
365.468	71.31
365.694	70.31
365.92	77.31
366.147	85.31
366.373	68.31
366.599	72.31
366.826	80.31
367.052	111.31
367.278	124.31
367.505	107.31
367.731	94.31
367.957	132.31
368.184	188.31
368.41	261.31
368.636	189.31
368.862	112.31
369.089	81.31
369.315	72.31
369.541	87.31
369.767	77.31
369.993	68.31
370.219	74.31
370.445	87.31
370.672	83.31
370.898	82.31
371.124	72.31
371.35	57.31
371.576	67.31
371.802	76.31
372.028	68.31
372.254	71.31
372.48	71.31
372.706	87.31
372.932	69.31
373.158	83.31
373.384	90.31
373.61	102.31
373.835	130.31
374.061	148.31
374.287	116.31
374.513	83.31
374.739	79.31
374.965	69.31
375.191	82.31
375.416	89.31
375.642	86.31
375.868	91.31
376.094	88.31
376.319	65.31
376.545	77.31
376.771	85.31
376.997	66.31
377.222	76.31
377.448	89.31
377.674	72.31
377.899	87.31
378.125	74.31
378.35	91.31
378.576	91.31
378.802	74.31
379.027	70.31
379.253	76.31
379.478	83.31
379.704	79.31
379.929	72.31
380.155	77.31
380.38	77.31
380.606	76.31
380.831	86.31
381.057	83.31
381.282	75.31
381.507	91.31
381.733	70.31
381.958	98.31
382.184	77.31
382.409	71.31
382.634	85.31
382.86	69.31
383.085	68.31
383.31	94.31
383.535	79.31
383.761	77.31
383.986	86.31
384.211	70.31
384.436	73.31
384.662	75.31
384.887	79.31
385.112	79.31
385.337	77.31
385.562	86.31
385.787	69.31
386.013	82.31
386.238	81.31
386.463	90.31
386.688	98.31
386.913	88.31
387.138	71.31
387.363	82.31
387.588	70.31
387.813	75.31
388.038	82.31
388.263	79.31
388.488	75.31
388.713	77.31
388.938	81.31
389.163	69.31
389.387	79.31
389.612	71.31
389.837	82.31
390.062	82.31
390.287	86.31
390.512	76.31
390.736	79.31
390.961	81.31
391.186	59.31
391.411	71.31
391.636	71.31
391.86	85.31
392.085	87.31
392.31	78.31
392.534	71.31
392.759	68.31
392.984	68.31
393.208	87.31
393.433	81.31
393.658	87.31
393.882	73.31
394.107	72.31
394.331	75.31
394.556	85.31
394.78	74.31
395.005	85.31
395.229	75.31
395.454	83.31
395.678	64.31
395.903	78.31
396.127	81.31
396.352	76.31
396.576	78.31
396.801	68.31
397.025	81.31
397.249	70.31
397.474	79.31
397.698	86.31
397.922	77.31
398.147	68.31
398.371	71.31
398.595	71.31
398.82	68.31
399.044	82.31
399.268	68.31
399.492	75.31
399.717	70.31
399.941	97.31
400.165	83.31
400.389	76.31
400.613	71.31
400.837	89.31
401.062	83.31
401.286	89.31
401.51	81.31
401.734	91.31
401.958	97.31
402.182	109.31
402.406	83.31
402.63	81.31
402.854	92.31
403.078	94.31
403.302	86.31
403.526	84.31
403.75	83.31
403.974	75.31
404.198	89.31
404.422	84.31
404.645	79.31
404.869	90.31
405.093	85.31
405.317	124.31
405.541	219.31
405.765	377.31
405.988	401.31
406.212	215.31
406.436	136.31
406.66	87.31
406.883	83.31
407.107	72.31
407.331	84.31
407.555	74.31
407.778	85.31
408.002	86.31
408.226	64.31
408.449	74.31
408.673	81.31
408.896	76.31
409.12	81.31
409.344	77.31
409.567	71.31
409.791	74.31
410.014	86.31
410.238	80.31
410.461	83.31
410.685	67.31
410.908	77.31
411.132	77.31
411.355	83.31
411.578	73.31
411.802	76.31
412.025	81.31
412.249	71.31
412.472	78.31
412.695	86.31
412.919	73.31
413.142	77.31
413.365	71.31
413.589	89.31
413.812	92.31
414.035	71.31
414.258	70.31
414.482	77.31
414.705	74.31
414.928	74.31
415.151	82.31
415.374	82.31
415.597	77.31
415.821	68.31
416.044	84.31
416.267	90.31
416.49	91.31
416.713	88.31
416.936	76.31
417.159	83.31
417.382	73.31
417.605	73.31
417.828	82.31
418.051	81.31
418.274	89.31
418.497	81.31
418.72	66.31
418.943	85.31
419.166	97.31
419.389	82.31
419.611	67.31
419.834	90.31
420.057	77.31
420.28	65.31
420.503	74.31
420.726	78.31
420.948	94.31
421.171	74.31
421.394	73.31
421.617	85.31
421.839	84.31
422.062	79.31
422.285	84.31
422.507	79.31
422.73	68.31
422.953	83.31
423.175	83.31
423.398	77.31
423.621	77.31
423.843	74.31
424.066	69.31
424.288	89.31
424.511	77.31
424.733	84.31
424.956	78.31
425.178	86.31
425.401	79.31
425.623	77.31
425.846	87.31
426.068	79.31
426.291	78.31
426.513	78.31
426.735	85.31
426.958	59.31
427.18	78.31
427.402	87.31
427.625	91.31
427.847	84.31
428.069	85.31
428.292	69.31
428.514	84.31
428.736	77.31
428.958	83.31
429.181	81.31
429.403	73.31
429.625	81.31
429.847	80.31
430.069	79.31
430.292	78.31
430.514	74.31
430.736	77.31
430.958	88.31
431.18	82.31
431.402	77.31
431.624	68.31
431.846	83.31
432.068	71.31
432.29	75.31
432.512	91.31
432.734	81.31
432.956	67.31
433.178	71.31
433.4	74.31
433.622	81.31
433.844	86.31
434.066	80.31
434.287	85.31
434.509	76.31
434.731	75.31
434.953	80.31
435.175	75.31
435.397	70.31
435.618	72.31
435.84	76.31
436.062	63.31
436.284	69.31
436.505	77.31
436.727	67.31
436.949	76.31
437.17	81.31
437.392	81.31
437.614	69.31
437.835	69.31
438.057	82.31
438.278	77.31
438.5	63.31
438.721	89.31
438.943	74.31
439.165	67.31
439.386	79.31
439.608	77.31
439.829	81.31
440.05	92.31
440.272	86.31
440.493	70.31
440.715	86.31
440.936	77.31
441.158	84.31
441.379	77.31
441.6	79.31
441.822	83.31
442.043	73.31
442.264	79.31
442.486	97.31
442.707	79.31
442.928	73.31
443.149	81.31
443.371	83.31
443.592	78.31
443.813	84.31
444.034	75.31
444.255	89.31
444.476	75.31
444.698	99.31
444.919	78.31
445.14	142.31
445.361	111.31
445.582	90.31
445.803	66.31
446.024	83.31
446.245	103.31
446.466	80.31
446.687	70.31
446.908	69.31
447.129	89.31
447.35	73.31
447.571	75.31
447.792	91.31
448.013	57.31
448.234	70.31
448.455	77.31
448.675	72.31
448.896	77.31
449.117	75.31
449.338	76.31
449.559	72.31
449.779	73.31
450	73.31
450.221	79.31
450.442	71.31
450.662	79.31
450.883	66.31
451.104	76.31
451.324	82.31
451.545	82.31
451.766	66.31
451.986	74.31
452.207	75.31
452.428	84.31
452.648	82.31
452.869	81.31
453.089	71.31
453.31	67.31
453.53	73.31
453.751	65.31
453.971	77.31
454.192	80.31
454.412	75.31
454.633	76.31
454.853	71.31
455.073	59.31
455.294	70.31
455.514	83.31
455.734	84.31
455.955	78.31
456.175	88.31
456.395	76.31
456.616	82.31
456.836	72.31
457.056	80.31
457.276	73.31
457.497	68.31
457.717	83.31
457.937	85.31
458.157	74.31
458.377	67.31
458.598	66.31
458.818	71.31
459.038	92.31
459.258	86.31
459.478	78.31
459.698	73.31
459.918	82.31
460.138	91.31
460.358	71.31
460.578	84.31
460.798	81.31
461.018	86.31
461.238	88.31
461.458	86.31
461.678	59.31
461.898	72.31
462.118	81.31
462.338	88.31
462.558	71.31
462.777	69.31
462.997	84.31
463.217	68.31
463.437	79.31
463.657	73.31
463.876	79.31
464.096	74.31
464.316	90.31
464.536	70.31
464.755	86.31
464.975	93.31
465.195	86.31
465.414	72.31
465.634	81.31
465.854	79.31
466.073	83.31
466.293	69.31
466.512	92.31
466.732	81.31
466.951	89.31
467.171	90.31
467.391	73.31
467.61	63.31
467.829	78.31
468.049	82.31
468.268	69.31
468.488	72.31
468.707	84.31
468.927	94.31
469.146	80.31
469.365	79.31
469.585	75.31
469.804	86.31
470.023	83.31
470.243	77.31
470.462	85.31
470.681	74.31
470.901	71.31
471.12	94.31
471.339	93.31
471.558	84.31
471.777	81.31
471.997	76.31
472.216	79.31
472.435	73.31
472.654	74.31
472.873	75.31
473.092	100.31
473.311	73.31
473.53	76.31
473.749	80.31
473.968	77.31
474.187	66.31
474.406	86.31
474.625	76.31
474.844	74.31
475.063	84.31
475.282	89.31
475.501	73.31
475.72	84.31
475.939	93.31
476.158	77.31
476.377	77.31
476.596	78.31
476.814	84.31
477.033	88.31
477.252	84.31
477.471	79.31
477.69	93.31
477.908	77.31
478.127	86.31
478.346	77.31
478.564	82.31
478.783	76.31
479.002	85.31
479.22	88.31
479.439	91.31
479.658	84.31
479.876	78.31
480.095	80.31
480.313	77.31
480.532	79.31
480.751	83.31
480.969	81.31
481.188	81.31
481.406	71.31
481.624	77.31
481.843	65.31
482.061	69.31
482.28	66.31
482.498	84.31
482.717	83.31
482.935	81.31
483.153	82.31
483.372	83.31
483.59	69.31
483.808	69.31
484.027	78.31
484.245	82.31
484.463	81.31
484.681	90.31
484.9	79.31
485.118	76.31
485.336	77.31
485.554	83.31
485.772	89.31
485.99	68.31
486.209	79.31
486.427	75.31
486.645	75.31
486.863	73.31
487.081	87.31
487.299	77.31
487.517	75.31
487.735	76.31
487.953	77.31
488.171	88.31
488.389	76.31
488.607	71.31
488.825	81.31
489.043	74.31
489.261	87.31
489.479	90.31
489.696	80.31
489.914	75.31
490.132	73.31
490.35	78.31
490.568	68.31
490.786	84.31
491.003	69.31
491.221	76.31
491.439	83.31
491.657	92.31
491.874	83.31
492.092	89.31
492.31	87.31
492.527	94.31
492.745	59.31
492.963	81.31
493.18	70.31
493.398	83.31
493.615	87.31
493.833	90.31
494.05	76.31
494.268	78.31
494.485	86.31
494.703	81.31
494.92	74.31
495.138	84.31
495.355	81.31
495.573	78.31
495.79	74.31
496.008	98.31
496.225	78.31
496.442	87.31
496.66	86.31
496.877	87.31
497.094	90.31
497.312	88.31
497.529	87.31
497.746	92.31
497.963	76.31
498.181	72.31
498.398	82.31
498.615	82.31
498.832	85.31
499.049	88.31
499.267	62.31
499.484	87.31
499.701	78.31
499.918	89.31
500.135	83.31
500.352	87.31
500.569	115.31
500.786	152.31
501.003	90.31
501.22	85.31
501.437	86.31
501.654	77.31
501.871	80.31
502.088	87.31
502.305	101.31
502.522	93.31
502.739	86.31
502.956	74.31
503.172	81.31
503.389	85.31
503.606	71.31
503.823	82.31
504.04	78.31
504.256	90.31
504.473	86.31
504.69	82.31
504.907	82.31
505.123	93.31
505.34	84.31
505.557	83.31
505.773	78.31
505.99	76.31
506.207	92.31
506.423	77.31
506.64	92.31
506.856	101.31
507.073	77.31
507.289	78.31
507.506	77.31
507.722	78.31
507.939	78.31
508.155	78.31
508.372	72.31
508.588	68.31
508.805	81.31
509.021	95.31
509.238	77.31
509.454	93.31
509.67	86.31
509.887	61.31
510.103	68.31
510.319	82.31
510.536	90.31
510.752	83.31
510.968	76.31
511.184	84.31
511.401	70.31
511.617	71.31
511.833	73.31
512.049	84.31
512.265	83.31
512.481	101.31
512.698	83.31
512.914	82.31
513.13	74.31
513.346	86.31
513.562	76.31
513.778	89.31
513.994	86.31
514.21	89.31
514.426	96.31
514.642	85.31
514.858	77.31
515.074	83.31
515.29	72.31
515.506	74.31
515.721	70.31
515.937	84.31
516.153	79.31
516.369	82.31
516.585	75.31
516.801	100.31
517.016	91.31
517.232	86.31
517.448	83.31
517.664	75.31
517.879	86.31
518.095	92.31
518.311	98.31
518.527	74.31
518.742	81.31
518.958	74.31
519.173	75.31
519.389	71.31
519.605	84.31
