Data from StdB_HRD10591_044.txt Node
Date: Fri May 16 15:25:08 EDT 2025
User: Yrep
Spectrometer: HR+D1059
Trigger mode: 1
Integration Time (sec): 1.000000E-1
Scans to average: 1
Electric dark correction enabled: true
Nonlinearity correction enabled: false
Boxcar width: 0
XAxis mode: Wavelengths
Number of Pixels in Spectrum: 2048
>>>>>Begin Spectral Data<<<<<
223.165	-15.5
223.4	-15.5
223.635	-15.5
223.869	-15.5
224.104	-21.5
224.338	-21.5
224.573	-20.5
224.808	-12.5
225.042	-23.5
225.277	-13.5
225.511	-2.5
225.746	-2.5
225.98	0.5
226.215	15.5
226.449	35.5
226.683	30.5
226.918	45.5
227.152	21.5
227.387	35.5
227.621	25.5
227.856	39.5
228.09	62.5
228.324	58.5
228.559	51.5
228.793	51.5
229.027	65.5
229.262	65.5
229.496	65.5
229.73	54.5
229.964	68.5
230.199	55.5
230.433	75.5
230.667	71.5
230.901	85.5
231.136	64.5
231.37	88.5
231.604	74.5
231.838	79.5
232.072	71.5
232.306	76.5
232.541	80.5
232.775	102.5
233.009	81.5
233.243	76.5
233.477	78.5
233.711	80.5
233.945	67.5
234.179	79.5
234.413	73.5
234.647	62.5
234.881	71.5
235.115	73.5
235.349	79.5
235.583	93.5
235.817	66.5
236.051	72.5
236.285	79.5
236.519	58.5
236.753	57.5
236.987	77.5
237.221	84.5
237.455	77.5
237.689	85.5
237.922	64.5
238.156	71.5
238.39	76.5
238.624	78.5
238.858	75.5
239.091	72.5
239.325	75.5
239.559	73.5
239.793	67.5
240.027	85.5
240.26	76.5
240.494	65.5
240.728	79.5
240.961	77.5
241.195	84.5
241.429	78.5
241.662	91.5
241.896	71.5
242.13	70.5
242.363	75.5
242.597	66.5
242.83	81.5
243.064	87.5
243.298	76.5
243.531	69.5
243.765	85.5
243.998	80.5
244.232	83.5
244.465	76.5
244.699	73.5
244.932	85.5
245.166	82.5
245.399	82.5
245.633	77.5
245.866	76.5
246.099	75.5
246.333	84.5
246.566	73.5
246.8	77.5
247.033	74.5
247.266	79.5
247.5	84.5
247.733	87.5
247.966	86.5
248.2	86.5
248.433	76.5
248.666	86.5
248.899	76.5
249.133	82.5
249.366	84.5
249.599	78.5
249.832	72.5
250.066	93.5
250.299	86.5
250.532	85.5
250.765	69.5
250.998	72.5
251.231	75.5
251.465	79.5
251.698	70.5
251.931	79.5
252.164	68.5
252.397	76.5
252.63	78.5
252.863	89.5
253.096	76.5
253.329	82.5
253.562	92.5
253.795	84.5
254.028	86.5
254.261	89.5
254.494	86.5
254.727	97.5
254.96	83.5
255.193	78.5
255.426	79.5
255.659	68.5
255.892	70.5
256.124	78.5
256.357	81.5
256.59	72.5
256.823	63.5
257.056	87.5
257.289	84.5
257.521	89.5
257.754	77.5
257.987	88.5
258.22	101.5
258.452	87.5
258.685	86.5
258.918	84.5
259.151	77.5
259.383	81.5
259.616	76.5
259.849	69.5
260.081	66.5
260.314	79.5
260.547	77.5
260.779	81.5
261.012	94.5
261.244	101.5
261.477	108.5
261.71	121.5
261.942	86.5
262.175	78.5
262.407	95.5
262.64	73.5
262.872	94.5
263.105	78.5
263.337	91.5
263.57	75.5
263.802	88.5
264.035	92.5
264.267	78.5
264.499	76.5
264.732	94.5
264.964	86.5
265.197	96.5
265.429	98.5
265.661	84.5
265.894	92.5
266.126	72.5
266.358	86.5
266.591	76.5
266.823	79.5
267.055	91.5
267.287	73.5
267.52	91.5
267.752	79.5
267.984	86.5
268.216	85.5
268.448	65.5
268.681	94.5
268.913	86.5
269.145	89.5
269.377	91.5
269.609	83.5
269.841	96.5
270.073	79.5
270.306	83.5
270.538	84.5
270.77	73.5
271.002	86.5
271.234	83.5
271.466	70.5
271.698	78.5
271.93	75.5
272.162	71.5
272.394	93.5
272.626	85.5
272.858	85.5
273.09	78.5
273.322	83.5
273.553	86.5
273.785	87.5
274.017	77.5
274.249	87.5
274.481	90.5
274.713	76.5
274.945	75.5
275.176	68.5
275.408	72.5
275.64	104.5
275.872	76.5
276.104	76.5
276.335	83.5
276.567	74.5
276.799	83.5
277.031	89.5
277.262	93.5
277.494	86.5
277.726	86.5
277.957	72.5
278.189	97.5
278.421	86.5
278.652	79.5
278.884	63.5
279.115	75.5
279.347	90.5
279.579	93.5
279.81	96.5
280.042	112.5
280.273	127.5
280.505	112.5
280.736	91.5
280.968	95.5
281.199	92.5
281.431	83.5
281.662	91.5
281.894	87.5
282.125	101.5
282.356	88.5
282.588	89.5
282.819	95.5
283.051	90.5
283.282	101.5
283.513	98.5
283.745	101.5
283.976	90.5
284.207	85.5
284.439	92.5
284.67	72.5
284.901	76.5
285.132	94.5
285.364	91.5
285.595	86.5
285.826	86.5
286.057	96.5
286.288	71.5
286.52	83.5
286.751	82.5
286.982	96.5
287.213	100.5
287.444	102.5
287.675	112.5
287.906	89.5
288.138	88.5
288.369	101.5
288.6	93.5
288.831	78.5
289.062	102.5
289.293	85.5
289.524	84.5
289.755	72.5
289.986	81.5
290.217	72.5
290.448	74.5
290.679	91.5
290.91	76.5
291.141	69.5
291.371	76.5
291.602	83.5
291.833	77.5
292.064	100.5
292.295	83.5
292.526	76.5
292.757	82.5
292.987	92.5
293.218	82.5
293.449	83.5
293.68	82.5
293.91	96.5
294.141	93.5
294.372	79.5
294.603	85.5
294.833	72.5
295.064	68.5
295.295	83.5
295.525	79.5
295.756	81.5
295.987	83.5
296.217	92.5
296.448	94.5
296.679	87.5
296.909	83.5
297.14	86.5
297.37	99.5
297.601	81.5
297.831	91.5
298.062	91.5
298.292	81.5
298.523	88.5
298.753	99.5
298.984	84.5
299.214	65.5
299.445	82.5
299.675	96.5
299.905	79.5
300.136	79.5
300.366	92.5
300.597	75.5
300.827	81.5
301.057	89.5
301.288	93.5
301.518	75.5
301.748	84.5
301.979	100.5
302.209	89.5
302.439	85.5
302.669	91.5
302.9	83.5
303.13	80.5
303.36	83.5
303.59	85.5
303.82	92.5
304.051	92.5
304.281	83.5
304.511	99.5
304.741	88.5
304.971	73.5
305.201	87.5
305.431	83.5
305.661	78.5
305.891	70.5
306.121	76.5
306.352	83.5
306.582	88.5
306.812	92.5
307.042	81.5
307.272	80.5
307.502	94.5
307.731	105.5
307.961	91.5
308.191	92.5
308.421	88.5
308.651	85.5
308.881	83.5
309.111	88.5
309.341	92.5
309.571	78.5
309.8	81.5
310.03	89.5
310.26	77.5
310.49	84.5
310.72	103.5
310.949	95.5
311.179	85.5
311.409	74.5
311.639	82.5
311.868	86.5
312.098	94.5
312.328	75.5
312.557	79.5
312.787	79.5
313.017	96.5
313.246	90.5
313.476	96.5
313.706	95.5
313.935	86.5
314.165	92.5
314.394	79.5
314.624	91.5
314.853	89.5
315.083	90.5
315.312	88.5
315.542	77.5
315.771	75.5
316.001	90.5
316.23	78.5
316.46	89.5
316.689	87.5
316.919	87.5
317.148	87.5
317.377	80.5
317.607	81.5
317.836	69.5
318.065	76.5
318.295	75.5
318.524	89.5
318.753	86.5
318.983	91.5
319.212	85.5
319.441	79.5
319.67	79.5
319.9	81.5
320.129	75.5
320.358	76.5
320.587	80.5
320.816	96.5
321.046	105.5
321.275	79.5
321.504	78.5
321.733	69.5
321.962	80.5
322.191	95.5
322.42	84.5
322.649	85.5
322.878	93.5
323.108	94.5
323.337	102.5
323.566	85.5
323.795	73.5
324.024	64.5
324.253	79.5
324.482	87.5
324.71	87.5
324.939	88.5
325.168	96.5
325.397	87.5
325.626	79.5
325.855	75.5
326.084	76.5
326.313	90.5
326.542	81.5
326.77	91.5
326.999	83.5
327.228	88.5
327.457	77.5
327.686	87.5
327.914	85.5
328.143	96.5
328.372	82.5
328.6	83.5
328.829	88.5
329.058	72.5
329.287	92.5
329.515	103.5
329.744	108.5
329.972	91.5
330.201	90.5
330.43	93.5
330.658	80.5
330.887	73.5
331.115	90.5
331.344	84.5
331.572	91.5
331.801	83.5
332.03	91.5
332.258	91.5
332.486	88.5
332.715	85.5
332.943	86.5
333.172	89.5
333.4	94.5
333.629	80.5
333.857	73.5
334.085	77.5
334.314	82.5
334.542	91.5
334.771	80.5
334.999	73.5
335.227	83.5
335.455	92.5
335.684	93.5
335.912	93.5
336.14	87.5
336.369	89.5
336.597	90.5
336.825	99.5
337.053	99.5
337.281	90.5
337.51	84.5
337.738	73.5
337.966	80.5
338.194	92.5
338.422	81.5
338.65	89.5
338.878	74.5
339.106	83.5
339.334	81.5
339.562	70.5
339.79	80.5
340.018	89.5
340.246	87.5
340.474	76.5
340.702	79.5
340.93	103.5
341.158	87.5
341.386	74.5
341.614	86.5
341.842	83.5
342.07	69.5
342.298	75.5
342.526	76.5
342.754	72.5
342.981	95.5
343.209	91.5
343.437	91.5
343.665	83.5
343.893	78.5
344.12	78.5
344.348	90.5
344.576	74.5
344.804	74.5
345.031	77.5
345.259	81.5
345.487	81.5
345.714	88.5
345.942	78.5
346.17	79.5
346.397	86.5
346.625	87.5
346.853	83.5
347.08	87.5
347.308	73.5
347.535	83.5
347.763	89.5
347.99	88.5
348.218	85.5
348.445	78.5
348.673	82.5
348.9	83.5
349.128	60.5
349.355	71.5
349.583	89.5
349.81	95.5
350.037	101.5
350.265	83.5
350.492	77.5
350.72	81.5
350.947	78.5
351.174	87.5
351.402	94.5
351.629	87.5
351.856	88.5
352.083	76.5
352.311	74.5
352.538	84.5
352.765	101.5
352.992	100.5
353.22	97.5
353.447	73.5
353.674	81.5
353.901	83.5
354.128	67.5
354.355	81.5
354.583	79.5
354.81	73.5
355.037	81.5
355.264	93.5
355.491	74.5
355.718	91.5
355.945	95.5
356.172	70.5
356.399	85.5
356.626	86.5
356.853	107.5
357.08	157.5
357.307	167.5
357.534	148.5
357.761	106.5
357.988	85.5
358.215	77.5
358.441	80.5
358.668	99.5
358.895	73.5
359.122	77.5
359.349	92.5
359.576	90.5
359.802	89.5
360.029	85.5
360.256	102.5
360.483	89.5
360.709	71.5
360.936	72.5
361.163	82.5
361.39	72.5
361.616	88.5
361.843	79.5
362.07	85.5
362.296	81.5
362.523	84.5
362.749	87.5
362.976	80.5
363.203	97.5
363.429	118.5
363.656	141.5
363.882	179.5
364.109	197.5
364.335	139.5
364.562	94.5
364.788	93.5
365.015	93.5
365.241	96.5
365.468	95.5
365.694	75.5
365.92	70.5
366.147	60.5
366.373	100.5
366.599	93.5
366.826	107.5
367.052	115.5
367.278	123.5
367.505	107.5
367.731	113.5
367.957	149.5
368.184	203.5
368.41	273.5
368.636	200.5
368.862	120.5
369.089	88.5
369.315	85.5
369.541	87.5
369.767	77.5
369.993	75.5
370.219	72.5
370.445	85.5
370.672	76.5
370.898	78.5
371.124	85.5
371.35	80.5
371.576	102.5
371.802	100.5
372.028	83.5
372.254	81.5
372.48	90.5
372.706	86.5
372.932	83.5
373.158	79.5
373.384	88.5
373.61	103.5
373.835	128.5
374.061	161.5
374.287	122.5
374.513	83.5
374.739	99.5
374.965	87.5
375.191	87.5
375.416	84.5
375.642	88.5
375.868	93.5
376.094	79.5
376.319	91.5
376.545	88.5
376.771	83.5
376.997	84.5
377.222	84.5
377.448	91.5
377.674	81.5
377.899	92.5
378.125	84.5
378.35	76.5
378.576	95.5
378.802	70.5
379.027	74.5
379.253	85.5
379.478	79.5
379.704	87.5
379.929	79.5
380.155	82.5
380.38	78.5
380.606	76.5
380.831	72.5
381.057	85.5
381.282	82.5
381.507	73.5
381.733	76.5
381.958	92.5
382.184	84.5
382.409	81.5
382.634	72.5
382.86	75.5
383.085	78.5
383.31	86.5
383.535	83.5
383.761	102.5
383.986	98.5
384.211	77.5
384.436	90.5
384.662	88.5
384.887	79.5
385.112	92.5
385.337	78.5
385.562	81.5
385.787	79.5
386.013	90.5
386.238	96.5
386.463	90.5
386.688	94.5
386.913	94.5
387.138	93.5
387.363	80.5
387.588	76.5
387.813	77.5
388.038	88.5
388.263	79.5
388.488	81.5
388.713	76.5
388.938	81.5
389.163	82.5
389.387	79.5
389.612	73.5
389.837	75.5
390.062	86.5
390.287	79.5
390.512	80.5
390.736	83.5
390.961	87.5
391.186	82.5
391.411	83.5
391.636	73.5
391.86	84.5
392.085	85.5
392.31	83.5
392.534	73.5
392.759	87.5
392.984	80.5
393.208	88.5
393.433	91.5
393.658	100.5
393.882	81.5
394.107	92.5
394.331	79.5
394.556	76.5
394.78	77.5
395.005	85.5
395.229	83.5
395.454	93.5
395.678	78.5
395.903	83.5
396.127	79.5
396.352	87.5
396.576	81.5
396.801	61.5
397.025	65.5
397.249	88.5
397.474	105.5
397.698	92.5
397.922	79.5
398.147	61.5
398.371	76.5
398.595	87.5
398.82	81.5
399.044	73.5
399.268	81.5
399.492	95.5
399.717	93.5
399.941	92.5
400.165	100.5
400.389	85.5
400.613	73.5
400.837	81.5
401.062	67.5
401.286	95.5
401.51	97.5
401.734	109.5
401.958	112.5
402.182	105.5
402.406	88.5
402.63	93.5
402.854	81.5
403.078	88.5
403.302	81.5
403.526	80.5
403.75	73.5
403.974	84.5
404.198	84.5
404.422	85.5
404.645	91.5
404.869	92.5
405.093	107.5
405.317	141.5
405.541	245.5
405.765	392.5
405.988	423.5
406.212	216.5
406.436	159.5
406.66	93.5
406.883	94.5
407.107	84.5
407.331	85.5
407.555	85.5
407.778	71.5
408.002	95.5
408.226	83.5
408.449	85.5
408.673	76.5
408.896	91.5
409.12	80.5
409.344	89.5
409.567	83.5
409.791	92.5
410.014	77.5
410.238	92.5
410.461	91.5
410.685	71.5
410.908	78.5
411.132	87.5
411.355	89.5
411.578	86.5
411.802	72.5
412.025	79.5
412.249	89.5
412.472	81.5
412.695	79.5
412.919	89.5
413.142	82.5
413.365	77.5
413.589	80.5
413.812	93.5
414.035	78.5
414.258	84.5
414.482	82.5
414.705	70.5
414.928	80.5
415.151	75.5
415.374	89.5
415.597	80.5
415.821	89.5
416.044	97.5
416.267	74.5
416.49	77.5
416.713	91.5
416.936	89.5
417.159	80.5
417.382	77.5
417.605	71.5
417.828	81.5
418.051	70.5
418.274	61.5
418.497	82.5
418.72	83.5
418.943	87.5
419.166	88.5
419.389	79.5
419.611	71.5
419.834	83.5
420.057	83.5
420.28	92.5
420.503	82.5
420.726	77.5
420.948	75.5
421.171	71.5
421.394	87.5
421.617	82.5
421.839	79.5
422.062	79.5
422.285	77.5
422.507	80.5
422.73	84.5
422.953	84.5
423.175	80.5
423.398	85.5
423.621	81.5
423.843	95.5
424.066	83.5
424.288	71.5
424.511	80.5
424.733	79.5
424.956	80.5
425.178	84.5
425.401	67.5
425.623	83.5
425.846	83.5
426.068	84.5
426.291	85.5
426.513	92.5
426.735	76.5
426.958	90.5
427.18	86.5
427.402	91.5
427.625	83.5
427.847	92.5
428.069	78.5
428.292	76.5
428.514	86.5
428.736	92.5
428.958	86.5
429.181	92.5
429.403	81.5
429.625	78.5
429.847	75.5
430.069	85.5
430.292	87.5
430.514	82.5
430.736	78.5
430.958	85.5
431.18	73.5
431.402	73.5
431.624	77.5
431.846	75.5
432.068	68.5
432.29	72.5
432.512	92.5
432.734	84.5
432.956	85.5
433.178	93.5
433.4	76.5
433.622	79.5
433.844	91.5
434.066	83.5
434.287	73.5
434.509	78.5
434.731	75.5
434.953	94.5
435.175	101.5
435.397	95.5
435.618	94.5
435.84	73.5
436.062	79.5
436.284	80.5
436.505	91.5
436.727	88.5
436.949	77.5
437.17	78.5
437.392	94.5
437.614	79.5
437.835	73.5
438.057	78.5
438.278	73.5
438.5	67.5
438.721	78.5
438.943	96.5
439.165	71.5
439.386	79.5
439.608	92.5
439.829	69.5
440.05	81.5
440.272	79.5
440.493	90.5
440.715	77.5
440.936	83.5
441.158	78.5
441.379	76.5
441.6	85.5
441.822	77.5
442.043	82.5
442.264	79.5
442.486	81.5
442.707	85.5
442.928	73.5
443.149	73.5
443.371	86.5
443.592	86.5
443.813	83.5
444.034	92.5
444.255	93.5
444.476	80.5
444.698	79.5
444.919	65.5
445.14	127.5
445.361	116.5
445.582	84.5
445.803	89.5
446.024	76.5
446.245	99.5
446.466	73.5
446.687	85.5
446.908	78.5
447.129	75.5
447.35	90.5
447.571	81.5
447.792	75.5
448.013	94.5
448.234	80.5
448.455	92.5
448.675	102.5
448.896	73.5
449.117	79.5
449.338	88.5
449.559	88.5
449.779	82.5
450	83.5
450.221	83.5
450.442	71.5
450.662	83.5
450.883	68.5
451.104	79.5
451.324	91.5
451.545	83.5
451.766	92.5
451.986	83.5
452.207	91.5
452.428	86.5
452.648	74.5
452.869	83.5
453.089	69.5
453.31	75.5
453.53	91.5
453.751	86.5
453.971	88.5
454.192	95.5
454.412	73.5
454.633	76.5
454.853	86.5
455.073	84.5
455.294	79.5
455.514	95.5
455.734	80.5
455.955	103.5
456.175	92.5
456.395	88.5
456.616	86.5
456.836	83.5
457.056	86.5
457.276	76.5
457.497	84.5
457.717	82.5
457.937	83.5
458.157	84.5
458.377	92.5
458.598	77.5
458.818	87.5
459.038	84.5
459.258	78.5
459.478	86.5
459.698	84.5
459.918	90.5
460.138	88.5
460.358	92.5
460.578	87.5
460.798	96.5
461.018	88.5
461.238	84.5
461.458	86.5
461.678	83.5
461.898	89.5
462.118	87.5
462.338	88.5
462.558	87.5
462.777	89.5
462.997	110.5
463.217	87.5
463.437	77.5
463.657	86.5
463.876	94.5
464.096	81.5
464.316	81.5
464.536	87.5
464.755	83.5
464.975	73.5
465.195	72.5
465.414	88.5
465.634	70.5
465.854	97.5
466.073	69.5
466.293	93.5
466.512	88.5
466.732	96.5
466.951	74.5
467.171	76.5
467.391	79.5
467.61	87.5
467.829	86.5
468.049	87.5
468.268	78.5
468.488	84.5
468.707	100.5
468.927	80.5
469.146	75.5
469.365	77.5
469.585	87.5
469.804	87.5
470.023	80.5
470.243	95.5
470.462	101.5
470.681	68.5
470.901	82.5
471.12	88.5
471.339	86.5
471.558	81.5
471.777	79.5
471.997	84.5
472.216	69.5
472.435	94.5
472.654	85.5
472.873	82.5
473.092	78.5
473.311	72.5
473.53	72.5
473.749	77.5
473.968	69.5
474.187	79.5
474.406	79.5
474.625	96.5
474.844	78.5
475.063	71.5
475.282	85.5
475.501	66.5
475.72	88.5
475.939	93.5
476.158	94.5
476.377	85.5
476.596	83.5
476.814	100.5
477.033	83.5
477.252	85.5
477.471	85.5
477.69	85.5
477.908	100.5
478.127	86.5
478.346	87.5
478.564	84.5
478.783	99.5
479.002	91.5
479.22	80.5
479.439	73.5
479.658	73.5
479.876	90.5
480.095	85.5
480.313	66.5
480.532	77.5
480.751	90.5
480.969	84.5
481.188	90.5
481.406	88.5
481.624	81.5
481.843	68.5
482.061	78.5
482.28	88.5
482.498	86.5
482.717	84.5
482.935	81.5
483.153	84.5
483.372	71.5
483.59	83.5
483.808	82.5
484.027	71.5
484.245	68.5
484.463	85.5
484.681	81.5
484.9	89.5
485.118	90.5
485.336	88.5
485.554	107.5
485.772	85.5
485.99	87.5
486.209	72.5
486.427	85.5
486.645	77.5
486.863	73.5
487.081	87.5
487.299	79.5
487.517	79.5
487.735	85.5
487.953	81.5
488.171	69.5
488.389	85.5
488.607	90.5
488.825	85.5
489.043	77.5
489.261	89.5
489.479	79.5
489.696	87.5
489.914	73.5
490.132	79.5
490.35	93.5
490.568	111.5
490.786	80.5
491.003	68.5
491.221	93.5
491.439	81.5
491.657	79.5
491.874	82.5
492.092	92.5
492.31	78.5
492.527	81.5
492.745	79.5
492.963	80.5
493.18	75.5
493.398	84.5
493.615	69.5
493.833	95.5
494.05	86.5
494.268	85.5
494.485	87.5
494.703	95.5
494.92	87.5
495.138	64.5
495.355	92.5
495.573	91.5
495.79	87.5
496.008	97.5
496.225	95.5
496.442	76.5
496.66	105.5
496.877	91.5
497.094	101.5
497.312	77.5
497.529	79.5
497.746	71.5
497.963	71.5
498.181	91.5
498.398	74.5
498.615	75.5
498.832	97.5
499.049	92.5
499.267	84.5
499.484	90.5
499.701	99.5
499.918	87.5
500.135	85.5
500.352	92.5
500.569	120.5
500.786	161.5
501.003	91.5
501.22	89.5
501.437	81.5
501.654	73.5
501.871	80.5
502.088	79.5
502.305	76.5
502.522	76.5
502.739	96.5
502.956	87.5
503.172	81.5
503.389	89.5
503.606	84.5
503.823	92.5
504.04	102.5
504.256	71.5
504.473	63.5
504.69	94.5
504.907	84.5
505.123	79.5
505.34	106.5
505.557	91.5
505.773	93.5
505.99	96.5
506.207	93.5
506.423	79.5
506.64	86.5
506.856	86.5
507.073	108.5
507.289	97.5
507.506	87.5
507.722	90.5
507.939	87.5
508.155	89.5
508.372	85.5
508.588	92.5
508.805	81.5
509.021	102.5
509.238	73.5
509.454	99.5
509.67	71.5
509.887	89.5
510.103	85.5
510.319	78.5
510.536	83.5
510.752	84.5
510.968	90.5
511.184	86.5
511.401	77.5
511.617	73.5
511.833	95.5
512.049	76.5
512.265	73.5
512.481	75.5
512.698	79.5
512.914	69.5
513.13	92.5
513.346	85.5
513.562	76.5
513.778	81.5
513.994	79.5
514.21	81.5
514.426	103.5
514.642	91.5
514.858	81.5
515.074	102.5
515.29	102.5
515.506	85.5
515.721	104.5
515.937	91.5
516.153	73.5
516.369	77.5
516.585	87.5
516.801	83.5
517.016	92.5
517.232	93.5
517.448	94.5
517.664	74.5
517.879	77.5
518.095	89.5
518.311	85.5
518.527	83.5
518.742	89.5
518.958	78.5
519.173	91.5
519.389	85.5
519.605	95.5
519.82	100.5
520.036	81.5
520.251	106.5
520.467	99.5
520.682	83.5
520.898	79.5
521.113	86.5
521.329	88.5
521.544	79.5
521.76	92.5
521.975	72.5
522.19	83.5
522.406	81.5
522.621	89.5
522.836	75.5
523.052	94.5
523.267	87.5
523.482	87.5
523.698	89.5
523.913	69.5
524.128	82.5
524.343	74.5
524.559	82.5
524.774	90.5
524.989	100.5
525.204	88.5
525.419	96.5
525.634	89.5
525.849	83.5
526.064	83.5
526.28	83.5
526.495	87.5
526.71	76.5
526.925	71.5
527.14	76.5
527.355	80.5
527.57	93.5
527.785	78.5
527.999	83.5
528.214	88.5
528.429	86.5
528.644	83.5
528.859	87.5
529.074	84.5
529.289	86.5
529.503	91.5
529.718	87.5
529.933	99.5
530.148	113.5
530.363	88.5
530.577	85.5
530.792	101.5
531.007	92.5
531.221	66.5
531.436	77.5
531.651	85.5
531.865	83.5
532.08	79.5
532.295	84.5
532.509	79.5
532.724	81.5
532.938	89.5
533.153	72.5
533.367	83.5
533.582	83.5
533.796	86.5
534.011	80.5
534.225	76.5
534.44	78.5
534.654	70.5
534.868	95.5
535.083	79.5
535.297	87.5
535.511	90.5
535.726	96.5
535.94	71.5
536.154	77.5
536.369	92.5
536.583	83.5
536.797	77.5
537.011	82.5
537.225	76.5
537.44	71.5
537.654	87.5
537.868	73.5
538.082	77.5
538.296	73.5
538.51	79.5
538.724	79.5
538.938	81.5
539.153	87.5
