Data from StdB_HRD10591_048.txt Node
Date: Fri May 16 15:25:10 EDT 2025
User: Yrep
Spectrometer: HR+D1059
Trigger mode: 1
Integration Time (sec): 1.000000E-1
Scans to average: 1
Electric dark correction enabled: true
Nonlinearity correction enabled: false
Boxcar width: 0
XAxis mode: Wavelengths
Number of Pixels in Spectrum: 2048
>>>>>Begin Spectral Data<<<<<
223.165	-1.31
223.4	-1.31
223.635	-1.31
223.869	-22.31
224.104	-8.31
224.338	-12.31
224.573	-21.31
224.808	-9.31
225.042	-11.31
225.277	-7.31
225.511	-3.31
225.746	-6.31
225.98	8.69
226.215	9.69
226.449	4.69
226.683	18.69
226.918	32.69
227.152	28.69
227.387	27.69
227.621	28.69
227.856	35.69
228.09	53.69
228.324	49.69
228.559	60.69
228.793	57.69
229.027	62.69
229.262	67.69
229.496	51.69
229.73	69.69
229.964	74.69
230.199	65.69
230.433	72.69
230.667	71.69
230.901	63.69
231.136	82.69
231.37	79.69
231.604	88.69
231.838	86.69
232.072	74.69
232.306	74.69
232.541	74.69
232.775	58.69
233.009	76.69
233.243	79.69
233.477	80.69
233.711	82.69
233.945	82.69
234.179	88.69
234.413	77.69
234.647	87.69
234.881	76.69
235.115	71.69
235.349	65.69
235.583	75.69
235.817	72.69
236.051	78.69
236.285	74.69
236.519	70.69
236.753	74.69
236.987	73.69
237.221	73.69
237.455	69.69
237.689	71.69
237.922	66.69
238.156	80.69
238.39	71.69
238.624	78.69
238.858	88.69
239.091	69.69
239.325	76.69
239.559	69.69
239.793	67.69
240.027	89.69
240.26	67.69
240.494	71.69
240.728	74.69
240.961	69.69
241.195	81.69
241.429	81.69
241.662	75.69
241.896	78.69
242.13	69.69
242.363	70.69
242.597	71.69
242.83	66.69
243.064	79.69
243.298	85.69
243.531	67.69
243.765	63.69
243.998	63.69
244.232	85.69
244.465	70.69
244.699	71.69
244.932	69.69
245.166	70.69
245.399	68.69
245.633	87.69
245.866	62.69
246.099	73.69
246.333	73.69
246.566	69.69
246.8	74.69
247.033	71.69
247.266	81.69
247.5	80.69
247.733	87.69
247.966	66.69
248.2	67.69
248.433	71.69
248.666	77.69
248.899	78.69
249.133	65.69
249.366	82.69
249.599	87.69
249.832	66.69
250.066	71.69
250.299	74.69
250.532	90.69
250.765	77.69
250.998	83.69
251.231	75.69
251.465	85.69
251.698	67.69
251.931	77.69
252.164	78.69
252.397	77.69
252.63	87.69
252.863	90.69
253.096	83.69
253.329	86.69
253.562	77.69
253.795	89.69
254.028	88.69
254.261	77.69
254.494	85.69
254.727	87.69
254.96	63.69
255.193	82.69
255.426	98.69
255.659	97.69
255.892	83.69
256.124	82.69
256.357	82.69
256.59	87.69
256.823	70.69
257.056	92.69
257.289	79.69
257.521	73.69
257.754	79.69
257.987	87.69
258.22	99.69
258.452	83.69
258.685	82.69
258.918	85.69
259.151	76.69
259.383	77.69
259.616	83.69
259.849	74.69
260.081	91.69
260.314	81.69
260.547	78.69
260.779	83.69
261.012	85.69
261.244	98.69
261.477	103.69
261.71	86.69
261.942	79.69
262.175	89.69
262.407	90.69
262.64	71.69
262.872	75.69
263.105	65.69
263.337	92.69
263.57	85.69
263.802	76.69
264.035	75.69
264.267	93.69
264.499	82.69
264.732	75.69
264.964	81.69
265.197	85.69
265.429	91.69
265.661	98.69
265.894	76.69
266.126	78.69
266.358	84.69
266.591	100.69
266.823	90.69
267.055	87.69
267.287	84.69
267.52	71.69
267.752	83.69
267.984	87.69
268.216	88.69
268.448	87.69
268.681	86.69
268.913	77.69
269.145	77.69
269.377	91.69
269.609	77.69
269.841	97.69
270.073	73.69
270.306	82.69
270.538	83.69
270.77	73.69
271.002	77.69
271.234	78.69
271.466	87.69
271.698	85.69
271.93	78.69
272.162	72.69
272.394	93.69
272.626	79.69
272.858	94.69
273.09	79.69
273.322	64.69
273.553	77.69
273.785	90.69
274.017	86.69
274.249	72.69
274.481	90.69
274.713	85.69
274.945	73.69
275.176	57.69
275.408	75.69
275.64	84.69
275.872	81.69
276.104	76.69
276.335	92.69
276.567	82.69
276.799	66.69
277.031	79.69
277.262	71.69
277.494	83.69
277.726	87.69
277.957	68.69
278.189	85.69
278.421	93.69
278.652	57.69
278.884	87.69
279.115	81.69
279.347	77.69
279.579	78.69
279.81	84.69
280.042	102.69
280.273	117.69
280.505	114.69
280.736	82.69
280.968	82.69
281.199	79.69
281.431	94.69
281.662	66.69
281.894	89.69
282.125	79.69
282.356	90.69
282.588	94.69
282.819	100.69
283.051	89.69
283.282	87.69
283.513	97.69
283.745	87.69
283.976	86.69
284.207	91.69
284.439	79.69
284.67	77.69
284.901	78.69
285.132	103.69
285.364	81.69
285.595	90.69
285.826	83.69
286.057	76.69
286.288	75.69
286.52	92.69
286.751	78.69
286.982	92.69
287.213	91.69
287.444	95.69
287.675	97.69
287.906	77.69
288.138	85.69
288.369	82.69
288.6	89.69
288.831	91.69
289.062	101.69
289.293	73.69
289.524	63.69
289.755	75.69
289.986	69.69
290.217	87.69
290.448	81.69
290.679	83.69
290.91	84.69
291.141	85.69
291.371	84.69
291.602	62.69
291.833	87.69
292.064	81.69
292.295	85.69
292.526	84.69
292.757	78.69
292.987	90.69
293.218	69.69
293.449	72.69
293.68	89.69
293.91	86.69
294.141	75.69
294.372	87.69
294.603	100.69
294.833	83.69
295.064	66.69
295.295	81.69
295.525	79.69
295.756	84.69
295.987	82.69
296.217	75.69
296.448	78.69
296.679	83.69
296.909	70.69
297.14	74.69
297.37	62.69
297.601	86.69
297.831	73.69
298.062	94.69
298.292	86.69
298.523	92.69
298.753	86.69
298.984	74.69
299.214	77.69
299.445	75.69
299.675	63.69
299.905	73.69
300.136	81.69
300.366	69.69
300.597	77.69
300.827	80.69
301.057	71.69
301.288	84.69
301.518	96.69
301.748	78.69
301.979	98.69
302.209	97.69
302.439	69.69
302.669	72.69
302.9	87.69
303.13	69.69
303.36	86.69
303.59	83.69
303.82	83.69
304.051	78.69
304.281	87.69
304.511	85.69
304.741	78.69
304.971	90.69
305.201	86.69
305.431	79.69
305.661	83.69
305.891	80.69
306.121	85.69
306.352	84.69
306.582	81.69
306.812	85.69
307.042	80.69
307.272	84.69
307.502	76.69
307.731	94.69
307.961	83.69
308.191	79.69
308.421	85.69
308.651	88.69
308.881	94.69
309.111	86.69
309.341	80.69
309.571	83.69
309.8	81.69
310.03	89.69
310.26	82.69
310.49	78.69
310.72	72.69
310.949	88.69
311.179	77.69
311.409	82.69
311.639	99.69
311.868	90.69
312.098	77.69
312.328	92.69
312.557	80.69
312.787	82.69
313.017	68.69
313.246	83.69
313.476	93.69
313.706	86.69
313.935	77.69
314.165	68.69
314.394	70.69
314.624	82.69
314.853	79.69
315.083	75.69
315.312	91.69
315.542	93.69
315.771	78.69
316.001	81.69
316.23	87.69
316.46	66.69
316.689	78.69
316.919	81.69
317.148	83.69
317.377	91.69
317.607	93.69
317.836	79.69
318.065	70.69
318.295	85.69
318.524	68.69
318.753	81.69
318.983	72.69
319.212	93.69
319.441	74.69
319.67	78.69
319.9	83.69
320.129	93.69
320.358	79.69
320.587	82.69
320.816	87.69
321.046	80.69
321.275	81.69
321.504	75.69
321.733	63.69
321.962	72.69
322.191	84.69
322.42	84.69
322.649	77.69
322.878	92.69
323.108	82.69
323.337	87.69
323.566	84.69
323.795	70.69
324.024	97.69
324.253	79.69
324.482	84.69
324.71	86.69
324.939	84.69
325.168	71.69
325.397	84.69
325.626	89.69
325.855	81.69
326.084	77.69
326.313	78.69
326.542	89.69
326.77	97.69
326.999	77.69
327.228	90.69
327.457	106.69
327.686	76.69
327.914	92.69
328.143	86.69
328.372	99.69
328.6	85.69
328.829	76.69
329.058	88.69
329.287	83.69
329.515	88.69
329.744	85.69
329.972	88.69
330.201	84.69
330.43	87.69
330.658	76.69
330.887	74.69
331.115	85.69
331.344	86.69
331.572	85.69
331.801	82.69
332.03	89.69
332.258	88.69
332.486	82.69
332.715	78.69
332.943	82.69
333.172	86.69
333.4	88.69
333.629	94.69
333.857	80.69
334.085	78.69
334.314	91.69
334.542	87.69
334.771	86.69
334.999	88.69
335.227	84.69
335.455	86.69
335.684	79.69
335.912	93.69
336.14	94.69
336.369	78.69
336.597	82.69
336.825	83.69
337.053	71.69
337.281	89.69
337.51	78.69
337.738	79.69
337.966	73.69
338.194	77.69
338.422	88.69
338.65	81.69
338.878	79.69
339.106	75.69
339.334	88.69
339.562	81.69
339.79	77.69
340.018	71.69
340.246	87.69
340.474	78.69
340.702	92.69
340.93	84.69
341.158	69.69
341.386	69.69
341.614	81.69
341.842	75.69
342.07	89.69
342.298	74.69
342.526	72.69
342.754	79.69
342.981	77.69
343.209	83.69
343.437	89.69
343.665	86.69
343.893	76.69
344.12	92.69
344.348	75.69
344.576	79.69
344.804	78.69
345.031	76.69
345.259	75.69
345.487	70.69
345.714	96.69
345.942	71.69
346.17	63.69
346.397	86.69
346.625	78.69
346.853	77.69
347.08	87.69
347.308	83.69
347.535	82.69
347.763	81.69
347.99	83.69
348.218	76.69
348.445	72.69
348.673	82.69
348.9	75.69
349.128	88.69
349.355	76.69
349.583	83.69
349.81	80.69
350.037	65.69
350.265	93.69
350.492	79.69
350.72	80.69
350.947	77.69
351.174	78.69
351.402	73.69
351.629	84.69
351.856	85.69
352.083	72.69
352.311	79.69
352.538	77.69
352.765	83.69
352.992	80.69
353.22	91.69
353.447	76.69
353.674	73.69
353.901	87.69
354.128	83.69
354.355	84.69
354.583	61.69
354.81	87.69
355.037	101.69
355.264	71.69
355.491	87.69
355.718	87.69
355.945	85.69
356.172	82.69
356.399	92.69
356.626	85.69
356.853	94.69
357.08	124.69
357.307	151.69
357.534	113.69
357.761	78.69
357.988	89.69
358.215	76.69
358.441	78.69
358.668	86.69
358.895	104.69
359.122	81.69
359.349	67.69
359.576	93.69
359.802	76.69
360.029	93.69
360.256	77.69
360.483	86.69
360.709	81.69
360.936	103.69
361.163	87.69
361.39	79.69
361.616	91.69
361.843	73.69
362.07	87.69
362.296	83.69
362.523	85.69
362.749	81.69
362.976	91.69
363.203	100.69
363.429	100.69
363.656	138.69
363.882	191.69
364.109	197.69
364.335	118.69
364.562	94.69
364.788	80.69
365.015	94.69
365.241	84.69
365.468	73.69
365.694	73.69
365.92	95.69
366.147	74.69
366.373	76.69
366.599	100.69
366.826	94.69
367.052	114.69
367.278	125.69
367.505	99.69
367.731	102.69
367.957	134.69
368.184	199.69
368.41	242.69
368.636	206.69
368.862	113.69
369.089	91.69
369.315	95.69
369.541	93.69
369.767	72.69
369.993	77.69
370.219	70.69
370.445	68.69
370.672	64.69
370.898	86.69
371.124	101.69
371.35	74.69
371.576	86.69
371.802	77.69
372.028	83.69
372.254	76.69
372.48	75.69
372.706	89.69
372.932	69.69
373.158	73.69
373.384	80.69
373.61	105.69
373.835	131.69
374.061	145.69
374.287	109.69
374.513	95.69
374.739	88.69
374.965	76.69
375.191	72.69
375.416	82.69
375.642	79.69
375.868	88.69
376.094	69.69
376.319	80.69
376.545	77.69
376.771	92.69
376.997	94.69
377.222	80.69
377.448	93.69
377.674	91.69
377.899	67.69
378.125	81.69
378.35	91.69
378.576	86.69
378.802	83.69
379.027	72.69
379.253	85.69
379.478	69.69
379.704	77.69
379.929	84.69
380.155	82.69
380.38	67.69
380.606	84.69
380.831	69.69
381.057	93.69
381.282	90.69
381.507	95.69
381.733	75.69
381.958	80.69
382.184	79.69
382.409	75.69
382.634	82.69
382.86	67.69
383.085	77.69
383.31	80.69
383.535	90.69
383.761	85.69
383.986	87.69
384.211	85.69
384.436	78.69
384.662	75.69
384.887	78.69
385.112	77.69
385.337	87.69
385.562	77.69
385.787	85.69
386.013	86.69
386.238	94.69
386.463	76.69
386.688	91.69
386.913	81.69
387.138	78.69
387.363	88.69
387.588	68.69
387.813	81.69
388.038	85.69
388.263	82.69
388.488	74.69
388.713	69.69
388.938	85.69
389.163	105.69
389.387	84.69
389.612	70.69
389.837	80.69
390.062	74.69
390.287	70.69
390.512	77.69
390.736	76.69
390.961	73.69
391.186	81.69
391.411	78.69
391.636	65.69
391.86	85.69
392.085	83.69
392.31	99.69
392.534	85.69
392.759	83.69
392.984	74.69
393.208	68.69
393.433	84.69
393.658	79.69
393.882	86.69
394.107	63.69
394.331	86.69
394.556	76.69
394.78	91.69
395.005	87.69
395.229	86.69
395.454	78.69
395.678	73.69
395.903	81.69
396.127	82.69
396.352	74.69
396.576	75.69
396.801	79.69
397.025	67.69
397.249	77.69
397.474	102.69
397.698	75.69
397.922	77.69
398.147	81.69
398.371	80.69
398.595	86.69
398.82	73.69
399.044	74.69
399.268	85.69
399.492	87.69
399.717	91.69
399.941	80.69
400.165	77.69
400.389	92.69
400.613	76.69
400.837	80.69
401.062	89.69
401.286	84.69
401.51	94.69
401.734	98.69
401.958	106.69
402.182	86.69
402.406	71.69
402.63	95.69
402.854	77.69
403.078	87.69
403.302	74.69
403.526	78.69
403.75	90.69
403.974	84.69
404.198	84.69
404.422	92.69
404.645	103.69
404.869	90.69
405.093	92.69
405.317	139.69
405.541	206.69
405.765	366.69
405.988	410.69
406.212	210.69
406.436	145.69
406.66	94.69
406.883	101.69
407.107	92.69
407.331	83.69
407.555	91.69
407.778	81.69
408.002	76.69
408.226	84.69
408.449	82.69
408.673	88.69
408.896	81.69
409.12	73.69
409.344	77.69
409.567	91.69
409.791	98.69
410.014	82.69
410.238	82.69
410.461	71.69
410.685	75.69
410.908	77.69
411.132	89.69
411.355	96.69
411.578	86.69
411.802	79.69
412.025	68.69
412.249	90.69
412.472	82.69
412.695	82.69
412.919	69.69
413.142	85.69
413.365	81.69
413.589	72.69
413.812	91.69
414.035	93.69
414.258	67.69
414.482	64.69
414.705	83.69
414.928	81.69
415.151	89.69
415.374	69.69
415.597	78.69
415.821	75.69
416.044	86.69
416.267	70.69
416.49	88.69
416.713	87.69
416.936	86.69
417.159	91.69
417.382	85.69
417.605	89.69
417.828	84.69
418.051	84.69
418.274	92.69
418.497	78.69
418.72	73.69
418.943	87.69
419.166	72.69
419.389	82.69
419.611	89.69
419.834	69.69
420.057	77.69
420.28	75.69
420.503	76.69
420.726	93.69
420.948	81.69
421.171	72.69
421.394	73.69
421.617	77.69
421.839	75.69
422.062	77.69
422.285	69.69
422.507	79.69
422.73	99.69
422.953	88.69
423.175	77.69
423.398	80.69
423.621	83.69
423.843	82.69
424.066	64.69
424.288	78.69
424.511	82.69
424.733	78.69
424.956	81.69
425.178	83.69
425.401	79.69
425.623	78.69
425.846	90.69
426.068	66.69
426.291	76.69
426.513	85.69
426.735	99.69
426.958	82.69
427.18	83.69
427.402	86.69
427.625	81.69
427.847	92.69
428.069	83.69
428.292	84.69
428.514	89.69
428.736	89.69
428.958	78.69
429.181	78.69
429.403	81.69
429.625	91.69
429.847	84.69
430.069	83.69
430.292	79.69
430.514	83.69
430.736	73.69
430.958	81.69
431.18	81.69
431.402	78.69
431.624	87.69
431.846	60.69
432.068	79.69
432.29	78.69
432.512	70.69
432.734	85.69
432.956	82.69
433.178	78.69
433.4	86.69
433.622	84.69
433.844	88.69
434.066	85.69
434.287	76.69
434.509	79.69
434.731	82.69
434.953	70.69
435.175	81.69
435.397	87.69
435.618	72.69
435.84	81.69
436.062	85.69
436.284	81.69
436.505	83.69
436.727	82.69
436.949	86.69
437.17	71.69
437.392	79.69
437.614	83.69
437.835	77.69
438.057	59.69
438.278	84.69
438.5	96.69
438.721	75.69
438.943	105.69
439.165	75.69
439.386	76.69
439.608	74.69
439.829	69.69
440.05	84.69
440.272	67.69
440.493	85.69
440.715	94.69
440.936	87.69
441.158	85.69
441.379	85.69
441.6	87.69
441.822	87.69
442.043	70.69
442.264	81.69
442.486	74.69
442.707	73.69
442.928	77.69
443.149	81.69
443.371	88.69
443.592	78.69
443.813	74.69
444.034	77.69
444.255	83.69
444.476	66.69
444.698	78.69
444.919	86.69
445.14	142.69
445.361	109.69
445.582	76.69
445.803	88.69
446.024	91.69
446.245	79.69
446.466	86.69
446.687	80.69
446.908	98.69
447.129	85.69
447.35	79.69
447.571	92.69
447.792	75.69
448.013	85.69
448.234	91.69
448.455	85.69
448.675	83.69
448.896	76.69
449.117	90.69
449.338	89.69
449.559	90.69
449.779	86.69
450	91.69
450.221	90.69
450.442	81.69
450.662	97.69
450.883	77.69
451.104	78.69
451.324	78.69
451.545	82.69
451.766	81.69
451.986	61.69
452.207	78.69
452.428	81.69
452.648	82.69
452.869	80.69
453.089	82.69
453.31	78.69
453.53	71.69
453.751	74.69
453.971	86.69
454.192	68.69
454.412	73.69
454.633	63.69
454.853	83.69
455.073	89.69
455.294	80.69
455.514	73.69
455.734	75.69
455.955	75.69
456.175	75.69
456.395	83.69
456.616	69.69
456.836	83.69
457.056	78.69
457.276	78.69
457.497	76.69
457.717	91.69
457.937	90.69
458.157	85.69
458.377	94.69
458.598	71.69
458.818	84.69
459.038	75.69
459.258	71.69
459.478	90.69
459.698	89.69
459.918	77.69
460.138	77.69
460.358	63.69
460.578	98.69
460.798	81.69
461.018	79.69
461.238	85.69
461.458	85.69
461.678	80.69
461.898	87.69
462.118	83.69
462.338	77.69
462.558	93.69
462.777	82.69
462.997	84.69
463.217	82.69
463.437	64.69
463.657	86.69
463.876	74.69
464.096	79.69
464.316	77.69
464.536	81.69
464.755	66.69
464.975	77.69
465.195	79.69
465.414	81.69
465.634	70.69
465.854	85.69
466.073	81.69
466.293	80.69
466.512	76.69
466.732	75.69
466.951	74.69
467.171	78.69
467.391	90.69
467.61	86.69
467.829	90.69
468.049	90.69
468.268	73.69
468.488	79.69
468.707	81.69
468.927	67.69
469.146	76.69
469.365	89.69
469.585	71.69
469.804	84.69
470.023	88.69
470.243	82.69
470.462	86.69
470.681	83.69
470.901	82.69
471.12	87.69
471.339	83.69
471.558	79.69
471.777	77.69
471.997	78.69
472.216	77.69
472.435	80.69
472.654	85.69
472.873	86.69
473.092	87.69
473.311	73.69
473.53	89.69
473.749	70.69
473.968	76.69
474.187	101.69
474.406	71.69
474.625	73.69
474.844	69.69
475.063	77.69
475.282	67.69
475.501	69.69
475.72	74.69
475.939	69.69
476.158	71.69
476.377	87.69
476.596	86.69
476.814	70.69
477.033	86.69
477.252	90.69
477.471	91.69
477.69	78.69
477.908	75.69
478.127	71.69
478.346	81.69
478.564	81.69
478.783	72.69
479.002	80.69
479.22	79.69
479.439	88.69
479.658	80.69
479.876	83.69
480.095	97.69
480.313	98.69
480.532	79.69
480.751	73.69
480.969	75.69
481.188	86.69
481.406	86.69
481.624	79.69
481.843	77.69
482.061	87.69
482.28	81.69
482.498	87.69
482.717	79.69
482.935	78.69
483.153	73.69
483.372	78.69
483.59	73.69
483.808	83.69
484.027	85.69
484.245	79.69
484.463	74.69
484.681	102.69
484.9	76.69
485.118	74.69
485.336	83.69
485.554	100.69
485.772	74.69
485.99	79.69
486.209	82.69
486.427	76.69
486.645	82.69
486.863	73.69
487.081	74.69
487.299	87.69
487.517	77.69
487.735	69.69
487.953	84.69
488.171	81.69
488.389	90.69
488.607	94.69
488.825	101.69
489.043	65.69
489.261	87.69
489.479	92.69
489.696	81.69
489.914	79.69
490.132	68.69
490.35	85.69
490.568	81.69
490.786	86.69
491.003	90.69
491.221	87.69
491.439	89.69
491.657	89.69
491.874	88.69
492.092	98.69
492.31	77.69
492.527	94.69
492.745	81.69
492.963	71.69
493.18	91.69
493.398	80.69
493.615	72.69
493.833	94.69
494.05	90.69
494.268	74.69
494.485	89.69
494.703	85.69
494.92	66.69
495.138	82.69
495.355	88.69
495.573	72.69
495.79	86.69
496.008	89.69
496.225	77.69
496.442	81.69
496.66	83.69
496.877	80.69
497.094	105.69
497.312	79.69
497.529	89.69
497.746	77.69
497.963	88.69
498.181	85.69
498.398	88.69
498.615	78.69
498.832	72.69
499.049	81.69
499.267	74.69
499.484	82.69
499.701	81.69
499.918	90.69
500.135	97.69
500.352	80.69
500.569	121.69
500.786	134.69
501.003	82.69
501.22	82.69
501.437	75.69
501.654	89.69
501.871	85.69
502.088	83.69
502.305	74.69
502.522	85.69
502.739	75.69
502.956	76.69
503.172	92.69
503.389	68.69
503.606	91.69
503.823	91.69
504.04	88.69
504.256	94.69
504.473	83.69
504.69	86.69
504.907	96.69
505.123	81.69
505.34	89.69
505.557	73.69
505.773	99.69
505.99	79.69
506.207	87.69
506.423	76.69
506.64	92.69
506.856	76.69
507.073	73.69
507.289	81.69
507.506	65.69
507.722	99.69
507.939	83.69
508.155	73.69
508.372	71.69
508.588	94.69
508.805	95.69
509.021	82.69
509.238	81.69
509.454	79.69
509.67	90.69
509.887	87.69
510.103	80.69
510.319	88.69
510.536	81.69
510.752	83.69
510.968	67.69
511.184	83.69
511.401	74.69
511.617	83.69
511.833	82.69
512.049	89.69
512.265	86.69
512.481	100.69
512.698	86.69
512.914	87.69
513.13	81.69
513.346	77.69
513.562	78.69
513.778	83.69
513.994	85.69
514.21	71.69
514.426	88.69
514.642	85.69
514.858	65.69
515.074	72.69
515.29	88.69
515.506	83.69
515.721	81.69
515.937	86.69
516.153	85.69
516.369	79.69
516.585	89.69
516.801	85.69
517.016	81.69
517.232	83.69
517.448	83.69
517.664	66.69
517.879	68.69
518.095	83.69
518.311	76.69
518.527	70.69
518.742	75.69
518.958	82.69
519.173	79.69
519.389	77.69
519.605	77.69
