Data from StdB_HRD10591_057.txt Node
Date: Fri May 16 15:25:14 EDT 2025
User: Yrep
Spectrometer: HR+D1059
Trigger mode: 1
Integration Time (sec): 1.000000E-1
Scans to average: 1
Electric dark correction enabled: true
Nonlinearity correction enabled: false
Boxcar width: 0
XAxis mode: Wavelengths
Number of Pixels in Spectrum: 2048
>>>>>Begin Spectral Data<<<<<
223.165	-20
223.4	-20
223.635	-20
223.869	-18
224.104	-8
224.338	-22
224.573	-14
224.808	-14
225.042	-2
225.277	-3
225.511	7
225.746	3
225.98	5
226.215	10
226.449	6
226.683	18
226.918	25
227.152	27
227.387	45
227.621	53
227.856	56
228.09	49
228.324	59
228.559	52
228.793	83
229.027	53
229.262	77
229.496	74
229.73	66
229.964	74
230.199	76
230.433	71
230.667	75
230.901	79
231.136	73
231.37	86
231.604	93
231.838	79
232.072	77
232.306	82
232.541	94
232.775	69
233.009	103
233.243	93
233.477	79
233.711	77
233.945	81
234.179	84
234.413	90
234.647	75
234.881	76
235.115	86
235.349	80
235.583	79
235.817	62
236.051	77
236.285	71
236.519	77
236.753	75
236.987	62
237.221	78
237.455	66
237.689	84
237.922	83
238.156	72
238.39	67
238.624	80
238.858	85
239.091	77
239.325	82
239.559	79
239.793	82
240.027	93
240.26	77
240.494	82
240.728	86
240.961	65
241.195	75
241.429	76
241.662	70
241.896	79
242.13	73
242.363	83
242.597	69
242.83	73
243.064	88
243.298	75
243.531	71
243.765	79
243.998	75
244.232	84
244.465	85
244.699	77
244.932	68
245.166	83
245.399	82
245.633	79
245.866	80
246.099	79
246.333	78
246.566	84
246.8	82
247.033	85
247.266	59
247.5	78
247.733	75
247.966	93
248.2	79
248.433	95
248.666	96
248.899	89
249.133	69
249.366	86
249.599	83
249.832	77
250.066	85
250.299	88
250.532	80
250.765	85
250.998	69
251.231	85
251.465	89
251.698	69
251.931	77
252.164	85
252.397	63
252.63	67
252.863	73
253.096	84
253.329	98
253.562	90
253.795	90
254.028	90
254.261	79
254.494	83
254.727	91
254.96	82
255.193	81
255.426	70
255.659	85
255.892	92
256.124	87
256.357	71
256.59	82
256.823	82
257.056	77
257.289	83
257.521	80
257.754	85
257.987	92
258.22	90
258.452	89
258.685	93
258.918	85
259.151	80
259.383	74
259.616	86
259.849	91
260.081	86
260.314	79
260.547	85
260.779	87
261.012	89
261.244	101
261.477	109
261.71	106
261.942	93
262.175	83
262.407	71
262.64	79
262.872	77
263.105	91
263.337	98
263.57	77
263.802	69
264.035	92
264.267	82
264.499	88
264.732	86
264.964	79
265.197	96
265.429	96
265.661	86
265.894	87
266.126	97
266.358	85
266.591	90
266.823	85
267.055	90
267.287	78
267.52	84
267.752	65
267.984	67
268.216	77
268.448	93
268.681	89
268.913	74
269.145	83
269.377	67
269.609	101
269.841	94
270.073	88
270.306	80
270.538	86
270.77	81
271.002	90
271.234	81
271.466	95
271.698	97
271.93	93
272.162	81
272.394	89
272.626	70
272.858	86
273.09	89
273.322	92
273.553	96
273.785	86
274.017	73
274.249	76
274.481	80
274.713	75
274.945	75
275.176	83
275.408	77
275.64	81
275.872	87
276.104	84
276.335	76
276.567	89
276.799	88
277.031	86
277.262	84
277.494	89
277.726	76
277.957	92
278.189	80
278.421	84
278.652	81
278.884	98
279.115	95
279.347	88
279.579	99
279.81	110
280.042	100
280.273	113
280.505	112
280.736	93
280.968	94
281.199	89
281.431	91
281.662	82
281.894	77
282.125	90
282.356	89
282.588	98
282.819	89
283.051	94
283.282	97
283.513	122
283.745	101
283.976	91
284.207	89
284.439	96
284.67	84
284.901	84
285.132	99
285.364	88
285.595	91
285.826	85
286.057	84
286.288	84
286.52	79
286.751	77
286.982	101
287.213	99
287.444	87
287.675	90
287.906	97
288.138	82
288.369	81
288.6	75
288.831	73
289.062	102
289.293	105
289.524	91
289.755	82
289.986	85
290.217	94
290.448	84
290.679	89
290.91	81
291.141	83
291.371	105
291.602	82
291.833	79
292.064	80
292.295	93
292.526	80
292.757	97
292.987	78
293.218	79
293.449	81
293.68	73
293.91	89
294.141	86
294.372	81
294.603	91
294.833	78
295.064	65
295.295	71
295.525	71
295.756	86
295.987	78
296.217	95
296.448	88
296.679	79
296.909	85
297.14	98
297.37	91
297.601	93
297.831	79
298.062	87
298.292	94
298.523	73
298.753	81
298.984	79
299.214	85
299.445	94
299.675	87
299.905	94
300.136	91
300.366	82
300.597	94
300.827	85
301.057	69
301.288	85
301.518	87
301.748	82
301.979	98
302.209	94
302.439	85
302.669	87
302.9	78
303.13	87
303.36	89
303.59	67
303.82	89
304.051	85
304.281	89
304.511	79
304.741	79
304.971	86
305.201	80
305.431	90
305.661	71
305.891	99
306.121	88
306.352	77
306.582	93
306.812	77
307.042	90
307.272	77
307.502	85
307.731	94
307.961	88
308.191	79
308.421	69
308.651	81
308.881	90
309.111	67
309.341	90
309.571	90
309.8	84
310.03	87
310.26	96
310.49	85
310.72	84
310.949	83
311.179	85
311.409	91
311.639	86
311.868	88
312.098	75
312.328	89
312.557	80
312.787	88
313.017	88
313.246	89
313.476	80
313.706	65
313.935	74
314.165	87
314.394	95
314.624	88
314.853	87
315.083	76
315.312	106
315.542	80
315.771	83
316.001	104
316.23	88
316.46	96
316.689	91
316.919	107
317.148	85
317.377	94
317.607	85
317.836	89
318.065	79
318.295	85
318.524	91
318.753	92
318.983	89
319.212	80
319.441	82
319.67	92
319.9	81
320.129	89
320.358	93
320.587	91
320.816	79
321.046	91
321.275	95
321.504	86
321.733	88
321.962	92
322.191	86
322.42	78
322.649	86
322.878	85
323.108	89
323.337	105
323.566	85
323.795	89
324.024	96
324.253	88
324.482	80
324.71	87
324.939	89
325.168	66
325.397	81
325.626	96
325.855	82
326.084	72
326.313	86
326.542	76
326.77	97
326.999	86
327.228	83
327.457	102
327.686	71
327.914	87
328.143	90
328.372	95
328.6	84
328.829	83
329.058	92
329.287	90
329.515	102
329.744	93
329.972	95
330.201	88
330.43	84
330.658	84
330.887	86
331.115	83
331.344	93
331.572	68
331.801	83
332.03	76
332.258	91
332.486	95
332.715	85
332.943	75
333.172	77
333.4	80
333.629	83
333.857	86
334.085	90
334.314	73
334.542	85
334.771	75
334.999	94
335.227	89
335.455	85
335.684	86
335.912	84
336.14	71
336.369	91
336.597	87
336.825	79
337.053	91
337.281	78
337.51	87
337.738	77
337.966	83
338.194	85
338.422	80
338.65	93
338.878	92
339.106	92
339.334	87
339.562	88
339.79	85
340.018	84
340.246	74
340.474	91
340.702	81
340.93	88
341.158	87
341.386	89
341.614	87
341.842	85
342.07	80
342.298	79
342.526	74
342.754	86
342.981	85
343.209	88
343.437	83
343.665	82
343.893	79
344.12	101
344.348	75
344.576	88
344.804	85
345.031	81
345.259	90
345.487	76
345.714	79
345.942	73
346.17	83
346.397	89
346.625	89
346.853	81
347.08	83
347.308	75
347.535	96
347.763	82
347.99	98
348.218	92
348.445	87
348.673	70
348.9	89
349.128	99
349.355	96
349.583	79
349.81	98
350.037	76
350.265	92
350.492	71
350.72	89
350.947	91
351.174	90
351.402	77
351.629	89
351.856	87
352.083	87
352.311	90
352.538	88
352.765	96
352.992	97
353.22	83
353.447	80
353.674	82
353.901	90
354.128	78
354.355	79
354.583	84
354.81	82
355.037	80
355.264	93
355.491	81
355.718	90
355.945	80
356.172	87
356.399	80
356.626	95
356.853	123
357.08	113
357.307	136
357.534	142
357.761	105
357.988	96
358.215	79
358.441	89
358.668	84
358.895	75
359.122	94
359.349	87
359.576	80
359.802	78
360.029	86
360.256	81
360.483	83
360.709	76
360.936	103
361.163	85
361.39	87
361.616	87
361.843	76
362.07	85
362.296	90
362.523	91
362.749	73
362.976	86
363.203	94
363.429	108
363.656	138
363.882	186
364.109	207
364.335	133
364.562	82
364.788	82
365.015	84
365.241	86
365.468	86
365.694	94
365.92	102
366.147	73
366.373	80
366.599	85
366.826	93
367.052	126
367.278	113
367.505	89
367.731	114
367.957	130
368.184	205
368.41	243
368.636	184
368.862	110
369.089	80
369.315	75
369.541	86
369.767	80
369.993	83
370.219	68
370.445	87
370.672	94
370.898	81
371.124	79
371.35	86
371.576	76
371.802	87
372.028	79
372.254	75
372.48	77
372.706	88
372.932	93
373.158	89
373.384	91
373.61	107
373.835	115
374.061	146
374.287	117
374.513	88
374.739	78
374.965	87
375.191	89
375.416	95
375.642	86
375.868	89
376.094	73
376.319	75
376.545	78
376.771	88
376.997	96
377.222	75
377.448	81
377.674	70
377.899	65
378.125	81
378.35	93
378.576	78
378.802	77
379.027	83
379.253	95
379.478	89
379.704	73
379.929	76
380.155	65
380.38	81
380.606	96
380.831	94
381.057	79
381.282	90
381.507	85
381.733	83
381.958	84
382.184	73
382.409	86
382.634	81
382.86	71
383.085	82
383.31	98
383.535	74
383.761	89
383.986	96
384.211	83
384.436	91
384.662	94
384.887	88
385.112	72
385.337	90
385.562	99
385.787	74
386.013	99
386.238	73
386.463	79
386.688	92
386.913	92
387.138	90
387.363	87
387.588	97
387.813	86
388.038	76
388.263	85
388.488	83
388.713	76
388.938	88
389.163	77
389.387	80
389.612	98
389.837	88
390.062	93
390.287	72
390.512	89
390.736	72
390.961	81
391.186	90
391.411	82
391.636	71
391.86	77
392.085	82
392.31	72
392.534	81
392.759	83
392.984	94
393.208	83
393.433	97
393.658	83
393.882	92
394.107	72
394.331	73
394.556	87
394.78	81
395.005	93
395.229	82
395.454	95
395.678	98
395.903	85
396.127	79
396.352	86
396.576	87
396.801	75
397.025	73
397.249	75
397.474	92
397.698	101
397.922	80
398.147	81
398.371	103
398.595	88
398.82	73
399.044	87
399.268	92
399.492	80
399.717	89
399.941	81
400.165	86
400.389	86
400.613	81
400.837	86
401.062	90
401.286	88
401.51	85
401.734	95
401.958	110
402.182	99
402.406	85
402.63	80
402.854	72
403.078	91
403.302	87
403.526	76
403.75	97
403.974	88
404.198	93
404.422	86
404.645	88
404.869	80
405.093	99
405.317	121
405.541	213
405.765	360
405.988	387
406.212	217
406.436	147
406.66	78
406.883	83
407.107	95
407.331	90
407.555	89
407.778	79
408.002	86
408.226	76
408.449	80
408.673	82
408.896	87
409.12	94
409.344	94
409.567	80
409.791	79
410.014	72
410.238	98
410.461	89
410.685	85
410.908	81
411.132	74
411.355	82
411.578	82
411.802	85
412.025	70
412.249	75
412.472	88
412.695	81
412.919	83
413.142	89
413.365	94
413.589	89
413.812	85
414.035	82
414.258	98
414.482	81
414.705	77
414.928	77
415.151	78
415.374	84
415.597	74
415.821	74
416.044	88
416.267	72
416.49	89
416.713	85
416.936	95
417.159	96
417.382	101
417.605	79
417.828	73
418.051	81
418.274	88
418.497	84
418.72	93
418.943	87
419.166	72
419.389	91
419.611	81
419.834	92
420.057	83
420.28	82
420.503	78
420.726	85
420.948	85
421.171	75
421.394	78
421.617	81
421.839	94
422.062	78
422.285	82
422.507	94
422.73	71
422.953	71
423.175	83
423.398	88
423.621	71
423.843	92
424.066	89
424.288	88
424.511	82
424.733	90
424.956	94
425.178	81
425.401	87
425.623	85
425.846	74
426.068	85
426.291	87
426.513	90
426.735	79
426.958	83
427.18	87
427.402	86
427.625	75
427.847	102
428.069	89
428.292	81
428.514	80
428.736	81
428.958	86
429.181	93
429.403	91
429.625	84
429.847	87
430.069	95
430.292	80
430.514	101
430.736	107
430.958	100
431.18	78
431.402	83
431.624	88
431.846	79
432.068	81
432.29	88
432.512	75
432.734	91
432.956	83
433.178	83
433.4	89
433.622	91
433.844	97
434.066	82
434.287	86
434.509	91
434.731	86
434.953	95
435.175	89
435.397	85
435.618	91
435.84	95
436.062	93
436.284	91
436.505	77
436.727	67
436.949	77
437.17	99
437.392	84
437.614	75
437.835	80
438.057	81
438.278	78
438.5	75
438.721	83
438.943	83
439.165	75
439.386	99
439.608	74
439.829	91
440.05	97
440.272	93
440.493	77
440.715	85
440.936	83
441.158	85
441.379	81
441.6	78
441.822	94
442.043	87
442.264	81
442.486	83
442.707	85
442.928	78
443.149	70
443.371	82
443.592	76
443.813	78
444.034	78
444.255	90
444.476	87
444.698	100
444.919	76
445.14	155
445.361	125
445.582	77
445.803	72
446.024	89
446.245	86
446.466	86
446.687	87
446.908	89
447.129	80
447.35	94
447.571	81
447.792	86
448.013	87
448.234	88
448.455	77
448.675	89
448.896	82
449.117	103
449.338	90
449.559	97
449.779	73
450	88
450.221	90
450.442	69
450.662	89
450.883	86
451.104	81
451.324	86
451.545	92
451.766	86
451.986	93
452.207	84
452.428	88
452.648	85
452.869	94
453.089	81
453.31	90
453.53	86
453.751	75
453.971	88
454.192	78
454.412	84
454.633	87
454.853	87
455.073	84
455.294	73
455.514	80
455.734	77
455.955	84
456.175	74
456.395	77
456.616	84
456.836	88
457.056	86
457.276	81
457.497	85
457.717	85
457.937	79
458.157	83
458.377	88
458.598	78
458.818	73
459.038	89
459.258	92
459.478	95
459.698	73
459.918	88
460.138	86
460.358	88
460.578	88
460.798	83
461.018	82
461.238	87
461.458	75
461.678	82
461.898	84
462.118	78
462.338	81
462.558	99
462.777	91
462.997	82
463.217	78
463.437	89
463.657	78
463.876	90
464.096	95
464.316	89
464.536	76
464.755	84
464.975	85
465.195	90
465.414	87
465.634	88
465.854	74
466.073	80
466.293	82
466.512	90
466.732	102
466.951	66
467.171	87
467.391	80
467.61	71
467.829	87
468.049	85
468.268	83
468.488	81
468.707	77
468.927	76
469.146	79
469.365	83
469.585	70
469.804	83
470.023	81
470.243	99
470.462	91
470.681	84
470.901	80
471.12	90
471.339	94
471.558	90
471.777	91
471.997	85
472.216	74
472.435	75
472.654	82
472.873	82
473.092	71
473.311	87
473.53	88
473.749	90
473.968	94
474.187	95
474.406	80
474.625	96
474.844	85
475.063	79
475.282	82
475.501	82
475.72	93
475.939	76
476.158	85
476.377	88
476.596	91
476.814	76
477.033	86
477.252	80
477.471	88
477.69	74
477.908	80
478.127	99
478.346	93
478.564	75
478.783	78
479.002	77
479.22	94
479.439	99
479.658	93
479.876	98
480.095	83
480.313	83
480.532	94
480.751	91
480.969	96
481.188	93
481.406	99
481.624	85
481.843	101
482.061	81
482.28	78
482.498	98
482.717	91
482.935	79
483.153	84
483.372	73
483.59	82
483.808	93
484.027	81
484.245	94
484.463	95
484.681	94
484.9	81
485.118	88
485.336	77
485.554	75
485.772	76
485.99	80
486.209	83
486.427	79
486.645	99
486.863	78
487.081	83
487.299	85
487.517	77
487.735	81
487.953	78
488.171	95
488.389	83
488.607	83
488.825	84
489.043	88
489.261	86
489.479	84
489.696	93
489.914	95
490.132	79
490.35	95
490.568	92
490.786	70
491.003	88
491.221	84
491.439	79
491.657	90
491.874	94
492.092	78
492.31	96
492.527	97
492.745	78
492.963	93
493.18	75
493.398	95
493.615	93
493.833	83
494.05	93
494.268	93
494.485	102
494.703	81
494.92	87
495.138	89
495.355	78
495.573	87
495.79	91
496.008	90
496.225	92
496.442	87
496.66	97
496.877	82
497.094	87
497.312	89
497.529	94
497.746	83
497.963	89
498.181	85
498.398	83
498.615	81
498.832	88
499.049	79
499.267	94
499.484	99
499.701	79
499.918	101
500.135	85
500.352	90
500.569	120
500.786	147
501.003	93
501.22	100
501.437	92
501.654	81
501.871	101
502.088	84
502.305	68
502.522	89
502.739	78
502.956	90
503.172	74
503.389	90
503.606	93
503.823	93
504.04	78
504.256	92
504.473	90
504.69	90
504.907	98
505.123	83
505.34	91
505.557	78
505.773	74
505.99	80
506.207	95
506.423	81
506.64	91
506.856	88
507.073	78
507.289	66
507.506	103
507.722	89
507.939	83
508.155	89
508.372	87
508.588	74
508.805	90
509.021	87
509.238	90
509.454	101
509.67	85
509.887	91
510.103	94
510.319	87
510.536	91
510.752	88
510.968	100
511.184	75
511.401	83
511.617	86
511.833	80
512.049	83
512.265	75
512.481	88
512.698	79
512.914	87
513.13	86
513.346	86
513.562	81
513.778	85
513.994	80
514.21	85
514.426	80
514.642	87
514.858	87
515.074	97
515.29	82
515.506	87
515.721	90
515.937	76
516.153	80
516.369	85
516.585	93
516.801	75
517.016	97
517.232	91
517.448	88
517.664	94
517.879	96
518.095	86
518.311	95
518.527	83
518.742	80
518.958	84
519.173	77
519.389	92
519.605	88
519.82	86
520.036	82
520.251	99
520.467	95
520.682	86
520.898	82
521.113	86
521.329	91
521.544	79
521.76	96
521.975	76
522.19	82
522.406	87
522.621	94
522.836	92
523.052	93
523.267	94
523.482	78
523.698	82
523.913	91
524.128	89
524.343	83
524.559	96
524.774	83
524.989	91
525.204	86
525.419	71
525.634	92
525.849	77
526.064	90
526.28	93
526.495	86
526.71	88
526.925	99
527.14	101
527.355	87
527.57	67
527.785	80
527.999	95
528.214	86
528.429	74
528.644	78
528.859	84
529.074	97
529.289	94
529.503	99
529.718	98
529.933	78
530.148	87
530.363	91
530.577	90
530.792	92
531.007	79
531.221	86
531.436	77
531.651	77
531.865	83
532.08	93
532.295	98
532.509	75
532.724	112
532.938	98
533.153	85
533.367	87
533.582	78
533.796	91
534.011	87
534.225	96
534.44	93
534.654	91
534.868	92
535.083	79
535.297	92
535.511	92
535.726	86
535.94	81
536.154	84
536.369	93
536.583	82
536.797	85
537.011	90
537.225	77
537.44	85
537.654	89
537.868	87
538.082	84
538.296	88
538.51	80
538.724	86
538.938	83
539.153	94
539.367	91
539.581	95
539.795	82
540.009	81
540.222	89
540.436	85
540.65	74
540.864	97
541.078	90
541.292	81
541.506	94
541.72	92
541.934	95
542.147	81
542.361	85
542.575	93
542.789	75
543.002	96
543.216	86
543.43	82
543.644	84
543.857	82
544.071	90
544.285	101
544.498	78
544.712	95
544.925	91
545.139	85
545.352	97
545.566	90
545.779	88
545.993	80
546.206	91
546.42	86
546.633	82
546.847	88
547.06	71
547.274	91
547.487	99
547.7	82
547.914	95
548.127	84
548.34	86
548.554	83
548.767	77
548.98	97
549.193	74
549.407	81
549.62	88
549.833	109
550.046	113
550.259	78
550.473	85
550.686	100
550.899	90
551.112	101
551.325	82
551.538	75
551.751	88
551.964	99
552.177	90
552.39	91
552.603	86
552.816	91
553.029	81
553.242	92
553.455	96
553.667	94
553.88	90
554.093	91
554.306	82
554.519	90
554.732	78
554.944	95
555.157	88
555.37	91
555.583	90
555.795	91
556.008	75
556.221	85
556.433	86
556.646	76
556.859	73
557.071	93
557.284	76
557.496	85
557.709	81
557.921	79
558.134	77
558.346	87
558.559	86
558.771	89
558.984	92
559.196	83
559.409	89
559.621	78
559.833	88
560.046	74
560.258	95
560.47	100
560.683	94
560.895	91
561.107	93
561.32	102
561.532	91
561.744	92
561.956	86
562.168	88
562.381	98
562.593	98
562.805	92
563.017	103
563.229	78
563.441	103
563.653	84
563.865	89
564.077	76
564.289	101
564.501	74
564.713	88
564.925	81
565.137	70
565.349	73
565.561	86
565.773	95
565.985	91
566.197	99
566.408	84
566.62	98
566.832	96
567.044	98
567.255	75
567.467	85
567.679	86
567.891	99
568.102	89
568.314	78
568.526	74
568.737	83
568.949	83
569.161	70
569.372	93
569.584	73
569.795	81
570.007	93
570.218	94
570.43	90
570.641	90
570.853	94
571.064	81
571.276	88
571.487	84
571.698	89
571.91	88
572.121	81
572.333	75
572.544	90
572.755	89
572.966	82
573.178	90
573.389	93
573.6	78
573.811	94
574.023	73
574.234	93
574.445	88
574.656	87
574.867	74
575.078	87
575.289	83
575.501	77
575.712	81
575.923	79
576.134	97
576.345	86
576.556	85
576.767	78
576.978	81
577.188	104
577.399	89
577.61	76
577.821	78
578.032	82
578.243	85
578.454	94
578.665	86
578.875	75
579.086	75
579.297	75
579.508	91
579.718	102
579.929	93
580.14	81
580.35	88
580.561	85
580.772	89
580.982	89
581.193	87
581.403	99
581.614	97
581.825	79
582.035	83
582.246	97
582.456	101
582.667	89
582.877	85
583.087	91
583.298	78
583.508	87
583.719	92
583.929	85
584.139	98
584.35	87
584.56	98
584.77	84
584.981	76
585.191	89
585.401	92
585.611	92
585.821	88
586.032	83
586.242	86
586.452	93
586.662	82
586.872	110
587.082	83
587.292	86
587.502	82
587.713	77
587.923	82
588.133	97
588.343	68
588.553	91
588.762	91
588.972	91
589.182	95
589.392	88
589.602	77
