Data from StdB_HRD10591_063.txt Node
Date: Fri May 16 15:25:17 EDT 2025
User: Yrep
Spectrometer: HR+D1059
Trigger mode: 1
Integration Time (sec): 1.000000E-1
Scans to average: 1
Electric dark correction enabled: true
Nonlinearity correction enabled: false
Boxcar width: 0
XAxis mode: Wavelengths
Number of Pixels in Spectrum: 2048
>>>>>Begin Spectral Data<<<<<
223.165	-12.62
223.4	-12.62
223.635	-12.62
223.869	-1.62
224.104	-18.62
224.338	-11.62
224.573	-9.62
224.808	-11.62
225.042	-1.62
225.277	-14.62
225.511	-7.62
225.746	2.38
225.98	-2.62
226.215	-7.62
226.449	1.38
226.683	29.38
226.918	29.38
227.152	37.38
227.387	45.38
227.621	41.38
227.856	60.38
228.09	45.38
228.324	48.38
228.559	54.38
228.793	50.38
229.027	58.38
229.262	53.38
229.496	77.38
229.73	77.38
229.964	87.38
230.199	72.38
230.433	79.38
230.667	57.38
230.901	77.38
231.136	72.38
231.37	76.38
231.604	78.38
231.838	73.38
232.072	79.38
232.306	78.38
232.541	68.38
232.775	95.38
233.009	92.38
233.243	72.38
233.477	78.38
233.711	72.38
233.945	78.38
234.179	80.38
234.413	84.38
234.647	89.38
234.881	76.38
235.115	79.38
235.349	87.38
235.583	86.38
235.817	78.38
236.051	75.38
236.285	79.38
236.519	75.38
236.753	81.38
236.987	77.38
237.221	78.38
237.455	74.38
237.689	84.38
237.922	76.38
238.156	73.38
238.39	76.38
238.624	81.38
238.858	80.38
239.091	72.38
239.325	75.38
239.559	65.38
239.793	81.38
240.027	83.38
240.26	89.38
240.494	86.38
240.728	64.38
240.961	74.38
241.195	86.38
241.429	66.38
241.662	69.38
241.896	71.38
242.13	76.38
242.363	53.38
242.597	73.38
242.83	81.38
243.064	77.38
243.298	75.38
243.531	72.38
243.765	71.38
243.998	88.38
244.232	89.38
244.465	75.38
244.699	81.38
244.932	82.38
245.166	68.38
245.399	73.38
245.633	92.38
245.866	66.38
246.099	73.38
246.333	65.38
246.566	74.38
246.8	79.38
247.033	92.38
247.266	85.38
247.5	94.38
247.733	92.38
247.966	79.38
248.2	76.38
248.433	76.38
248.666	79.38
248.899	77.38
249.133	83.38
249.366	70.38
249.599	66.38
249.832	69.38
250.066	74.38
250.299	76.38
250.532	68.38
250.765	85.38
250.998	79.38
251.231	77.38
251.465	72.38
251.698	96.38
251.931	84.38
252.164	78.38
252.397	80.38
252.63	72.38
252.863	65.38
253.096	86.38
253.329	87.38
253.562	85.38
253.795	75.38
254.028	80.38
254.261	69.38
254.494	74.38
254.727	95.38
254.96	72.38
255.193	74.38
255.426	82.38
255.659	74.38
255.892	88.38
256.124	68.38
256.357	72.38
256.59	84.38
256.823	77.38
257.056	79.38
257.289	77.38
257.521	77.38
257.754	77.38
257.987	86.38
258.22	88.38
258.452	77.38
258.685	90.38
258.918	88.38
259.151	61.38
259.383	79.38
259.616	87.38
259.849	72.38
260.081	83.38
260.314	74.38
260.547	83.38
260.779	74.38
261.012	68.38
261.244	70.38
261.477	103.38
261.71	90.38
261.942	89.38
262.175	88.38
262.407	77.38
262.64	75.38
262.872	77.38
263.105	89.38
263.337	88.38
263.57	66.38
263.802	80.38
264.035	78.38
264.267	77.38
264.499	84.38
264.732	93.38
264.964	78.38
265.197	81.38
265.429	77.38
265.661	93.38
265.894	82.38
266.126	89.38
266.358	95.38
266.591	89.38
266.823	80.38
267.055	87.38
267.287	81.38
267.52	65.38
267.752	75.38
267.984	88.38
268.216	81.38
268.448	85.38
268.681	96.38
268.913	72.38
269.145	90.38
269.377	90.38
269.609	81.38
269.841	77.38
270.073	86.38
270.306	87.38
270.538	82.38
270.77	95.38
271.002	88.38
271.234	83.38
271.466	81.38
271.698	80.38
271.93	80.38
272.162	89.38
272.394	90.38
272.626	66.38
272.858	93.38
273.09	81.38
273.322	89.38
273.553	84.38
273.785	91.38
274.017	79.38
274.249	92.38
274.481	88.38
274.713	88.38
274.945	77.38
275.176	90.38
275.408	88.38
275.64	85.38
275.872	83.38
276.104	78.38
276.335	81.38
276.567	85.38
276.799	92.38
277.031	81.38
277.262	83.38
277.494	90.38
277.726	74.38
277.957	84.38
278.189	94.38
278.421	69.38
278.652	88.38
278.884	101.38
279.115	74.38
279.347	80.38
279.579	88.38
279.81	104.38
280.042	112.38
280.273	115.38
280.505	102.38
280.736	80.38
280.968	80.38
281.199	87.38
281.431	92.38
281.662	79.38
281.894	72.38
282.125	97.38
282.356	85.38
282.588	106.38
282.819	99.38
283.051	103.38
283.282	95.38
283.513	120.38
283.745	93.38
283.976	72.38
284.207	81.38
284.439	94.38
284.67	84.38
284.901	88.38
285.132	85.38
285.364	95.38
285.595	105.38
285.826	79.38
286.057	79.38
286.288	92.38
286.52	74.38
286.751	92.38
286.982	82.38
287.213	90.38
287.444	115.38
287.675	89.38
287.906	75.38
288.138	81.38
288.369	81.38
288.6	73.38
288.831	86.38
289.062	79.38
289.293	87.38
289.524	77.38
289.755	80.38
289.986	78.38
290.217	92.38
290.448	78.38
290.679	87.38
290.91	84.38
291.141	98.38
291.371	97.38
291.602	82.38
291.833	65.38
292.064	89.38
292.295	93.38
292.526	94.38
292.757	80.38
292.987	84.38
293.218	84.38
293.449	85.38
293.68	98.38
293.91	90.38
294.141	88.38
294.372	93.38
294.603	90.38
294.833	80.38
295.064	82.38
295.295	91.38
295.525	82.38
295.756	80.38
295.987	83.38
296.217	81.38
296.448	90.38
296.679	88.38
296.909	81.38
297.14	72.38
297.37	90.38
297.601	77.38
297.831	88.38
298.062	88.38
298.292	78.38
298.523	76.38
298.753	83.38
298.984	70.38
299.214	79.38
299.445	89.38
299.675	87.38
299.905	81.38
300.136	75.38
300.366	78.38
300.597	89.38
300.827	90.38
301.057	90.38
301.288	82.38
301.518	85.38
301.748	76.38
301.979	91.38
302.209	88.38
302.439	75.38
302.669	84.38
302.9	73.38
303.13	78.38
303.36	73.38
303.59	88.38
303.82	93.38
304.051	102.38
304.281	88.38
304.511	78.38
304.741	105.38
304.971	70.38
305.201	94.38
305.431	86.38
305.661	96.38
305.891	82.38
306.121	86.38
306.352	90.38
306.582	76.38
306.812	85.38
307.042	76.38
307.272	82.38
307.502	87.38
307.731	98.38
307.961	71.38
308.191	92.38
308.421	86.38
308.651	81.38
308.881	72.38
309.111	81.38
309.341	96.38
309.571	92.38
309.8	82.38
310.03	72.38
310.26	88.38
310.49	77.38
310.72	72.38
310.949	75.38
311.179	96.38
311.409	84.38
311.639	92.38
311.868	84.38
312.098	91.38
312.328	90.38
312.557	85.38
312.787	73.38
313.017	75.38
313.246	96.38
313.476	84.38
313.706	89.38
313.935	98.38
314.165	82.38
314.394	81.38
314.624	92.38
314.853	94.38
315.083	78.38
315.312	86.38
315.542	80.38
315.771	84.38
316.001	84.38
316.23	82.38
316.46	83.38
316.689	86.38
316.919	80.38
317.148	92.38
317.377	93.38
317.607	85.38
317.836	83.38
318.065	85.38
318.295	72.38
318.524	81.38
318.753	76.38
318.983	89.38
319.212	80.38
319.441	83.38
319.67	80.38
319.9	92.38
320.129	78.38
320.358	87.38
320.587	89.38
320.816	90.38
321.046	83.38
321.275	81.38
321.504	80.38
321.733	94.38
321.962	90.38
322.191	84.38
322.42	71.38
322.649	77.38
322.878	89.38
323.108	66.38
323.337	81.38
323.566	78.38
323.795	82.38
324.024	91.38
324.253	93.38
324.482	82.38
324.71	84.38
324.939	88.38
325.168	86.38
325.397	77.38
325.626	80.38
325.855	78.38
326.084	77.38
326.313	75.38
326.542	81.38
326.77	93.38
326.999	88.38
327.228	76.38
327.457	100.38
327.686	80.38
327.914	80.38
328.143	77.38
328.372	85.38
328.6	83.38
328.829	96.38
329.058	75.38
329.287	72.38
329.515	89.38
329.744	90.38
329.972	84.38
330.201	77.38
330.43	83.38
330.658	93.38
330.887	86.38
331.115	88.38
331.344	86.38
331.572	82.38
331.801	93.38
332.03	88.38
332.258	80.38
332.486	90.38
332.715	77.38
332.943	88.38
333.172	86.38
333.4	84.38
333.629	79.38
333.857	107.38
334.085	81.38
334.314	82.38
334.542	89.38
334.771	92.38
334.999	75.38
335.227	72.38
335.455	90.38
335.684	79.38
335.912	90.38
336.14	88.38
336.369	96.38
336.597	106.38
336.825	87.38
337.053	81.38
337.281	100.38
337.51	97.38
337.738	88.38
337.966	84.38
338.194	81.38
338.422	73.38
338.65	89.38
338.878	90.38
339.106	96.38
339.334	89.38
339.562	74.38
339.79	74.38
340.018	79.38
340.246	79.38
340.474	82.38
340.702	91.38
340.93	76.38
341.158	92.38
341.386	80.38
341.614	92.38
341.842	91.38
342.07	80.38
342.298	91.38
342.526	83.38
342.754	97.38
342.981	100.38
343.209	77.38
343.437	96.38
343.665	80.38
343.893	95.38
344.12	89.38
344.348	87.38
344.576	93.38
344.804	79.38
345.031	88.38
345.259	69.38
345.487	75.38
345.714	87.38
345.942	80.38
346.17	90.38
346.397	81.38
346.625	84.38
346.853	84.38
347.08	83.38
347.308	70.38
347.535	77.38
347.763	90.38
347.99	88.38
348.218	89.38
348.445	81.38
348.673	87.38
348.9	72.38
349.128	78.38
349.355	79.38
349.583	81.38
349.81	83.38
350.037	83.38
350.265	81.38
350.492	72.38
350.72	84.38
350.947	76.38
351.174	90.38
351.402	71.38
351.629	81.38
351.856	88.38
352.083	86.38
352.311	84.38
352.538	90.38
352.765	83.38
352.992	86.38
353.22	86.38
353.447	87.38
353.674	83.38
353.901	89.38
354.128	77.38
354.355	92.38
354.583	83.38
354.81	78.38
355.037	72.38
355.264	71.38
355.491	79.38
355.718	80.38
355.945	83.38
356.172	86.38
356.399	75.38
356.626	103.38
356.853	104.38
357.08	122.38
357.307	139.38
357.534	125.38
357.761	102.38
357.988	92.38
358.215	72.38
358.441	73.38
358.668	97.38
358.895	94.38
359.122	85.38
359.349	85.38
359.576	80.38
359.802	71.38
360.029	89.38
360.256	72.38
360.483	86.38
360.709	64.38
360.936	90.38
361.163	88.38
361.39	82.38
361.616	85.38
361.843	88.38
362.07	80.38
362.296	93.38
362.523	88.38
362.749	91.38
362.976	85.38
363.203	82.38
363.429	106.38
363.656	137.38
363.882	189.38
364.109	185.38
364.335	124.38
364.562	88.38
364.788	85.38
365.015	93.38
365.241	77.38
365.468	78.38
365.694	84.38
365.92	64.38
366.147	78.38
366.373	94.38
366.599	89.38
366.826	93.38
367.052	101.38
367.278	109.38
367.505	89.38
367.731	102.38
367.957	134.38
368.184	201.38
368.41	257.38
368.636	192.38
368.862	111.38
369.089	89.38
369.315	88.38
369.541	90.38
369.767	87.38
369.993	101.38
370.219	92.38
370.445	92.38
370.672	88.38
370.898	93.38
371.124	82.38
371.35	103.38
371.576	83.38
371.802	77.38
372.028	78.38
372.254	74.38
372.48	91.38
372.706	90.38
372.932	80.38
373.158	90.38
373.384	103.38
373.61	93.38
373.835	129.38
374.061	137.38
374.287	122.38
374.513	72.38
374.739	81.38
374.965	89.38
375.191	84.38
375.416	103.38
375.642	89.38
375.868	90.38
376.094	86.38
376.319	79.38
376.545	92.38
376.771	79.38
376.997	88.38
377.222	93.38
377.448	71.38
377.674	88.38
377.899	79.38
378.125	79.38
378.35	85.38
378.576	87.38
378.802	84.38
379.027	81.38
379.253	83.38
379.478	86.38
379.704	75.38
379.929	80.38
380.155	80.38
380.38	89.38
380.606	93.38
380.831	88.38
381.057	92.38
381.282	79.38
381.507	70.38
381.733	77.38
381.958	75.38
382.184	79.38
382.409	80.38
382.634	85.38
382.86	70.38
383.085	87.38
383.31	88.38
383.535	85.38
383.761	79.38
383.986	89.38
384.211	80.38
384.436	70.38
384.662	92.38
384.887	76.38
385.112	71.38
385.337	76.38
385.562	74.38
385.787	81.38
386.013	77.38
386.238	84.38
386.463	83.38
386.688	97.38
386.913	84.38
387.138	90.38
387.363	86.38
387.588	95.38
387.813	74.38
388.038	81.38
388.263	82.38
388.488	81.38
388.713	91.38
388.938	90.38
389.163	87.38
389.387	81.38
389.612	82.38
389.837	85.38
390.062	86.38
390.287	94.38
390.512	75.38
390.736	80.38
390.961	74.38
391.186	89.38
391.411	86.38
391.636	87.38
391.86	84.38
392.085	75.38
392.31	73.38
392.534	81.38
392.759	86.38
392.984	91.38
393.208	82.38
393.433	88.38
393.658	70.38
393.882	74.38
394.107	74.38
394.331	80.38
394.556	84.38
394.78	87.38
395.005	78.38
395.229	85.38
395.454	78.38
395.678	86.38
395.903	88.38
396.127	87.38
396.352	92.38
396.576	86.38
396.801	92.38
397.025	75.38
397.249	100.38
397.474	92.38
397.698	73.38
397.922	74.38
398.147	75.38
398.371	77.38
398.595	96.38
398.82	84.38
399.044	82.38
399.268	86.38
399.492	93.38
399.717	95.38
399.941	81.38
400.165	81.38
400.389	73.38
400.613	79.38
400.837	79.38
401.062	73.38
401.286	95.38
401.51	95.38
401.734	103.38
401.958	101.38
402.182	106.38
402.406	87.38
402.63	89.38
402.854	93.38
403.078	75.38
403.302	87.38
403.526	82.38
403.75	84.38
403.974	95.38
404.198	90.38
404.422	74.38
404.645	91.38
404.869	94.38
405.093	110.38
405.317	123.38
405.541	217.38
405.765	362.38
405.988	400.38
406.212	202.38
406.436	123.38
406.66	97.38
406.883	89.38
407.107	95.38
407.331	80.38
407.555	77.38
407.778	78.38
408.002	81.38
408.226	72.38
408.449	88.38
408.673	77.38
408.896	93.38
409.12	81.38
409.344	91.38
409.567	89.38
409.791	83.38
410.014	79.38
410.238	82.38
410.461	86.38
410.685	98.38
410.908	71.38
411.132	86.38
411.355	90.38
411.578	92.38
411.802	72.38
412.025	94.38
412.249	84.38
412.472	88.38
412.695	96.38
412.919	88.38
413.142	87.38
413.365	82.38
413.589	66.38
413.812	75.38
414.035	89.38
414.258	84.38
414.482	92.38
414.705	91.38
414.928	75.38
415.151	77.38
415.374	75.38
415.597	78.38
415.821	67.38
416.044	86.38
416.267	84.38
416.49	88.38
416.713	86.38
416.936	90.38
417.159	102.38
417.382	72.38
417.605	76.38
417.828	88.38
418.051	72.38
418.274	85.38
418.497	85.38
418.72	72.38
418.943	91.38
419.166	73.38
419.389	90.38
419.611	97.38
419.834	84.38
420.057	78.38
420.28	78.38
420.503	98.38
420.726	83.38
420.948	96.38
421.171	82.38
421.394	90.38
421.617	84.38
421.839	88.38
422.062	82.38
422.285	88.38
422.507	91.38
422.73	92.38
422.953	82.38
423.175	90.38
423.398	80.38
423.621	89.38
423.843	81.38
424.066	76.38
424.288	88.38
424.511	73.38
424.733	82.38
424.956	87.38
425.178	80.38
425.401	89.38
425.623	72.38
425.846	80.38
426.068	97.38
426.291	73.38
426.513	86.38
426.735	88.38
426.958	96.38
427.18	87.38
427.402	80.38
427.625	67.38
427.847	78.38
428.069	80.38
428.292	67.38
428.514	78.38
428.736	70.38
428.958	69.38
429.181	78.38
429.403	76.38
429.625	77.38
429.847	76.38
430.069	78.38
430.292	85.38
430.514	87.38
430.736	66.38
430.958	81.38
431.18	76.38
431.402	62.38
431.624	80.38
431.846	70.38
432.068	77.38
432.29	76.38
432.512	72.38
432.734	97.38
432.956	82.38
433.178	88.38
433.4	76.38
433.622	79.38
433.844	104.38
434.066	81.38
434.287	88.38
434.509	86.38
434.731	85.38
434.953	87.38
435.175	92.38
435.397	63.38
435.618	87.38
435.84	87.38
436.062	89.38
436.284	85.38
436.505	90.38
436.727	81.38
436.949	73.38
437.17	81.38
437.392	76.38
437.614	79.38
437.835	71.38
438.057	67.38
438.278	79.38
438.5	89.38
438.721	86.38
438.943	78.38
439.165	82.38
439.386	78.38
439.608	67.38
439.829	79.38
440.05	80.38
440.272	83.38
440.493	82.38
440.715	77.38
440.936	84.38
441.158	66.38
441.379	84.38
441.6	80.38
441.822	79.38
442.043	90.38
442.264	80.38
442.486	86.38
442.707	84.38
442.928	85.38
443.149	79.38
443.371	73.38
443.592	82.38
443.813	80.38
444.034	100.38
444.255	83.38
444.476	78.38
444.698	87.38
444.919	87.38
445.14	149.38
445.361	113.38
445.582	83.38
445.803	85.38
446.024	84.38
446.245	85.38
446.466	85.38
446.687	75.38
446.908	87.38
447.129	87.38
447.35	74.38
447.571	85.38
447.792	92.38
448.013	73.38
448.234	88.38
448.455	86.38
448.675	85.38
448.896	92.38
449.117	82.38
449.338	68.38
449.559	87.38
449.779	101.38
450	96.38
450.221	88.38
450.442	85.38
450.662	77.38
450.883	83.38
451.104	77.38
451.324	84.38
451.545	84.38
451.766	95.38
451.986	69.38
452.207	89.38
452.428	79.38
452.648	82.38
452.869	86.38
453.089	74.38
453.31	86.38
453.53	98.38
453.751	94.38
453.971	85.38
454.192	92.38
454.412	83.38
454.633	81.38
454.853	75.38
455.073	80.38
455.294	94.38
455.514	100.38
455.734	88.38
455.955	81.38
456.175	77.38
456.395	77.38
456.616	81.38
456.836	78.38
457.056	88.38
457.276	70.38
457.497	80.38
457.717	85.38
457.937	85.38
458.157	78.38
458.377	92.38
458.598	80.38
458.818	71.38
459.038	90.38
459.258	80.38
459.478	93.38
459.698	97.38
459.918	86.38
460.138	62.38
460.358	77.38
460.578	87.38
460.798	79.38
461.018	87.38
461.238	68.38
461.458	69.38
461.678	78.38
461.898	89.38
462.118	82.38
462.338	74.38
462.558	79.38
462.777	69.38
462.997	82.38
463.217	89.38
463.437	84.38
463.657	85.38
463.876	90.38
464.096	86.38
464.316	85.38
464.536	84.38
464.755	86.38
464.975	74.38
465.195	92.38
465.414	65.38
465.634	80.38
465.854	86.38
466.073	79.38
466.293	76.38
466.512	81.38
466.732	87.38
466.951	97.38
467.171	90.38
467.391	76.38
467.61	79.38
467.829	80.38
468.049	88.38
468.268	88.38
468.488	73.38
468.707	76.38
468.927	83.38
469.146	79.38
469.365	92.38
469.585	85.38
469.804	89.38
470.023	88.38
470.243	74.38
470.462	93.38
470.681	80.38
470.901	78.38
471.12	73.38
471.339	82.38
471.558	77.38
471.777	78.38
471.997	79.38
472.216	88.38
472.435	71.38
472.654	74.38
472.873	94.38
473.092	85.38
473.311	84.38
473.53	86.38
473.749	86.38
473.968	87.38
474.187	78.38
474.406	74.38
474.625	83.38
474.844	81.38
475.063	97.38
475.282	87.38
475.501	95.38
475.72	84.38
475.939	102.38
476.158	97.38
476.377	86.38
476.596	82.38
476.814	94.38
477.033	83.38
477.252	86.38
477.471	91.38
477.69	86.38
477.908	78.38
478.127	84.38
478.346	77.38
478.564	88.38
478.783	95.38
479.002	89.38
479.22	76.38
479.439	94.38
479.658	93.38
479.876	88.38
480.095	91.38
480.313	93.38
480.532	79.38
480.751	89.38
480.969	84.38
481.188	66.38
481.406	82.38
481.624	74.38
481.843	88.38
482.061	84.38
482.28	90.38
482.498	77.38
482.717	78.38
482.935	72.38
483.153	77.38
483.372	76.38
483.59	98.38
483.808	83.38
484.027	87.38
484.245	81.38
484.463	73.38
484.681	71.38
484.9	75.38
485.118	78.38
485.336	82.38
485.554	81.38
485.772	90.38
485.99	73.38
486.209	86.38
486.427	87.38
486.645	92.38
486.863	88.38
487.081	93.38
487.299	76.38
487.517	93.38
487.735	87.38
487.953	97.38
488.171	82.38
488.389	89.38
488.607	72.38
488.825	84.38
489.043	83.38
489.261	80.38
489.479	77.38
489.696	73.38
489.914	78.38
490.132	77.38
490.35	89.38
490.568	88.38
490.786	78.38
491.003	89.38
491.221	80.38
491.439	77.38
491.657	80.38
491.874	76.38
492.092	77.38
492.31	83.38
492.527	95.38
492.745	91.38
492.963	82.38
493.18	77.38
493.398	89.38
493.615	79.38
493.833	86.38
494.05	78.38
494.268	88.38
494.485	79.38
494.703	78.38
494.92	83.38
495.138	101.38
495.355	84.38
495.573	98.38
495.79	79.38
496.008	97.38
496.225	83.38
496.442	74.38
496.66	80.38
496.877	89.38
497.094	80.38
497.312	74.38
497.529	92.38
497.746	75.38
497.963	97.38
498.181	82.38
498.398	85.38
498.615	86.38
498.832	80.38
499.049	81.38
499.267	98.38
499.484	82.38
499.701	91.38
499.918	86.38
500.135	84.38
500.352	92.38
500.569	128.38
500.786	128.38
501.003	88.38
501.22	84.38
501.437	73.38
501.654	72.38
501.871	79.38
502.088	88.38
502.305	90.38
502.522	101.38
502.739	82.38
502.956	90.38
503.172	91.38
503.389	90.38
503.606	83.38
503.823	76.38
504.04	82.38
504.256	95.38
504.473	96.38
504.69	89.38
504.907	94.38
505.123	93.38
505.34	87.38
505.557	96.38
505.773	82.38
505.99	93.38
506.207	93.38
506.423	97.38
506.64	85.38
506.856	75.38
507.073	85.38
507.289	80.38
507.506	90.38
507.722	93.38
507.939	95.38
508.155	90.38
508.372	88.38
508.588	73.38
508.805	89.38
509.021	92.38
509.238	86.38
509.454	84.38
509.67	92.38
509.887	84.38
510.103	87.38
510.319	85.38
510.536	93.38
510.752	86.38
510.968	87.38
511.184	78.38
511.401	72.38
511.617	76.38
511.833	84.38
512.049	84.38
512.265	74.38
512.481	93.38
512.698	78.38
512.914	89.38
513.13	81.38
513.346	92.38
513.562	90.38
513.778	83.38
513.994	80.38
514.21	86.38
514.426	87.38
514.642	86.38
514.858	93.38
515.074	86.38
515.29	60.38
515.506	89.38
515.721	92.38
515.937	90.38
516.153	86.38
516.369	82.38
516.585	89.38
516.801	84.38
517.016	79.38
517.232	78.38
517.448	78.38
517.664	77.38
517.879	90.38
518.095	86.38
518.311	74.38
518.527	80.38
518.742	94.38
518.958	74.38
519.173	82.38
519.389	90.38
