Data from StdB_HRD10591_014.txt Node
Date: Fri May 16 15:24:53 EDT 2025
User: Yrep
Spectrometer: HR+D1059
Trigger mode: 1
Integration Time (sec): 1.000000E-1
Scans to average: 1
Electric dark correction enabled: true
Nonlinearity correction enabled: false
Boxcar width: 0
XAxis mode: Wavelengths
Number of Pixels in Spectrum: 2048
>>>>>Begin Spectral Data<<<<<
223.165	-14.06
223.4	-14.06
223.635	-14.06
223.869	-26.06
224.104	-25.06
224.338	-22.06
224.573	-12.06
224.808	-11.06
225.042	-6.06
225.277	4.94
225.511	3.94
225.746	-1.06
225.98	11.94
226.215	21.94
226.449	14.94
226.683	16.94
226.918	20.94
227.152	21.94
227.387	47.94
227.621	52.94
227.856	31.94
228.09	44.94
228.324	48.94
228.559	62.94
228.793	59.94
229.027	89.94
229.262	63.94
229.496	68.94
229.73	76.94
229.964	78.94
230.199	75.94
230.433	91.94
230.667	86.94
230.901	69.94
231.136	87.94
231.37	75.94
231.604	82.94
231.838	80.94
232.072	94.94
232.306	104.94
232.541	86.94
232.775	86.94
233.009	92.94
233.243	76.94
233.477	88.94
233.711	86.94
233.945	101.94
234.179	98.94
234.413	86.94
234.647	99.94
234.881	93.94
235.115	98.94
235.349	98.94
235.583	82.94
235.817	88.94
236.051	79.94
236.285	107.94
236.519	86.94
236.753	86.94
236.987	94.94
237.221	86.94
237.455	92.94
237.689	99.94
237.922	78.94
238.156	98.94
238.39	87.94
238.624	75.94
238.858	102.94
239.091	94.94
239.325	105.94
239.559	108.94
239.793	107.94
240.027	107.94
240.26	102.94
240.494	110.94
240.728	110.94
240.961	91.94
241.195	87.94
241.429	99.94
241.662	97.94
241.896	111.94
242.13	96.94
242.363	103.94
242.597	94.94
242.83	92.94
243.064	87.94
243.298	94.94
243.531	104.94
243.765	98.94
243.998	110.94
244.232	107.94
244.465	100.94
244.699	95.94
244.932	120.94
245.166	110.94
245.399	108.94
245.633	111.94
245.866	95.94
246.099	95.94
246.333	107.94
246.566	88.94
246.8	104.94
247.033	79.94
247.266	91.94
247.5	100.94
247.733	110.94
247.966	123.94
248.2	117.94
248.433	107.94
248.666	109.94
248.899	118.94
249.133	108.94
249.366	115.94
249.599	114.94
249.832	107.94
250.066	123.94
250.299	113.94
250.532	115.94
250.765	108.94
250.998	104.94
251.231	120.94
251.465	119.94
251.698	112.94
251.931	115.94
252.164	128.94
252.397	123.94
252.63	125.94
252.863	121.94
253.096	112.94
253.329	123.94
253.562	138.94
253.795	154.94
254.028	135.94
254.261	145.94
254.494	135.94
254.727	124.94
254.96	141.94
255.193	135.94
255.426	132.94
255.659	132.94
255.892	141.94
256.124	130.94
256.357	139.94
256.59	139.94
256.823	130.94
257.056	167.94
257.289	142.94
257.521	138.94
257.754	157.94
257.987	182.94
258.22	171.94
258.452	134.94
258.685	156.94
258.918	143.94
259.151	139.94
259.383	155.94
259.616	143.94
259.849	142.94
260.081	153.94
260.314	141.94
260.547	179.94
260.779	190.94
261.012	212.94
261.244	274.94
261.477	308.94
261.71	322.94
261.942	218.94
262.175	182.94
262.407	184.94
262.64	166.94
262.872	147.94
263.105	156.94
263.337	160.94
263.57	148.94
263.802	140.94
264.035	144.94
264.267	137.94
264.499	153.94
264.732	182.94
264.964	185.94
265.197	196.94
265.429	182.94
265.661	166.94
265.894	158.94
266.126	154.94
266.358	191.94
266.591	240.94
266.823	199.94
267.055	169.94
267.287	138.94
267.52	155.94
267.752	122.94
267.984	146.94
268.216	130.94
268.448	135.94
268.681	143.94
268.913	122.94
269.145	146.94
269.377	130.94
269.609	148.94
269.841	158.94
270.073	140.94
270.306	124.94
270.538	121.94
270.77	124.94
271.002	138.94
271.234	136.94
271.466	142.94
271.698	131.94
271.93	143.94
272.162	139.94
272.394	139.94
272.626	149.94
272.858	143.94
273.09	143.94
273.322	142.94
273.553	132.94
273.785	136.94
274.017	137.94
274.249	155.94
274.481	147.94
274.713	156.94
274.945	145.94
275.176	128.94
275.408	148.94
275.64	145.94
275.872	151.94
276.104	140.94
276.335	148.94
276.567	131.94
276.799	139.94
277.031	142.94
277.262	146.94
277.494	161.94
277.726	139.94
277.957	155.94
278.189	165.94
278.421	155.94
278.652	196.94
278.884	199.94
279.115	188.94
279.347	222.94
279.579	242.94
279.81	310.94
280.042	426.94
280.273	492.94
280.505	450.94
280.736	311.94
280.968	238.94
281.199	218.94
281.431	206.94
281.662	189.94
281.894	221.94
282.125	235.94
282.356	263.94
282.588	263.94
282.819	228.94
283.051	262.94
283.282	350.94
283.513	384.94
283.745	323.94
283.976	247.94
284.207	190.94
284.439	184.94
284.67	178.94
284.901	158.94
285.132	178.94
285.364	162.94
285.595	175.94
285.826	176.94
286.057	166.94
286.288	166.94
286.52	182.94
286.751	197.94
286.982	232.94
287.213	274.94
287.444	314.94
287.675	253.94
287.906	200.94
288.138	180.94
288.369	172.94
288.6	152.94
288.831	180.94
289.062	159.94
289.293	173.94
289.524	159.94
289.755	168.94
289.986	156.94
290.217	165.94
290.448	159.94
290.679	150.94
290.91	162.94
291.141	155.94
291.371	158.94
291.602	140.94
291.833	148.94
292.064	150.94
292.295	168.94
292.526	155.94
292.757	180.94
292.987	158.94
293.218	168.94
293.449	155.94
293.68	162.94
293.91	154.94
294.141	165.94
294.372	147.94
294.603	152.94
294.833	152.94
295.064	158.94
295.295	156.94
295.525	176.94
295.756	167.94
295.987	151.94
296.217	168.94
296.448	168.94
296.679	147.94
296.909	172.94
297.14	168.94
297.37	163.94
297.601	159.94
297.831	162.94
298.062	176.94
298.292	174.94
298.523	165.94
298.753	162.94
298.984	161.94
299.214	156.94
299.445	171.94
299.675	167.94
299.905	165.94
300.136	150.94
300.366	162.94
300.597	156.94
300.827	166.94
301.057	186.94
301.288	192.94
301.518	155.94
301.748	182.94
301.979	186.94
302.209	176.94
302.439	162.94
302.669	171.94
302.9	179.94
303.13	178.94
303.36	160.94
303.59	171.94
303.82	173.94
304.051	179.94
304.281	178.94
304.511	157.94
304.741	174.94
304.971	163.94
305.201	173.94
305.431	196.94
305.661	182.94
305.891	161.94
306.121	175.94
306.352	183.94
306.582	166.94
306.812	179.94
307.042	159.94
307.272	166.94
307.502	173.94
307.731	175.94
307.961	167.94
308.191	160.94
308.421	176.94
308.651	167.94
308.881	180.94
309.111	166.94
309.341	168.94
309.571	167.94
309.8	163.94
310.03	159.94
310.26	166.94
310.49	170.94
310.72	169.94
310.949	194.94
311.179	160.94
311.409	167.94
311.639	189.94
311.868	187.94
312.098	196.94
312.328	176.94
312.557	185.94
312.787	179.94
313.017	182.94
313.246	189.94
313.476	193.94
313.706	186.94
313.935	206.94
314.165	216.94
314.394	220.94
314.624	208.94
314.853	211.94
315.083	219.94
315.312	216.94
315.542	213.94
315.771	203.94
316.001	203.94
316.23	208.94
316.46	211.94
316.689	213.94
316.919	203.94
317.148	214.94
317.377	223.94
317.607	198.94
317.836	204.94
318.065	223.94
318.295	208.94
318.524	208.94
318.753	202.94
318.983	185.94
319.212	201.94
319.441	199.94
319.67	164.94
319.9	206.94
320.129	188.94
320.358	189.94
320.587	186.94
320.816	193.94
321.046	178.94
321.275	177.94
321.504	178.94
321.733	198.94
321.962	204.94
322.191	193.94
322.42	192.94
322.649	213.94
322.878	178.94
323.108	182.94
323.337	175.94
323.566	192.94
323.795	192.94
324.024	189.94
324.253	183.94
324.482	179.94
324.71	190.94
324.939	162.94
325.168	172.94
325.397	167.94
325.626	182.94
325.855	219.94
326.084	197.94
326.313	183.94
326.542	167.94
326.77	191.94
326.999	187.94
327.228	183.94
327.457	190.94
327.686	183.94
327.914	184.94
328.143	179.94
328.372	195.94
328.6	200.94
328.829	177.94
329.058	192.94
329.287	198.94
329.515	201.94
329.744	195.94
329.972	180.94
330.201	187.94
330.43	202.94
330.658	188.94
330.887	182.94
331.115	199.94
331.344	206.94
331.572	184.94
331.801	191.94
332.03	196.94
332.258	194.94
332.486	199.94
332.715	204.94
332.943	174.94
333.172	189.94
333.4	192.94
333.629	199.94
333.857	190.94
334.085	197.94
334.314	204.94
334.542	190.94
334.771	192.94
334.999	190.94
335.227	201.94
335.455	199.94
335.684	191.94
335.912	204.94
336.14	193.94
336.369	194.94
336.597	183.94
336.825	199.94
337.053	179.94
337.281	203.94
337.51	171.94
337.738	188.94
337.966	200.94
338.194	188.94
338.422	178.94
338.65	198.94
338.878	190.94
339.106	189.94
339.334	183.94
339.562	199.94
339.79	187.94
340.018	199.94
340.246	186.94
340.474	194.94
340.702	192.94
340.93	190.94
341.158	185.94
341.386	182.94
341.614	192.94
341.842	180.94
342.07	186.94
342.298	193.94
342.526	196.94
342.754	200.94
342.981	177.94
343.209	173.94
343.437	205.94
343.665	189.94
343.893	200.94
344.12	200.94
344.348	209.94
344.576	187.94
344.804	211.94
345.031	200.94
345.259	197.94
345.487	197.94
345.714	207.94
345.942	196.94
346.17	191.94
346.397	190.94
346.625	194.94
346.853	194.94
347.08	191.94
347.308	174.94
347.535	187.94
347.763	184.94
347.99	171.94
348.218	188.94
348.445	198.94
348.673	180.94
348.9	197.94
349.128	192.94
349.355	178.94
349.583	207.94
349.81	194.94
350.037	184.94
350.265	184.94
350.492	183.94
350.72	183.94
350.947	200.94
351.174	180.94
351.402	171.94
351.629	202.94
351.856	192.94
352.083	191.94
352.311	195.94
352.538	190.94
352.765	179.94
352.992	207.94
353.22	193.94
353.447	178.94
353.674	172.94
353.901	186.94
354.128	173.94
354.355	192.94
354.583	191.94
354.81	178.94
355.037	183.94
355.264	188.94
355.491	192.94
355.718	198.94
355.945	202.94
356.172	210.94
356.399	237.94
356.626	252.94
356.853	307.94
357.08	424.94
357.307	554.94
357.534	553.94
357.761	381.94
357.988	320.94
358.215	285.94
358.441	264.94
358.668	250.94
358.895	232.94
359.122	237.94
359.349	219.94
359.576	202.94
359.802	215.94
360.029	204.94
360.256	207.94
360.483	216.94
360.709	196.94
360.936	207.94
361.163	213.94
361.39	214.94
361.616	210.94
361.843	208.94
362.07	200.94
362.296	201.94
362.523	229.94
362.749	200.94
362.976	224.94
363.203	246.94
363.429	308.94
363.656	432.94
363.882	637.94
364.109	744.94
364.335	510.94
364.562	346.94
364.788	282.94
365.015	262.94
365.241	256.94
365.468	233.94
365.694	238.94
365.92	227.94
366.147	228.94
366.373	232.94
366.599	235.94
366.826	281.94
367.052	319.94
367.278	361.94
367.505	328.94
367.731	340.94
367.957	456.94
368.184	712.94
368.41	946.94
368.636	824.94
368.862	466.94
369.089	359.94
369.315	304.94
369.541	298.94
369.767	253.94
369.993	247.94
370.219	221.94
370.445	212.94
370.672	234.94
370.898	201.94
371.124	214.94
371.35	215.94
371.576	218.94
371.802	206.94
372.028	229.94
372.254	247.94
372.48	221.94
372.706	230.94
372.932	238.94
373.158	260.94
373.384	262.94
373.61	350.94
373.835	475.94
374.061	614.94
374.287	564.94
374.513	367.94
374.739	308.94
374.965	254.94
375.191	234.94
375.416	222.94
375.642	226.94
375.868	216.94
376.094	178.94
376.319	210.94
376.545	214.94
376.771	217.94
376.997	207.94
377.222	191.94
377.448	206.94
377.674	194.94
377.899	227.94
378.125	219.94
378.35	206.94
378.576	211.94
378.802	226.94
379.027	210.94
379.253	229.94
379.478	210.94
379.704	214.94
379.929	196.94
380.155	213.94
380.38	202.94
380.606	212.94
380.831	203.94
381.057	218.94
381.282	201.94
381.507	203.94
381.733	201.94
381.958	206.94
382.184	201.94
382.409	199.94
382.634	211.94
382.86	222.94
383.085	220.94
383.31	202.94
383.535	207.94
383.761	205.94
383.986	212.94
384.211	215.94
384.436	233.94
384.662	215.94
384.887	222.94
385.112	213.94
385.337	211.94
385.562	226.94
385.787	206.94
386.013	210.94
386.238	216.94
386.463	216.94
386.688	219.94
386.913	212.94
387.138	223.94
387.363	206.94
387.588	216.94
387.813	219.94
388.038	219.94
388.263	207.94
388.488	208.94
388.713	207.94
388.938	204.94
389.163	223.94
389.387	215.94
389.612	207.94
389.837	207.94
390.062	212.94
390.287	205.94
390.512	199.94
390.736	197.94
390.961	212.94
391.186	207.94
391.411	197.94
391.636	195.94
391.86	204.94
392.085	211.94
392.31	217.94
392.534	224.94
392.759	234.94
392.984	223.94
393.208	242.94
393.433	245.94
393.658	207.94
393.882	208.94
394.107	215.94
394.331	207.94
394.556	204.94
394.78	226.94
395.005	209.94
395.229	234.94
395.454	224.94
395.678	195.94
395.903	211.94
396.127	231.94
396.352	213.94
396.576	223.94
396.801	223.94
397.025	204.94
397.249	211.94
397.474	214.94
397.698	234.94
397.922	229.94
398.147	217.94
398.371	229.94
398.595	218.94
398.82	222.94
399.044	247.94
399.268	257.94
399.492	262.94
399.717	263.94
399.941	236.94
400.165	264.94
400.389	246.94
400.613	238.94
400.837	239.94
401.062	242.94
401.286	246.94
401.51	260.94
401.734	259.94
401.958	293.94
402.182	284.94
402.406	262.94
402.63	257.94
402.854	251.94
403.078	256.94
403.302	251.94
403.526	265.94
403.75	263.94
403.974	266.94
404.198	253.94
404.422	281.94
404.645	297.94
404.869	308.94
405.093	351.94
405.317	492.94
405.541	812.94
405.765	1312.94
405.988	1522.94
406.212	1008.94
406.436	688.94
406.66	474.94
406.883	382.94
407.107	343.94
407.331	312.94
407.555	315.94
407.778	300.94
408.002	289.94
408.226	293.94
408.449	290.94
408.673	276.94
408.896	266.94
409.12	259.94
409.344	263.94
409.567	245.94
409.791	237.94
410.014	260.94
410.238	244.94
410.461	250.94
410.685	255.94
410.908	235.94
411.132	242.94
411.355	241.94
411.578	234.94
411.802	253.94
412.025	236.94
412.249	252.94
412.472	230.94
412.695	243.94
412.919	229.94
413.142	234.94
413.365	231.94
413.589	235.94
413.812	231.94
414.035	236.94
414.258	229.94
414.482	237.94
414.705	241.94
414.928	245.94
415.151	247.94
415.374	227.94
415.597	227.94
415.821	230.94
416.044	234.94
416.267	234.94
416.49	245.94
416.713	250.94
416.936	276.94
417.159	227.94
417.382	231.94
417.605	230.94
417.828	214.94
418.051	231.94
418.274	247.94
418.497	234.94
418.72	219.94
418.943	231.94
419.166	230.94
419.389	227.94
419.611	225.94
419.834	240.94
420.057	244.94
420.28	237.94
420.503	240.94
420.726	228.94
420.948	258.94
421.171	239.94
421.394	247.94
421.617	255.94
421.839	246.94
422.062	277.94
422.285	258.94
422.507	273.94
422.73	300.94
422.953	274.94
423.175	300.94
423.398	310.94
423.621	330.94
423.843	368.94
424.066	395.94
424.288	500.94
424.511	622.94
424.733	674.94
424.956	599.94
425.178	510.94
425.401	432.94
425.623	394.94
425.846	360.94
426.068	346.94
426.291	334.94
426.513	322.94
426.735	313.94
426.958	310.94
427.18	279.94
427.402	301.94
427.625	282.94
427.847	266.94
428.069	279.94
428.292	256.94
428.514	260.94
428.736	256.94
428.958	260.94
429.181	235.94
429.403	239.94
429.625	256.94
429.847	244.94
430.069	228.94
430.292	223.94
430.514	236.94
430.736	232.94
430.958	239.94
431.18	244.94
431.402	236.94
431.624	234.94
431.846	236.94
432.068	218.94
432.29	234.94
432.512	232.94
432.734	243.94
432.956	228.94
433.178	246.94
433.4	245.94
433.622	264.94
433.844	257.94
434.066	257.94
434.287	274.94
434.509	253.94
434.731	254.94
434.953	238.94
435.175	255.94
435.397	241.94
435.618	234.94
435.84	241.94
436.062	259.94
436.284	253.94
436.505	256.94
436.727	263.94
436.949	277.94
437.17	274.94
437.392	270.94
437.614	305.94
437.835	307.94
438.057	351.94
438.278	378.94
438.5	463.94
438.721	600.94
438.943	620.94
439.165	544.94
439.386	468.94
439.608	430.94
439.829	392.94
440.05	380.94
440.272	378.94
440.493	395.94
440.715	396.94
440.936	441.94
441.158	422.94
441.379	383.94
441.6	346.94
441.822	330.94
442.043	319.94
442.264	312.94
442.486	288.94
442.707	284.94
442.928	294.94
443.149	275.94
443.371	268.94
443.592	263.94
443.813	275.94
444.034	262.94
444.255	275.94
444.476	260.94
444.698	259.94
444.919	246.94
445.14	336.94
445.361	302.94
445.582	245.94
445.803	240.94
446.024	253.94
446.245	237.94
446.466	229.94
446.687	236.94
446.908	221.94
447.129	234.94
447.35	211.94
447.571	225.94
447.792	220.94
448.013	223.94
448.234	223.94
448.455	206.94
448.675	237.94
448.896	218.94
449.117	213.94
449.338	220.94
449.559	242.94
449.779	223.94
450	212.94
450.221	217.94
450.442	250.94
450.662	215.94
450.883	214.94
451.104	215.94
451.324	206.94
451.545	207.94
451.766	189.94
451.986	217.94
452.207	218.94
452.428	213.94
452.648	238.94
452.869	186.94
453.089	229.94
453.31	188.94
453.53	202.94
453.751	196.94
453.971	190.94
454.192	208.94
454.412	210.94
454.633	183.94
454.853	202.94
455.073	195.94
455.294	182.94
455.514	193.94
455.734	206.94
455.955	185.94
456.175	202.94
456.395	199.94
456.616	191.94
456.836	191.94
457.056	207.94
457.276	199.94
457.497	183.94
457.717	176.94
457.937	198.94
458.157	203.94
458.377	205.94
458.598	195.94
458.818	203.94
459.038	217.94
459.258	212.94
459.478	212.94
459.698	217.94
459.918	233.94
460.138	211.94
460.358	219.94
460.578	229.94
460.798	237.94
461.018	215.94
461.238	221.94
461.458	234.94
461.678	234.94
461.898	231.94
462.118	221.94
462.338	222.94
462.558	217.94
462.777	234.94
462.997	235.94
463.217	227.94
463.437	227.94
463.657	229.94
463.876	227.94
464.096	255.94
464.316	232.94
464.536	219.94
464.755	240.94
464.975	213.94
465.195	214.94
465.414	204.94
465.634	214.94
465.854	240.94
466.073	214.94
466.293	219.94
466.512	207.94
466.732	214.94
466.951	213.94
467.171	196.94
467.391	200.94
467.61	212.94
467.829	190.94
468.049	210.94
468.268	214.94
468.488	203.94
468.707	221.94
468.927	190.94
469.146	214.94
469.365	215.94
469.585	230.94
469.804	205.94
470.023	221.94
470.243	215.94
470.462	215.94
470.681	204.94
470.901	210.94
471.12	190.94
471.339	206.94
471.558	218.94
471.777	201.94
471.997	203.94
472.216	196.94
472.435	220.94
472.654	211.94
472.873	197.94
473.092	188.94
473.311	207.94
473.53	205.94
473.749	204.94
473.968	208.94
474.187	220.94
474.406	212.94
474.625	207.94
474.844	226.94
475.063	215.94
475.282	215.94
475.501	230.94
475.72	242.94
475.939	207.94
476.158	205.94
476.377	210.94
476.596	208.94
476.814	208.94
477.033	226.94
477.252	220.94
477.471	240.94
477.69	223.94
477.908	205.94
478.127	249.94
478.346	247.94
478.564	256.94
478.783	259.94
479.002	243.94
479.22	247.94
479.439	248.94
479.658	247.94
479.876	243.94
480.095	243.94
480.313	255.94
480.532	263.94
480.751	246.94
480.969	242.94
481.188	235.94
481.406	239.94
481.624	256.94
481.843	228.94
482.061	238.94
482.28	249.94
482.498	249.94
482.717	234.94
482.935	221.94
483.153	241.94
483.372	246.94
483.59	237.94
483.808	221.94
484.027	234.94
484.245	246.94
484.463	226.94
484.681	249.94
484.9	250.94
485.118	243.94
485.336	226.94
485.554	239.94
485.772	251.94
485.99	241.94
486.209	227.94
486.427	228.94
486.645	239.94
486.863	254.94
487.081	242.94
487.299	261.94
487.517	244.94
487.735	252.94
487.953	247.94
488.171	255.94
488.389	237.94
488.607	246.94
488.825	248.94
489.043	234.94
489.261	247.94
489.479	255.94
489.696	253.94
489.914	242.94
490.132	256.94
490.35	267.94
490.568	232.94
490.786	240.94
491.003	235.94
491.221	248.94
491.439	262.94
491.657	243.94
491.874	248.94
492.092	235.94
492.31	241.94
492.527	258.94
492.745	238.94
492.963	251.94
493.18	248.94
493.398	263.94
493.615	239.94
493.833	239.94
494.05	254.94
494.268	263.94
494.485	242.94
494.703	260.94
494.92	258.94
495.138	260.94
495.355	263.94
495.573	279.94
495.79	267.94
496.008	277.94
496.225	278.94
496.442	252.94
496.66	263.94
496.877	263.94
497.094	264.94
497.312	269.94
497.529	277.94
497.746	266.94
497.963	280.94
498.181	271.94
498.398	288.94
498.615	287.94
498.832	276.94
499.049	310.94
499.267	311.94
499.484	323.94
499.701	340.94
499.918	339.94
500.135	358.94
500.352	411.94
500.569	454.94
500.786	515.94
501.003	422.94
501.22	384.94
501.437	352.94
501.654	345.94
501.871	327.94
502.088	314.94
502.305	329.94
502.522	314.94
502.739	316.94
502.956	315.94
503.172	331.94
503.389	304.94
