Data from StdB_HRD10591_021.txt Node
Date: Fri May 16 15:24:56 EDT 2025
User: Yrep
Spectrometer: HR+D1059
Trigger mode: 1
Integration Time (sec): 1.000000E-1
Scans to average: 1
Electric dark correction enabled: true
Nonlinearity correction enabled: false
Boxcar width: 0
XAxis mode: Wavelengths
Number of Pixels in Spectrum: 2048
>>>>>Begin Spectral Data<<<<<
223.165	-6.06
223.4	-6.06
223.635	-6.06
223.869	-7.06
224.104	-25.06
224.338	-20.06
224.573	-24.06
224.808	-18.06
225.042	-4.06
225.277	-7.06
225.511	-2.06
225.746	-4.06
225.98	17.94
226.215	15.94
226.449	26.94
226.683	18.94
226.918	21.94
227.152	15.94
227.387	43.94
227.621	46.94
227.856	40.94
228.09	51.94
228.324	47.94
228.559	66.94
228.793	40.94
229.027	78.94
229.262	74.94
229.496	68.94
229.73	72.94
229.964	73.94
230.199	91.94
230.433	78.94
230.667	86.94
230.901	93.94
231.136	99.94
231.37	92.94
231.604	95.94
231.838	94.94
232.072	94.94
232.306	97.94
232.541	96.94
232.775	95.94
233.009	77.94
233.243	107.94
233.477	90.94
233.711	92.94
233.945	97.94
234.179	81.94
234.413	99.94
234.647	97.94
234.881	93.94
235.115	74.94
235.349	88.94
235.583	105.94
235.817	80.94
236.051	95.94
236.285	88.94
236.519	92.94
236.753	100.94
236.987	95.94
237.221	83.94
237.455	90.94
237.689	90.94
237.922	100.94
238.156	92.94
238.39	88.94
238.624	92.94
238.858	96.94
239.091	102.94
239.325	99.94
239.559	105.94
239.793	112.94
240.027	96.94
240.26	110.94
240.494	108.94
240.728	104.94
240.961	102.94
241.195	102.94
241.429	95.94
241.662	93.94
241.896	96.94
242.13	105.94
242.363	82.94
242.597	95.94
242.83	92.94
243.064	97.94
243.298	103.94
243.531	99.94
243.765	105.94
243.998	101.94
244.232	123.94
244.465	112.94
244.699	119.94
244.932	87.94
245.166	115.94
245.399	108.94
245.633	104.94
245.866	106.94
246.099	93.94
246.333	88.94
246.566	107.94
246.8	102.94
247.033	105.94
247.266	105.94
247.5	108.94
247.733	129.94
247.966	122.94
248.2	120.94
248.433	106.94
248.666	105.94
248.899	105.94
249.133	111.94
249.366	99.94
249.599	121.94
249.832	121.94
250.066	110.94
250.299	112.94
250.532	110.94
250.765	115.94
250.998	117.94
251.231	121.94
251.465	105.94
251.698	121.94
251.931	127.94
252.164	140.94
252.397	128.94
252.63	123.94
252.863	129.94
253.096	132.94
253.329	130.94
253.562	143.94
253.795	147.94
254.028	144.94
254.261	134.94
254.494	130.94
254.727	136.94
254.96	142.94
255.193	139.94
255.426	141.94
255.659	131.94
255.892	128.94
256.124	142.94
256.357	143.94
256.59	144.94
256.823	144.94
257.056	149.94
257.289	138.94
257.521	150.94
257.754	153.94
257.987	190.94
258.22	168.94
258.452	157.94
258.685	150.94
258.918	148.94
259.151	164.94
259.383	155.94
259.616	138.94
259.849	156.94
260.081	143.94
260.314	157.94
260.547	168.94
260.779	176.94
261.012	203.94
261.244	238.94
261.477	313.94
261.71	336.94
261.942	246.94
262.175	186.94
262.407	161.94
262.64	150.94
262.872	174.94
263.105	173.94
263.337	151.94
263.57	139.94
263.802	139.94
264.035	146.94
264.267	146.94
264.499	151.94
264.732	175.94
264.964	179.94
265.197	198.94
265.429	176.94
265.661	153.94
265.894	161.94
266.126	173.94
266.358	222.94
266.591	257.94
266.823	190.94
267.055	158.94
267.287	151.94
267.52	148.94
267.752	139.94
267.984	115.94
268.216	130.94
268.448	132.94
268.681	128.94
268.913	124.94
269.145	135.94
269.377	146.94
269.609	139.94
269.841	150.94
270.073	132.94
270.306	152.94
270.538	145.94
270.77	143.94
271.002	126.94
271.234	150.94
271.466	149.94
271.698	137.94
271.93	140.94
272.162	143.94
272.394	128.94
272.626	143.94
272.858	132.94
273.09	140.94
273.322	148.94
273.553	137.94
273.785	145.94
274.017	147.94
274.249	142.94
274.481	135.94
274.713	137.94
274.945	144.94
275.176	138.94
275.408	138.94
275.64	139.94
275.872	130.94
276.104	156.94
276.335	142.94
276.567	141.94
276.799	153.94
277.031	156.94
277.262	153.94
277.494	153.94
277.726	158.94
277.957	169.94
278.189	163.94
278.421	186.94
278.652	183.94
278.884	185.94
279.115	202.94
279.347	213.94
279.579	264.94
279.81	343.94
280.042	414.94
280.273	522.94
280.505	446.94
280.736	300.94
280.968	243.94
281.199	240.94
281.431	219.94
281.662	196.94
281.894	220.94
282.125	233.94
282.356	259.94
282.588	273.94
282.819	252.94
283.051	267.94
283.282	351.94
283.513	404.94
283.745	328.94
283.976	239.94
284.207	207.94
284.439	186.94
284.67	178.94
284.901	176.94
285.132	171.94
285.364	176.94
285.595	168.94
285.826	180.94
286.057	174.94
286.288	167.94
286.52	199.94
286.751	206.94
286.982	235.94
287.213	269.94
287.444	334.94
287.675	280.94
287.906	208.94
288.138	177.94
288.369	179.94
288.6	152.94
288.831	172.94
289.062	156.94
289.293	162.94
289.524	151.94
289.755	154.94
289.986	163.94
290.217	150.94
290.448	156.94
290.679	157.94
290.91	145.94
291.141	153.94
291.371	164.94
291.602	174.94
291.833	157.94
292.064	149.94
292.295	158.94
292.526	166.94
292.757	170.94
292.987	161.94
293.218	163.94
293.449	164.94
293.68	163.94
293.91	159.94
294.141	157.94
294.372	177.94
294.603	168.94
294.833	161.94
295.064	177.94
295.295	159.94
295.525	172.94
295.756	178.94
295.987	160.94
296.217	180.94
296.448	170.94
296.679	170.94
296.909	166.94
297.14	182.94
297.37	170.94
297.601	170.94
297.831	165.94
298.062	184.94
298.292	174.94
298.523	182.94
298.753	164.94
298.984	161.94
299.214	161.94
299.445	152.94
299.675	170.94
299.905	158.94
300.136	164.94
300.366	167.94
300.597	149.94
300.827	162.94
301.057	179.94
301.288	171.94
301.518	178.94
301.748	168.94
301.979	184.94
302.209	192.94
302.439	194.94
302.669	174.94
302.9	187.94
303.13	169.94
303.36	193.94
303.59	170.94
303.82	178.94
304.051	183.94
304.281	188.94
304.511	178.94
304.741	173.94
304.971	191.94
305.201	193.94
305.431	174.94
305.661	158.94
305.891	182.94
306.121	185.94
306.352	186.94
306.582	166.94
306.812	173.94
307.042	166.94
307.272	179.94
307.502	187.94
307.731	166.94
307.961	184.94
308.191	188.94
308.421	155.94
308.651	161.94
308.881	178.94
309.111	183.94
309.341	184.94
309.571	174.94
309.8	155.94
310.03	172.94
310.26	182.94
310.49	172.94
310.72	178.94
310.949	175.94
311.179	159.94
311.409	154.94
311.639	189.94
311.868	164.94
312.098	195.94
312.328	201.94
312.557	195.94
312.787	186.94
313.017	219.94
313.246	204.94
313.476	206.94
313.706	191.94
313.935	199.94
314.165	226.94
314.394	215.94
314.624	228.94
314.853	219.94
315.083	222.94
315.312	229.94
315.542	209.94
315.771	215.94
316.001	233.94
316.23	211.94
316.46	207.94
316.689	214.94
316.919	209.94
317.148	206.94
317.377	206.94
317.607	212.94
317.836	208.94
318.065	211.94
318.295	205.94
318.524	202.94
318.753	197.94
318.983	198.94
319.212	188.94
319.441	200.94
319.67	188.94
319.9	202.94
320.129	170.94
320.358	190.94
320.587	179.94
320.816	196.94
321.046	185.94
321.275	182.94
321.504	187.94
321.733	175.94
321.962	186.94
322.191	201.94
322.42	177.94
322.649	197.94
322.878	205.94
323.108	178.94
323.337	187.94
323.566	192.94
323.795	184.94
324.024	199.94
324.253	195.94
324.482	193.94
324.71	195.94
324.939	188.94
325.168	196.94
325.397	177.94
325.626	195.94
325.855	186.94
326.084	207.94
326.313	190.94
326.542	184.94
326.77	202.94
326.999	206.94
327.228	188.94
327.457	193.94
327.686	197.94
327.914	194.94
328.143	208.94
328.372	186.94
328.6	188.94
328.829	174.94
329.058	186.94
329.287	188.94
329.515	200.94
329.744	193.94
329.972	188.94
330.201	189.94
330.43	198.94
330.658	192.94
330.887	205.94
331.115	188.94
331.344	202.94
331.572	173.94
331.801	182.94
332.03	189.94
332.258	201.94
332.486	196.94
332.715	196.94
332.943	203.94
333.172	196.94
333.4	187.94
333.629	190.94
333.857	194.94
334.085	196.94
334.314	210.94
334.542	208.94
334.771	196.94
334.999	203.94
335.227	195.94
335.455	210.94
335.684	190.94
335.912	193.94
336.14	199.94
336.369	182.94
336.597	198.94
336.825	201.94
337.053	200.94
337.281	200.94
337.51	187.94
337.738	191.94
337.966	207.94
338.194	191.94
338.422	189.94
338.65	192.94
338.878	200.94
339.106	195.94
339.334	214.94
339.562	186.94
339.79	197.94
340.018	192.94
340.246	194.94
340.474	186.94
340.702	174.94
340.93	199.94
341.158	179.94
341.386	184.94
341.614	187.94
341.842	187.94
342.07	193.94
342.298	200.94
342.526	190.94
342.754	176.94
342.981	192.94
343.209	202.94
343.437	218.94
343.665	198.94
343.893	183.94
344.12	214.94
344.348	211.94
344.576	216.94
344.804	210.94
345.031	209.94
345.259	199.94
345.487	202.94
345.714	193.94
345.942	195.94
346.17	204.94
346.397	186.94
346.625	197.94
346.853	188.94
347.08	194.94
347.308	186.94
347.535	163.94
347.763	204.94
347.99	190.94
348.218	198.94
348.445	182.94
348.673	189.94
348.9	179.94
349.128	192.94
349.355	190.94
349.583	185.94
349.81	198.94
350.037	195.94
350.265	197.94
350.492	204.94
350.72	206.94
350.947	200.94
351.174	200.94
351.402	189.94
351.629	192.94
351.856	186.94
352.083	179.94
352.311	197.94
352.538	193.94
352.765	191.94
352.992	192.94
353.22	201.94
353.447	191.94
353.674	195.94
353.901	205.94
354.128	195.94
354.355	202.94
354.583	194.94
354.81	196.94
355.037	210.94
355.264	190.94
355.491	187.94
355.718	193.94
355.945	198.94
356.172	226.94
356.399	236.94
356.626	259.94
356.853	318.94
357.08	435.94
357.307	577.94
357.534	547.94
357.761	416.94
357.988	316.94
358.215	283.94
358.441	274.94
358.668	230.94
358.895	245.94
359.122	232.94
359.349	218.94
359.576	223.94
359.802	216.94
360.029	204.94
360.256	203.94
360.483	211.94
360.709	208.94
360.936	239.94
361.163	232.94
361.39	215.94
361.616	208.94
361.843	216.94
362.07	214.94
362.296	219.94
362.523	200.94
362.749	225.94
362.976	246.94
363.203	252.94
363.429	284.94
363.656	439.94
363.882	633.94
364.109	738.94
364.335	535.94
364.562	347.94
364.788	302.94
365.015	257.94
365.241	263.94
365.468	250.94
365.694	234.94
365.92	225.94
366.147	232.94
366.373	243.94
366.599	247.94
366.826	270.94
367.052	311.94
367.278	388.94
367.505	362.94
367.731	357.94
367.957	458.94
368.184	714.94
368.41	980.94
368.636	824.94
368.862	484.94
369.089	388.94
369.315	314.94
369.541	276.94
369.767	264.94
369.993	259.94
370.219	245.94
370.445	239.94
370.672	242.94
370.898	223.94
371.124	240.94
371.35	224.94
371.576	225.94
371.802	218.94
372.028	203.94
372.254	244.94
372.48	233.94
372.706	228.94
372.932	240.94
373.158	236.94
373.384	281.94
373.61	339.94
373.835	495.94
374.061	634.94
374.287	575.94
374.513	391.94
374.739	306.94
374.965	274.94
375.191	256.94
375.416	234.94
375.642	222.94
375.868	218.94
376.094	223.94
376.319	207.94
376.545	202.94
376.771	194.94
376.997	219.94
377.222	214.94
377.448	215.94
377.674	219.94
377.899	201.94
378.125	209.94
378.35	225.94
378.576	215.94
378.802	216.94
379.027	229.94
379.253	205.94
379.478	218.94
379.704	222.94
379.929	216.94
380.155	215.94
380.38	204.94
380.606	212.94
380.831	212.94
381.057	207.94
381.282	208.94
381.507	217.94
381.733	228.94
381.958	207.94
382.184	204.94
382.409	225.94
382.634	210.94
382.86	214.94
383.085	218.94
383.31	220.94
383.535	217.94
383.761	215.94
383.986	206.94
384.211	217.94
384.436	224.94
384.662	236.94
384.887	234.94
385.112	220.94
385.337	234.94
385.562	237.94
385.787	223.94
386.013	218.94
386.238	221.94
386.463	221.94
386.688	217.94
386.913	233.94
387.138	210.94
387.363	219.94
387.588	213.94
387.813	203.94
388.038	228.94
388.263	217.94
388.488	228.94
388.713	220.94
388.938	195.94
389.163	213.94
389.387	204.94
389.612	188.94
389.837	213.94
390.062	212.94
390.287	207.94
390.512	218.94
390.736	214.94
390.961	220.94
391.186	226.94
391.411	212.94
391.636	211.94
391.86	221.94
392.085	228.94
392.31	216.94
392.534	223.94
392.759	196.94
392.984	233.94
393.208	234.94
393.433	239.94
393.658	206.94
393.882	227.94
394.107	209.94
394.331	215.94
394.556	225.94
394.78	210.94
395.005	216.94
395.229	222.94
395.454	224.94
395.678	237.94
395.903	222.94
396.127	210.94
396.352	195.94
396.576	202.94
396.801	218.94
397.025	227.94
397.249	219.94
397.474	222.94
397.698	239.94
397.922	224.94
398.147	227.94
398.371	226.94
398.595	228.94
398.82	233.94
399.044	240.94
399.268	260.94
399.492	267.94
399.717	264.94
399.941	268.94
400.165	263.94
400.389	257.94
400.613	273.94
400.837	240.94
401.062	247.94
401.286	248.94
401.51	267.94
401.734	272.94
401.958	314.94
402.182	310.94
402.406	260.94
402.63	243.94
402.854	247.94
403.078	257.94
403.302	264.94
403.526	264.94
403.75	289.94
403.974	271.94
404.198	272.94
404.422	271.94
404.645	290.94
404.869	330.94
405.093	385.94
405.317	520.94
405.541	804.94
405.765	1336.94
405.988	1536.94
406.212	1036.94
406.436	698.94
406.66	492.94
406.883	402.94
407.107	365.94
407.331	331.94
407.555	322.94
407.778	318.94
408.002	281.94
408.226	298.94
408.449	278.94
408.673	284.94
408.896	270.94
409.12	263.94
409.344	257.94
409.567	267.94
409.791	246.94
410.014	241.94
410.238	247.94
410.461	258.94
410.685	239.94
410.908	235.94
411.132	246.94
411.355	253.94
411.578	237.94
411.802	252.94
412.025	259.94
412.249	254.94
412.472	221.94
412.695	237.94
412.919	223.94
413.142	220.94
413.365	241.94
413.589	240.94
413.812	240.94
414.035	246.94
414.258	234.94
414.482	206.94
414.705	241.94
414.928	235.94
415.151	226.94
415.374	249.94
415.597	257.94
415.821	236.94
416.044	224.94
416.267	247.94
416.49	242.94
416.713	244.94
416.936	279.94
417.159	269.94
417.382	228.94
417.605	236.94
417.828	249.94
418.051	240.94
418.274	252.94
418.497	238.94
418.72	249.94
418.943	237.94
419.166	246.94
419.389	248.94
419.611	266.94
419.834	263.94
420.057	241.94
420.28	244.94
420.503	248.94
420.726	235.94
420.948	245.94
421.171	249.94
421.394	263.94
421.617	259.94
421.839	254.94
422.062	264.94
422.285	269.94
422.507	275.94
422.73	288.94
422.953	296.94
423.175	311.94
423.398	300.94
423.621	330.94
423.843	363.94
424.066	421.94
424.288	503.94
424.511	640.94
424.733	685.94
424.956	586.94
425.178	508.94
425.401	444.94
425.623	402.94
425.846	379.94
426.068	364.94
426.291	350.94
426.513	315.94
426.735	312.94
426.958	306.94
427.18	295.94
427.402	279.94
427.625	278.94
427.847	278.94
428.069	269.94
428.292	264.94
428.514	282.94
428.736	260.94
428.958	268.94
429.181	252.94
429.403	257.94
429.625	241.94
429.847	243.94
430.069	250.94
430.292	246.94
430.514	235.94
430.736	237.94
430.958	248.94
431.18	232.94
431.402	253.94
431.624	230.94
431.846	234.94
432.068	242.94
432.29	241.94
432.512	255.94
432.734	265.94
432.956	219.94
433.178	248.94
433.4	242.94
433.622	263.94
433.844	260.94
434.066	276.94
434.287	271.94
434.509	272.94
434.731	275.94
434.953	250.94
435.175	272.94
435.397	274.94
435.618	249.94
435.84	264.94
436.062	270.94
436.284	256.94
436.505	266.94
436.727	264.94
436.949	278.94
437.17	270.94
437.392	285.94
437.614	300.94
437.835	324.94
438.057	360.94
438.278	403.94
438.5	462.94
438.721	588.94
438.943	645.94
439.165	562.94
439.386	483.94
439.608	432.94
439.829	392.94
440.05	385.94
440.272	376.94
440.493	394.94
440.715	401.94
440.936	446.94
441.158	432.94
441.379	379.94
441.6	336.94
441.822	328.94
442.043	315.94
442.264	308.94
442.486	299.94
442.707	297.94
442.928	284.94
443.149	281.94
443.371	270.94
443.592	277.94
443.813	268.94
444.034	266.94
444.255	263.94
444.476	275.94
444.698	250.94
444.919	270.94
445.14	310.94
445.361	276.94
445.582	268.94
445.803	244.94
446.024	251.94
446.245	243.94
446.466	248.94
446.687	246.94
446.908	231.94
447.129	235.94
447.35	232.94
447.571	236.94
447.792	232.94
448.013	227.94
448.234	234.94
448.455	235.94
448.675	221.94
448.896	222.94
449.117	222.94
449.338	225.94
449.559	227.94
449.779	223.94
450	212.94
450.221	206.94
450.442	236.94
450.662	228.94
450.883	240.94
451.104	213.94
451.324	231.94
451.545	219.94
451.766	202.94
451.986	218.94
452.207	211.94
452.428	208.94
452.648	212.94
452.869	203.94
453.089	211.94
453.31	220.94
453.53	214.94
453.751	206.94
453.971	204.94
454.192	212.94
454.412	207.94
454.633	193.94
454.853	187.94
455.073	216.94
455.294	209.94
455.514	203.94
455.734	198.94
455.955	192.94
456.175	209.94
456.395	196.94
456.616	197.94
456.836	212.94
457.056	190.94
457.276	205.94
457.497	197.94
457.717	200.94
457.937	179.94
458.157	205.94
458.377	211.94
458.598	192.94
458.818	208.94
459.038	217.94
459.258	208.94
459.478	206.94
459.698	222.94
459.918	232.94
460.138	197.94
460.358	232.94
460.578	231.94
460.798	242.94
461.018	216.94
461.238	209.94
461.458	235.94
461.678	212.94
461.898	235.94
462.118	235.94
462.338	208.94
462.558	236.94
462.777	246.94
462.997	234.94
463.217	249.94
463.437	252.94
463.657	224.94
463.876	226.94
464.096	246.94
464.316	235.94
464.536	239.94
464.755	226.94
464.975	229.94
465.195	228.94
465.414	228.94
465.634	228.94
465.854	200.94
466.073	202.94
466.293	204.94
466.512	215.94
466.732	219.94
466.951	225.94
467.171	210.94
467.391	218.94
467.61	238.94
467.829	218.94
468.049	222.94
468.268	225.94
468.488	218.94
468.707	230.94
468.927	204.94
469.146	219.94
469.365	219.94
469.585	211.94
469.804	215.94
470.023	218.94
470.243	205.94
470.462	208.94
470.681	216.94
470.901	216.94
471.12	203.94
471.339	211.94
471.558	186.94
471.777	214.94
471.997	202.94
472.216	207.94
472.435	207.94
472.654	220.94
472.873	207.94
473.092	210.94
473.311	204.94
473.53	226.94
473.749	202.94
473.968	206.94
474.187	211.94
474.406	214.94
474.625	209.94
474.844	213.94
475.063	216.94
475.282	206.94
475.501	216.94
475.72	220.94
475.939	214.94
476.158	200.94
476.377	222.94
476.596	220.94
476.814	226.94
477.033	247.94
477.252	218.94
477.471	245.94
477.69	244.94
477.908	248.94
478.127	248.94
478.346	249.94
478.564	253.94
478.783	254.94
479.002	262.94
479.22	246.94
479.439	252.94
479.658	264.94
479.876	246.94
480.095	244.94
480.313	247.94
480.532	247.94
480.751	260.94
480.969	243.94
481.188	238.94
481.406	247.94
481.624	243.94
481.843	235.94
482.061	237.94
482.28	227.94
482.498	251.94
482.717	232.94
482.935	231.94
483.153	239.94
483.372	225.94
483.59	247.94
483.808	240.94
484.027	221.94
484.245	241.94
484.463	235.94
484.681	255.94
484.9	254.94
485.118	238.94
485.336	245.94
485.554	242.94
485.772	230.94
485.99	234.94
486.209	241.94
486.427	245.94
486.645	241.94
486.863	239.94
487.081	240.94
487.299	243.94
487.517	226.94
487.735	234.94
487.953	251.94
488.171	250.94
488.389	256.94
488.607	254.94
488.825	258.94
489.043	247.94
489.261	254.94
489.479	265.94
489.696	279.94
489.914	263.94
490.132	259.94
490.35	240.94
490.568	269.94
490.786	244.94
491.003	232.94
491.221	244.94
491.439	250.94
491.657	233.94
491.874	233.94
492.092	246.94
492.31	248.94
492.527	250.94
492.745	253.94
492.963	260.94
493.18	264.94
493.398	248.94
493.615	243.94
493.833	263.94
494.05	258.94
494.268	250.94
494.485	248.94
494.703	257.94
494.92	236.94
495.138	270.94
495.355	294.94
495.573	294.94
495.79	274.94
496.008	264.94
496.225	253.94
496.442	273.94
496.66	274.94
496.877	263.94
497.094	287.94
497.312	269.94
497.529	284.94
497.746	283.94
497.963	288.94
498.181	281.94
498.398	294.94
498.615	312.94
498.832	298.94
499.049	310.94
499.267	330.94
499.484	321.94
499.701	343.94
499.918	344.94
500.135	394.94
500.352	404.94
500.569	452.94
500.786	544.94
501.003	443.94
501.22	395.94
501.437	363.94
501.654	355.94
501.871	338.94
502.088	325.94
502.305	328.94
502.522	323.94
502.739	316.94
502.956	314.94
503.172	305.94
503.389	302.94
