Data from StdB_HRD10591_013.txt Node
Date: Fri May 16 15:24:52 EDT 2025
User: Yrep
Spectrometer: HR+D1059
Trigger mode: 1
Integration Time (sec): 1.000000E-1
Scans to average: 1
Electric dark correction enabled: true
Nonlinearity correction enabled: false
Boxcar width: 0
XAxis mode: Wavelengths
Number of Pixels in Spectrum: 2048
>>>>>Begin Spectral Data<<<<<
223.165	-8.69
223.4	-8.69
223.635	-8.69
223.869	-13.69
224.104	-17.69
224.338	-24.69
224.573	-23.69
224.808	-15.69
225.042	-16.69
225.277	-8.69
225.511	-4.69
225.746	2.31
225.98	19.31
226.215	-0.69
226.449	18.31
226.683	12.31
226.918	38.31
227.152	44.31
227.387	40.31
227.621	27.31
227.856	47.31
228.09	54.31
228.324	56.31
228.559	54.31
228.793	81.31
229.027	76.31
229.262	65.31
229.496	65.31
229.73	97.31
229.964	81.31
230.199	75.31
230.433	79.31
230.667	83.31
230.901	110.31
231.136	79.31
231.37	92.31
231.604	92.31
231.838	92.31
232.072	79.31
232.306	106.31
232.541	96.31
232.775	85.31
233.009	85.31
233.243	89.31
233.477	97.31
233.711	86.31
233.945	98.31
234.179	81.31
234.413	91.31
234.647	94.31
234.881	93.31
235.115	104.31
235.349	76.31
235.583	88.31
235.817	87.31
236.051	90.31
236.285	82.31
236.519	84.31
236.753	89.31
236.987	98.31
237.221	87.31
237.455	90.31
237.689	99.31
237.922	99.31
238.156	86.31
238.39	105.31
238.624	99.31
238.858	96.31
239.091	91.31
239.325	98.31
239.559	99.31
239.793	110.31
240.027	110.31
240.26	112.31
240.494	122.31
240.728	97.31
240.961	110.31
241.195	111.31
241.429	95.31
241.662	115.31
241.896	94.31
242.13	102.31
242.363	99.31
242.597	94.31
242.83	99.31
243.064	87.31
243.298	84.31
243.531	90.31
243.765	98.31
243.998	105.31
244.232	99.31
244.465	112.31
244.699	106.31
244.932	116.31
245.166	102.31
245.399	107.31
245.633	108.31
245.866	113.31
246.099	112.31
246.333	122.31
246.566	80.31
246.8	101.31
247.033	112.31
247.266	98.31
247.5	100.31
247.733	110.31
247.966	113.31
248.2	132.31
248.433	118.31
248.666	99.31
248.899	102.31
249.133	118.31
249.366	98.31
249.599	105.31
249.832	108.31
250.066	114.31
250.299	111.31
250.532	112.31
250.765	125.31
250.998	111.31
251.231	103.31
251.465	128.31
251.698	121.31
251.931	122.31
252.164	123.31
252.397	137.31
252.63	151.31
252.863	127.31
253.096	143.31
253.329	119.31
253.562	117.31
253.795	146.31
254.028	150.31
254.261	118.31
254.494	143.31
254.727	138.31
254.96	142.31
255.193	126.31
255.426	127.31
255.659	120.31
255.892	121.31
256.124	126.31
256.357	133.31
256.59	137.31
256.823	133.31
257.056	140.31
257.289	146.31
257.521	134.31
257.754	160.31
257.987	156.31
258.22	174.31
258.452	164.31
258.685	153.31
258.918	151.31
259.151	136.31
259.383	128.31
259.616	139.31
259.849	159.31
260.081	150.31
260.314	159.31
260.547	159.31
260.779	161.31
261.012	221.31
261.244	256.31
261.477	317.31
261.71	341.31
261.942	232.31
262.175	184.31
262.407	168.31
262.64	163.31
262.872	169.31
263.105	150.31
263.337	144.31
263.57	153.31
263.802	144.31
264.035	158.31
264.267	148.31
264.499	159.31
264.732	166.31
264.964	168.31
265.197	198.31
265.429	190.31
265.661	139.31
265.894	166.31
266.126	195.31
266.358	219.31
266.591	241.31
266.823	208.31
267.055	161.31
267.287	156.31
267.52	153.31
267.752	132.31
267.984	140.31
268.216	143.31
268.448	125.31
268.681	137.31
268.913	129.31
269.145	141.31
269.377	136.31
269.609	141.31
269.841	145.31
270.073	151.31
270.306	130.31
270.538	139.31
270.77	124.31
271.002	130.31
271.234	149.31
271.466	133.31
271.698	145.31
271.93	143.31
272.162	127.31
272.394	137.31
272.626	147.31
272.858	156.31
273.09	138.31
273.322	137.31
273.553	134.31
273.785	142.31
274.017	136.31
274.249	145.31
274.481	125.31
274.713	152.31
274.945	139.31
275.176	140.31
275.408	153.31
275.64	149.31
275.872	136.31
276.104	151.31
276.335	147.31
276.567	154.31
276.799	150.31
277.031	159.31
277.262	153.31
277.494	167.31
277.726	152.31
277.957	176.31
278.189	168.31
278.421	169.31
278.652	183.31
278.884	211.31
279.115	196.31
279.347	228.31
279.579	252.31
279.81	343.31
280.042	442.31
280.273	537.31
280.505	471.31
280.736	304.31
280.968	255.31
281.199	220.31
281.431	214.31
281.662	198.31
281.894	217.31
282.125	256.31
282.356	265.31
282.588	279.31
282.819	258.31
283.051	266.31
283.282	338.31
283.513	408.31
283.745	312.31
283.976	238.31
284.207	204.31
284.439	202.31
284.67	178.31
284.901	167.31
285.132	160.31
285.364	162.31
285.595	172.31
285.826	184.31
286.057	184.31
286.288	188.31
286.52	180.31
286.751	204.31
286.982	253.31
287.213	281.31
287.444	321.31
287.675	282.31
287.906	226.31
288.138	184.31
288.369	176.31
288.6	163.31
288.831	158.31
289.062	170.31
289.293	160.31
289.524	166.31
289.755	162.31
289.986	157.31
290.217	152.31
290.448	176.31
290.679	154.31
290.91	141.31
291.141	161.31
291.371	154.31
291.602	155.31
291.833	173.31
292.064	159.31
292.295	169.31
292.526	150.31
292.757	160.31
292.987	178.31
293.218	164.31
293.449	155.31
293.68	168.31
293.91	158.31
294.141	153.31
294.372	169.31
294.603	174.31
294.833	153.31
295.064	151.31
295.295	172.31
295.525	179.31
295.756	172.31
295.987	158.31
296.217	170.31
296.448	169.31
296.679	174.31
296.909	172.31
297.14	166.31
297.37	145.31
297.601	153.31
297.831	158.31
298.062	172.31
298.292	182.31
298.523	180.31
298.753	161.31
298.984	148.31
299.214	147.31
299.445	164.31
299.675	174.31
299.905	170.31
300.136	160.31
300.366	166.31
300.597	166.31
300.827	177.31
301.057	184.31
301.288	152.31
301.518	158.31
301.748	174.31
301.979	177.31
302.209	203.31
302.439	178.31
302.669	176.31
302.9	185.31
303.13	167.31
303.36	164.31
303.59	171.31
303.82	187.31
304.051	171.31
304.281	162.31
304.511	186.31
304.741	175.31
304.971	169.31
305.201	174.31
305.431	177.31
305.661	182.31
305.891	183.31
306.121	166.31
306.352	177.31
306.582	161.31
306.812	186.31
307.042	186.31
307.272	183.31
307.502	173.31
307.731	176.31
307.961	174.31
308.191	190.31
308.421	177.31
308.651	182.31
308.881	180.31
309.111	166.31
309.341	173.31
309.571	171.31
309.8	158.31
310.03	168.31
310.26	192.31
310.49	162.31
310.72	172.31
310.949	175.31
311.179	171.31
311.409	180.31
311.639	178.31
311.868	185.31
312.098	188.31
312.328	189.31
312.557	195.31
312.787	202.31
313.017	204.31
313.246	203.31
313.476	206.31
313.706	199.31
313.935	216.31
314.165	210.31
314.394	221.31
314.624	227.31
314.853	222.31
315.083	210.31
315.312	201.31
315.542	237.31
315.771	227.31
316.001	204.31
316.23	202.31
316.46	194.31
316.689	209.31
316.919	196.31
317.148	202.31
317.377	207.31
317.607	204.31
317.836	204.31
318.065	216.31
318.295	195.31
318.524	209.31
318.753	191.31
318.983	206.31
319.212	221.31
319.441	187.31
319.67	200.31
319.9	194.31
320.129	178.31
320.358	199.31
320.587	196.31
320.816	184.31
321.046	183.31
321.275	189.31
321.504	193.31
321.733	204.31
321.962	203.31
322.191	193.31
322.42	184.31
322.649	189.31
322.878	202.31
323.108	198.31
323.337	186.31
323.566	183.31
323.795	185.31
324.024	181.31
324.253	195.31
324.482	193.31
324.71	192.31
324.939	184.31
325.168	198.31
325.397	204.31
325.626	191.31
325.855	183.31
326.084	210.31
326.313	193.31
326.542	193.31
326.77	189.31
326.999	199.31
327.228	190.31
327.457	196.31
327.686	186.31
327.914	196.31
328.143	196.31
328.372	184.31
328.6	183.31
328.829	180.31
329.058	191.31
329.287	182.31
329.515	173.31
329.744	187.31
329.972	204.31
330.201	192.31
330.43	197.31
330.658	198.31
330.887	203.31
331.115	193.31
331.344	199.31
331.572	186.31
331.801	188.31
332.03	203.31
332.258	192.31
332.486	194.31
332.715	199.31
332.943	196.31
333.172	209.31
333.4	194.31
333.629	182.31
333.857	202.31
334.085	192.31
334.314	191.31
334.542	196.31
334.771	198.31
334.999	199.31
335.227	198.31
335.455	192.31
335.684	192.31
335.912	186.31
336.14	194.31
336.369	214.31
336.597	185.31
336.825	189.31
337.053	200.31
337.281	204.31
337.51	205.31
337.738	200.31
337.966	187.31
338.194	201.31
338.422	195.31
338.65	189.31
338.878	199.31
339.106	184.31
339.334	188.31
339.562	183.31
339.79	183.31
340.018	183.31
340.246	195.31
340.474	194.31
340.702	180.31
340.93	201.31
341.158	185.31
341.386	176.31
341.614	184.31
341.842	193.31
342.07	192.31
342.298	182.31
342.526	185.31
342.754	189.31
342.981	185.31
343.209	200.31
343.437	196.31
343.665	195.31
343.893	195.31
344.12	202.31
344.348	222.31
344.576	206.31
344.804	202.31
345.031	184.31
345.259	191.31
345.487	194.31
345.714	207.31
345.942	202.31
346.17	194.31
346.397	191.31
346.625	187.31
346.853	200.31
347.08	194.31
347.308	204.31
347.535	187.31
347.763	185.31
347.99	189.31
348.218	175.31
348.445	200.31
348.673	210.31
348.9	189.31
349.128	198.31
349.355	200.31
349.583	193.31
349.81	178.31
350.037	187.31
350.265	197.31
350.492	195.31
350.72	186.31
350.947	196.31
351.174	183.31
351.402	191.31
351.629	179.31
351.856	172.31
352.083	175.31
352.311	184.31
352.538	198.31
352.765	202.31
352.992	192.31
353.22	193.31
353.447	194.31
353.674	199.31
353.901	197.31
354.128	203.31
354.355	209.31
354.583	192.31
354.81	200.31
355.037	204.31
355.264	200.31
355.491	210.31
355.718	206.31
355.945	208.31
356.172	210.31
356.399	235.31
356.626	256.31
356.853	333.31
357.08	432.31
357.307	562.31
357.534	536.31
357.761	398.31
357.988	325.31
358.215	279.31
358.441	271.31
358.668	242.31
358.895	236.31
359.122	241.31
359.349	233.31
359.576	239.31
359.802	220.31
360.029	208.31
360.256	224.31
360.483	198.31
360.709	216.31
360.936	220.31
361.163	210.31
361.39	211.31
361.616	206.31
361.843	224.31
362.07	223.31
362.296	216.31
362.523	221.31
362.749	222.31
362.976	248.31
363.203	257.31
363.429	318.31
363.656	452.31
363.882	629.31
364.109	766.31
364.335	523.31
364.562	365.31
364.788	291.31
365.015	264.31
365.241	250.31
365.468	242.31
365.694	233.31
365.92	230.31
366.147	219.31
366.373	239.31
366.599	251.31
366.826	280.31
367.052	329.31
367.278	366.31
367.505	351.31
367.731	365.31
367.957	491.31
368.184	738.31
368.41	990.31
368.636	827.31
368.862	524.31
369.089	376.31
369.315	330.31
369.541	282.31
369.767	281.31
369.993	252.31
370.219	238.31
370.445	234.31
370.672	243.31
370.898	230.31
371.124	227.31
371.35	234.31
371.576	231.31
371.802	241.31
372.028	217.31
372.254	230.31
372.48	232.31
372.706	227.31
372.932	224.31
373.158	249.31
373.384	273.31
373.61	352.31
373.835	493.31
374.061	628.31
374.287	578.31
374.513	382.31
374.739	315.31
374.965	267.31
375.191	260.31
375.416	232.31
375.642	236.31
375.868	236.31
376.094	218.31
376.319	204.31
376.545	215.31
376.771	208.31
376.997	211.31
377.222	219.31
377.448	194.31
377.674	232.31
377.899	212.31
378.125	202.31
378.35	219.31
378.576	230.31
378.802	233.31
379.027	223.31
379.253	214.31
379.478	220.31
379.704	217.31
379.929	219.31
380.155	193.31
380.38	212.31
380.606	211.31
380.831	226.31
381.057	209.31
381.282	223.31
381.507	205.31
381.733	210.31
381.958	211.31
382.184	216.31
382.409	226.31
382.634	214.31
382.86	226.31
383.085	206.31
383.31	203.31
383.535	214.31
383.761	218.31
383.986	211.31
384.211	212.31
384.436	225.31
384.662	213.31
384.887	223.31
385.112	216.31
385.337	218.31
385.562	231.31
385.787	214.31
386.013	212.31
386.238	223.31
386.463	209.31
386.688	226.31
386.913	207.31
387.138	234.31
387.363	226.31
387.588	216.31
387.813	214.31
388.038	204.31
388.263	221.31
388.488	218.31
388.713	206.31
388.938	203.31
389.163	220.31
389.387	216.31
389.612	223.31
389.837	209.31
390.062	226.31
390.287	214.31
390.512	209.31
390.736	203.31
390.961	200.31
391.186	210.31
391.411	211.31
391.636	207.31
391.86	222.31
392.085	223.31
392.31	214.31
392.534	239.31
392.759	204.31
392.984	219.31
393.208	230.31
393.433	225.31
393.658	230.31
393.882	218.31
394.107	198.31
394.331	215.31
394.556	213.31
394.78	234.31
395.005	206.31
395.229	210.31
395.454	227.31
395.678	222.31
395.903	223.31
396.127	214.31
396.352	204.31
396.576	218.31
396.801	226.31
397.025	223.31
397.249	228.31
397.474	225.31
397.698	224.31
397.922	236.31
398.147	225.31
398.371	230.31
398.595	238.31
398.82	225.31
399.044	242.31
399.268	250.31
399.492	242.31
399.717	267.31
399.941	259.31
400.165	246.31
400.389	246.31
400.613	247.31
400.837	261.31
401.062	243.31
401.286	251.31
401.51	252.31
401.734	280.31
401.958	301.31
402.182	299.31
402.406	266.31
402.63	238.31
402.854	254.31
403.078	259.31
403.302	251.31
403.526	266.31
403.75	273.31
403.974	279.31
404.198	294.31
404.422	294.31
404.645	306.31
404.869	333.31
405.093	367.31
405.317	492.31
405.541	796.31
405.765	1347.31
405.988	1524.31
406.212	1018.31
406.436	679.31
406.66	467.31
406.883	387.31
407.107	370.31
407.331	337.31
407.555	327.31
407.778	278.31
408.002	290.31
408.226	294.31
408.449	277.31
408.673	259.31
408.896	261.31
409.12	253.31
409.344	264.31
409.567	263.31
409.791	266.31
410.014	262.31
410.238	255.31
410.461	254.31
410.685	249.31
410.908	255.31
411.132	260.31
411.355	231.31
411.578	222.31
411.802	273.31
412.025	257.31
412.249	240.31
412.472	230.31
412.695	240.31
412.919	248.31
413.142	255.31
413.365	238.31
413.589	245.31
413.812	231.31
414.035	227.31
414.258	248.31
414.482	242.31
414.705	254.31
414.928	244.31
415.151	244.31
415.374	232.31
415.597	226.31
415.821	247.31
416.044	233.31
416.267	247.31
416.49	243.31
416.713	269.31
416.936	287.31
417.159	252.31
417.382	237.31
417.605	240.31
417.828	248.31
418.051	249.31
418.274	233.31
418.497	247.31
418.72	246.31
418.943	246.31
419.166	253.31
419.389	263.31
419.611	252.31
419.834	250.31
420.057	267.31
420.28	231.31
420.503	239.31
420.726	239.31
420.948	236.31
421.171	234.31
421.394	247.31
421.617	260.31
421.839	266.31
422.062	262.31
422.285	244.31
422.507	283.31
422.73	277.31
422.953	282.31
423.175	295.31
423.398	319.31
423.621	353.31
423.843	368.31
424.066	424.31
424.288	528.31
424.511	643.31
424.733	705.31
424.956	599.31
425.178	488.31
425.401	443.31
425.623	403.31
425.846	372.31
426.068	352.31
426.291	329.31
426.513	323.31
426.735	310.31
426.958	308.31
427.18	285.31
427.402	281.31
427.625	269.31
427.847	279.31
428.069	273.31
428.292	270.31
428.514	269.31
428.736	262.31
428.958	246.31
429.181	263.31
429.403	262.31
429.625	247.31
429.847	247.31
430.069	242.31
430.292	256.31
430.514	239.31
430.736	242.31
430.958	247.31
431.18	257.31
431.402	239.31
431.624	241.31
431.846	235.31
432.068	231.31
432.29	235.31
432.512	244.31
432.734	240.31
432.956	238.31
433.178	251.31
433.4	249.31
433.622	264.31
433.844	279.31
434.066	281.31
434.287	265.31
434.509	266.31
434.731	270.31
434.953	239.31
435.175	251.31
435.397	266.31
435.618	251.31
435.84	252.31
436.062	273.31
436.284	249.31
436.505	283.31
436.727	280.31
436.949	263.31
437.17	282.31
437.392	286.31
437.614	319.31
437.835	332.31
438.057	360.31
438.278	414.31
438.5	468.31
438.721	603.31
438.943	635.31
439.165	559.31
439.386	476.31
439.608	440.31
439.829	427.31
440.05	412.31
440.272	372.31
440.493	388.31
440.715	401.31
440.936	450.31
441.158	438.31
441.379	368.31
441.6	365.31
441.822	335.31
442.043	307.31
442.264	313.31
442.486	289.31
442.707	285.31
442.928	277.31
443.149	262.31
443.371	263.31
443.592	257.31
443.813	274.31
444.034	261.31
444.255	266.31
444.476	259.31
444.698	271.31
444.919	276.31
445.14	320.31
445.361	288.31
445.582	255.31
445.803	254.31
446.024	241.31
446.245	256.31
446.466	255.31
446.687	242.31
446.908	240.31
447.129	227.31
447.35	230.31
447.571	234.31
447.792	225.31
448.013	222.31
448.234	227.31
448.455	215.31
448.675	229.31
448.896	233.31
449.117	229.31
449.338	238.31
449.559	246.31
449.779	225.31
450	222.31
450.221	234.31
450.442	221.31
450.662	223.31
450.883	219.31
451.104	214.31
451.324	213.31
451.545	218.31
451.766	211.31
451.986	227.31
452.207	211.31
452.428	223.31
452.648	225.31
452.869	198.31
453.089	195.31
453.31	215.31
453.53	213.31
453.751	214.31
453.971	208.31
454.192	211.31
454.412	185.31
454.633	215.31
454.853	220.31
455.073	209.31
455.294	207.31
455.514	205.31
455.734	197.31
455.955	210.31
456.175	219.31
456.395	208.31
456.616	194.31
456.836	211.31
457.056	204.31
457.276	193.31
457.497	199.31
457.717	205.31
457.937	213.31
458.157	222.31
458.377	214.31
458.598	216.31
458.818	218.31
459.038	214.31
459.258	216.31
459.478	208.31
459.698	217.31
459.918	236.31
460.138	230.31
460.358	214.31
460.578	232.31
460.798	252.31
461.018	214.31
461.238	218.31
461.458	236.31
461.678	212.31
461.898	242.31
462.118	226.31
462.338	242.31
462.558	224.31
462.777	242.31
462.997	219.31
463.217	237.31
463.437	242.31
463.657	210.31
463.876	220.31
464.096	234.31
464.316	222.31
464.536	249.31
464.755	244.31
464.975	209.31
465.195	221.31
465.414	215.31
465.634	220.31
465.854	213.31
466.073	204.31
466.293	204.31
466.512	204.31
466.732	208.31
466.951	203.31
467.171	214.31
467.391	201.31
467.61	203.31
467.829	216.31
468.049	206.31
468.268	202.31
468.488	214.31
468.707	212.31
468.927	197.31
469.146	203.31
469.365	210.31
469.585	219.31
469.804	216.31
470.023	208.31
470.243	192.31
470.462	220.31
470.681	201.31
470.901	214.31
471.12	211.31
471.339	216.31
471.558	195.31
471.777	214.31
471.997	197.31
472.216	201.31
472.435	217.31
472.654	215.31
472.873	211.31
473.092	203.31
473.311	215.31
473.53	209.31
473.749	204.31
473.968	211.31
474.187	221.31
474.406	198.31
474.625	210.31
474.844	217.31
475.063	220.31
475.282	214.31
475.501	203.31
475.72	228.31
475.939	204.31
476.158	220.31
476.377	231.31
476.596	225.31
476.814	214.31
477.033	226.31
477.252	217.31
477.471	216.31
477.69	217.31
477.908	234.31
478.127	230.31
478.346	234.31
478.564	251.31
478.783	242.31
479.002	258.31
479.22	265.31
479.439	235.31
479.658	235.31
479.876	251.31
480.095	247.31
480.313	254.31
480.532	264.31
480.751	255.31
480.969	254.31
481.188	246.31
481.406	236.31
481.624	239.31
481.843	227.31
482.061	236.31
482.28	254.31
482.498	222.31
482.717	230.31
482.935	242.31
483.153	249.31
483.372	248.31
483.59	216.31
483.808	231.31
484.027	231.31
484.245	251.31
484.463	251.31
484.681	250.31
484.9	234.31
485.118	252.31
485.336	242.31
485.554	237.31
485.772	243.31
485.99	245.31
486.209	238.31
486.427	238.31
486.645	233.31
486.863	243.31
487.081	227.31
487.299	227.31
487.517	223.31
487.735	236.31
487.953	255.31
488.171	241.31
488.389	240.31
488.607	242.31
488.825	251.31
489.043	235.31
489.261	255.31
489.479	241.31
489.696	241.31
489.914	241.31
490.132	238.31
490.35	241.31
490.568	241.31
490.786	240.31
491.003	261.31
491.221	227.31
491.439	249.31
491.657	239.31
491.874	224.31
492.092	246.31
492.31	240.31
492.527	241.31
492.745	246.31
492.963	260.31
493.18	250.31
493.398	251.31
493.615	256.31
493.833	256.31
494.05	252.31
494.268	255.31
494.485	273.31
494.703	251.31
494.92	255.31
495.138	243.31
495.355	273.31
495.573	282.31
495.79	280.31
496.008	283.31
496.225	259.31
496.442	267.31
496.66	270.31
496.877	259.31
497.094	273.31
497.312	279.31
497.529	288.31
497.746	268.31
497.963	284.31
498.181	274.31
498.398	287.31
498.615	290.31
498.832	308.31
499.049	299.31
499.267	338.31
499.484	337.31
499.701	340.31
499.918	375.31
500.135	387.31
500.352	399.31
500.569	459.31
500.786	539.31
501.003	451.31
501.22	394.31
501.437	358.31
501.654	354.31
501.871	321.31
502.088	324.31
502.305	330.31
502.522	322.31
502.739	318.31
502.956	307.31
503.172	320.31
503.389	328.31
503.606	303.31
