Data from StdB_HRD10591_077.txt Node
Date: Fri May 16 15:25:24 EDT 2025
User: Yrep
Spectrometer: HR+D1059
Trigger mode: 1
Integration Time (sec): 1.000000E-1
Scans to average: 1
Electric dark correction enabled: true
Nonlinearity correction enabled: false
Boxcar width: 0
XAxis mode: Wavelengths
Number of Pixels in Spectrum: 2048
>>>>>Begin Spectral Data<<<<<
223.165	-13.06
223.4	-13.06
223.635	-13.06
223.869	-29.06
224.104	-18.06
224.338	-18.06
224.573	-21.06
224.808	-12.06
225.042	3.94
225.277	-17.06
225.511	13.94
225.746	-16.06
225.98	2.94
226.215	13.94
226.449	4.94
226.683	19.94
226.918	41.94
227.152	42.94
227.387	33.94
227.621	44.94
227.856	44.94
228.09	22.94
228.324	48.94
228.559	67.94
228.793	50.94
229.027	54.94
229.262	44.94
229.496	60.94
229.73	73.94
229.964	74.94
230.199	68.94
230.433	80.94
230.667	65.94
230.901	64.94
231.136	77.94
231.37	68.94
231.604	74.94
231.838	77.94
232.072	70.94
232.306	84.94
232.541	83.94
232.775	84.94
233.009	68.94
233.243	61.94
233.477	86.94
233.711	79.94
233.945	71.94
234.179	85.94
234.413	86.94
234.647	59.94
234.881	73.94
235.115	78.94
235.349	70.94
235.583	88.94
235.817	74.94
236.051	63.94
236.285	84.94
236.519	61.94
236.753	69.94
236.987	67.94
237.221	72.94
237.455	74.94
237.689	72.94
237.922	72.94
238.156	63.94
238.39	75.94
238.624	89.94
238.858	79.94
239.091	69.94
239.325	70.94
239.559	70.94
239.793	80.94
240.027	79.94
240.26	72.94
240.494	80.94
240.728	61.94
240.961	68.94
241.195	62.94
241.429	88.94
241.662	77.94
241.896	77.94
242.13	74.94
242.363	74.94
242.597	81.94
242.83	70.94
243.064	86.94
243.298	73.94
243.531	62.94
243.765	77.94
243.998	89.94
244.232	77.94
244.465	82.94
244.699	74.94
244.932	88.94
245.166	78.94
245.399	84.94
245.633	85.94
245.866	71.94
246.099	92.94
246.333	89.94
246.566	78.94
246.8	71.94
247.033	74.94
247.266	73.94
247.5	73.94
247.733	64.94
247.966	77.94
248.2	68.94
248.433	74.94
248.666	81.94
248.899	70.94
249.133	77.94
249.366	77.94
249.599	77.94
249.832	75.94
250.066	65.94
250.299	82.94
250.532	64.94
250.765	78.94
250.998	69.94
251.231	90.94
251.465	75.94
251.698	76.94
251.931	80.94
252.164	69.94
252.397	77.94
252.63	74.94
252.863	79.94
253.096	73.94
253.329	79.94
253.562	74.94
253.795	68.94
254.028	84.94
254.261	74.94
254.494	70.94
254.727	76.94
254.96	70.94
255.193	85.94
255.426	81.94
255.659	84.94
255.892	87.94
256.124	81.94
256.357	81.94
256.59	88.94
256.823	78.94
257.056	74.94
257.289	82.94
257.521	75.94
257.754	76.94
257.987	83.94
258.22	91.94
258.452	82.94
258.685	94.94
258.918	88.94
259.151	77.94
259.383	72.94
259.616	74.94
259.849	67.94
260.081	72.94
260.314	71.94
260.547	77.94
260.779	63.94
261.012	79.94
261.244	77.94
261.477	96.94
261.71	92.94
261.942	92.94
262.175	84.94
262.407	76.94
262.64	76.94
262.872	84.94
263.105	72.94
263.337	73.94
263.57	69.94
263.802	73.94
264.035	86.94
264.267	88.94
264.499	81.94
264.732	91.94
264.964	86.94
265.197	84.94
265.429	92.94
265.661	66.94
265.894	82.94
266.126	89.94
266.358	83.94
266.591	84.94
266.823	71.94
267.055	84.94
267.287	77.94
267.52	66.94
267.752	92.94
267.984	82.94
268.216	90.94
268.448	88.94
268.681	65.94
268.913	69.94
269.145	70.94
269.377	64.94
269.609	61.94
269.841	69.94
270.073	89.94
270.306	90.94
270.538	97.94
270.77	82.94
271.002	79.94
271.234	88.94
271.466	77.94
271.698	68.94
271.93	65.94
272.162	76.94
272.394	74.94
272.626	82.94
272.858	73.94
273.09	68.94
273.322	83.94
273.553	82.94
273.785	84.94
274.017	75.94
274.249	86.94
274.481	78.94
274.713	68.94
274.945	70.94
275.176	80.94
275.408	82.94
275.64	74.94
275.872	62.94
276.104	77.94
276.335	77.94
276.567	74.94
276.799	64.94
277.031	76.94
277.262	77.94
277.494	82.94
277.726	70.94
277.957	80.94
278.189	89.94
278.421	85.94
278.652	68.94
278.884	86.94
279.115	86.94
279.347	92.94
279.579	75.94
279.81	85.94
280.042	97.94
280.273	113.94
280.505	108.94
280.736	110.94
280.968	90.94
281.199	83.94
281.431	75.94
281.662	93.94
281.894	90.94
282.125	73.94
282.356	85.94
282.588	86.94
282.819	74.94
283.051	81.94
283.282	98.94
283.513	105.94
283.745	80.94
283.976	88.94
284.207	77.94
284.439	83.94
284.67	77.94
284.901	81.94
285.132	87.94
285.364	79.94
285.595	73.94
285.826	77.94
286.057	99.94
286.288	62.94
286.52	73.94
286.751	73.94
286.982	69.94
287.213	92.94
287.444	100.94
287.675	80.94
287.906	80.94
288.138	83.94
288.369	74.94
288.6	81.94
288.831	79.94
289.062	81.94
289.293	72.94
289.524	86.94
289.755	75.94
289.986	92.94
290.217	80.94
290.448	77.94
290.679	83.94
290.91	78.94
291.141	82.94
291.371	92.94
291.602	79.94
291.833	88.94
292.064	76.94
292.295	87.94
292.526	72.94
292.757	93.94
292.987	90.94
293.218	72.94
293.449	83.94
293.68	86.94
293.91	72.94
294.141	84.94
294.372	68.94
294.603	80.94
294.833	87.94
295.064	87.94
295.295	75.94
295.525	82.94
295.756	78.94
295.987	86.94
296.217	90.94
296.448	86.94
296.679	82.94
296.909	91.94
297.14	86.94
297.37	85.94
297.601	89.94
297.831	86.94
298.062	65.94
298.292	73.94
298.523	84.94
298.753	66.94
298.984	85.94
299.214	96.94
299.445	92.94
299.675	81.94
299.905	88.94
300.136	70.94
300.366	87.94
300.597	76.94
300.827	73.94
301.057	78.94
301.288	73.94
301.518	98.94
301.748	79.94
301.979	91.94
302.209	74.94
302.439	84.94
302.669	73.94
302.9	89.94
303.13	77.94
303.36	77.94
303.59	72.94
303.82	83.94
304.051	82.94
304.281	81.94
304.511	76.94
304.741	82.94
304.971	72.94
305.201	89.94
305.431	92.94
305.661	88.94
305.891	82.94
306.121	94.94
306.352	90.94
306.582	72.94
306.812	92.94
307.042	79.94
307.272	74.94
307.502	80.94
307.731	69.94
307.961	81.94
308.191	79.94
308.421	84.94
308.651	85.94
308.881	98.94
309.111	92.94
309.341	64.94
309.571	79.94
309.8	64.94
310.03	77.94
310.26	92.94
310.49	88.94
310.72	78.94
310.949	70.94
311.179	80.94
311.409	78.94
311.639	71.94
311.868	81.94
312.098	76.94
312.328	72.94
312.557	77.94
312.787	86.94
313.017	74.94
313.246	78.94
313.476	77.94
313.706	79.94
313.935	93.94
314.165	74.94
314.394	75.94
314.624	78.94
314.853	77.94
315.083	80.94
315.312	88.94
315.542	76.94
315.771	71.94
316.001	70.94
316.23	74.94
316.46	80.94
316.689	75.94
316.919	82.94
317.148	88.94
317.377	78.94
317.607	88.94
317.836	72.94
318.065	82.94
318.295	91.94
318.524	90.94
318.753	82.94
318.983	72.94
319.212	85.94
319.441	84.94
319.67	76.94
319.9	72.94
320.129	92.94
320.358	81.94
320.587	88.94
320.816	92.94
321.046	73.94
321.275	74.94
321.504	83.94
321.733	75.94
321.962	97.94
322.191	86.94
322.42	80.94
322.649	79.94
322.878	89.94
323.108	73.94
323.337	80.94
323.566	76.94
323.795	78.94
324.024	71.94
324.253	87.94
324.482	75.94
324.71	73.94
324.939	82.94
325.168	91.94
325.397	89.94
325.626	83.94
325.855	85.94
326.084	84.94
326.313	85.94
326.542	80.94
326.77	104.94
326.999	72.94
327.228	91.94
327.457	77.94
327.686	70.94
327.914	77.94
328.143	98.94
328.372	80.94
328.6	76.94
328.829	67.94
329.058	75.94
329.287	85.94
329.515	83.94
329.744	73.94
329.972	71.94
330.201	78.94
330.43	76.94
330.658	82.94
330.887	67.94
331.115	80.94
331.344	77.94
331.572	79.94
331.801	69.94
332.03	77.94
332.258	86.94
332.486	101.94
332.715	66.94
332.943	74.94
333.172	74.94
333.4	91.94
333.629	62.94
333.857	73.94
334.085	74.94
334.314	84.94
334.542	90.94
334.771	75.94
334.999	83.94
335.227	81.94
335.455	69.94
335.684	78.94
335.912	77.94
336.14	81.94
336.369	93.94
336.597	83.94
336.825	76.94
337.053	67.94
337.281	72.94
337.51	72.94
337.738	81.94
337.966	79.94
338.194	79.94
338.422	93.94
338.65	88.94
338.878	74.94
339.106	82.94
339.334	80.94
339.562	76.94
339.79	84.94
340.018	71.94
340.246	82.94
340.474	86.94
340.702	69.94
340.93	66.94
341.158	85.94
341.386	76.94
341.614	75.94
341.842	71.94
342.07	84.94
342.298	79.94
342.526	89.94
342.754	90.94
342.981	94.94
343.209	80.94
343.437	92.94
343.665	77.94
343.893	73.94
344.12	88.94
344.348	69.94
344.576	80.94
344.804	76.94
345.031	84.94
345.259	80.94
345.487	82.94
345.714	85.94
345.942	88.94
346.17	82.94
346.397	69.94
346.625	80.94
346.853	78.94
347.08	69.94
347.308	77.94
347.535	80.94
347.763	72.94
347.99	85.94
348.218	81.94
348.445	84.94
348.673	89.94
348.9	80.94
349.128	86.94
349.355	83.94
349.583	73.94
349.81	82.94
350.037	66.94
350.265	76.94
350.492	85.94
350.72	72.94
350.947	77.94
351.174	84.94
351.402	85.94
351.629	77.94
351.856	82.94
352.083	54.94
352.311	87.94
352.538	85.94
352.765	85.94
352.992	85.94
353.22	75.94
353.447	72.94
353.674	81.94
353.901	79.94
354.128	88.94
354.355	77.94
354.583	63.94
354.81	74.94
355.037	75.94
355.264	85.94
355.491	81.94
355.718	85.94
355.945	86.94
356.172	70.94
356.399	81.94
356.626	86.94
356.853	88.94
357.08	106.94
357.307	132.94
357.534	100.94
357.761	63.94
357.988	76.94
358.215	85.94
358.441	77.94
358.668	68.94
358.895	80.94
359.122	93.94
359.349	78.94
359.576	85.94
359.802	83.94
360.029	67.94
360.256	77.94
360.483	74.94
360.709	85.94
360.936	81.94
361.163	83.94
361.39	83.94
361.616	83.94
361.843	65.94
362.07	84.94
362.296	99.94
362.523	92.94
362.749	93.94
362.976	85.94
363.203	99.94
363.429	79.94
363.656	117.94
363.882	155.94
364.109	157.94
364.335	119.94
364.562	75.94
364.788	92.94
365.015	72.94
365.241	96.94
365.468	85.94
365.694	80.94
365.92	66.94
366.147	73.94
366.373	95.94
366.599	84.94
366.826	91.94
367.052	86.94
367.278	100.94
367.505	95.94
367.731	96.94
367.957	118.94
368.184	188.94
368.41	220.94
368.636	181.94
368.862	106.94
369.089	80.94
369.315	86.94
369.541	82.94
369.767	89.94
369.993	71.94
370.219	76.94
370.445	84.94
370.672	74.94
370.898	85.94
371.124	81.94
371.35	81.94
371.576	73.94
371.802	84.94
372.028	83.94
372.254	75.94
372.48	80.94
372.706	89.94
372.932	88.94
373.158	93.94
373.384	94.94
373.61	115.94
373.835	120.94
374.061	116.94
374.287	108.94
374.513	87.94
374.739	82.94
374.965	84.94
375.191	81.94
375.416	72.94
375.642	78.94
375.868	69.94
376.094	83.94
376.319	82.94
376.545	84.94
376.771	67.94
376.997	82.94
377.222	70.94
377.448	97.94
377.674	89.94
377.899	81.94
378.125	73.94
378.35	86.94
378.576	72.94
378.802	76.94
379.027	86.94
379.253	85.94
379.478	83.94
379.704	83.94
379.929	70.94
380.155	68.94
380.38	61.94
380.606	82.94
380.831	84.94
381.057	83.94
381.282	89.94
381.507	91.94
381.733	82.94
381.958	66.94
382.184	66.94
382.409	76.94
382.634	73.94
382.86	79.94
383.085	84.94
383.31	81.94
383.535	82.94
383.761	89.94
383.986	80.94
384.211	89.94
384.436	77.94
384.662	64.94
384.887	89.94
385.112	79.94
385.337	81.94
385.562	85.94
385.787	70.94
386.013	78.94
386.238	84.94
386.463	81.94
386.688	80.94
386.913	80.94
387.138	86.94
387.363	75.94
387.588	74.94
387.813	68.94
388.038	66.94
388.263	70.94
388.488	74.94
388.713	73.94
388.938	76.94
389.163	78.94
389.387	82.94
389.612	74.94
389.837	63.94
390.062	61.94
390.287	84.94
390.512	77.94
390.736	83.94
390.961	85.94
391.186	84.94
391.411	76.94
391.636	78.94
391.86	76.94
392.085	68.94
392.31	91.94
392.534	87.94
392.759	80.94
392.984	78.94
393.208	74.94
393.433	87.94
393.658	68.94
393.882	77.94
394.107	75.94
394.331	81.94
394.556	82.94
394.78	83.94
395.005	63.94
395.229	76.94
395.454	86.94
395.678	80.94
395.903	80.94
396.127	72.94
396.352	74.94
396.576	90.94
396.801	76.94
397.025	81.94
397.249	74.94
397.474	88.94
397.698	82.94
397.922	89.94
398.147	84.94
398.371	77.94
398.595	77.94
398.82	70.94
399.044	82.94
399.268	87.94
399.492	78.94
399.717	83.94
399.941	80.94
400.165	77.94
400.389	76.94
400.613	73.94
400.837	81.94
401.062	77.94
401.286	86.94
401.51	77.94
401.734	84.94
401.958	96.94
402.182	88.94
402.406	68.94
402.63	86.94
402.854	89.94
403.078	75.94
403.302	84.94
403.526	72.94
403.75	54.94
403.974	82.94
404.198	77.94
404.422	84.94
404.645	87.94
404.869	84.94
405.093	102.94
405.317	115.94
405.541	192.94
405.765	315.94
405.988	309.94
406.212	163.94
406.436	125.94
406.66	92.94
406.883	89.94
407.107	90.94
407.331	84.94
407.555	85.94
407.778	71.94
408.002	92.94
408.226	70.94
408.449	83.94
408.673	74.94
408.896	77.94
409.12	79.94
409.344	78.94
409.567	87.94
409.791	58.94
410.014	78.94
410.238	80.94
410.461	68.94
410.685	81.94
410.908	77.94
411.132	85.94
411.355	78.94
411.578	91.94
411.802	71.94
412.025	74.94
412.249	73.94
412.472	83.94
412.695	78.94
412.919	83.94
413.142	81.94
413.365	78.94
413.589	77.94
413.812	76.94
414.035	75.94
414.258	69.94
414.482	72.94
414.705	84.94
414.928	77.94
415.151	72.94
415.374	75.94
415.597	88.94
415.821	78.94
416.044	68.94
416.267	86.94
416.49	81.94
416.713	85.94
416.936	78.94
417.159	89.94
417.382	71.94
417.605	79.94
417.828	77.94
418.051	83.94
418.274	96.94
418.497	80.94
418.72	70.94
418.943	86.94
419.166	75.94
419.389	68.94
419.611	75.94
419.834	78.94
420.057	66.94
420.28	69.94
420.503	81.94
420.726	85.94
420.948	76.94
421.171	78.94
421.394	70.94
421.617	82.94
421.839	77.94
422.062	83.94
422.285	82.94
422.507	80.94
422.73	81.94
422.953	76.94
423.175	74.94
423.398	74.94
423.621	79.94
423.843	85.94
424.066	81.94
424.288	93.94
424.511	83.94
424.733	61.94
424.956	69.94
425.178	92.94
425.401	91.94
425.623	84.94
425.846	84.94
426.068	76.94
426.291	81.94
426.513	80.94
426.735	76.94
426.958	82.94
427.18	78.94
427.402	80.94
427.625	87.94
427.847	88.94
428.069	99.94
428.292	84.94
428.514	74.94
428.736	75.94
428.958	76.94
429.181	75.94
429.403	68.94
429.625	76.94
429.847	74.94
430.069	74.94
430.292	76.94
430.514	77.94
430.736	77.94
430.958	83.94
431.18	79.94
431.402	89.94
431.624	86.94
431.846	77.94
432.068	78.94
432.29	84.94
432.512	71.94
432.734	78.94
432.956	81.94
433.178	76.94
433.4	88.94
433.622	67.94
433.844	64.94
434.066	80.94
434.287	83.94
434.509	71.94
434.731	76.94
434.953	92.94
435.175	80.94
435.397	65.94
435.618	85.94
435.84	85.94
436.062	88.94
436.284	79.94
436.505	86.94
436.727	66.94
436.949	56.94
437.17	86.94
437.392	76.94
437.614	73.94
437.835	71.94
438.057	82.94
438.278	85.94
438.5	70.94
438.721	83.94
438.943	87.94
439.165	85.94
439.386	75.94
439.608	69.94
439.829	75.94
440.05	88.94
440.272	68.94
440.493	75.94
440.715	76.94
440.936	77.94
441.158	81.94
441.379	69.94
441.6	88.94
441.822	67.94
442.043	70.94
442.264	80.94
442.486	76.94
442.707	82.94
442.928	86.94
443.149	76.94
443.371	89.94
443.592	79.94
443.813	73.94
444.034	87.94
444.255	68.94
444.476	67.94
444.698	74.94
444.919	89.94
445.14	145.94
445.361	100.94
445.582	86.94
445.803	72.94
446.024	68.94
446.245	76.94
446.466	90.94
446.687	73.94
446.908	83.94
447.129	86.94
447.35	79.94
447.571	77.94
447.792	93.94
448.013	71.94
448.234	84.94
448.455	86.94
448.675	75.94
448.896	68.94
449.117	78.94
449.338	74.94
449.559	74.94
449.779	91.94
450	80.94
450.221	90.94
450.442	76.94
450.662	60.94
450.883	71.94
451.104	88.94
451.324	88.94
451.545	84.94
451.766	94.94
451.986	85.94
452.207	79.94
452.428	81.94
452.648	66.94
452.869	81.94
453.089	93.94
453.31	78.94
453.53	73.94
453.751	93.94
453.971	77.94
454.192	88.94
454.412	81.94
454.633	70.94
454.853	83.94
455.073	68.94
455.294	82.94
455.514	68.94
455.734	84.94
455.955	86.94
456.175	77.94
456.395	97.94
456.616	88.94
456.836	74.94
457.056	82.94
457.276	77.94
457.497	82.94
457.717	74.94
457.937	77.94
458.157	82.94
458.377	78.94
458.598	76.94
458.818	82.94
459.038	75.94
459.258	84.94
459.478	82.94
459.698	80.94
459.918	73.94
460.138	72.94
460.358	76.94
460.578	79.94
460.798	82.94
461.018	81.94
461.238	79.94
461.458	80.94
461.678	88.94
461.898	73.94
462.118	84.94
462.338	74.94
462.558	67.94
462.777	67.94
462.997	82.94
463.217	56.94
463.437	76.94
463.657	65.94
463.876	74.94
464.096	86.94
464.316	81.94
464.536	74.94
464.755	79.94
464.975	85.94
465.195	80.94
465.414	74.94
465.634	72.94
465.854	93.94
466.073	69.94
466.293	85.94
466.512	64.94
466.732	73.94
466.951	96.94
467.171	85.94
467.391	76.94
467.61	78.94
467.829	84.94
468.049	80.94
468.268	84.94
468.488	86.94
468.707	74.94
468.927	90.94
469.146	89.94
469.365	91.94
469.585	81.94
469.804	81.94
470.023	80.94
470.243	68.94
470.462	83.94
470.681	64.94
470.901	78.94
471.12	73.94
471.339	85.94
471.558	83.94
471.777	85.94
471.997	67.94
472.216	80.94
472.435	73.94
472.654	66.94
472.873	88.94
473.092	70.94
473.311	67.94
473.53	74.94
473.749	83.94
473.968	79.94
474.187	66.94
474.406	57.94
474.625	75.94
474.844	80.94
475.063	88.94
475.282	79.94
475.501	75.94
475.72	76.94
475.939	71.94
476.158	74.94
476.377	98.94
476.596	92.94
476.814	95.94
477.033	81.94
477.252	86.94
477.471	89.94
477.69	82.94
477.908	86.94
478.127	89.94
478.346	62.94
478.564	76.94
478.783	88.94
479.002	76.94
479.22	71.94
479.439	78.94
479.658	84.94
479.876	76.94
480.095	87.94
480.313	84.94
480.532	84.94
480.751	73.94
480.969	79.94
481.188	85.94
481.406	86.94
481.624	73.94
481.843	86.94
482.061	77.94
482.28	84.94
482.498	63.94
482.717	80.94
482.935	77.94
483.153	79.94
483.372	89.94
483.59	80.94
483.808	64.94
484.027	79.94
484.245	79.94
484.463	78.94
484.681	87.94
484.9	76.94
485.118	72.94
485.336	77.94
485.554	83.94
485.772	79.94
485.99	71.94
486.209	79.94
486.427	60.94
486.645	72.94
486.863	58.94
487.081	82.94
487.299	74.94
487.517	89.94
487.735	86.94
487.953	70.94
488.171	91.94
488.389	80.94
488.607	76.94
488.825	88.94
489.043	83.94
489.261	85.94
489.479	88.94
489.696	81.94
489.914	78.94
490.132	90.94
490.35	84.94
490.568	76.94
490.786	94.94
491.003	87.94
491.221	81.94
491.439	80.94
491.657	75.94
491.874	92.94
492.092	86.94
492.31	78.94
492.527	75.94
492.745	73.94
492.963	77.94
493.18	88.94
493.398	83.94
493.615	82.94
493.833	92.94
494.05	84.94
494.268	73.94
494.485	84.94
494.703	93.94
494.92	87.94
495.138	83.94
495.355	88.94
495.573	78.94
495.79	81.94
496.008	88.94
496.225	85.94
496.442	76.94
496.66	75.94
496.877	85.94
497.094	72.94
497.312	84.94
497.529	88.94
497.746	82.94
497.963	88.94
498.181	76.94
498.398	73.94
498.615	68.94
498.832	81.94
499.049	82.94
499.267	80.94
499.484	79.94
499.701	81.94
499.918	66.94
500.135	86.94
500.352	96.94
500.569	111.94
500.786	108.94
501.003	106.94
501.22	81.94
501.437	83.94
501.654	74.94
501.871	79.94
502.088	82.94
502.305	86.94
502.522	91.94
502.739	76.94
502.956	96.94
503.172	81.94
503.389	84.94
503.606	88.94
503.823	81.94
504.04	92.94
504.256	100.94
504.473	76.94
504.69	74.94
504.907	94.94
505.123	76.94
505.34	87.94
505.557	96.94
505.773	68.94
505.99	85.94
506.207	83.94
506.423	80.94
506.64	101.94
506.856	90.94
507.073	81.94
507.289	80.94
507.506	79.94
507.722	77.94
507.939	79.94
508.155	84.94
508.372	85.94
508.588	85.94
508.805	81.94
509.021	78.94
509.238	82.94
509.454	84.94
509.67	86.94
509.887	80.94
510.103	66.94
510.319	72.94
510.536	84.94
510.752	82.94
510.968	68.94
511.184	81.94
511.401	87.94
511.617	86.94
511.833	82.94
512.049	79.94
512.265	71.94
512.481	96.94
512.698	85.94
512.914	80.94
513.13	90.94
513.346	78.94
513.562	81.94
513.778	92.94
513.994	86.94
514.21	84.94
514.426	75.94
514.642	86.94
514.858	92.94
515.074	76.94
515.29	81.94
515.506	78.94
515.721	85.94
515.937	79.94
516.153	66.94
516.369	75.94
516.585	80.94
516.801	80.94
517.016	84.94
517.232	82.94
517.448	85.94
517.664	81.94
517.879	82.94
518.095	91.94
518.311	75.94
518.527	71.94
518.742	85.94
518.958	76.94
519.173	67.94
519.389	84.94
519.605	81.94
519.82	75.94
