Data from StdB_HRD10591_089.txt Node
Date: Fri May 16 15:25:30 EDT 2025
User: Yrep
Spectrometer: HR+D1059
Trigger mode: 1
Integration Time (sec): 1.000000E-1
Scans to average: 1
Electric dark correction enabled: true
Nonlinearity correction enabled: false
Boxcar width: 0
XAxis mode: Wavelengths
Number of Pixels in Spectrum: 2048
>>>>>Begin Spectral Data<<<<<
223.165	-8
223.4	-8
223.635	-8
223.869	-11
224.104	-21
224.338	-28
224.573	-9
224.808	-14
225.042	-11
225.277	-3
225.511	0
225.746	8
225.98	9
226.215	6
226.449	13
226.683	18
226.918	33
227.152	18
227.387	38
227.621	29
227.856	35
228.09	46
228.324	54
228.559	49
228.793	65
229.027	49
229.262	67
229.496	63
229.73	63
229.964	62
230.199	62
230.433	68
230.667	77
230.901	80
231.136	76
231.37	62
231.604	72
231.838	81
232.072	80
232.306	66
232.541	73
232.775	73
233.009	70
233.243	62
233.477	75
233.711	84
233.945	92
234.179	76
234.413	68
234.647	74
234.881	86
235.115	71
235.349	75
235.583	74
235.817	85
236.051	76
236.285	79
236.519	66
236.753	71
236.987	74
237.221	77
237.455	67
237.689	71
237.922	82
238.156	74
238.39	76
238.624	69
238.858	60
239.091	73
239.325	74
239.559	69
239.793	76
240.027	82
240.26	78
240.494	74
240.728	68
240.961	71
241.195	64
241.429	66
241.662	89
241.896	62
242.13	75
242.363	85
242.597	70
242.83	71
243.064	89
243.298	84
243.531	72
243.765	82
243.998	73
244.232	57
244.465	67
244.699	69
244.932	73
245.166	71
245.399	84
245.633	84
245.866	75
246.099	64
246.333	67
246.566	80
246.8	96
247.033	68
247.266	65
247.5	59
247.733	63
247.966	76
248.2	84
248.433	76
248.666	70
248.899	78
249.133	70
249.366	85
249.599	72
249.832	72
250.066	78
250.299	83
250.532	80
250.765	72
250.998	78
251.231	82
251.465	69
251.698	75
251.931	81
252.164	81
252.397	72
252.63	70
252.863	58
253.096	81
253.329	68
253.562	72
253.795	70
254.028	82
254.261	78
254.494	81
254.727	73
254.96	67
255.193	70
255.426	80
255.659	72
255.892	77
256.124	93
256.357	76
256.59	72
256.823	78
257.056	66
257.289	64
257.521	80
257.754	75
257.987	76
258.22	78
258.452	82
258.685	72
258.918	76
259.151	74
259.383	84
259.616	70
259.849	73
260.081	80
260.314	60
260.547	77
260.779	86
261.012	86
261.244	80
261.477	69
261.71	80
261.942	62
262.175	81
262.407	82
262.64	85
262.872	74
263.105	67
263.337	60
263.57	72
263.802	85
264.035	77
264.267	76
264.499	82
264.732	79
264.964	69
265.197	98
265.429	80
265.661	71
265.894	93
266.126	87
266.358	80
266.591	91
266.823	89
267.055	84
267.287	80
267.52	72
267.752	80
267.984	84
268.216	76
268.448	72
268.681	76
268.913	82
269.145	90
269.377	82
269.609	87
269.841	76
270.073	82
270.306	84
270.538	70
270.77	73
271.002	74
271.234	77
271.466	89
271.698	84
271.93	93
272.162	84
272.394	73
272.626	61
272.858	76
273.09	73
273.322	78
273.553	84
273.785	92
274.017	86
274.249	84
274.481	84
274.713	80
274.945	96
275.176	90
275.408	85
275.64	84
275.872	76
276.104	76
276.335	69
276.567	85
276.799	70
277.031	85
277.262	85
277.494	80
277.726	80
277.957	79
278.189	73
278.421	78
278.652	80
278.884	93
279.115	74
279.347	79
279.579	72
279.81	88
280.042	102
280.273	110
280.505	101
280.736	91
280.968	100
281.199	86
281.431	88
281.662	81
281.894	75
282.125	99
282.356	86
282.588	92
282.819	88
283.051	77
283.282	86
283.513	103
283.745	80
283.976	81
284.207	87
284.439	73
284.67	86
284.901	68
285.132	96
285.364	84
285.595	82
285.826	80
286.057	76
286.288	73
286.52	89
286.751	71
286.982	84
287.213	92
287.444	91
287.675	94
287.906	92
288.138	86
288.369	87
288.6	86
288.831	99
289.062	85
289.293	98
289.524	72
289.755	78
289.986	78
290.217	76
290.448	71
290.679	80
290.91	93
291.141	83
291.371	76
291.602	89
291.833	88
292.064	88
292.295	77
292.526	84
292.757	82
292.987	94
293.218	89
293.449	75
293.68	79
293.91	84
294.141	91
294.372	74
294.603	74
294.833	77
295.064	77
295.295	98
295.525	75
295.756	68
295.987	83
296.217	82
296.448	81
296.679	64
296.909	82
297.14	87
297.37	83
297.601	84
297.831	77
298.062	83
298.292	81
298.523	89
298.753	80
298.984	70
299.214	71
299.445	75
299.675	87
299.905	87
300.136	88
300.366	82
300.597	73
300.827	84
301.057	68
301.288	82
301.518	84
301.748	76
301.979	84
302.209	90
302.439	82
302.669	65
302.9	84
303.13	71
303.36	76
303.59	64
303.82	72
304.051	89
304.281	73
304.511	84
304.741	72
304.971	74
305.201	74
305.431	84
305.661	78
305.891	77
306.121	80
306.352	75
306.582	89
306.812	69
307.042	82
307.272	93
307.502	81
307.731	83
307.961	77
308.191	83
308.421	90
308.651	89
308.881	73
309.111	66
309.341	83
309.571	72
309.8	74
310.03	85
310.26	81
310.49	80
310.72	79
310.949	82
311.179	75
311.409	88
311.639	82
311.868	90
312.098	102
312.328	78
312.557	70
312.787	87
313.017	84
313.246	85
313.476	97
313.706	80
313.935	85
314.165	85
314.394	82
314.624	65
314.853	85
315.083	77
315.312	90
315.542	74
315.771	81
316.001	82
316.23	86
316.46	72
316.689	74
316.919	79
317.148	88
317.377	71
317.607	71
317.836	86
318.065	90
318.295	74
318.524	81
318.753	78
318.983	74
319.212	94
319.441	80
319.67	70
319.9	88
320.129	77
320.358	87
320.587	78
320.816	90
321.046	86
321.275	89
321.504	75
321.733	78
321.962	84
322.191	78
322.42	80
322.649	90
322.878	88
323.108	85
323.337	83
323.566	76
323.795	74
324.024	89
324.253	82
324.482	76
324.71	78
324.939	81
325.168	84
325.397	78
325.626	91
325.855	90
326.084	73
326.313	97
326.542	89
326.77	84
326.999	81
327.228	70
327.457	84
327.686	77
327.914	73
328.143	76
328.372	81
328.6	92
328.829	86
329.058	85
329.287	93
329.515	92
329.744	101
329.972	86
330.201	91
330.43	73
330.658	75
330.887	75
331.115	89
331.344	65
331.572	84
331.801	68
332.03	80
332.258	78
332.486	69
332.715	87
332.943	66
333.172	82
333.4	78
333.629	83
333.857	98
334.085	85
334.314	83
334.542	81
334.771	74
334.999	86
335.227	57
335.455	81
335.684	80
335.912	85
336.14	74
336.369	75
336.597	54
336.825	78
337.053	81
337.281	75
337.51	70
337.738	82
337.966	76
338.194	73
338.422	77
338.65	91
338.878	83
339.106	77
339.334	82
339.562	66
339.79	71
340.018	81
340.246	87
340.474	83
340.702	82
340.93	92
341.158	68
341.386	78
341.614	65
341.842	80
342.07	94
342.298	94
342.526	77
342.754	94
342.981	77
343.209	77
343.437	84
343.665	67
343.893	88
344.12	66
344.348	94
344.576	91
344.804	74
345.031	73
345.259	86
345.487	83
345.714	79
345.942	79
346.17	86
346.397	92
346.625	76
346.853	84
347.08	89
347.308	74
347.535	72
347.763	83
347.99	64
348.218	78
348.445	64
348.673	81
348.9	87
349.128	86
349.355	72
349.583	80
349.81	76
350.037	75
350.265	80
350.492	80
350.72	86
350.947	77
351.174	82
351.402	77
351.629	76
351.856	92
352.083	81
352.311	85
352.538	84
352.765	91
352.992	90
353.22	72
353.447	69
353.674	60
353.901	90
354.128	76
354.355	77
354.583	88
354.81	79
355.037	77
355.264	83
355.491	75
355.718	48
355.945	74
356.172	80
356.399	87
356.626	84
356.853	91
357.08	106
357.307	134
357.534	104
357.761	82
357.988	87
358.215	78
358.441	82
358.668	76
358.895	75
359.122	86
359.349	72
359.576	77
359.802	63
360.029	89
360.256	84
360.483	74
360.709	79
360.936	90
361.163	89
361.39	94
361.616	80
361.843	85
362.07	84
362.296	100
362.523	83
362.749	84
362.976	94
363.203	83
363.429	101
363.656	123
363.882	141
364.109	166
364.335	120
364.562	90
364.788	84
365.015	84
365.241	70
365.468	83
365.694	82
365.92	76
366.147	82
366.373	74
366.599	74
366.826	92
367.052	118
367.278	116
367.505	117
367.731	95
367.957	115
368.184	169
368.41	200
368.636	162
368.862	110
369.089	100
369.315	81
369.541	89
369.767	81
369.993	79
370.219	80
370.445	80
370.672	72
370.898	83
371.124	100
371.35	64
371.576	74
371.802	84
372.028	80
372.254	84
372.48	88
372.706	76
372.932	81
373.158	77
373.384	88
373.61	98
373.835	110
374.061	110
374.287	102
374.513	101
374.739	86
374.965	73
375.191	73
375.416	82
375.642	72
375.868	71
376.094	85
376.319	80
376.545	89
376.771	80
376.997	66
377.222	79
377.448	77
377.674	79
377.899	83
378.125	75
378.35	86
378.576	93
378.802	82
379.027	78
379.253	86
379.478	75
379.704	78
379.929	87
380.155	62
380.38	86
380.606	77
380.831	87
381.057	76
381.282	77
381.507	84
381.733	71
381.958	73
382.184	70
382.409	74
382.634	68
382.86	87
383.085	81
383.31	68
383.535	82
383.761	88
383.986	81
384.211	77
384.436	81
384.662	84
384.887	82
385.112	84
385.337	87
385.562	91
385.787	82
386.013	83
386.238	71
386.463	75
386.688	75
386.913	73
387.138	66
387.363	84
387.588	78
387.813	78
388.038	78
388.263	73
388.488	76
388.713	83
388.938	71
389.163	84
389.387	80
389.612	91
389.837	77
390.062	94
390.287	83
390.512	74
390.736	81
390.961	78
391.186	82
391.411	76
391.636	76
391.86	78
392.085	88
392.31	72
392.534	75
392.759	84
392.984	85
393.208	74
393.433	66
393.658	77
393.882	73
394.107	73
394.331	77
394.556	74
394.78	82
395.005	77
395.229	80
395.454	86
395.678	85
395.903	67
396.127	87
396.352	76
396.576	79
396.801	92
397.025	80
397.249	79
397.474	93
397.698	82
397.922	89
398.147	69
398.371	71
398.595	76
398.82	84
399.044	88
399.268	83
399.492	90
399.717	81
399.941	75
400.165	78
400.389	92
400.613	81
400.837	70
401.062	78
401.286	79
401.51	77
401.734	78
401.958	101
402.182	95
402.406	84
402.63	84
402.854	69
403.078	72
403.302	66
403.526	81
403.75	96
403.974	94
404.198	78
404.422	84
404.645	78
404.869	79
405.093	103
405.317	106
405.541	179
405.765	300
405.988	289
406.212	176
406.436	130
406.66	86
406.883	82
407.107	85
407.331	84
407.555	97
407.778	83
408.002	78
408.226	86
408.449	67
408.673	75
408.896	70
409.12	93
409.344	88
409.567	75
409.791	94
410.014	82
410.238	78
410.461	89
410.685	89
410.908	80
411.132	74
411.355	87
411.578	90
411.802	77
412.025	72
412.249	87
412.472	89
412.695	73
412.919	91
413.142	85
413.365	72
413.589	80
413.812	76
414.035	76
414.258	82
414.482	82
414.705	85
414.928	96
415.151	85
415.374	74
415.597	86
415.821	84
416.044	83
416.267	70
416.49	77
416.713	75
416.936	95
417.159	81
417.382	84
417.605	65
417.828	90
418.051	88
418.274	79
418.497	54
418.72	88
418.943	87
419.166	89
419.389	78
419.611	69
419.834	83
420.057	80
420.28	77
420.503	80
420.726	73
420.948	84
421.171	81
421.394	87
421.617	92
421.839	75
422.062	73
422.285	86
422.507	81
422.73	75
422.953	68
423.175	91
423.398	78
423.621	80
423.843	88
424.066	79
424.288	83
424.511	82
424.733	76
424.956	70
425.178	85
425.401	78
425.623	69
425.846	73
426.068	85
426.291	90
426.513	83
426.735	86
426.958	69
427.18	81
427.402	76
427.625	73
427.847	94
428.069	87
428.292	100
428.514	82
428.736	86
428.958	82
429.181	86
429.403	70
429.625	73
429.847	72
430.069	72
430.292	77
430.514	80
430.736	85
430.958	80
431.18	83
431.402	86
431.624	73
431.846	83
432.068	65
432.29	85
432.512	89
432.734	82
432.956	89
433.178	81
433.4	85
433.622	84
433.844	71
434.066	84
434.287	86
434.509	69
434.731	83
434.953	75
435.175	93
435.397	79
435.618	86
435.84	84
436.062	78
436.284	72
436.505	83
436.727	89
436.949	83
437.17	82
437.392	82
437.614	88
437.835	75
438.057	74
438.278	84
438.5	101
438.721	75
438.943	75
439.165	77
439.386	79
439.608	89
439.829	86
440.05	83
440.272	82
440.493	86
440.715	84
440.936	75
441.158	83
441.379	76
441.6	77
441.822	65
442.043	87
442.264	83
442.486	77
442.707	72
442.928	73
443.149	85
443.371	83
443.592	72
443.813	74
444.034	88
444.255	78
444.476	76
444.698	77
444.919	75
445.14	154
445.361	128
445.582	84
445.803	70
446.024	77
446.245	81
446.466	89
446.687	83
446.908	87
447.129	80
447.35	92
447.571	74
447.792	77
448.013	80
448.234	77
448.455	86
448.675	81
448.896	87
449.117	70
449.338	82
449.559	84
449.779	82
450	82
450.221	88
450.442	82
450.662	90
450.883	84
451.104	82
451.324	89
451.545	91
451.766	75
451.986	72
452.207	90
452.428	81
452.648	84
452.869	98
453.089	91
453.31	88
453.53	97
453.751	74
453.971	77
454.192	79
454.412	59
454.633	68
454.853	77
455.073	80
455.294	78
455.514	72
455.734	86
455.955	80
456.175	70
456.395	82
456.616	92
456.836	86
457.056	90
457.276	81
457.497	75
457.717	90
457.937	75
458.157	77
458.377	73
458.598	83
458.818	78
459.038	79
459.258	71
459.478	67
459.698	80
459.918	80
460.138	62
460.358	79
460.578	74
460.798	86
461.018	80
461.238	68
461.458	62
461.678	72
461.898	78
462.118	76
462.338	58
462.558	77
462.777	70
462.997	81
463.217	84
463.437	75
463.657	81
463.876	86
464.096	92
464.316	97
464.536	82
464.755	80
464.975	81
465.195	70
465.414	68
465.634	84
465.854	68
466.073	78
466.293	80
466.512	81
466.732	83
466.951	80
467.171	81
467.391	90
467.61	83
467.829	89
468.049	84
468.268	76
468.488	86
468.707	77
468.927	82
469.146	77
469.365	74
469.585	87
469.804	82
470.023	81
470.243	81
470.462	87
470.681	98
470.901	86
471.12	96
471.339	85
471.558	67
471.777	77
471.997	80
472.216	84
472.435	68
472.654	83
472.873	61
473.092	85
473.311	82
473.53	79
473.749	80
473.968	88
474.187	75
474.406	94
474.625	82
474.844	80
475.063	69
475.282	84
475.501	63
475.72	86
475.939	84
476.158	75
476.377	87
476.596	63
476.814	72
477.033	85
477.252	75
477.471	78
477.69	80
477.908	84
478.127	71
478.346	74
478.564	83
478.783	74
479.002	68
479.22	83
479.439	99
479.658	90
479.876	76
480.095	78
480.313	80
480.532	83
480.751	85
480.969	73
481.188	80
481.406	74
481.624	97
481.843	84
482.061	73
482.28	84
482.498	84
482.717	63
482.935	86
483.153	81
483.372	102
483.59	84
483.808	89
484.027	82
484.245	76
484.463	72
484.681	94
484.9	91
485.118	73
485.336	74
485.554	83
485.772	84
485.99	67
486.209	88
486.427	83
486.645	78
486.863	82
487.081	87
487.299	77
487.517	80
487.735	94
487.953	79
488.171	83
488.389	77
488.607	90
488.825	89
489.043	67
489.261	78
489.479	85
489.696	71
489.914	96
490.132	81
490.35	100
490.568	76
490.786	84
491.003	88
491.221	81
491.439	78
491.657	84
491.874	78
492.092	84
492.31	93
492.527	61
492.745	65
492.963	78
493.18	67
493.398	91
493.615	100
493.833	74
494.05	88
494.268	89
494.485	80
494.703	91
494.92	79
495.138	78
495.355	75
495.573	76
495.79	77
496.008	83
496.225	77
496.442	70
496.66	85
496.877	80
497.094	92
497.312	80
497.529	81
497.746	65
497.963	86
498.181	70
498.398	79
498.615	77
498.832	80
499.049	81
499.267	81
499.484	81
499.701	92
499.918	78
500.135	79
500.352	94
500.569	110
500.786	129
501.003	88
501.22	79
501.437	80
501.654	85
501.871	81
502.088	84
502.305	84
502.522	86
502.739	90
502.956	78
503.172	63
503.389	77
503.606	77
503.823	89
504.04	92
504.256	87
504.473	75
504.69	76
504.907	85
505.123	90
505.34	87
505.557	79
505.773	79
505.99	84
506.207	88
506.423	92
506.64	86
506.856	84
507.073	68
507.289	74
507.506	88
507.722	72
507.939	77
508.155	77
508.372	80
508.588	71
508.805	84
509.021	97
509.238	98
509.454	76
509.67	77
509.887	80
510.103	68
510.319	84
510.536	75
510.752	86
510.968	74
511.184	69
511.401	66
511.617	83
511.833	98
512.049	89
512.265	80
512.481	82
512.698	91
512.914	69
513.13	82
513.346	74
513.562	75
513.778	84
513.994	87
514.21	78
514.426	80
514.642	72
514.858	62
515.074	92
515.29	81
515.506	76
515.721	96
515.937	85
516.153	91
516.369	91
516.585	73
516.801	74
517.016	80
517.232	87
517.448	81
517.664	76
517.879	74
518.095	79
518.311	75
518.527	85
518.742	62
518.958	80
519.173	82
519.389	79
519.605	85
519.82	83
520.036	55
520.251	99
520.467	82
520.682	82
520.898	69
521.113	79
521.329	79
521.544	82
521.76	82
521.975	76
522.19	63
522.406	67
522.621	77
522.836	72
523.052	93
523.267	80
523.482	78
523.698	85
523.913	88
524.128	84
524.343	78
524.559	82
524.774	74
524.989	80
525.204	86
525.419	66
525.634	75
525.849	80
526.064	90
526.28	89
526.495	86
526.71	74
526.925	80
527.14	90
527.355	79
527.57	86
527.785	68
527.999	74
528.214	84
528.429	98
528.644	90
528.859	84
529.074	78
529.289	83
529.503	84
529.718	80
529.933	82
530.148	74
530.363	82
530.577	75
530.792	82
531.007	71
531.221	81
531.436	83
531.651	96
531.865	85
532.08	82
532.295	83
532.509	77
532.724	96
532.938	74
533.153	78
533.367	59
533.582	80
533.796	80
534.011	82
534.225	69
534.44	92
534.654	84
534.868	81
535.083	81
535.297	73
535.511	80
535.726	82
535.94	91
536.154	87
536.369	78
536.583	78
536.797	73
537.011	81
537.225	72
537.44	91
537.654	75
537.868	89
538.082	78
538.296	76
538.51	90
538.724	78
538.938	85
539.153	82
539.367	70
539.581	78
539.795	89
540.009	76
540.222	84
540.436	68
540.65	77
540.864	66
541.078	71
541.292	81
541.506	91
541.72	98
541.934	82
542.147	83
542.361	93
542.575	75
542.789	88
543.002	91
543.216	78
543.43	86
543.644	61
543.857	80
544.071	80
544.285	72
544.498	75
544.712	88
544.925	75
545.139	81
545.352	88
545.566	99
545.779	89
545.993	79
546.206	83
546.42	86
546.633	83
546.847	81
547.06	83
547.274	69
547.487	84
547.7	83
547.914	78
548.127	83
548.34	96
548.554	89
548.767	79
548.98	78
549.193	86
549.407	81
549.62	85
549.833	86
550.046	68
550.259	83
550.473	80
550.686	88
550.899	98
551.112	72
551.325	82
551.538	96
551.751	80
551.964	87
552.177	83
552.39	78
552.603	96
552.816	84
553.029	86
553.242	57
553.455	78
553.667	88
553.88	88
554.093	101
554.306	91
554.519	92
554.732	82
554.944	78
555.157	90
555.37	85
555.583	74
555.795	89
556.008	88
556.221	92
556.433	83
556.646	77
556.859	75
557.071	83
557.284	85
557.496	71
557.709	85
557.921	85
558.134	66
558.346	88
558.559	83
558.771	76
558.984	82
559.196	68
559.409	71
559.621	80
559.833	70
560.046	87
560.258	76
560.47	82
560.683	86
560.895	88
561.107	82
561.32	67
561.532	76
561.744	89
561.956	84
562.168	93
562.381	80
562.593	86
562.805	86
563.017	85
563.229	84
563.441	73
563.653	91
563.865	75
564.077	82
564.289	86
564.501	82
564.713	80
564.925	81
565.137	78
565.349	81
565.561	77
565.773	87
565.985	66
566.197	63
566.408	84
566.62	87
566.832	81
567.044	85
567.255	72
567.467	90
567.679	72
567.891	89
568.102	77
568.314	85
568.526	73
568.737	86
568.949	104
569.161	83
569.372	80
569.584	69
569.795	90
570.007	77
570.218	86
570.43	98
570.641	83
570.853	56
571.064	85
571.276	83
571.487	76
571.698	91
571.91	89
572.121	87
572.333	82
572.544	80
572.755	88
572.966	77
573.178	78
573.389	72
573.6	72
573.811	81
574.023	79
574.234	89
574.445	76
574.656	79
574.867	87
575.078	67
575.289	79
575.501	84
575.712	76
575.923	75
576.134	83
576.345	93
576.556	63
576.767	88
576.978	70
577.188	90
577.399	82
577.61	92
577.821	89
578.032	70
578.243	69
578.454	92
578.665	90
578.875	80
579.086	89
579.297	78
579.508	82
579.718	96
579.929	68
580.14	76
580.35	60
580.561	85
580.772	80
580.982	68
581.193	88
581.403	84
581.614	78
581.825	68
582.035	76
582.246	72
582.456	90
582.667	96
582.877	86
583.087	70
583.298	69
583.508	77
583.719	92
583.929	96
584.139	79
584.35	81
584.56	82
584.77	84
584.981	89
585.191	88
585.401	73
585.611	84
585.821	80
586.032	82
586.242	80
586.452	85
586.662	88
586.872	84
587.082	81
587.292	89
587.502	90
587.713	82
587.923	58
588.133	83
588.343	94
588.553	84
588.762	96
588.972	85
589.182	80
589.392	78
589.602	74
589.812	83
590.022	76
590.232	80
590.441	73
