Data from StdB_HRD10591_024.txt Node
Date: Fri May 16 15:24:58 EDT 2025
User: Yrep
Spectrometer: HR+D1059
Trigger mode: 1
Integration Time (sec): 1.000000E-1
Scans to average: 1
Electric dark correction enabled: true
Nonlinearity correction enabled: false
Boxcar width: 0
XAxis mode: Wavelengths
Number of Pixels in Spectrum: 2048
>>>>>Begin Spectral Data<<<<<
223.165	-13.5
223.4	-13.5
223.635	-13.5
223.869	-14.5
224.104	-13.5
224.338	-17.5
224.573	-14.5
224.808	-0.5
225.042	-16.5
225.277	-18.5
225.511	-4.5
225.746	13.5
225.98	-3.5
226.215	12.5
226.449	0.5
226.683	18.5
226.918	38.5
227.152	33.5
227.387	19.5
227.621	41.5
227.856	39.5
228.09	39.5
228.324	56.5
228.559	56.5
228.793	54.5
229.027	77.5
229.262	86.5
229.496	85.5
229.73	95.5
229.964	73.5
230.199	78.5
230.433	68.5
230.667	81.5
230.901	85.5
231.136	82.5
231.37	79.5
231.604	88.5
231.838	100.5
232.072	89.5
232.306	82.5
232.541	84.5
232.775	95.5
233.009	89.5
233.243	95.5
233.477	88.5
233.711	94.5
233.945	100.5
234.179	93.5
234.413	87.5
234.647	91.5
234.881	77.5
235.115	85.5
235.349	88.5
235.583	89.5
235.817	78.5
236.051	88.5
236.285	84.5
236.519	81.5
236.753	87.5
236.987	93.5
237.221	80.5
237.455	106.5
237.689	94.5
237.922	82.5
238.156	87.5
238.39	80.5
238.624	75.5
238.858	87.5
239.091	98.5
239.325	109.5
239.559	108.5
239.793	111.5
240.027	111.5
240.26	112.5
240.494	107.5
240.728	94.5
240.961	90.5
241.195	102.5
241.429	104.5
241.662	112.5
241.896	106.5
242.13	93.5
242.363	96.5
242.597	89.5
242.83	83.5
243.064	90.5
243.298	80.5
243.531	90.5
243.765	105.5
243.998	107.5
244.232	108.5
244.465	84.5
244.699	117.5
244.932	112.5
245.166	110.5
245.399	102.5
245.633	107.5
245.866	89.5
246.099	76.5
246.333	102.5
246.566	82.5
246.8	107.5
247.033	113.5
247.266	100.5
247.5	121.5
247.733	136.5
247.966	127.5
248.2	138.5
248.433	98.5
248.666	111.5
248.899	103.5
249.133	113.5
249.366	110.5
249.599	114.5
249.832	108.5
250.066	117.5
250.299	112.5
250.532	104.5
250.765	107.5
250.998	107.5
251.231	110.5
251.465	116.5
251.698	124.5
251.931	120.5
252.164	124.5
252.397	122.5
252.63	120.5
252.863	125.5
253.096	128.5
253.329	137.5
253.562	125.5
253.795	125.5
254.028	148.5
254.261	137.5
254.494	132.5
254.727	149.5
254.96	137.5
255.193	131.5
255.426	129.5
255.659	129.5
255.892	128.5
256.124	137.5
256.357	134.5
256.59	127.5
256.823	145.5
257.056	148.5
257.289	147.5
257.521	134.5
257.754	150.5
257.987	178.5
258.22	178.5
258.452	150.5
258.685	151.5
258.918	150.5
259.151	145.5
259.383	148.5
259.616	139.5
259.849	146.5
260.081	154.5
260.314	155.5
260.547	159.5
260.779	175.5
261.012	199.5
261.244	255.5
261.477	301.5
261.71	320.5
261.942	234.5
262.175	184.5
262.407	179.5
262.64	189.5
262.872	171.5
263.105	160.5
263.337	139.5
263.57	144.5
263.802	142.5
264.035	142.5
264.267	134.5
264.499	137.5
264.732	167.5
264.964	180.5
265.197	183.5
265.429	183.5
265.661	166.5
265.894	157.5
266.126	177.5
266.358	212.5
266.591	240.5
266.823	213.5
267.055	154.5
267.287	146.5
267.52	133.5
267.752	140.5
267.984	130.5
268.216	135.5
268.448	138.5
268.681	140.5
268.913	137.5
269.145	124.5
269.377	132.5
269.609	138.5
269.841	140.5
270.073	145.5
270.306	127.5
270.538	140.5
270.77	137.5
271.002	137.5
271.234	140.5
271.466	159.5
271.698	132.5
271.93	144.5
272.162	133.5
272.394	135.5
272.626	144.5
272.858	144.5
273.09	152.5
273.322	150.5
273.553	142.5
273.785	139.5
274.017	135.5
274.249	143.5
274.481	147.5
274.713	136.5
274.945	149.5
275.176	116.5
275.408	132.5
275.64	142.5
275.872	140.5
276.104	147.5
276.335	155.5
276.567	143.5
276.799	162.5
277.031	150.5
277.262	143.5
277.494	157.5
277.726	164.5
277.957	172.5
278.189	155.5
278.421	178.5
278.652	188.5
278.884	186.5
279.115	200.5
279.347	219.5
279.579	274.5
279.81	319.5
280.042	410.5
280.273	516.5
280.505	450.5
280.736	306.5
280.968	250.5
281.199	214.5
281.431	205.5
281.662	208.5
281.894	216.5
282.125	238.5
282.356	270.5
282.588	273.5
282.819	245.5
283.051	263.5
283.282	350.5
283.513	402.5
283.745	309.5
283.976	238.5
284.207	220.5
284.439	188.5
284.67	175.5
284.901	158.5
285.132	176.5
285.364	173.5
285.595	177.5
285.826	184.5
286.057	173.5
286.288	170.5
286.52	198.5
286.751	205.5
286.982	238.5
287.213	284.5
287.444	310.5
287.675	264.5
287.906	202.5
288.138	174.5
288.369	156.5
288.6	171.5
288.831	163.5
289.062	156.5
289.293	167.5
289.524	144.5
289.755	168.5
289.986	163.5
290.217	152.5
290.448	164.5
290.679	161.5
290.91	162.5
291.141	163.5
291.371	174.5
291.602	156.5
291.833	160.5
292.064	157.5
292.295	147.5
292.526	171.5
292.757	154.5
292.987	155.5
293.218	166.5
293.449	161.5
293.68	170.5
293.91	166.5
294.141	177.5
294.372	165.5
294.603	169.5
294.833	167.5
295.064	171.5
295.295	178.5
295.525	178.5
295.756	164.5
295.987	173.5
296.217	155.5
296.448	180.5
296.679	158.5
296.909	161.5
297.14	166.5
297.37	141.5
297.601	168.5
297.831	176.5
298.062	173.5
298.292	178.5
298.523	171.5
298.753	182.5
298.984	165.5
299.214	174.5
299.445	168.5
299.675	167.5
299.905	174.5
300.136	162.5
300.366	170.5
300.597	166.5
300.827	167.5
301.057	153.5
301.288	178.5
301.518	183.5
301.748	173.5
301.979	185.5
302.209	165.5
302.439	182.5
302.669	182.5
302.9	182.5
303.13	180.5
303.36	175.5
303.59	152.5
303.82	196.5
304.051	169.5
304.281	178.5
304.511	185.5
304.741	184.5
304.971	182.5
305.201	172.5
305.431	168.5
305.661	161.5
305.891	168.5
306.121	157.5
306.352	172.5
306.582	176.5
306.812	190.5
307.042	171.5
307.272	171.5
307.502	176.5
307.731	167.5
307.961	165.5
308.191	184.5
308.421	182.5
308.651	180.5
308.881	174.5
309.111	165.5
309.341	170.5
309.571	159.5
309.8	170.5
310.03	159.5
310.26	180.5
310.49	183.5
310.72	167.5
310.949	184.5
311.179	180.5
311.409	175.5
311.639	196.5
311.868	184.5
312.098	186.5
312.328	182.5
312.557	190.5
312.787	189.5
313.017	173.5
313.246	207.5
313.476	202.5
313.706	207.5
313.935	206.5
314.165	228.5
314.394	232.5
314.624	212.5
314.853	196.5
315.083	208.5
315.312	215.5
315.542	219.5
315.771	206.5
316.001	219.5
316.23	202.5
316.46	210.5
316.689	208.5
316.919	200.5
317.148	205.5
317.377	214.5
317.607	208.5
317.836	211.5
318.065	206.5
318.295	218.5
318.524	207.5
318.753	196.5
318.983	205.5
319.212	201.5
319.441	201.5
319.67	192.5
319.9	185.5
320.129	185.5
320.358	176.5
320.587	203.5
320.816	187.5
321.046	192.5
321.275	188.5
321.504	189.5
321.733	187.5
321.962	179.5
322.191	190.5
322.42	190.5
322.649	172.5
322.878	195.5
323.108	184.5
323.337	180.5
323.566	178.5
323.795	204.5
324.024	206.5
324.253	204.5
324.482	202.5
324.71	190.5
324.939	195.5
325.168	208.5
325.397	193.5
325.626	191.5
325.855	196.5
326.084	209.5
326.313	210.5
326.542	190.5
326.77	206.5
326.999	187.5
327.228	212.5
327.457	193.5
327.686	191.5
327.914	194.5
328.143	204.5
328.372	180.5
328.6	207.5
328.829	198.5
329.058	190.5
329.287	190.5
329.515	192.5
329.744	206.5
329.972	195.5
330.201	209.5
330.43	201.5
330.658	189.5
330.887	202.5
331.115	197.5
331.344	188.5
331.572	191.5
331.801	193.5
332.03	204.5
332.258	192.5
332.486	206.5
332.715	204.5
332.943	192.5
333.172	198.5
333.4	186.5
333.629	204.5
333.857	197.5
334.085	202.5
334.314	197.5
334.542	186.5
334.771	188.5
334.999	210.5
335.227	213.5
335.455	200.5
335.684	200.5
335.912	185.5
336.14	204.5
336.369	199.5
336.597	202.5
336.825	193.5
337.053	194.5
337.281	196.5
337.51	187.5
337.738	189.5
337.966	184.5
338.194	178.5
338.422	199.5
338.65	193.5
338.878	192.5
339.106	180.5
339.334	191.5
339.562	184.5
339.79	199.5
340.018	194.5
340.246	170.5
340.474	192.5
340.702	181.5
340.93	190.5
341.158	187.5
341.386	176.5
341.614	198.5
341.842	194.5
342.07	186.5
342.298	176.5
342.526	209.5
342.754	199.5
342.981	185.5
343.209	206.5
343.437	202.5
343.665	190.5
343.893	189.5
344.12	197.5
344.348	200.5
344.576	200.5
344.804	214.5
345.031	192.5
345.259	210.5
345.487	197.5
345.714	195.5
345.942	203.5
346.17	186.5
346.397	203.5
346.625	207.5
346.853	192.5
347.08	196.5
347.308	203.5
347.535	193.5
347.763	192.5
347.99	183.5
348.218	202.5
348.445	180.5
348.673	182.5
348.9	192.5
349.128	212.5
349.355	194.5
349.583	201.5
349.81	193.5
350.037	163.5
350.265	199.5
350.492	185.5
350.72	184.5
350.947	189.5
351.174	193.5
351.402	182.5
351.629	190.5
351.856	190.5
352.083	176.5
352.311	198.5
352.538	205.5
352.765	188.5
352.992	189.5
353.22	179.5
353.447	189.5
353.674	183.5
353.901	184.5
354.128	200.5
354.355	204.5
354.583	202.5
354.81	202.5
355.037	199.5
355.264	200.5
355.491	194.5
355.718	214.5
355.945	213.5
356.172	210.5
356.399	232.5
356.626	259.5
356.853	306.5
357.08	442.5
357.307	583.5
357.534	560.5
357.761	395.5
357.988	324.5
358.215	296.5
358.441	266.5
358.668	253.5
358.895	239.5
359.122	250.5
359.349	232.5
359.576	209.5
359.802	224.5
360.029	218.5
360.256	215.5
360.483	222.5
360.709	210.5
360.936	214.5
361.163	207.5
361.39	206.5
361.616	213.5
361.843	199.5
362.07	205.5
362.296	227.5
362.523	228.5
362.749	219.5
362.976	246.5
363.203	251.5
363.429	317.5
363.656	422.5
363.882	630.5
364.109	761.5
364.335	543.5
364.562	360.5
364.788	284.5
365.015	262.5
365.241	239.5
365.468	215.5
365.694	218.5
365.92	235.5
366.147	230.5
366.373	236.5
366.599	253.5
366.826	269.5
367.052	300.5
367.278	374.5
367.505	350.5
367.731	362.5
367.957	477.5
368.184	764.5
368.41	1021.5
368.636	849.5
368.862	523.5
369.089	388.5
369.315	318.5
369.541	279.5
369.767	270.5
369.993	251.5
370.219	233.5
370.445	246.5
370.672	232.5
370.898	232.5
371.124	216.5
371.35	235.5
371.576	221.5
371.802	238.5
372.028	251.5
372.254	224.5
372.48	228.5
372.706	228.5
372.932	237.5
373.158	258.5
373.384	281.5
373.61	331.5
373.835	510.5
374.061	614.5
374.287	548.5
374.513	364.5
374.739	295.5
374.965	269.5
375.191	246.5
375.416	234.5
375.642	227.5
375.868	217.5
376.094	226.5
376.319	218.5
376.545	215.5
376.771	202.5
376.997	214.5
377.222	211.5
377.448	223.5
377.674	215.5
377.899	206.5
378.125	226.5
378.35	230.5
378.576	227.5
378.802	226.5
379.027	222.5
379.253	213.5
379.478	228.5
379.704	190.5
379.929	211.5
380.155	219.5
380.38	219.5
380.606	203.5
380.831	209.5
381.057	222.5
381.282	210.5
381.507	199.5
381.733	203.5
381.958	216.5
382.184	207.5
382.409	203.5
382.634	221.5
382.86	213.5
383.085	226.5
383.31	204.5
383.535	216.5
383.761	234.5
383.986	210.5
384.211	223.5
384.436	224.5
384.662	221.5
384.887	219.5
385.112	213.5
385.337	224.5
385.562	223.5
385.787	221.5
386.013	212.5
386.238	224.5
386.463	222.5
386.688	227.5
386.913	221.5
387.138	204.5
387.363	239.5
387.588	219.5
387.813	238.5
388.038	212.5
388.263	218.5
388.488	218.5
388.713	199.5
388.938	218.5
389.163	205.5
389.387	201.5
389.612	200.5
389.837	212.5
390.062	213.5
390.287	226.5
390.512	218.5
390.736	218.5
390.961	208.5
391.186	220.5
391.411	215.5
391.636	229.5
391.86	213.5
392.085	222.5
392.31	218.5
392.534	212.5
392.759	222.5
392.984	232.5
393.208	236.5
393.433	224.5
393.658	223.5
393.882	211.5
394.107	226.5
394.331	214.5
394.556	224.5
394.78	237.5
395.005	208.5
395.229	239.5
395.454	228.5
395.678	211.5
395.903	208.5
396.127	210.5
396.352	213.5
396.576	199.5
396.801	237.5
397.025	230.5
397.249	219.5
397.474	232.5
397.698	214.5
397.922	227.5
398.147	240.5
398.371	230.5
398.595	247.5
398.82	246.5
399.044	231.5
399.268	245.5
399.492	255.5
399.717	262.5
399.941	255.5
400.165	257.5
400.389	246.5
400.613	248.5
400.837	237.5
401.062	239.5
401.286	243.5
401.51	259.5
401.734	273.5
401.958	300.5
402.182	295.5
402.406	247.5
402.63	240.5
402.854	257.5
403.078	264.5
403.302	250.5
403.526	275.5
403.75	280.5
403.974	268.5
404.198	268.5
404.422	274.5
404.645	311.5
404.869	319.5
405.093	374.5
405.317	501.5
405.541	818.5
405.765	1310.5
405.988	1534.5
406.212	1030.5
406.436	682.5
406.66	511.5
406.883	410.5
407.107	376.5
407.331	327.5
407.555	335.5
407.778	296.5
408.002	293.5
408.226	300.5
408.449	294.5
408.673	279.5
408.896	272.5
409.12	268.5
409.344	254.5
409.567	252.5
409.791	255.5
410.014	245.5
410.238	258.5
410.461	264.5
410.685	268.5
410.908	250.5
411.132	242.5
411.355	253.5
411.578	236.5
411.802	246.5
412.025	258.5
412.249	234.5
412.472	255.5
412.695	231.5
412.919	244.5
413.142	239.5
413.365	239.5
413.589	236.5
413.812	228.5
414.035	239.5
414.258	232.5
414.482	232.5
414.705	228.5
414.928	247.5
415.151	245.5
415.374	234.5
415.597	235.5
415.821	236.5
416.044	261.5
416.267	230.5
416.49	233.5
416.713	254.5
416.936	266.5
417.159	250.5
417.382	249.5
417.605	231.5
417.828	242.5
418.051	239.5
418.274	256.5
418.497	226.5
418.72	255.5
418.943	246.5
419.166	245.5
419.389	237.5
419.611	246.5
419.834	261.5
420.057	244.5
420.28	252.5
420.503	240.5
420.726	238.5
420.948	253.5
421.171	239.5
421.394	238.5
421.617	264.5
421.839	245.5
422.062	254.5
422.285	271.5
422.507	271.5
422.73	279.5
422.953	296.5
423.175	300.5
423.398	298.5
423.621	325.5
423.843	378.5
424.066	416.5
424.288	515.5
424.511	640.5
424.733	687.5
424.956	591.5
425.178	516.5
425.401	449.5
425.623	407.5
425.846	363.5
426.068	356.5
426.291	329.5
426.513	314.5
426.735	319.5
426.958	310.5
427.18	283.5
427.402	300.5
427.625	295.5
427.847	272.5
428.069	280.5
428.292	283.5
428.514	259.5
428.736	270.5
428.958	270.5
429.181	252.5
429.403	246.5
429.625	238.5
429.847	234.5
430.069	256.5
430.292	259.5
430.514	232.5
430.736	237.5
430.958	251.5
431.18	240.5
431.402	257.5
431.624	244.5
431.846	243.5
432.068	238.5
432.29	221.5
432.512	246.5
432.734	226.5
432.956	255.5
433.178	255.5
433.4	253.5
433.622	260.5
433.844	261.5
434.066	263.5
434.287	262.5
434.509	285.5
434.731	263.5
434.953	245.5
435.175	238.5
435.397	267.5
435.618	268.5
435.84	254.5
436.062	262.5
436.284	268.5
436.505	262.5
436.727	270.5
436.949	261.5
437.17	293.5
437.392	294.5
437.614	295.5
437.835	314.5
438.057	344.5
438.278	389.5
438.5	469.5
438.721	597.5
438.943	660.5
439.165	543.5
439.386	474.5
439.608	440.5
439.829	402.5
440.05	400.5
440.272	384.5
440.493	392.5
440.715	408.5
440.936	448.5
441.158	457.5
441.379	381.5
441.6	370.5
441.822	334.5
442.043	319.5
442.264	314.5
442.486	295.5
442.707	281.5
442.928	284.5
443.149	268.5
443.371	255.5
443.592	264.5
443.813	260.5
444.034	251.5
444.255	256.5
444.476	263.5
444.698	274.5
444.919	269.5
445.14	318.5
445.361	290.5
445.582	243.5
445.803	230.5
446.024	255.5
446.245	264.5
446.466	234.5
446.687	227.5
446.908	247.5
447.129	250.5
447.35	215.5
447.571	244.5
447.792	228.5
448.013	223.5
448.234	221.5
448.455	226.5
448.675	224.5
448.896	230.5
449.117	231.5
449.338	247.5
449.559	236.5
449.779	234.5
450	244.5
450.221	240.5
450.442	226.5
450.662	219.5
450.883	217.5
451.104	207.5
451.324	222.5
451.545	207.5
451.766	193.5
451.986	194.5
452.207	219.5
452.428	206.5
452.648	194.5
452.869	206.5
453.089	219.5
453.31	209.5
453.53	206.5
453.751	207.5
453.971	211.5
454.192	208.5
454.412	197.5
454.633	219.5
454.853	209.5
455.073	199.5
455.294	212.5
455.514	196.5
455.734	192.5
455.955	209.5
456.175	184.5
456.395	197.5
456.616	210.5
456.836	209.5
457.056	187.5
457.276	195.5
457.497	222.5
457.717	198.5
457.937	197.5
458.157	213.5
458.377	213.5
458.598	208.5
458.818	215.5
459.038	211.5
459.258	210.5
459.478	211.5
459.698	207.5
459.918	212.5
460.138	211.5
460.358	213.5
460.578	230.5
460.798	228.5
461.018	218.5
461.238	213.5
461.458	232.5
461.678	228.5
461.898	238.5
462.118	221.5
462.338	237.5
462.558	244.5
462.777	244.5
462.997	248.5
463.217	239.5
463.437	243.5
463.657	227.5
463.876	212.5
464.096	229.5
464.316	243.5
464.536	223.5
464.755	235.5
464.975	230.5
465.195	208.5
465.414	228.5
465.634	214.5
465.854	200.5
466.073	211.5
466.293	208.5
466.512	219.5
466.732	234.5
466.951	226.5
467.171	208.5
467.391	210.5
467.61	202.5
467.829	203.5
468.049	200.5
468.268	199.5
468.488	205.5
468.707	219.5
468.927	211.5
469.146	206.5
469.365	206.5
469.585	210.5
469.804	217.5
470.023	215.5
470.243	218.5
470.462	220.5
470.681	204.5
470.901	217.5
471.12	221.5
471.339	208.5
471.558	210.5
471.777	186.5
471.997	209.5
472.216	221.5
472.435	194.5
472.654	206.5
472.873	204.5
473.092	198.5
473.311	214.5
473.53	207.5
473.749	214.5
473.968	215.5
474.187	218.5
474.406	234.5
474.625	206.5
474.844	203.5
475.063	223.5
475.282	219.5
475.501	213.5
475.72	205.5
475.939	209.5
476.158	204.5
476.377	219.5
476.596	222.5
476.814	222.5
477.033	227.5
477.252	230.5
477.471	226.5
477.69	222.5
477.908	230.5
478.127	231.5
478.346	253.5
478.564	245.5
478.783	255.5
479.002	260.5
479.22	261.5
479.439	251.5
479.658	261.5
479.876	252.5
480.095	238.5
480.313	239.5
480.532	251.5
480.751	263.5
480.969	254.5
481.188	251.5
481.406	248.5
481.624	246.5
481.843	243.5
482.061	245.5
482.28	249.5
482.498	250.5
482.717	237.5
482.935	242.5
483.153	240.5
483.372	254.5
483.59	250.5
483.808	251.5
484.027	235.5
484.245	260.5
484.463	245.5
484.681	251.5
484.9	247.5
485.118	233.5
485.336	247.5
485.554	249.5
485.772	246.5
485.99	246.5
486.209	244.5
486.427	245.5
486.645	230.5
486.863	252.5
487.081	231.5
487.299	233.5
487.517	241.5
487.735	232.5
487.953	259.5
488.171	234.5
488.389	248.5
488.607	246.5
488.825	231.5
489.043	256.5
489.261	257.5
489.479	256.5
489.696	249.5
489.914	263.5
490.132	246.5
490.35	271.5
490.568	262.5
490.786	255.5
491.003	242.5
491.221	236.5
491.439	251.5
491.657	254.5
491.874	259.5
492.092	263.5
492.31	260.5
492.527	255.5
492.745	252.5
492.963	253.5
493.18	272.5
493.398	242.5
493.615	262.5
493.833	249.5
494.05	250.5
494.268	258.5
494.485	256.5
494.703	248.5
494.92	262.5
495.138	266.5
495.355	276.5
495.573	295.5
495.79	264.5
496.008	269.5
496.225	268.5
496.442	267.5
496.66	261.5
496.877	271.5
497.094	285.5
497.312	262.5
497.529	278.5
497.746	269.5
497.963	270.5
498.181	279.5
498.398	298.5
498.615	310.5
498.832	302.5
499.049	301.5
499.267	329.5
499.484	336.5
499.701	350.5
499.918	360.5
500.135	393.5
500.352	422.5
500.569	460.5
500.786	530.5
501.003	440.5
501.22	390.5
501.437	360.5
501.654	370.5
501.871	331.5
502.088	340.5
502.305	336.5
502.522	326.5
502.739	308.5
502.956	333.5
503.172	328.5
503.389	332.5
503.606	312.5
503.823	325.5
504.04	346.5
504.256	358.5
504.473	370.5
504.69	373.5
504.907	369.5
505.123	351.5
505.34	346.5
505.557	328.5
505.773	326.5
505.99	321.5
506.207	314.5
506.423	312.5
506.64	271.5
506.856	296.5
507.073	296.5
507.289	280.5
507.506	283.5
507.722	275.5
507.939	268.5
508.155	270.5
508.372	277.5
508.588	268.5
508.805	282.5
509.021	260.5
509.238	259.5
509.454	259.5
509.67	244.5
509.887	251.5
510.103	257.5
510.319	267.5
510.536	260.5
510.752	238.5
510.968	266.5
511.184	236.5
511.401	245.5
511.617	247.5
511.833	249.5
512.049	242.5
512.265	243.5
512.481	253.5
512.698	253.5
512.914	240.5
513.13	241.5
513.346	231.5
513.562	248.5
513.778	254.5
513.994	244.5
514.21	232.5
514.426	241.5
514.642	245.5
514.858	248.5
515.074	256.5
515.29	259.5
515.506	253.5
515.721	255.5
515.937	265.5
516.153	254.5
516.369	282.5
516.585	262.5
516.801	272.5
517.016	255.5
517.232	270.5
517.448	264.5
517.664	264.5
517.879	267.5
518.095	280.5
518.311	262.5
518.527	243.5
518.742	266.5
518.958	244.5
519.173	245.5
519.389	253.5
519.605	233.5
519.82	238.5
520.036	247.5
520.251	266.5
520.467	278.5
520.682	230.5
520.898	214.5
521.113	246.5
521.329	262.5
521.544	234.5
