Data from StdB_HRD10591_001.txt Node
Date: Fri May 16 15:24:46 EDT 2025
User: Yrep
Spectrometer: HR+D1059
Trigger mode: 1
Integration Time (sec): 1.000000E-1
Scans to average: 1
Electric dark correction enabled: true
Nonlinearity correction enabled: false
Boxcar width: 0
XAxis mode: Wavelengths
Number of Pixels in Spectrum: 2048
>>>>>Begin Spectral Data<<<<<
223.165	-15.25
223.4	-15.25
223.635	-15.25
223.869	-21.25
224.104	-15.25
224.338	-18.25
224.573	-18.25
224.808	-16.25
225.042	-19.25
225.277	-16.25
225.511	1.75
225.746	-3.25
225.98	0.75
226.215	19.75
226.449	10.75
226.683	31.75
226.918	35.75
227.152	42.75
227.387	26.75
227.621	37.75
227.856	45.75
228.09	40.75
228.324	43.75
228.559	44.75
228.793	64.75
229.027	62.75
229.262	75.75
229.496	63.75
229.73	84.75
229.964	69.75
230.199	75.75
230.433	83.75
230.667	76.75
230.901	82.75
231.136	91.75
231.37	86.75
231.604	82.75
231.838	93.75
232.072	87.75
232.306	86.75
232.541	86.75
232.775	85.75
233.009	93.75
233.243	87.75
233.477	88.75
233.711	85.75
233.945	97.75
234.179	71.75
234.413	90.75
234.647	81.75
234.881	90.75
235.115	103.75
235.349	83.75
235.583	77.75
235.817	80.75
236.051	91.75
236.285	81.75
236.519	82.75
236.753	104.75
236.987	76.75
237.221	95.75
237.455	77.75
237.689	90.75
237.922	94.75
238.156	77.75
238.39	80.75
238.624	96.75
238.858	95.75
239.091	103.75
239.325	94.75
239.559	114.75
239.793	100.75
240.027	91.75
240.26	109.75
240.494	98.75
240.728	90.75
240.961	90.75
241.195	98.75
241.429	98.75
241.662	89.75
241.896	99.75
242.13	90.75
242.363	97.75
242.597	86.75
242.83	104.75
243.064	99.75
243.298	106.75
243.531	92.75
243.765	86.75
243.998	89.75
244.232	104.75
244.465	99.75
244.699	110.75
244.932	112.75
245.166	92.75
245.399	100.75
245.633	102.75
245.866	96.75
246.099	97.75
246.333	89.75
246.566	104.75
246.8	104.75
247.033	110.75
247.266	121.75
247.5	109.75
247.733	104.75
247.966	146.75
248.2	127.75
248.433	103.75
248.666	111.75
248.899	101.75
249.133	106.75
249.366	122.75
249.599	91.75
249.832	114.75
250.066	106.75
250.299	107.75
250.532	102.75
250.765	110.75
250.998	116.75
251.231	112.75
251.465	112.75
251.698	124.75
251.931	121.75
252.164	123.75
252.397	139.75
252.63	115.75
252.863	132.75
253.096	139.75
253.329	138.75
253.562	130.75
253.795	135.75
254.028	138.75
254.261	119.75
254.494	133.75
254.727	128.75
254.96	139.75
255.193	112.75
255.426	122.75
255.659	151.75
255.892	127.75
256.124	134.75
256.357	141.75
256.59	140.75
256.823	143.75
257.056	140.75
257.289	142.75
257.521	146.75
257.754	171.75
257.987	189.75
258.22	157.75
258.452	158.75
258.685	144.75
258.918	138.75
259.151	152.75
259.383	140.75
259.616	154.75
259.849	152.75
260.081	163.75
260.314	144.75
260.547	162.75
260.779	167.75
261.012	215.75
261.244	248.75
261.477	333.75
261.71	325.75
261.942	264.75
262.175	182.75
262.407	149.75
262.64	161.75
262.872	150.75
263.105	152.75
263.337	152.75
263.57	136.75
263.802	156.75
264.035	153.75
264.267	152.75
264.499	143.75
264.732	158.75
264.964	164.75
265.197	180.75
265.429	177.75
265.661	161.75
265.894	147.75
266.126	179.75
266.358	204.75
266.591	227.75
266.823	192.75
267.055	151.75
267.287	150.75
267.52	134.75
267.752	137.75
267.984	146.75
268.216	145.75
268.448	141.75
268.681	142.75
268.913	149.75
269.145	139.75
269.377	123.75
269.609	130.75
269.841	137.75
270.073	147.75
270.306	139.75
270.538	125.75
270.77	128.75
271.002	141.75
271.234	135.75
271.466	130.75
271.698	138.75
271.93	141.75
272.162	138.75
272.394	135.75
272.626	123.75
272.858	131.75
273.09	142.75
273.322	147.75
273.553	145.75
273.785	138.75
274.017	130.75
274.249	147.75
274.481	150.75
274.713	131.75
274.945	132.75
275.176	133.75
275.408	140.75
275.64	127.75
275.872	142.75
276.104	137.75
276.335	140.75
276.567	156.75
276.799	145.75
277.031	149.75
277.262	146.75
277.494	150.75
277.726	158.75
277.957	161.75
278.189	139.75
278.421	167.75
278.652	190.75
278.884	183.75
279.115	216.75
279.347	225.75
279.579	265.75
279.81	347.75
280.042	454.75
280.273	536.75
280.505	468.75
280.736	312.75
280.968	233.75
281.199	209.75
281.431	202.75
281.662	196.75
281.894	216.75
282.125	231.75
282.356	261.75
282.588	261.75
282.819	239.75
283.051	288.75
283.282	337.75
283.513	396.75
283.745	310.75
283.976	241.75
284.207	201.75
284.439	202.75
284.67	178.75
284.901	179.75
285.132	169.75
285.364	168.75
285.595	172.75
285.826	157.75
286.057	180.75
286.288	157.75
286.52	193.75
286.751	204.75
286.982	223.75
287.213	290.75
287.444	313.75
287.675	266.75
287.906	209.75
288.138	187.75
288.369	197.75
288.6	156.75
288.831	159.75
289.062	160.75
289.293	156.75
289.524	167.75
289.755	148.75
289.986	149.75
290.217	154.75
290.448	164.75
290.679	168.75
290.91	144.75
291.141	161.75
291.371	159.75
291.602	153.75
291.833	166.75
292.064	156.75
292.295	155.75
292.526	161.75
292.757	160.75
292.987	165.75
293.218	154.75
293.449	148.75
293.68	147.75
293.91	158.75
294.141	175.75
294.372	171.75
294.603	164.75
294.833	164.75
295.064	178.75
295.295	181.75
295.525	179.75
295.756	189.75
295.987	173.75
296.217	166.75
296.448	161.75
296.679	174.75
296.909	177.75
297.14	175.75
297.37	191.75
297.601	168.75
297.831	165.75
298.062	164.75
298.292	154.75
298.523	158.75
298.753	157.75
298.984	155.75
299.214	174.75
299.445	163.75
299.675	171.75
299.905	181.75
300.136	157.75
300.366	154.75
300.597	160.75
300.827	165.75
301.057	169.75
301.288	154.75
301.518	155.75
301.748	163.75
301.979	190.75
302.209	184.75
302.439	156.75
302.669	185.75
302.9	180.75
303.13	184.75
303.36	184.75
303.59	180.75
303.82	185.75
304.051	182.75
304.281	182.75
304.511	192.75
304.741	165.75
304.971	180.75
305.201	179.75
305.431	188.75
305.661	175.75
305.891	174.75
306.121	164.75
306.352	166.75
306.582	167.75
306.812	187.75
307.042	180.75
307.272	181.75
307.502	171.75
307.731	159.75
307.961	185.75
308.191	163.75
308.421	179.75
308.651	181.75
308.881	178.75
309.111	192.75
309.341	148.75
309.571	159.75
309.8	180.75
310.03	181.75
310.26	187.75
310.49	171.75
310.72	192.75
310.949	173.75
311.179	181.75
311.409	181.75
311.639	188.75
311.868	187.75
312.098	190.75
312.328	183.75
312.557	204.75
312.787	204.75
313.017	199.75
313.246	191.75
313.476	197.75
313.706	220.75
313.935	209.75
314.165	201.75
314.394	196.75
314.624	213.75
314.853	209.75
315.083	203.75
315.312	209.75
315.542	201.75
315.771	228.75
316.001	219.75
316.23	205.75
316.46	202.75
316.689	218.75
316.919	197.75
317.148	227.75
317.377	209.75
317.607	219.75
317.836	210.75
318.065	185.75
318.295	208.75
318.524	200.75
318.753	197.75
318.983	191.75
319.212	183.75
319.441	186.75
319.67	182.75
319.9	187.75
320.129	191.75
320.358	181.75
320.587	175.75
320.816	180.75
321.046	181.75
321.275	181.75
321.504	181.75
321.733	202.75
321.962	185.75
322.191	181.75
322.42	194.75
322.649	189.75
322.878	191.75
323.108	202.75
323.337	183.75
323.566	188.75
323.795	184.75
324.024	188.75
324.253	190.75
324.482	206.75
324.71	188.75
324.939	182.75
325.168	197.75
325.397	182.75
325.626	187.75
325.855	190.75
326.084	166.75
326.313	182.75
326.542	174.75
326.77	193.75
326.999	191.75
327.228	194.75
327.457	188.75
327.686	198.75
327.914	201.75
328.143	195.75
328.372	207.75
328.6	178.75
328.829	183.75
329.058	186.75
329.287	190.75
329.515	191.75
329.744	188.75
329.972	190.75
330.201	194.75
330.43	188.75
330.658	185.75
330.887	192.75
331.115	197.75
331.344	198.75
331.572	181.75
331.801	190.75
332.03	187.75
332.258	202.75
332.486	202.75
332.715	206.75
332.943	205.75
333.172	185.75
333.4	197.75
333.629	203.75
333.857	206.75
334.085	201.75
334.314	210.75
334.542	193.75
334.771	184.75
334.999	189.75
335.227	202.75
335.455	201.75
335.684	191.75
335.912	201.75
336.14	209.75
336.369	197.75
336.597	187.75
336.825	198.75
337.053	192.75
337.281	175.75
337.51	190.75
337.738	192.75
337.966	177.75
338.194	192.75
338.422	184.75
338.65	180.75
338.878	184.75
339.106	189.75
339.334	190.75
339.562	179.75
339.79	183.75
340.018	175.75
340.246	176.75
340.474	181.75
340.702	185.75
340.93	183.75
341.158	191.75
341.386	190.75
341.614	190.75
341.842	180.75
342.07	190.75
342.298	178.75
342.526	191.75
342.754	185.75
342.981	200.75
343.209	181.75
343.437	205.75
343.665	194.75
343.893	202.75
344.12	194.75
344.348	199.75
344.576	197.75
344.804	192.75
345.031	206.75
345.259	193.75
345.487	204.75
345.714	187.75
345.942	183.75
346.17	191.75
346.397	188.75
346.625	196.75
346.853	187.75
347.08	178.75
347.308	200.75
347.535	205.75
347.763	206.75
347.99	205.75
348.218	162.75
348.445	183.75
348.673	189.75
348.9	178.75
349.128	199.75
349.355	189.75
349.583	188.75
349.81	185.75
350.037	184.75
350.265	172.75
350.492	194.75
350.72	199.75
350.947	187.75
351.174	188.75
351.402	178.75
351.629	174.75
351.856	179.75
352.083	201.75
352.311	194.75
352.538	192.75
352.765	193.75
352.992	191.75
353.22	206.75
353.447	192.75
353.674	179.75
353.901	191.75
354.128	197.75
354.355	205.75
354.583	187.75
354.81	189.75
355.037	188.75
355.264	186.75
355.491	199.75
355.718	210.75
355.945	202.75
356.172	204.75
356.399	227.75
356.626	259.75
356.853	314.75
357.08	433.75
357.307	575.75
357.534	556.75
357.761	402.75
357.988	312.75
358.215	287.75
358.441	257.75
358.668	244.75
358.895	242.75
359.122	233.75
359.349	221.75
359.576	227.75
359.802	219.75
360.029	211.75
360.256	213.75
360.483	215.75
360.709	214.75
360.936	231.75
361.163	212.75
361.39	216.75
361.616	214.75
361.843	203.75
362.07	219.75
362.296	217.75
362.523	210.75
362.749	214.75
362.976	221.75
363.203	252.75
363.429	302.75
363.656	418.75
363.882	663.75
364.109	758.75
364.335	538.75
364.562	344.75
364.788	285.75
365.015	259.75
365.241	246.75
365.468	234.75
365.694	234.75
365.92	226.75
366.147	222.75
366.373	233.75
366.599	255.75
366.826	263.75
367.052	322.75
367.278	346.75
367.505	349.75
367.731	341.75
367.957	490.75
368.184	761.75
368.41	1035.75
368.636	865.75
368.862	519.75
369.089	359.75
369.315	329.75
369.541	294.75
369.767	280.75
369.993	264.75
370.219	227.75
370.445	237.75
370.672	210.75
370.898	203.75
371.124	214.75
371.35	229.75
371.576	222.75
371.802	217.75
372.028	233.75
372.254	212.75
372.48	230.75
372.706	240.75
372.932	230.75
373.158	245.75
373.384	266.75
373.61	335.75
373.835	491.75
374.061	650.75
374.287	556.75
374.513	379.75
374.739	302.75
374.965	266.75
375.191	236.75
375.416	251.75
375.642	213.75
375.868	227.75
376.094	214.75
376.319	207.75
376.545	223.75
376.771	202.75
376.997	213.75
377.222	213.75
377.448	198.75
377.674	198.75
377.899	223.75
378.125	204.75
378.35	192.75
378.576	222.75
378.802	210.75
379.027	217.75
379.253	213.75
379.478	204.75
379.704	209.75
379.929	202.75
380.155	223.75
380.38	228.75
380.606	201.75
380.831	199.75
381.057	213.75
381.282	221.75
381.507	201.75
381.733	203.75
381.958	203.75
382.184	191.75
382.409	197.75
382.634	223.75
382.86	200.75
383.085	193.75
383.31	210.75
383.535	205.75
383.761	234.75
383.986	227.75
384.211	209.75
384.436	221.75
384.662	213.75
384.887	216.75
385.112	207.75
385.337	229.75
385.562	218.75
385.787	215.75
386.013	218.75
386.238	233.75
386.463	220.75
386.688	229.75
386.913	220.75
387.138	222.75
387.363	186.75
387.588	214.75
387.813	219.75
388.038	212.75
388.263	201.75
388.488	201.75
388.713	207.75
388.938	203.75
389.163	219.75
389.387	214.75
389.612	223.75
389.837	206.75
390.062	220.75
390.287	221.75
390.512	197.75
390.736	226.75
390.961	208.75
391.186	214.75
391.411	235.75
391.636	207.75
391.86	207.75
392.085	213.75
392.31	206.75
392.534	221.75
392.759	216.75
392.984	206.75
393.208	230.75
393.433	233.75
393.658	221.75
393.882	210.75
394.107	221.75
394.331	227.75
394.556	220.75
394.78	227.75
395.005	231.75
395.229	212.75
395.454	209.75
395.678	217.75
395.903	205.75
396.127	220.75
396.352	230.75
396.576	211.75
396.801	220.75
397.025	223.75
397.249	218.75
397.474	238.75
397.698	212.75
397.922	211.75
398.147	216.75
398.371	217.75
398.595	225.75
398.82	223.75
399.044	229.75
399.268	249.75
399.492	267.75
399.717	251.75
399.941	260.75
400.165	249.75
400.389	253.75
400.613	253.75
400.837	235.75
401.062	241.75
401.286	255.75
401.51	252.75
401.734	285.75
401.958	306.75
402.182	299.75
402.406	266.75
402.63	251.75
402.854	229.75
403.078	255.75
403.302	242.75
403.526	261.75
403.75	258.75
403.974	258.75
404.198	270.75
404.422	287.75
404.645	292.75
404.869	330.75
405.093	398.75
405.317	490.75
405.541	823.75
405.765	1355.75
405.988	1533.75
406.212	1041.75
406.436	703.75
406.66	516.75
406.883	407.75
407.107	365.75
407.331	345.75
407.555	338.75
407.778	296.75
408.002	306.75
408.226	279.75
408.449	293.75
408.673	269.75
408.896	275.75
409.12	269.75
409.344	263.75
409.567	277.75
409.791	267.75
410.014	257.75
410.238	251.75
410.461	240.75
410.685	241.75
410.908	238.75
411.132	255.75
411.355	245.75
411.578	265.75
411.802	244.75
412.025	250.75
412.249	251.75
412.472	254.75
412.695	238.75
412.919	228.75
413.142	237.75
413.365	243.75
413.589	226.75
413.812	233.75
414.035	248.75
414.258	238.75
414.482	231.75
414.705	226.75
414.928	233.75
415.151	239.75
415.374	234.75
415.597	220.75
415.821	231.75
416.044	232.75
416.267	231.75
416.49	231.75
416.713	253.75
416.936	267.75
417.159	244.75
417.382	230.75
417.605	232.75
417.828	245.75
418.051	245.75
418.274	220.75
418.497	240.75
418.72	234.75
418.943	240.75
419.166	237.75
419.389	254.75
419.611	241.75
419.834	236.75
420.057	242.75
420.28	237.75
420.503	243.75
420.726	221.75
420.948	240.75
421.171	247.75
421.394	249.75
421.617	235.75
421.839	250.75
422.062	239.75
422.285	271.75
422.507	276.75
422.73	275.75
422.953	297.75
423.175	305.75
423.398	322.75
423.621	323.75
423.843	386.75
424.066	412.75
424.288	487.75
424.511	647.75
424.733	696.75
424.956	595.75
425.178	515.75
425.401	436.75
425.623	423.75
425.846	387.75
426.068	355.75
426.291	344.75
426.513	311.75
426.735	309.75
426.958	309.75
427.18	297.75
427.402	272.75
427.625	275.75
427.847	265.75
428.069	259.75
428.292	253.75
428.514	245.75
428.736	269.75
428.958	261.75
429.181	246.75
429.403	235.75
429.625	246.75
429.847	234.75
430.069	243.75
430.292	251.75
430.514	244.75
430.736	233.75
430.958	236.75
431.18	244.75
431.402	234.75
431.624	232.75
431.846	241.75
432.068	240.75
432.29	243.75
432.512	244.75
432.734	235.75
432.956	238.75
433.178	236.75
433.4	244.75
433.622	254.75
433.844	249.75
434.066	265.75
434.287	276.75
434.509	266.75
434.731	256.75
434.953	255.75
435.175	243.75
435.397	267.75
435.618	245.75
435.84	250.75
436.062	249.75
436.284	245.75
436.505	259.75
436.727	280.75
436.949	259.75
437.17	277.75
437.392	297.75
437.614	315.75
437.835	329.75
438.057	357.75
438.278	366.75
438.5	458.75
438.721	567.75
438.943	639.75
439.165	537.75
439.386	470.75
439.608	445.75
439.829	398.75
440.05	394.75
440.272	377.75
440.493	367.75
440.715	440.75
440.936	460.75
441.158	435.75
441.379	370.75
441.6	339.75
441.822	334.75
442.043	326.75
442.264	305.75
442.486	284.75
442.707	301.75
442.928	283.75
443.149	267.75
443.371	252.75
443.592	265.75
443.813	265.75
444.034	263.75
444.255	257.75
444.476	257.75
444.698	251.75
444.919	252.75
445.14	310.75
445.361	298.75
445.582	257.75
445.803	241.75
446.024	228.75
446.245	250.75
446.466	232.75
446.687	230.75
446.908	220.75
447.129	225.75
447.35	243.75
447.571	226.75
447.792	235.75
448.013	230.75
448.234	234.75
448.455	222.75
448.675	213.75
448.896	205.75
449.117	233.75
449.338	225.75
449.559	226.75
449.779	214.75
450	206.75
450.221	215.75
450.442	203.75
450.662	230.75
450.883	213.75
451.104	217.75
451.324	217.75
451.545	210.75
451.766	206.75
451.986	220.75
452.207	215.75
452.428	203.75
452.648	201.75
452.869	195.75
453.089	218.75
453.31	198.75
453.53	200.75
453.751	207.75
453.971	199.75
454.192	212.75
454.412	200.75
454.633	196.75
454.853	200.75
455.073	198.75
455.294	209.75
455.514	207.75
455.734	203.75
455.955	196.75
456.175	210.75
456.395	208.75
456.616	194.75
456.836	186.75
457.056	189.75
457.276	197.75
457.497	207.75
457.717	186.75
457.937	192.75
458.157	187.75
458.377	195.75
458.598	208.75
458.818	202.75
459.038	203.75
459.258	214.75
459.478	217.75
459.698	201.75
459.918	210.75
460.138	213.75
460.358	222.75
460.578	218.75
460.798	217.75
461.018	217.75
461.238	205.75
461.458	204.75
461.678	204.75
461.898	245.75
462.118	241.75
462.338	244.75
462.558	225.75
462.777	228.75
462.997	248.75
463.217	237.75
463.437	247.75
463.657	230.75
463.876	225.75
464.096	229.75
464.316	231.75
464.536	227.75
464.755	222.75
464.975	214.75
465.195	234.75
465.414	223.75
465.634	211.75
465.854	227.75
466.073	205.75
466.293	206.75
466.512	203.75
466.732	218.75
466.951	228.75
467.171	209.75
467.391	213.75
467.61	224.75
467.829	201.75
468.049	200.75
468.268	185.75
468.488	198.75
468.707	204.75
468.927	210.75
469.146	199.75
469.365	204.75
469.585	205.75
469.804	210.75
470.023	202.75
470.243	207.75
470.462	215.75
470.681	214.75
470.901	207.75
471.12	204.75
471.339	216.75
471.558	211.75
471.777	215.75
471.997	216.75
472.216	205.75
472.435	209.75
472.654	206.75
472.873	213.75
473.092	220.75
473.311	202.75
473.53	209.75
473.749	203.75
473.968	220.75
474.187	217.75
474.406	200.75
474.625	217.75
474.844	199.75
475.063	215.75
475.282	228.75
475.501	198.75
475.72	210.75
475.939	223.75
476.158	231.75
476.377	239.75
476.596	221.75
476.814	218.75
477.033	214.75
477.252	225.75
477.471	216.75
477.69	233.75
477.908	250.75
478.127	229.75
478.346	229.75
478.564	264.75
478.783	254.75
479.002	270.75
479.22	260.75
479.439	248.75
479.658	239.75
479.876	231.75
480.095	243.75
480.313	264.75
480.532	264.75
480.751	247.75
480.969	231.75
481.188	255.75
481.406	248.75
481.624	234.75
481.843	229.75
482.061	210.75
482.28	248.75
482.498	240.75
482.717	244.75
482.935	237.75
483.153	242.75
483.372	237.75
483.59	228.75
483.808	226.75
484.027	230.75
484.245	220.75
484.463	241.75
484.681	238.75
484.9	235.75
485.118	241.75
485.336	250.75
485.554	228.75
485.772	237.75
485.99	249.75
486.209	240.75
486.427	228.75
486.645	239.75
486.863	238.75
487.081	232.75
487.299	241.75
487.517	249.75
487.735	238.75
487.953	241.75
488.171	250.75
488.389	247.75
488.607	258.75
488.825	255.75
489.043	229.75
489.261	265.75
489.479	246.75
489.696	250.75
489.914	243.75
490.132	252.75
490.35	245.75
490.568	251.75
490.786	244.75
491.003	233.75
491.221	237.75
491.439	239.75
491.657	236.75
491.874	258.75
492.092	256.75
492.31	261.75
492.527	258.75
492.745	256.75
492.963	256.75
493.18	257.75
493.398	257.75
493.615	255.75
493.833	253.75
494.05	257.75
494.268	258.75
494.485	258.75
494.703	263.75
494.92	261.75
495.138	260.75
495.355	267.75
495.573	299.75
495.79	283.75
496.008	270.75
496.225	271.75
496.442	261.75
496.66	262.75
496.877	278.75
497.094	266.75
497.312	280.75
497.529	268.75
497.746	286.75
497.963	282.75
498.181	287.75
498.398	277.75
498.615	296.75
498.832	317.75
499.049	305.75
499.267	325.75
499.484	350.75
499.701	339.75
499.918	364.75
500.135	385.75
500.352	390.75
500.569	496.75
500.786	521.75
501.003	438.75
501.22	384.75
501.437	350.75
501.654	333.75
501.871	343.75
502.088	334.75
502.305	315.75
502.522	313.75
502.739	327.75
502.956	331.75
503.172	334.75
503.389	319.75
503.606	299.75
