Data from StdB_HRD10591_079.txt Node
Date: Fri May 16 15:25:25 EDT 2025
User: Yrep
Spectrometer: HR+D1059
Trigger mode: 1
Integration Time (sec): 1.000000E-1
Scans to average: 1
Electric dark correction enabled: true
Nonlinearity correction enabled: false
Boxcar width: 0
XAxis mode: Wavelengths
Number of Pixels in Spectrum: 2048
>>>>>Begin Spectral Data<<<<<
223.165	-21.38
223.4	-21.38
223.635	-21.38
223.869	-13.38
224.104	-20.38
224.338	-22.38
224.573	-7.38
224.808	-3.38
225.042	-0.38
225.277	-11.38
225.511	7.62
225.746	10.62
225.98	-5.38
226.215	5.62
226.449	7.62
226.683	22.62
226.918	18.62
227.152	32.62
227.387	40.62
227.621	40.62
227.856	43.62
228.09	50.62
228.324	56.62
228.559	55.62
228.793	58.62
229.027	62.62
229.262	64.62
229.496	74.62
229.73	67.62
229.964	79.62
230.199	66.62
230.433	73.62
230.667	79.62
230.901	86.62
231.136	78.62
231.37	78.62
231.604	81.62
231.838	84.62
232.072	73.62
232.306	63.62
232.541	83.62
232.775	92.62
233.009	76.62
233.243	86.62
233.477	95.62
233.711	79.62
233.945	82.62
234.179	90.62
234.413	66.62
234.647	78.62
234.881	80.62
235.115	72.62
235.349	61.62
235.583	68.62
235.817	63.62
236.051	82.62
236.285	84.62
236.519	71.62
236.753	78.62
236.987	82.62
237.221	72.62
237.455	89.62
237.689	73.62
237.922	79.62
238.156	83.62
238.39	67.62
238.624	91.62
238.858	85.62
239.091	80.62
239.325	78.62
239.559	81.62
239.793	99.62
240.027	77.62
240.26	78.62
240.494	94.62
240.728	81.62
240.961	77.62
241.195	87.62
241.429	76.62
241.662	67.62
241.896	77.62
242.13	83.62
242.363	72.62
242.597	85.62
242.83	86.62
243.064	84.62
243.298	78.62
243.531	80.62
243.765	81.62
243.998	87.62
244.232	88.62
244.465	78.62
244.699	78.62
244.932	79.62
245.166	71.62
245.399	85.62
245.633	80.62
245.866	88.62
246.099	65.62
246.333	65.62
246.566	82.62
246.8	77.62
247.033	80.62
247.266	92.62
247.5	73.62
247.733	75.62
247.966	85.62
248.2	72.62
248.433	85.62
248.666	75.62
248.899	75.62
249.133	77.62
249.366	74.62
249.599	90.62
249.832	90.62
250.066	79.62
250.299	88.62
250.532	75.62
250.765	87.62
250.998	69.62
251.231	89.62
251.465	81.62
251.698	80.62
251.931	77.62
252.164	81.62
252.397	85.62
252.63	78.62
252.863	91.62
253.096	82.62
253.329	74.62
253.562	78.62
253.795	77.62
254.028	76.62
254.261	79.62
254.494	87.62
254.727	85.62
254.96	80.62
255.193	81.62
255.426	87.62
255.659	85.62
255.892	79.62
256.124	108.62
256.357	83.62
256.59	83.62
256.823	82.62
257.056	66.62
257.289	80.62
257.521	92.62
257.754	77.62
257.987	87.62
258.22	82.62
258.452	84.62
258.685	77.62
258.918	87.62
259.151	80.62
259.383	74.62
259.616	79.62
259.849	77.62
260.081	79.62
260.314	75.62
260.547	107.62
260.779	78.62
261.012	82.62
261.244	78.62
261.477	106.62
261.71	107.62
261.942	90.62
262.175	79.62
262.407	73.62
262.64	59.62
262.872	80.62
263.105	98.62
263.337	87.62
263.57	82.62
263.802	75.62
264.035	94.62
264.267	81.62
264.499	95.62
264.732	89.62
264.964	81.62
265.197	85.62
265.429	96.62
265.661	84.62
265.894	86.62
266.126	82.62
266.358	93.62
266.591	97.62
266.823	75.62
267.055	87.62
267.287	82.62
267.52	81.62
267.752	90.62
267.984	79.62
268.216	67.62
268.448	87.62
268.681	92.62
268.913	78.62
269.145	85.62
269.377	85.62
269.609	79.62
269.841	93.62
270.073	77.62
270.306	94.62
270.538	94.62
270.77	82.62
271.002	80.62
271.234	90.62
271.466	88.62
271.698	86.62
271.93	89.62
272.162	79.62
272.394	89.62
272.626	80.62
272.858	84.62
273.09	92.62
273.322	71.62
273.553	73.62
273.785	81.62
274.017	101.62
274.249	79.62
274.481	75.62
274.713	77.62
274.945	86.62
275.176	80.62
275.408	73.62
275.64	92.62
275.872	76.62
276.104	93.62
276.335	84.62
276.567	98.62
276.799	89.62
277.031	93.62
277.262	74.62
277.494	89.62
277.726	83.62
277.957	67.62
278.189	89.62
278.421	88.62
278.652	93.62
278.884	96.62
279.115	81.62
279.347	82.62
279.579	95.62
279.81	94.62
280.042	122.62
280.273	115.62
280.505	110.62
280.736	93.62
280.968	89.62
281.199	90.62
281.431	90.62
281.662	89.62
281.894	85.62
282.125	89.62
282.356	80.62
282.588	98.62
282.819	99.62
283.051	92.62
283.282	109.62
283.513	123.62
283.745	97.62
283.976	94.62
284.207	74.62
284.439	88.62
284.67	89.62
284.901	86.62
285.132	99.62
285.364	89.62
285.595	85.62
285.826	83.62
286.057	92.62
286.288	78.62
286.52	97.62
286.751	85.62
286.982	79.62
287.213	89.62
287.444	101.62
287.675	88.62
287.906	94.62
288.138	72.62
288.369	93.62
288.6	73.62
288.831	87.62
289.062	85.62
289.293	83.62
289.524	81.62
289.755	83.62
289.986	78.62
290.217	77.62
290.448	80.62
290.679	73.62
290.91	89.62
291.141	83.62
291.371	81.62
291.602	95.62
291.833	87.62
292.064	90.62
292.295	95.62
292.526	85.62
292.757	77.62
292.987	79.62
293.218	93.62
293.449	84.62
293.68	82.62
293.91	86.62
294.141	82.62
294.372	85.62
294.603	91.62
294.833	85.62
295.064	70.62
295.295	87.62
295.525	84.62
295.756	93.62
295.987	93.62
296.217	87.62
296.448	68.62
296.679	97.62
296.909	95.62
297.14	97.62
297.37	86.62
297.601	85.62
297.831	89.62
298.062	86.62
298.292	95.62
298.523	90.62
298.753	82.62
298.984	88.62
299.214	94.62
299.445	93.62
299.675	90.62
299.905	103.62
300.136	89.62
300.366	89.62
300.597	87.62
300.827	81.62
301.057	85.62
301.288	88.62
301.518	78.62
301.748	88.62
301.979	93.62
302.209	91.62
302.439	82.62
302.669	89.62
302.9	87.62
303.13	101.62
303.36	93.62
303.59	81.62
303.82	78.62
304.051	76.62
304.281	89.62
304.511	85.62
304.741	79.62
304.971	104.62
305.201	97.62
305.431	89.62
305.661	90.62
305.891	83.62
306.121	88.62
306.352	103.62
306.582	81.62
306.812	69.62
307.042	77.62
307.272	82.62
307.502	94.62
307.731	89.62
307.961	96.62
308.191	75.62
308.421	84.62
308.651	78.62
308.881	102.62
309.111	92.62
309.341	82.62
309.571	91.62
309.8	93.62
310.03	95.62
310.26	74.62
310.49	87.62
310.72	74.62
310.949	77.62
311.179	80.62
311.409	84.62
311.639	78.62
311.868	92.62
312.098	87.62
312.328	97.62
312.557	90.62
312.787	82.62
313.017	81.62
313.246	82.62
313.476	91.62
313.706	84.62
313.935	98.62
314.165	86.62
314.394	92.62
314.624	88.62
314.853	93.62
315.083	97.62
315.312	83.62
315.542	88.62
315.771	97.62
316.001	89.62
316.23	90.62
316.46	86.62
316.689	87.62
316.919	89.62
317.148	82.62
317.377	110.62
317.607	75.62
317.836	88.62
318.065	99.62
318.295	81.62
318.524	75.62
318.753	97.62
318.983	85.62
319.212	89.62
319.441	86.62
319.67	90.62
319.9	90.62
320.129	96.62
320.358	84.62
320.587	88.62
320.816	82.62
321.046	85.62
321.275	90.62
321.504	94.62
321.733	94.62
321.962	85.62
322.191	91.62
322.42	75.62
322.649	88.62
322.878	88.62
323.108	87.62
323.337	97.62
323.566	109.62
323.795	72.62
324.024	83.62
324.253	95.62
324.482	82.62
324.71	77.62
324.939	81.62
325.168	95.62
325.397	90.62
325.626	83.62
325.855	90.62
326.084	73.62
326.313	98.62
326.542	88.62
326.77	82.62
326.999	78.62
327.228	107.62
327.457	73.62
327.686	87.62
327.914	93.62
328.143	74.62
328.372	92.62
328.6	69.62
328.829	82.62
329.058	82.62
329.287	87.62
329.515	75.62
329.744	94.62
329.972	89.62
330.201	92.62
330.43	99.62
330.658	79.62
330.887	89.62
331.115	87.62
331.344	67.62
331.572	85.62
331.801	87.62
332.03	84.62
332.258	80.62
332.486	74.62
332.715	73.62
332.943	69.62
333.172	74.62
333.4	73.62
333.629	78.62
333.857	93.62
334.085	81.62
334.314	76.62
334.542	84.62
334.771	99.62
334.999	81.62
335.227	92.62
335.455	90.62
335.684	79.62
335.912	85.62
336.14	93.62
336.369	75.62
336.597	75.62
336.825	83.62
337.053	76.62
337.281	92.62
337.51	85.62
337.738	90.62
337.966	89.62
338.194	86.62
338.422	88.62
338.65	96.62
338.878	90.62
339.106	82.62
339.334	84.62
339.562	73.62
339.79	66.62
340.018	89.62
340.246	91.62
340.474	68.62
340.702	87.62
340.93	89.62
341.158	78.62
341.386	83.62
341.614	77.62
341.842	83.62
342.07	77.62
342.298	93.62
342.526	82.62
342.754	93.62
342.981	93.62
343.209	90.62
343.437	89.62
343.665	81.62
343.893	89.62
344.12	94.62
344.348	86.62
344.576	74.62
344.804	76.62
345.031	87.62
345.259	74.62
345.487	73.62
345.714	96.62
345.942	95.62
346.17	84.62
346.397	85.62
346.625	67.62
346.853	91.62
347.08	75.62
347.308	81.62
347.535	93.62
347.763	73.62
347.99	82.62
348.218	90.62
348.445	97.62
348.673	82.62
348.9	93.62
349.128	81.62
349.355	86.62
349.583	84.62
349.81	85.62
350.037	83.62
350.265	93.62
350.492	77.62
350.72	82.62
350.947	93.62
351.174	90.62
351.402	94.62
351.629	77.62
351.856	89.62
352.083	86.62
352.311	85.62
352.538	67.62
352.765	86.62
352.992	84.62
353.22	85.62
353.447	82.62
353.674	98.62
353.901	96.62
354.128	98.62
354.355	97.62
354.583	82.62
354.81	73.62
355.037	79.62
355.264	87.62
355.491	92.62
355.718	96.62
355.945	86.62
356.172	89.62
356.399	85.62
356.626	83.62
356.853	98.62
357.08	107.62
357.307	126.62
357.534	124.62
357.761	106.62
357.988	89.62
358.215	84.62
358.441	96.62
358.668	84.62
358.895	88.62
359.122	83.62
359.349	86.62
359.576	89.62
359.802	96.62
360.029	86.62
360.256	80.62
360.483	77.62
360.709	80.62
360.936	68.62
361.163	89.62
361.39	91.62
361.616	81.62
361.843	89.62
362.07	90.62
362.296	86.62
362.523	78.62
362.749	82.62
362.976	87.62
363.203	91.62
363.429	86.62
363.656	126.62
363.882	163.62
364.109	172.62
364.335	113.62
364.562	91.62
364.788	87.62
365.015	80.62
365.241	95.62
365.468	77.62
365.694	90.62
365.92	81.62
366.147	88.62
366.373	87.62
366.599	78.62
366.826	93.62
367.052	101.62
367.278	119.62
367.505	109.62
367.731	105.62
367.957	113.62
368.184	163.62
368.41	224.62
368.636	161.62
368.862	101.62
369.089	84.62
369.315	77.62
369.541	88.62
369.767	84.62
369.993	88.62
370.219	79.62
370.445	71.62
370.672	83.62
370.898	81.62
371.124	86.62
371.35	87.62
371.576	81.62
371.802	75.62
372.028	82.62
372.254	78.62
372.48	75.62
372.706	88.62
372.932	82.62
373.158	84.62
373.384	85.62
373.61	79.62
373.835	121.62
374.061	143.62
374.287	127.62
374.513	95.62
374.739	90.62
374.965	94.62
375.191	89.62
375.416	81.62
375.642	89.62
375.868	79.62
376.094	92.62
376.319	95.62
376.545	91.62
376.771	101.62
376.997	77.62
377.222	62.62
377.448	83.62
377.674	71.62
377.899	100.62
378.125	81.62
378.35	92.62
378.576	83.62
378.802	67.62
379.027	94.62
379.253	83.62
379.478	79.62
379.704	83.62
379.929	68.62
380.155	91.62
380.38	89.62
380.606	85.62
380.831	74.62
381.057	92.62
381.282	73.62
381.507	78.62
381.733	83.62
381.958	98.62
382.184	79.62
382.409	83.62
382.634	93.62
382.86	79.62
383.085	73.62
383.31	82.62
383.535	78.62
383.761	92.62
383.986	82.62
384.211	77.62
384.436	83.62
384.662	75.62
384.887	85.62
385.112	68.62
385.337	85.62
385.562	73.62
385.787	73.62
386.013	80.62
386.238	81.62
386.463	78.62
386.688	105.62
386.913	81.62
387.138	97.62
387.363	97.62
387.588	97.62
387.813	85.62
388.038	81.62
388.263	71.62
388.488	77.62
388.713	87.62
388.938	82.62
389.163	83.62
389.387	74.62
389.612	74.62
389.837	90.62
390.062	93.62
390.287	87.62
390.512	87.62
390.736	72.62
390.961	82.62
391.186	89.62
391.411	75.62
391.636	94.62
391.86	105.62
392.085	82.62
392.31	89.62
392.534	92.62
392.759	95.62
392.984	83.62
393.208	76.62
393.433	84.62
393.658	74.62
393.882	88.62
394.107	72.62
394.331	82.62
394.556	75.62
394.78	81.62
395.005	74.62
395.229	72.62
395.454	83.62
395.678	81.62
395.903	88.62
396.127	81.62
396.352	85.62
396.576	93.62
396.801	83.62
397.025	90.62
397.249	81.62
397.474	98.62
397.698	88.62
397.922	75.62
398.147	71.62
398.371	79.62
398.595	86.62
398.82	72.62
399.044	66.62
399.268	84.62
399.492	77.62
399.717	70.62
399.941	79.62
400.165	86.62
400.389	83.62
400.613	87.62
400.837	89.62
401.062	78.62
401.286	89.62
401.51	85.62
401.734	89.62
401.958	94.62
402.182	106.62
402.406	85.62
402.63	89.62
402.854	84.62
403.078	72.62
403.302	77.62
403.526	92.62
403.75	89.62
403.974	77.62
404.198	85.62
404.422	89.62
404.645	86.62
404.869	97.62
405.093	91.62
405.317	130.62
405.541	199.62
405.765	301.62
405.988	345.62
406.212	203.62
406.436	143.62
406.66	110.62
406.883	86.62
407.107	86.62
407.331	78.62
407.555	81.62
407.778	80.62
408.002	89.62
408.226	91.62
408.449	85.62
408.673	78.62
408.896	85.62
409.12	104.62
409.344	83.62
409.567	79.62
409.791	81.62
410.014	74.62
410.238	95.62
410.461	86.62
410.685	83.62
410.908	85.62
411.132	87.62
411.355	68.62
411.578	78.62
411.802	74.62
412.025	71.62
412.249	88.62
412.472	71.62
412.695	92.62
412.919	87.62
413.142	83.62
413.365	70.62
413.589	85.62
413.812	85.62
414.035	93.62
414.258	81.62
414.482	73.62
414.705	99.62
414.928	101.62
415.151	91.62
415.374	58.62
415.597	82.62
415.821	83.62
416.044	87.62
416.267	77.62
416.49	97.62
416.713	105.62
416.936	106.62
417.159	84.62
417.382	89.62
417.605	87.62
417.828	93.62
418.051	86.62
418.274	86.62
418.497	81.62
418.72	74.62
418.943	89.62
419.166	74.62
419.389	77.62
419.611	110.62
419.834	80.62
420.057	91.62
420.28	80.62
420.503	78.62
420.726	87.62
420.948	76.62
421.171	87.62
421.394	81.62
421.617	92.62
421.839	78.62
422.062	67.62
422.285	83.62
422.507	80.62
422.73	79.62
422.953	84.62
423.175	77.62
423.398	96.62
423.621	87.62
423.843	90.62
424.066	82.62
424.288	79.62
424.511	87.62
424.733	83.62
424.956	78.62
425.178	89.62
425.401	80.62
425.623	87.62
425.846	85.62
426.068	87.62
426.291	95.62
426.513	74.62
426.735	74.62
426.958	79.62
427.18	80.62
427.402	75.62
427.625	79.62
427.847	72.62
428.069	85.62
428.292	96.62
428.514	88.62
428.736	78.62
428.958	79.62
429.181	91.62
429.403	82.62
429.625	95.62
429.847	95.62
430.069	80.62
430.292	75.62
430.514	85.62
430.736	94.62
430.958	76.62
431.18	71.62
431.402	82.62
431.624	81.62
431.846	73.62
432.068	94.62
432.29	98.62
432.512	88.62
432.734	71.62
432.956	93.62
433.178	88.62
433.4	72.62
433.622	89.62
433.844	85.62
434.066	85.62
434.287	90.62
434.509	81.62
434.731	86.62
434.953	91.62
435.175	96.62
435.397	79.62
435.618	87.62
435.84	82.62
436.062	67.62
436.284	71.62
436.505	83.62
436.727	87.62
436.949	76.62
437.17	81.62
437.392	71.62
437.614	89.62
437.835	85.62
438.057	82.62
438.278	77.62
438.5	75.62
438.721	85.62
438.943	89.62
439.165	77.62
439.386	79.62
439.608	95.62
439.829	71.62
440.05	88.62
440.272	86.62
440.493	81.62
440.715	77.62
440.936	81.62
441.158	90.62
441.379	74.62
441.6	99.62
441.822	77.62
442.043	77.62
442.264	89.62
442.486	84.62
442.707	73.62
442.928	89.62
443.149	87.62
443.371	86.62
443.592	74.62
443.813	72.62
444.034	73.62
444.255	85.62
444.476	84.62
444.698	77.62
444.919	81.62
445.14	148.62
445.361	125.62
445.582	85.62
445.803	87.62
446.024	80.62
446.245	87.62
446.466	82.62
446.687	83.62
446.908	86.62
447.129	75.62
447.35	65.62
447.571	97.62
447.792	81.62
448.013	91.62
448.234	91.62
448.455	78.62
448.675	82.62
448.896	81.62
449.117	87.62
449.338	78.62
449.559	87.62
449.779	75.62
450	75.62
450.221	89.62
450.442	81.62
450.662	87.62
450.883	81.62
451.104	74.62
451.324	87.62
451.545	85.62
451.766	76.62
451.986	75.62
452.207	74.62
452.428	82.62
452.648	71.62
452.869	91.62
453.089	98.62
453.31	84.62
453.53	86.62
453.751	86.62
453.971	91.62
454.192	88.62
454.412	89.62
454.633	78.62
454.853	76.62
455.073	82.62
455.294	88.62
455.514	87.62
455.734	81.62
455.955	96.62
456.175	84.62
456.395	77.62
456.616	76.62
456.836	93.62
457.056	82.62
457.276	71.62
457.497	87.62
457.717	80.62
457.937	97.62
458.157	73.62
458.377	86.62
458.598	78.62
458.818	88.62
459.038	81.62
459.258	86.62
459.478	83.62
459.698	87.62
459.918	90.62
460.138	83.62
460.358	81.62
460.578	78.62
460.798	87.62
461.018	71.62
461.238	82.62
461.458	83.62
461.678	82.62
461.898	78.62
462.118	89.62
462.338	89.62
462.558	83.62
462.777	74.62
462.997	88.62
463.217	80.62
463.437	80.62
463.657	82.62
463.876	72.62
464.096	76.62
464.316	104.62
464.536	80.62
464.755	85.62
464.975	87.62
465.195	78.62
465.414	87.62
465.634	79.62
465.854	89.62
466.073	95.62
466.293	83.62
466.512	83.62
466.732	83.62
466.951	82.62
467.171	96.62
467.391	87.62
467.61	84.62
467.829	99.62
468.049	81.62
468.268	80.62
468.488	75.62
468.707	83.62
468.927	86.62
469.146	80.62
469.365	75.62
469.585	92.62
469.804	82.62
470.023	86.62
470.243	76.62
470.462	71.62
470.681	91.62
470.901	71.62
471.12	92.62
471.339	83.62
471.558	78.62
471.777	88.62
471.997	83.62
472.216	66.62
472.435	76.62
472.654	93.62
472.873	82.62
473.092	75.62
473.311	90.62
473.53	88.62
473.749	82.62
473.968	93.62
474.187	87.62
474.406	85.62
474.625	88.62
474.844	89.62
475.063	81.62
475.282	78.62
475.501	91.62
475.72	89.62
475.939	94.62
476.158	75.62
476.377	77.62
476.596	81.62
476.814	75.62
477.033	85.62
477.252	81.62
477.471	89.62
477.69	104.62
477.908	79.62
478.127	92.62
478.346	101.62
478.564	85.62
478.783	99.62
479.002	80.62
479.22	81.62
479.439	103.62
479.658	94.62
479.876	69.62
480.095	79.62
480.313	69.62
480.532	89.62
480.751	79.62
480.969	86.62
481.188	73.62
481.406	95.62
481.624	81.62
481.843	74.62
482.061	85.62
482.28	81.62
482.498	73.62
482.717	69.62
482.935	80.62
483.153	93.62
483.372	93.62
483.59	95.62
483.808	85.62
484.027	75.62
484.245	88.62
484.463	76.62
484.681	93.62
484.9	75.62
485.118	85.62
485.336	89.62
485.554	83.62
485.772	76.62
485.99	75.62
486.209	90.62
486.427	71.62
486.645	75.62
486.863	86.62
487.081	83.62
487.299	84.62
487.517	98.62
487.735	81.62
487.953	78.62
488.171	79.62
488.389	80.62
488.607	77.62
488.825	67.62
489.043	83.62
489.261	82.62
489.479	98.62
489.696	90.62
489.914	83.62
490.132	87.62
490.35	87.62
490.568	91.62
490.786	82.62
491.003	78.62
491.221	71.62
491.439	81.62
491.657	93.62
491.874	86.62
492.092	86.62
492.31	82.62
492.527	69.62
492.745	89.62
492.963	104.62
493.18	80.62
493.398	87.62
493.615	86.62
493.833	82.62
494.05	94.62
494.268	89.62
494.485	92.62
494.703	83.62
494.92	85.62
495.138	101.62
495.355	96.62
495.573	87.62
495.79	92.62
496.008	94.62
496.225	75.62
496.442	79.62
496.66	94.62
496.877	78.62
497.094	87.62
497.312	85.62
497.529	90.62
497.746	95.62
497.963	79.62
498.181	80.62
498.398	89.62
498.615	85.62
498.832	75.62
499.049	82.62
499.267	114.62
499.484	83.62
499.701	87.62
499.918	93.62
500.135	87.62
500.352	91.62
500.569	119.62
500.786	135.62
501.003	102.62
501.22	87.62
501.437	89.62
501.654	73.62
501.871	74.62
502.088	90.62
502.305	75.62
502.522	105.62
502.739	83.62
502.956	93.62
503.172	86.62
503.389	95.62
503.606	81.62
503.823	95.62
504.04	86.62
504.256	93.62
504.473	75.62
504.69	86.62
504.907	86.62
505.123	89.62
505.34	78.62
505.557	93.62
505.773	93.62
505.99	87.62
506.207	76.62
506.423	83.62
506.64	84.62
506.856	83.62
507.073	89.62
507.289	85.62
507.506	91.62
507.722	90.62
507.939	87.62
508.155	109.62
508.372	97.62
508.588	82.62
508.805	80.62
509.021	80.62
509.238	85.62
509.454	93.62
509.67	79.62
509.887	72.62
510.103	83.62
510.319	86.62
510.536	83.62
510.752	85.62
510.968	70.62
511.184	90.62
511.401	74.62
511.617	90.62
511.833	88.62
512.049	114.62
512.265	77.62
512.481	88.62
512.698	98.62
512.914	94.62
513.13	79.62
513.346	80.62
513.562	90.62
513.778	85.62
513.994	78.62
514.21	80.62
514.426	73.62
514.642	80.62
514.858	89.62
515.074	82.62
515.29	85.62
515.506	78.62
515.721	85.62
515.937	89.62
516.153	79.62
516.369	89.62
516.585	87.62
516.801	93.62
517.016	84.62
517.232	87.62
517.448	96.62
517.664	85.62
517.879	94.62
518.095	90.62
518.311	87.62
518.527	89.62
518.742	83.62
518.958	86.62
519.173	88.62
519.389	93.62
