Data from StdB_HRD10591_100.txt Node
Date: Fri May 16 15:25:36 EDT 2025
User: Yrep
Spectrometer: HR+D1059
Trigger mode: 1
Integration Time (sec): 1.000000E-1
Scans to average: 1
Electric dark correction enabled: true
Nonlinearity correction enabled: false
Boxcar width: 0
XAxis mode: Wavelengths
Number of Pixels in Spectrum: 2048
>>>>>Begin Spectral Data<<<<<
223.165	-27.31
223.4	-27.31
223.635	-27.31
223.869	-24.31
224.104	-22.31
224.338	-13.31
224.573	-14.31
224.808	-0.31
225.042	-7.31
225.277	-4.31
225.511	1.69
225.746	-5.31
225.98	3.69
226.215	12.69
226.449	11.69
226.683	19.69
226.918	29.69
227.152	39.69
227.387	25.69
227.621	42.69
227.856	51.69
228.09	54.69
228.324	43.69
228.559	63.69
228.793	46.69
229.027	65.69
229.262	83.69
229.496	67.69
229.73	80.69
229.964	93.69
230.199	77.69
230.433	90.69
230.667	81.69
230.901	87.69
231.136	84.69
231.37	90.69
231.604	93.69
231.838	93.69
232.072	84.69
232.306	97.69
232.541	92.69
232.775	93.69
233.009	93.69
233.243	93.69
233.477	85.69
233.711	95.69
233.945	92.69
234.179	99.69
234.413	90.69
234.647	106.69
234.881	95.69
235.115	105.69
235.349	97.69
235.583	85.69
235.817	76.69
236.051	87.69
236.285	87.69
236.519	81.69
236.753	94.69
236.987	100.69
237.221	81.69
237.455	83.69
237.689	99.69
237.922	86.69
238.156	75.69
238.39	95.69
238.624	89.69
238.858	113.69
239.091	112.69
239.325	89.69
239.559	99.69
239.793	111.69
240.027	90.69
240.26	112.69
240.494	107.69
240.728	115.69
240.961	113.69
241.195	95.69
241.429	88.69
241.662	97.69
241.896	96.69
242.13	110.69
242.363	103.69
242.597	91.69
242.83	112.69
243.064	104.69
243.298	93.69
243.531	107.69
243.765	101.69
243.998	112.69
244.232	95.69
244.465	119.69
244.699	100.69
244.932	107.69
245.166	109.69
245.399	116.69
245.633	106.69
245.866	102.69
246.099	102.69
246.333	104.69
246.566	110.69
246.8	92.69
247.033	108.69
247.266	109.69
247.5	105.69
247.733	117.69
247.966	132.69
248.2	99.69
248.433	101.69
248.666	95.69
248.899	110.69
249.133	101.69
249.366	123.69
249.599	100.69
249.832	114.69
250.066	121.69
250.299	109.69
250.532	127.69
250.765	112.69
250.998	106.69
251.231	103.69
251.465	117.69
251.698	117.69
251.931	134.69
252.164	110.69
252.397	123.69
252.63	121.69
252.863	135.69
253.096	137.69
253.329	150.69
253.562	151.69
253.795	122.69
254.028	135.69
254.261	132.69
254.494	138.69
254.727	128.69
254.96	142.69
255.193	136.69
255.426	131.69
255.659	121.69
255.892	135.69
256.124	137.69
256.357	131.69
256.59	131.69
256.823	127.69
257.056	131.69
257.289	149.69
257.521	159.69
257.754	157.69
257.987	174.69
258.22	160.69
258.452	153.69
258.685	155.69
258.918	141.69
259.151	158.69
259.383	140.69
259.616	137.69
259.849	149.69
260.081	170.69
260.314	170.69
260.547	163.69
260.779	177.69
261.012	217.69
261.244	264.69
261.477	297.69
261.71	297.69
261.942	229.69
262.175	183.69
262.407	160.69
262.64	159.69
262.872	151.69
263.105	153.69
263.337	146.69
263.57	147.69
263.802	155.69
264.035	149.69
264.267	141.69
264.499	148.69
264.732	183.69
264.964	183.69
265.197	193.69
265.429	165.69
265.661	152.69
265.894	163.69
266.126	190.69
266.358	214.69
266.591	233.69
266.823	197.69
267.055	167.69
267.287	141.69
267.52	151.69
267.752	152.69
267.984	140.69
268.216	139.69
268.448	129.69
268.681	144.69
268.913	129.69
269.145	139.69
269.377	142.69
269.609	135.69
269.841	148.69
270.073	154.69
270.306	149.69
270.538	142.69
270.77	137.69
271.002	128.69
271.234	150.69
271.466	141.69
271.698	157.69
271.93	135.69
272.162	149.69
272.394	153.69
272.626	161.69
272.858	152.69
273.09	148.69
273.322	140.69
273.553	134.69
273.785	135.69
274.017	145.69
274.249	146.69
274.481	132.69
274.713	141.69
274.945	137.69
275.176	143.69
275.408	135.69
275.64	137.69
275.872	139.69
276.104	156.69
276.335	143.69
276.567	156.69
276.799	159.69
277.031	150.69
277.262	138.69
277.494	140.69
277.726	158.69
277.957	176.69
278.189	170.69
278.421	175.69
278.652	173.69
278.884	195.69
279.115	203.69
279.347	214.69
279.579	260.69
279.81	303.69
280.042	388.69
280.273	471.69
280.505	404.69
280.736	292.69
280.968	249.69
281.199	214.69
281.431	209.69
281.662	203.69
281.894	237.69
282.125	235.69
282.356	251.69
282.588	255.69
282.819	224.69
283.051	249.69
283.282	303.69
283.513	357.69
283.745	305.69
283.976	238.69
284.207	205.69
284.439	189.69
284.67	173.69
284.901	178.69
285.132	179.69
285.364	166.69
285.595	179.69
285.826	168.69
286.057	171.69
286.288	184.69
286.52	205.69
286.751	199.69
286.982	236.69
287.213	294.69
287.444	297.69
287.675	256.69
287.906	222.69
288.138	203.69
288.369	167.69
288.6	171.69
288.831	156.69
289.062	169.69
289.293	164.69
289.524	155.69
289.755	167.69
289.986	147.69
290.217	161.69
290.448	153.69
290.679	161.69
290.91	157.69
291.141	153.69
291.371	152.69
291.602	156.69
291.833	164.69
292.064	154.69
292.295	152.69
292.526	156.69
292.757	154.69
292.987	170.69
293.218	177.69
293.449	153.69
293.68	165.69
293.91	158.69
294.141	179.69
294.372	160.69
294.603	168.69
294.833	173.69
295.064	166.69
295.295	158.69
295.525	161.69
295.756	188.69
295.987	174.69
296.217	176.69
296.448	175.69
296.679	159.69
296.909	157.69
297.14	159.69
297.37	173.69
297.601	167.69
297.831	166.69
298.062	173.69
298.292	171.69
298.523	172.69
298.753	170.69
298.984	184.69
299.214	190.69
299.445	165.69
299.675	173.69
299.905	173.69
300.136	139.69
300.366	179.69
300.597	160.69
300.827	190.69
301.057	187.69
301.288	200.69
301.518	184.69
301.748	173.69
301.979	181.69
302.209	186.69
302.439	183.69
302.669	187.69
302.9	194.69
303.13	192.69
303.36	183.69
303.59	163.69
303.82	189.69
304.051	194.69
304.281	193.69
304.511	176.69
304.741	199.69
304.971	179.69
305.201	167.69
305.431	184.69
305.661	169.69
305.891	201.69
306.121	177.69
306.352	169.69
306.582	175.69
306.812	174.69
307.042	180.69
307.272	170.69
307.502	188.69
307.731	184.69
307.961	167.69
308.191	175.69
308.421	190.69
308.651	166.69
308.881	170.69
309.111	173.69
309.341	177.69
309.571	184.69
309.8	191.69
310.03	192.69
310.26	189.69
310.49	168.69
310.72	179.69
310.949	177.69
311.179	183.69
311.409	175.69
311.639	185.69
311.868	183.69
312.098	184.69
312.328	185.69
312.557	215.69
312.787	197.69
313.017	202.69
313.246	214.69
313.476	205.69
313.706	206.69
313.935	217.69
314.165	230.69
314.394	206.69
314.624	230.69
314.853	214.69
315.083	219.69
315.312	209.69
315.542	221.69
315.771	221.69
316.001	203.69
316.23	211.69
316.46	211.69
316.689	213.69
316.919	214.69
317.148	209.69
317.377	204.69
317.607	207.69
317.836	229.69
318.065	202.69
318.295	199.69
318.524	214.69
318.753	207.69
318.983	201.69
319.212	193.69
319.441	208.69
319.67	182.69
319.9	193.69
320.129	214.69
320.358	199.69
320.587	195.69
320.816	186.69
321.046	183.69
321.275	200.69
321.504	189.69
321.733	181.69
321.962	203.69
322.191	206.69
322.42	197.69
322.649	204.69
322.878	205.69
323.108	182.69
323.337	202.69
323.566	177.69
323.795	198.69
324.024	201.69
324.253	202.69
324.482	195.69
324.71	204.69
324.939	184.69
325.168	203.69
325.397	198.69
325.626	201.69
325.855	195.69
326.084	190.69
326.313	187.69
326.542	193.69
326.77	208.69
326.999	192.69
327.228	213.69
327.457	195.69
327.686	171.69
327.914	189.69
328.143	199.69
328.372	197.69
328.6	198.69
328.829	199.69
329.058	212.69
329.287	193.69
329.515	199.69
329.744	192.69
329.972	187.69
330.201	191.69
330.43	202.69
330.658	184.69
330.887	196.69
331.115	206.69
331.344	207.69
331.572	206.69
331.801	198.69
332.03	198.69
332.258	201.69
332.486	189.69
332.715	200.69
332.943	197.69
333.172	192.69
333.4	203.69
333.629	197.69
333.857	215.69
334.085	216.69
334.314	195.69
334.542	195.69
334.771	202.69
334.999	216.69
335.227	198.69
335.455	203.69
335.684	229.69
335.912	211.69
336.14	193.69
336.369	209.69
336.597	192.69
336.825	187.69
337.053	201.69
337.281	197.69
337.51	184.69
337.738	217.69
337.966	209.69
338.194	200.69
338.422	182.69
338.65	198.69
338.878	210.69
339.106	211.69
339.334	205.69
339.562	189.69
339.79	194.69
340.018	191.69
340.246	199.69
340.474	210.69
340.702	188.69
340.93	192.69
341.158	187.69
341.386	197.69
341.614	176.69
341.842	202.69
342.07	205.69
342.298	192.69
342.526	188.69
342.754	186.69
342.981	180.69
343.209	205.69
343.437	212.69
343.665	188.69
343.893	206.69
344.12	214.69
344.348	215.69
344.576	219.69
344.804	205.69
345.031	203.69
345.259	196.69
345.487	204.69
345.714	211.69
345.942	209.69
346.17	200.69
346.397	197.69
346.625	184.69
346.853	204.69
347.08	205.69
347.308	187.69
347.535	184.69
347.763	194.69
347.99	199.69
348.218	198.69
348.445	197.69
348.673	199.69
348.9	196.69
349.128	191.69
349.355	197.69
349.583	208.69
349.81	181.69
350.037	177.69
350.265	203.69
350.492	205.69
350.72	191.69
350.947	192.69
351.174	193.69
351.402	173.69
351.629	198.69
351.856	196.69
352.083	188.69
352.311	188.69
352.538	184.69
352.765	196.69
352.992	204.69
353.22	196.69
353.447	183.69
353.674	211.69
353.901	196.69
354.128	200.69
354.355	222.69
354.583	179.69
354.81	203.69
355.037	194.69
355.264	196.69
355.491	204.69
355.718	210.69
355.945	205.69
356.172	224.69
356.399	223.69
356.626	252.69
356.853	305.69
357.08	411.69
357.307	499.69
357.534	519.69
357.761	401.69
357.988	328.69
358.215	300.69
358.441	267.69
358.668	261.69
358.895	252.69
359.122	237.69
359.349	223.69
359.576	221.69
359.802	213.69
360.029	234.69
360.256	236.69
360.483	221.69
360.709	224.69
360.936	222.69
361.163	225.69
361.39	220.69
361.616	205.69
361.843	220.69
362.07	211.69
362.296	223.69
362.523	229.69
362.749	237.69
362.976	236.69
363.203	259.69
363.429	300.69
363.656	411.69
363.882	583.69
364.109	672.69
364.335	492.69
364.562	360.69
364.788	300.69
365.015	259.69
365.241	236.69
365.468	243.69
365.694	245.69
365.92	250.69
366.147	231.69
366.373	246.69
366.599	245.69
366.826	263.69
367.052	312.69
367.278	346.69
367.505	332.69
367.731	348.69
367.957	421.69
368.184	653.69
368.41	847.69
368.636	771.69
368.862	507.69
369.089	361.69
369.315	323.69
369.541	286.69
369.767	258.69
369.993	253.69
370.219	239.69
370.445	254.69
370.672	252.69
370.898	227.69
371.124	228.69
371.35	240.69
371.576	246.69
371.802	236.69
372.028	228.69
372.254	227.69
372.48	229.69
372.706	217.69
372.932	236.69
373.158	227.69
373.384	279.69
373.61	330.69
373.835	461.69
374.061	571.69
374.287	535.69
374.513	363.69
374.739	307.69
374.965	296.69
375.191	258.69
375.416	245.69
375.642	235.69
375.868	231.69
376.094	219.69
376.319	230.69
376.545	224.69
376.771	211.69
376.997	220.69
377.222	216.69
377.448	224.69
377.674	210.69
377.899	224.69
378.125	218.69
378.35	228.69
378.576	229.69
378.802	231.69
379.027	214.69
379.253	227.69
379.478	214.69
379.704	221.69
379.929	211.69
380.155	233.69
380.38	239.69
380.606	227.69
380.831	207.69
381.057	218.69
381.282	203.69
381.507	228.69
381.733	224.69
381.958	213.69
382.184	219.69
382.409	225.69
382.634	205.69
382.86	215.69
383.085	213.69
383.31	207.69
383.535	213.69
383.761	224.69
383.986	225.69
384.211	224.69
384.436	219.69
384.662	215.69
384.887	234.69
385.112	228.69
385.337	216.69
385.562	233.69
385.787	229.69
386.013	224.69
386.238	234.69
386.463	237.69
386.688	232.69
386.913	216.69
387.138	216.69
387.363	222.69
387.588	209.69
387.813	224.69
388.038	206.69
388.263	233.69
388.488	212.69
388.713	215.69
388.938	209.69
389.163	225.69
389.387	198.69
389.612	215.69
389.837	207.69
390.062	230.69
390.287	208.69
390.512	219.69
390.736	222.69
390.961	232.69
391.186	215.69
391.411	220.69
391.636	229.69
391.86	228.69
392.085	217.69
392.31	225.69
392.534	239.69
392.759	218.69
392.984	216.69
393.208	215.69
393.433	211.69
393.658	230.69
393.882	229.69
394.107	215.69
394.331	220.69
394.556	240.69
394.78	241.69
395.005	220.69
395.229	215.69
395.454	223.69
395.678	229.69
395.903	221.69
396.127	214.69
396.352	217.69
396.576	231.69
396.801	209.69
397.025	227.69
397.249	238.69
397.474	216.69
397.698	229.69
397.922	238.69
398.147	238.69
398.371	220.69
398.595	222.69
398.82	229.69
399.044	248.69
399.268	254.69
399.492	276.69
399.717	271.69
399.941	263.69
400.165	260.69
400.389	265.69
400.613	231.69
400.837	239.69
401.062	261.69
401.286	247.69
401.51	248.69
401.734	260.69
401.958	293.69
402.182	302.69
402.406	262.69
402.63	278.69
402.854	245.69
403.078	262.69
403.302	266.69
403.526	266.69
403.75	272.69
403.974	276.69
404.198	288.69
404.422	277.69
404.645	299.69
404.869	327.69
405.093	373.69
405.317	451.69
405.541	711.69
405.765	1120.69
405.988	1302.69
406.212	876.69
406.436	634.69
406.66	476.69
406.883	408.69
407.107	363.69
407.331	329.69
407.555	352.69
407.778	314.69
408.002	312.69
408.226	302.69
408.449	279.69
408.673	270.69
408.896	288.69
409.12	249.69
409.344	272.69
409.567	268.69
409.791	266.69
410.014	258.69
410.238	266.69
410.461	265.69
410.685	270.69
410.908	251.69
411.132	238.69
411.355	243.69
411.578	258.69
411.802	248.69
412.025	264.69
412.249	243.69
412.472	250.69
412.695	256.69
412.919	252.69
413.142	252.69
413.365	231.69
413.589	261.69
413.812	240.69
414.035	246.69
414.258	256.69
414.482	247.69
414.705	248.69
414.928	247.69
415.151	233.69
415.374	245.69
415.597	230.69
415.821	245.69
416.044	257.69
416.267	253.69
416.49	255.69
416.713	243.69
416.936	265.69
417.159	243.69
417.382	259.69
417.605	241.69
417.828	239.69
418.051	238.69
418.274	252.69
418.497	233.69
418.72	256.69
418.943	237.69
419.166	248.69
419.389	257.69
419.611	266.69
419.834	240.69
420.057	255.69
420.28	253.69
420.503	231.69
420.726	243.69
420.948	251.69
421.171	248.69
421.394	241.69
421.617	271.69
421.839	277.69
422.062	256.69
422.285	276.69
422.507	280.69
422.73	289.69
422.953	295.69
423.175	270.69
423.398	341.69
423.621	337.69
423.843	360.69
424.066	431.69
424.288	477.69
424.511	585.69
424.733	621.69
424.956	555.69
425.178	487.69
425.401	452.69
425.623	398.69
425.846	369.69
426.068	357.69
426.291	331.69
426.513	325.69
426.735	316.69
426.958	292.69
427.18	277.69
427.402	279.69
427.625	302.69
427.847	281.69
428.069	281.69
428.292	265.69
428.514	267.69
428.736	264.69
428.958	250.69
429.181	260.69
429.403	257.69
429.625	257.69
429.847	235.69
430.069	256.69
430.292	231.69
430.514	246.69
430.736	250.69
430.958	246.69
431.18	220.69
431.402	240.69
431.624	255.69
431.846	258.69
432.068	253.69
432.29	255.69
432.512	257.69
432.734	243.69
432.956	239.69
433.178	250.69
433.4	247.69
433.622	256.69
433.844	263.69
434.066	265.69
434.287	281.69
434.509	259.69
434.731	259.69
434.953	253.69
435.175	245.69
435.397	271.69
435.618	252.69
435.84	241.69
436.062	251.69
436.284	272.69
436.505	255.69
436.727	265.69
436.949	276.69
437.17	290.69
437.392	281.69
437.614	307.69
437.835	306.69
438.057	348.69
438.278	377.69
438.5	442.69
438.721	548.69
438.943	576.69
439.165	517.69
439.386	465.69
439.608	439.69
439.829	404.69
440.05	385.69
440.272	371.69
440.493	377.69
440.715	399.69
440.936	422.69
441.158	417.69
441.379	371.69
441.6	343.69
441.822	326.69
442.043	310.69
442.264	304.69
442.486	297.69
442.707	273.69
442.928	276.69
443.149	286.69
443.371	261.69
443.592	256.69
443.813	266.69
444.034	267.69
444.255	272.69
444.476	283.69
444.698	265.69
444.919	262.69
445.14	344.69
445.361	303.69
445.582	249.69
445.803	246.69
446.024	249.69
446.245	244.69
446.466	244.69
446.687	245.69
446.908	237.69
447.129	229.69
447.35	233.69
447.571	237.69
447.792	225.69
448.013	235.69
448.234	235.69
448.455	217.69
448.675	232.69
448.896	215.69
449.117	230.69
449.338	224.69
449.559	231.69
449.779	237.69
450	224.69
450.221	216.69
450.442	219.69
450.662	207.69
450.883	215.69
451.104	209.69
451.324	224.69
451.545	214.69
451.766	230.69
451.986	213.69
452.207	232.69
452.428	217.69
452.648	199.69
452.869	206.69
453.089	210.69
453.31	215.69
453.53	204.69
453.751	193.69
453.971	210.69
454.192	227.69
454.412	218.69
454.633	206.69
454.853	216.69
455.073	184.69
455.294	222.69
455.514	203.69
455.734	199.69
455.955	212.69
456.175	219.69
456.395	203.69
456.616	196.69
456.836	195.69
457.056	196.69
457.276	199.69
457.497	214.69
457.717	193.69
457.937	205.69
458.157	207.69
458.377	206.69
458.598	202.69
458.818	206.69
459.038	212.69
459.258	192.69
459.478	214.69
459.698	222.69
459.918	207.69
460.138	215.69
460.358	224.69
460.578	226.69
460.798	216.69
461.018	238.69
461.238	216.69
461.458	227.69
461.678	241.69
461.898	219.69
462.118	237.69
462.338	227.69
462.558	210.69
462.777	220.69
462.997	253.69
463.217	229.69
463.437	252.69
463.657	236.69
463.876	231.69
464.096	232.69
464.316	231.69
464.536	221.69
464.755	232.69
464.975	220.69
465.195	224.69
465.414	236.69
465.634	212.69
465.854	220.69
466.073	212.69
466.293	209.69
466.512	206.69
466.732	208.69
466.951	214.69
467.171	201.69
467.391	213.69
467.61	230.69
467.829	218.69
468.049	223.69
468.268	208.69
468.488	204.69
468.707	216.69
468.927	206.69
469.146	204.69
469.365	207.69
469.585	212.69
469.804	223.69
470.023	205.69
470.243	216.69
470.462	207.69
470.681	212.69
470.901	204.69
471.12	225.69
471.339	222.69
471.558	216.69
471.777	214.69
471.997	219.69
472.216	237.69
472.435	217.69
472.654	233.69
472.873	203.69
473.092	220.69
473.311	219.69
473.53	215.69
473.749	193.69
473.968	208.69
474.187	213.69
474.406	218.69
474.625	230.69
474.844	237.69
475.063	222.69
475.282	215.69
475.501	214.69
475.72	217.69
475.939	223.69
476.158	232.69
476.377	207.69
476.596	214.69
476.814	234.69
477.033	231.69
477.252	231.69
477.471	243.69
477.69	232.69
477.908	244.69
478.127	238.69
478.346	227.69
478.564	237.69
478.783	232.69
479.002	246.69
479.22	255.69
479.439	246.69
479.658	249.69
479.876	239.69
480.095	257.69
480.313	243.69
480.532	263.69
480.751	287.69
480.969	259.69
481.188	228.69
481.406	250.69
481.624	258.69
481.843	240.69
482.061	244.69
482.28	236.69
482.498	238.69
482.717	248.69
482.935	248.69
483.153	253.69
483.372	243.69
483.59	239.69
483.808	237.69
484.027	235.69
484.245	265.69
484.463	254.69
484.681	275.69
484.9	253.69
485.118	238.69
485.336	231.69
485.554	227.69
485.772	244.69
485.99	227.69
486.209	244.69
486.427	260.69
486.645	251.69
486.863	229.69
487.081	225.69
487.299	253.69
487.517	245.69
487.735	236.69
487.953	252.69
488.171	234.69
488.389	249.69
488.607	238.69
488.825	253.69
489.043	245.69
489.261	240.69
489.479	256.69
489.696	260.69
489.914	243.69
490.132	241.69
490.35	255.69
490.568	235.69
490.786	255.69
491.003	240.69
491.221	244.69
491.439	257.69
491.657	260.69
491.874	270.69
492.092	263.69
492.31	259.69
492.527	257.69
492.745	243.69
492.963	250.69
493.18	244.69
493.398	261.69
493.615	254.69
493.833	256.69
494.05	256.69
494.268	264.69
494.485	247.69
494.703	249.69
494.92	244.69
495.138	247.69
495.355	287.69
495.573	263.69
495.79	267.69
496.008	262.69
496.225	253.69
496.442	274.69
496.66	283.69
496.877	284.69
497.094	274.69
497.312	274.69
497.529	270.69
497.746	298.69
497.963	296.69
498.181	293.69
498.398	301.69
498.615	301.69
498.832	297.69
499.049	304.69
499.267	341.69
499.484	319.69
499.701	348.69
499.918	354.69
500.135	362.69
500.352	400.69
500.569	437.69
500.786	487.69
501.003	440.69
501.22	365.69
501.437	345.69
501.654	341.69
501.871	321.69
502.088	339.69
502.305	331.69
502.522	318.69
502.739	327.69
502.956	298.69
503.172	318.69
503.389	308.69
