Data from StdB_HRD10591_052.txt Node
Date: Fri May 16 15:25:12 EDT 2025
User: Yrep
Spectrometer: HR+D1059
Trigger mode: 1
Integration Time (sec): 1.000000E-1
Scans to average: 1
Electric dark correction enabled: true
Nonlinearity correction enabled: false
Boxcar width: 0
XAxis mode: Wavelengths
Number of Pixels in Spectrum: 2048
>>>>>Begin Spectral Data<<<<<
223.165	-31.81
223.4	-31.81
223.635	-31.81
223.869	-13.81
224.104	-18.81
224.338	-10.81
224.573	-10.81
224.808	-27.81
225.042	-11.81
225.277	-3.81
225.511	-1.81
225.746	20.19
225.98	8.19
226.215	10.19
226.449	17.19
226.683	23.19
226.918	23.19
227.152	29.19
227.387	36.19
227.621	24.19
227.856	48.19
228.09	50.19
228.324	45.19
228.559	66.19
228.793	52.19
229.027	71.19
229.262	68.19
229.496	58.19
229.73	59.19
229.964	70.19
230.199	62.19
230.433	75.19
230.667	76.19
230.901	61.19
231.136	53.19
231.37	85.19
231.604	73.19
231.838	94.19
232.072	84.19
232.306	69.19
232.541	76.19
232.775	79.19
233.009	87.19
233.243	88.19
233.477	83.19
233.711	90.19
233.945	76.19
234.179	61.19
234.413	78.19
234.647	77.19
234.881	77.19
235.115	62.19
235.349	76.19
235.583	79.19
235.817	74.19
236.051	57.19
236.285	91.19
236.519	68.19
236.753	69.19
236.987	71.19
237.221	75.19
237.455	54.19
237.689	59.19
237.922	60.19
238.156	78.19
238.39	62.19
238.624	65.19
238.858	68.19
239.091	66.19
239.325	76.19
239.559	73.19
239.793	74.19
240.027	54.19
240.26	67.19
240.494	74.19
240.728	73.19
240.961	76.19
241.195	70.19
241.429	80.19
241.662	72.19
241.896	68.19
242.13	60.19
242.363	74.19
242.597	75.19
242.83	83.19
243.064	72.19
243.298	77.19
243.531	67.19
243.765	73.19
243.998	74.19
244.232	71.19
244.465	73.19
244.699	83.19
244.932	84.19
245.166	66.19
245.399	62.19
245.633	82.19
245.866	74.19
246.099	83.19
246.333	78.19
246.566	77.19
246.8	71.19
247.033	99.19
247.266	68.19
247.5	79.19
247.733	72.19
247.966	76.19
248.2	78.19
248.433	70.19
248.666	59.19
248.899	70.19
249.133	58.19
249.366	83.19
249.599	86.19
249.832	82.19
250.066	84.19
250.299	86.19
250.532	83.19
250.765	82.19
250.998	81.19
251.231	94.19
251.465	72.19
251.698	86.19
251.931	68.19
252.164	81.19
252.397	69.19
252.63	72.19
252.863	68.19
253.096	69.19
253.329	80.19
253.562	89.19
253.795	87.19
254.028	77.19
254.261	84.19
254.494	72.19
254.727	82.19
254.96	82.19
255.193	69.19
255.426	70.19
255.659	62.19
255.892	88.19
256.124	88.19
256.357	74.19
256.59	76.19
256.823	74.19
257.056	57.19
257.289	72.19
257.521	73.19
257.754	83.19
257.987	73.19
258.22	88.19
258.452	83.19
258.685	70.19
258.918	77.19
259.151	74.19
259.383	82.19
259.616	80.19
259.849	74.19
260.081	67.19
260.314	86.19
260.547	80.19
260.779	81.19
261.012	76.19
261.244	88.19
261.477	93.19
261.71	91.19
261.942	88.19
262.175	82.19
262.407	88.19
262.64	81.19
262.872	63.19
263.105	99.19
263.337	80.19
263.57	71.19
263.802	86.19
264.035	78.19
264.267	76.19
264.499	84.19
264.732	88.19
264.964	77.19
265.197	84.19
265.429	81.19
265.661	78.19
265.894	78.19
266.126	84.19
266.358	76.19
266.591	80.19
266.823	87.19
267.055	73.19
267.287	80.19
267.52	73.19
267.752	89.19
267.984	87.19
268.216	64.19
268.448	73.19
268.681	71.19
268.913	80.19
269.145	92.19
269.377	90.19
269.609	71.19
269.841	73.19
270.073	70.19
270.306	70.19
270.538	78.19
270.77	89.19
271.002	77.19
271.234	73.19
271.466	77.19
271.698	67.19
271.93	75.19
272.162	83.19
272.394	84.19
272.626	90.19
272.858	85.19
273.09	71.19
273.322	78.19
273.553	76.19
273.785	91.19
274.017	66.19
274.249	82.19
274.481	83.19
274.713	78.19
274.945	86.19
275.176	78.19
275.408	79.19
275.64	82.19
275.872	75.19
276.104	87.19
276.335	70.19
276.567	74.19
276.799	85.19
277.031	81.19
277.262	85.19
277.494	70.19
277.726	72.19
277.957	81.19
278.189	91.19
278.421	98.19
278.652	77.19
278.884	81.19
279.115	70.19
279.347	80.19
279.579	87.19
279.81	87.19
280.042	85.19
280.273	115.19
280.505	125.19
280.736	94.19
280.968	91.19
281.199	83.19
281.431	88.19
281.662	77.19
281.894	73.19
282.125	87.19
282.356	108.19
282.588	95.19
282.819	92.19
283.051	94.19
283.282	102.19
283.513	112.19
283.745	82.19
283.976	86.19
284.207	88.19
284.439	74.19
284.67	98.19
284.901	84.19
285.132	74.19
285.364	87.19
285.595	82.19
285.826	75.19
286.057	80.19
286.288	73.19
286.52	81.19
286.751	85.19
286.982	82.19
287.213	89.19
287.444	100.19
287.675	96.19
287.906	76.19
288.138	81.19
288.369	80.19
288.6	81.19
288.831	71.19
289.062	92.19
289.293	72.19
289.524	77.19
289.755	93.19
289.986	99.19
290.217	77.19
290.448	73.19
290.679	62.19
290.91	96.19
291.141	88.19
291.371	75.19
291.602	93.19
291.833	77.19
292.064	73.19
292.295	81.19
292.526	78.19
292.757	84.19
292.987	91.19
293.218	88.19
293.449	67.19
293.68	79.19
293.91	84.19
294.141	68.19
294.372	70.19
294.603	88.19
294.833	87.19
295.064	88.19
295.295	88.19
295.525	81.19
295.756	84.19
295.987	84.19
296.217	61.19
296.448	75.19
296.679	86.19
296.909	85.19
297.14	85.19
297.37	91.19
297.601	81.19
297.831	72.19
298.062	82.19
298.292	64.19
298.523	90.19
298.753	93.19
298.984	88.19
299.214	88.19
299.445	70.19
299.675	85.19
299.905	83.19
300.136	81.19
300.366	77.19
300.597	73.19
300.827	76.19
301.057	77.19
301.288	89.19
301.518	86.19
301.748	89.19
301.979	97.19
302.209	85.19
302.439	77.19
302.669	72.19
302.9	83.19
303.13	82.19
303.36	88.19
303.59	98.19
303.82	75.19
304.051	78.19
304.281	88.19
304.511	73.19
304.741	73.19
304.971	93.19
305.201	77.19
305.431	83.19
305.661	84.19
305.891	71.19
306.121	81.19
306.352	91.19
306.582	81.19
306.812	86.19
307.042	90.19
307.272	64.19
307.502	85.19
307.731	85.19
307.961	81.19
308.191	89.19
308.421	89.19
308.651	74.19
308.881	78.19
309.111	63.19
309.341	100.19
309.571	91.19
309.8	86.19
310.03	64.19
310.26	62.19
310.49	72.19
310.72	76.19
310.949	78.19
311.179	86.19
311.409	64.19
311.639	84.19
311.868	84.19
312.098	86.19
312.328	82.19
312.557	77.19
312.787	73.19
313.017	82.19
313.246	69.19
313.476	83.19
313.706	93.19
313.935	79.19
314.165	78.19
314.394	77.19
314.624	82.19
314.853	79.19
315.083	82.19
315.312	84.19
315.542	84.19
315.771	92.19
316.001	101.19
316.23	94.19
316.46	73.19
316.689	68.19
316.919	69.19
317.148	75.19
317.377	82.19
317.607	89.19
317.836	84.19
318.065	80.19
318.295	74.19
318.524	75.19
318.753	84.19
318.983	88.19
319.212	80.19
319.441	75.19
319.67	98.19
319.9	82.19
320.129	90.19
320.358	85.19
320.587	78.19
320.816	74.19
321.046	75.19
321.275	73.19
321.504	78.19
321.733	87.19
321.962	79.19
322.191	73.19
322.42	89.19
322.649	85.19
322.878	98.19
323.108	83.19
323.337	80.19
323.566	84.19
323.795	75.19
324.024	88.19
324.253	73.19
324.482	79.19
324.71	86.19
324.939	84.19
325.168	76.19
325.397	97.19
325.626	84.19
325.855	82.19
326.084	88.19
326.313	85.19
326.542	56.19
326.77	78.19
326.999	73.19
327.228	75.19
327.457	81.19
327.686	87.19
327.914	77.19
328.143	83.19
328.372	76.19
328.6	90.19
328.829	89.19
329.058	81.19
329.287	87.19
329.515	74.19
329.744	81.19
329.972	79.19
330.201	96.19
330.43	74.19
330.658	73.19
330.887	65.19
331.115	81.19
331.344	81.19
331.572	97.19
331.801	77.19
332.03	86.19
332.258	68.19
332.486	81.19
332.715	84.19
332.943	80.19
333.172	73.19
333.4	80.19
333.629	74.19
333.857	88.19
334.085	77.19
334.314	68.19
334.542	74.19
334.771	72.19
334.999	80.19
335.227	83.19
335.455	80.19
335.684	92.19
335.912	81.19
336.14	84.19
336.369	85.19
336.597	77.19
336.825	73.19
337.053	86.19
337.281	65.19
337.51	76.19
337.738	85.19
337.966	73.19
338.194	93.19
338.422	90.19
338.65	85.19
338.878	81.19
339.106	66.19
339.334	73.19
339.562	77.19
339.79	63.19
340.018	70.19
340.246	72.19
340.474	73.19
340.702	94.19
340.93	86.19
341.158	85.19
341.386	83.19
341.614	78.19
341.842	78.19
342.07	86.19
342.298	73.19
342.526	84.19
342.754	82.19
342.981	91.19
343.209	67.19
343.437	94.19
343.665	71.19
343.893	90.19
344.12	82.19
344.348	73.19
344.576	73.19
344.804	74.19
345.031	89.19
345.259	75.19
345.487	80.19
345.714	66.19
345.942	74.19
346.17	73.19
346.397	75.19
346.625	96.19
346.853	91.19
347.08	82.19
347.308	73.19
347.535	73.19
347.763	82.19
347.99	76.19
348.218	88.19
348.445	85.19
348.673	74.19
348.9	76.19
349.128	84.19
349.355	74.19
349.583	77.19
349.81	91.19
350.037	71.19
350.265	84.19
350.492	70.19
350.72	91.19
350.947	78.19
351.174	86.19
351.402	72.19
351.629	69.19
351.856	74.19
352.083	58.19
352.311	74.19
352.538	79.19
352.765	75.19
352.992	89.19
353.22	69.19
353.447	75.19
353.674	80.19
353.901	65.19
354.128	74.19
354.355	77.19
354.583	71.19
354.81	69.19
355.037	78.19
355.264	92.19
355.491	79.19
355.718	75.19
355.945	83.19
356.172	94.19
356.399	78.19
356.626	85.19
356.853	96.19
357.08	138.19
357.307	158.19
357.534	132.19
357.761	92.19
357.988	84.19
358.215	81.19
358.441	85.19
358.668	71.19
358.895	80.19
359.122	82.19
359.349	86.19
359.576	82.19
359.802	78.19
360.029	77.19
360.256	100.19
360.483	82.19
360.709	78.19
360.936	93.19
361.163	79.19
361.39	92.19
361.616	94.19
361.843	83.19
362.07	67.19
362.296	69.19
362.523	86.19
362.749	68.19
362.976	96.19
363.203	89.19
363.429	91.19
363.656	122.19
363.882	171.19
364.109	200.19
364.335	139.19
364.562	82.19
364.788	79.19
365.015	81.19
365.241	72.19
365.468	85.19
365.694	90.19
365.92	78.19
366.147	96.19
366.373	77.19
366.599	76.19
366.826	97.19
367.052	100.19
367.278	125.19
367.505	104.19
367.731	102.19
367.957	140.19
368.184	192.19
368.41	258.19
368.636	190.19
368.862	106.19
369.089	94.19
369.315	81.19
369.541	86.19
369.767	85.19
369.993	81.19
370.219	83.19
370.445	73.19
370.672	84.19
370.898	75.19
371.124	87.19
371.35	77.19
371.576	93.19
371.802	77.19
372.028	77.19
372.254	74.19
372.48	79.19
372.706	85.19
372.932	79.19
373.158	100.19
373.384	86.19
373.61	99.19
373.835	113.19
374.061	149.19
374.287	112.19
374.513	85.19
374.739	82.19
374.965	83.19
375.191	84.19
375.416	60.19
375.642	91.19
375.868	92.19
376.094	73.19
376.319	91.19
376.545	85.19
376.771	85.19
376.997	101.19
377.222	78.19
377.448	81.19
377.674	84.19
377.899	84.19
378.125	87.19
378.35	82.19
378.576	85.19
378.802	73.19
379.027	84.19
379.253	84.19
379.478	74.19
379.704	77.19
379.929	78.19
380.155	74.19
380.38	86.19
380.606	77.19
380.831	65.19
381.057	81.19
381.282	90.19
381.507	81.19
381.733	96.19
381.958	67.19
382.184	70.19
382.409	74.19
382.634	70.19
382.86	75.19
383.085	82.19
383.31	91.19
383.535	90.19
383.761	87.19
383.986	81.19
384.211	86.19
384.436	88.19
384.662	67.19
384.887	73.19
385.112	88.19
385.337	93.19
385.562	68.19
385.787	93.19
386.013	80.19
386.238	86.19
386.463	80.19
386.688	96.19
386.913	86.19
387.138	87.19
387.363	86.19
387.588	82.19
387.813	88.19
388.038	89.19
388.263	64.19
388.488	82.19
388.713	85.19
388.938	76.19
389.163	75.19
389.387	82.19
389.612	68.19
389.837	83.19
390.062	83.19
390.287	84.19
390.512	75.19
390.736	82.19
390.961	72.19
391.186	77.19
391.411	75.19
391.636	72.19
391.86	72.19
392.085	76.19
392.31	80.19
392.534	82.19
392.759	91.19
392.984	86.19
393.208	84.19
393.433	92.19
393.658	76.19
393.882	71.19
394.107	73.19
394.331	80.19
394.556	86.19
394.78	72.19
395.005	66.19
395.229	78.19
395.454	81.19
395.678	78.19
395.903	80.19
396.127	99.19
396.352	80.19
396.576	72.19
396.801	92.19
397.025	79.19
397.249	80.19
397.474	85.19
397.698	58.19
397.922	72.19
398.147	90.19
398.371	95.19
398.595	66.19
398.82	76.19
399.044	70.19
399.268	59.19
399.492	67.19
399.717	83.19
399.941	77.19
400.165	83.19
400.389	80.19
400.613	73.19
400.837	75.19
401.062	78.19
401.286	81.19
401.51	86.19
401.734	86.19
401.958	104.19
402.182	98.19
402.406	70.19
402.63	91.19
402.854	91.19
403.078	76.19
403.302	84.19
403.526	69.19
403.75	75.19
403.974	72.19
404.198	73.19
404.422	92.19
404.645	84.19
404.869	93.19
405.093	111.19
405.317	125.19
405.541	213.19
405.765	366.19
405.988	403.19
406.212	230.19
406.436	144.19
406.66	104.19
406.883	91.19
407.107	77.19
407.331	74.19
407.555	84.19
407.778	92.19
408.002	82.19
408.226	83.19
408.449	80.19
408.673	76.19
408.896	65.19
409.12	75.19
409.344	82.19
409.567	75.19
409.791	84.19
410.014	69.19
410.238	82.19
410.461	62.19
410.685	77.19
410.908	75.19
411.132	81.19
411.355	71.19
411.578	66.19
411.802	72.19
412.025	85.19
412.249	86.19
412.472	83.19
412.695	68.19
412.919	72.19
413.142	70.19
413.365	74.19
413.589	76.19
413.812	70.19
414.035	91.19
414.258	70.19
414.482	83.19
414.705	88.19
414.928	80.19
415.151	81.19
415.374	66.19
415.597	76.19
415.821	65.19
416.044	80.19
416.267	63.19
416.49	76.19
416.713	89.19
416.936	87.19
417.159	85.19
417.382	73.19
417.605	89.19
417.828	81.19
418.051	72.19
418.274	80.19
418.497	75.19
418.72	73.19
418.943	80.19
419.166	83.19
419.389	76.19
419.611	72.19
419.834	88.19
420.057	91.19
420.28	76.19
420.503	71.19
420.726	80.19
420.948	80.19
421.171	70.19
421.394	93.19
421.617	77.19
421.839	80.19
422.062	88.19
422.285	75.19
422.507	88.19
422.73	90.19
422.953	80.19
423.175	75.19
423.398	90.19
423.621	82.19
423.843	64.19
424.066	79.19
424.288	72.19
424.511	90.19
424.733	86.19
424.956	82.19
425.178	75.19
425.401	82.19
425.623	75.19
425.846	76.19
426.068	88.19
426.291	100.19
426.513	67.19
426.735	68.19
426.958	104.19
427.18	75.19
427.402	75.19
427.625	73.19
427.847	83.19
428.069	76.19
428.292	89.19
428.514	82.19
428.736	81.19
428.958	94.19
429.181	65.19
429.403	78.19
429.625	75.19
429.847	79.19
430.069	86.19
430.292	76.19
430.514	89.19
430.736	93.19
430.958	80.19
431.18	67.19
431.402	60.19
431.624	81.19
431.846	78.19
432.068	70.19
432.29	87.19
432.512	87.19
432.734	75.19
432.956	101.19
433.178	84.19
433.4	81.19
433.622	77.19
433.844	78.19
434.066	84.19
434.287	80.19
434.509	66.19
434.731	77.19
434.953	73.19
435.175	80.19
435.397	52.19
435.618	83.19
435.84	82.19
436.062	86.19
436.284	93.19
436.505	77.19
436.727	82.19
436.949	82.19
437.17	68.19
437.392	89.19
437.614	70.19
437.835	73.19
438.057	79.19
438.278	71.19
438.5	78.19
438.721	80.19
438.943	82.19
439.165	73.19
439.386	69.19
439.608	61.19
439.829	79.19
440.05	84.19
440.272	74.19
440.493	73.19
440.715	66.19
440.936	88.19
441.158	75.19
441.379	60.19
441.6	73.19
441.822	72.19
442.043	75.19
442.264	87.19
442.486	84.19
442.707	85.19
442.928	85.19
443.149	84.19
443.371	69.19
443.592	80.19
443.813	70.19
444.034	83.19
444.255	86.19
444.476	81.19
444.698	67.19
444.919	80.19
445.14	155.19
445.361	121.19
445.582	74.19
445.803	97.19
446.024	80.19
446.245	74.19
446.466	90.19
446.687	70.19
446.908	70.19
447.129	71.19
447.35	87.19
447.571	71.19
447.792	85.19
448.013	70.19
448.234	83.19
448.455	82.19
448.675	68.19
448.896	77.19
449.117	80.19
449.338	78.19
449.559	89.19
449.779	76.19
450	81.19
450.221	84.19
450.442	91.19
450.662	91.19
450.883	86.19
451.104	75.19
451.324	72.19
451.545	77.19
451.766	84.19
451.986	67.19
452.207	74.19
452.428	83.19
452.648	95.19
452.869	77.19
453.089	78.19
453.31	72.19
453.53	81.19
453.751	77.19
453.971	84.19
454.192	78.19
454.412	92.19
454.633	73.19
454.853	85.19
455.073	76.19
455.294	63.19
455.514	69.19
455.734	73.19
455.955	90.19
456.175	89.19
456.395	90.19
456.616	74.19
456.836	79.19
457.056	75.19
457.276	74.19
457.497	74.19
457.717	85.19
457.937	72.19
458.157	81.19
458.377	79.19
458.598	73.19
458.818	86.19
459.038	73.19
459.258	64.19
459.478	72.19
459.698	82.19
459.918	76.19
460.138	66.19
460.358	73.19
460.578	77.19
460.798	90.19
461.018	73.19
461.238	76.19
461.458	80.19
461.678	77.19
461.898	80.19
462.118	80.19
462.338	86.19
462.558	88.19
462.777	77.19
462.997	73.19
463.217	70.19
463.437	76.19
463.657	69.19
463.876	83.19
464.096	81.19
464.316	82.19
464.536	75.19
464.755	82.19
464.975	68.19
465.195	90.19
465.414	85.19
465.634	92.19
465.854	87.19
466.073	92.19
466.293	84.19
466.512	72.19
466.732	81.19
466.951	75.19
467.171	77.19
467.391	83.19
467.61	85.19
467.829	76.19
468.049	81.19
468.268	71.19
468.488	77.19
468.707	78.19
468.927	90.19
469.146	67.19
469.365	82.19
469.585	76.19
469.804	71.19
470.023	80.19
470.243	86.19
470.462	78.19
470.681	72.19
470.901	88.19
471.12	75.19
471.339	73.19
471.558	76.19
471.777	73.19
471.997	78.19
472.216	79.19
472.435	86.19
472.654	68.19
472.873	84.19
473.092	84.19
473.311	89.19
473.53	92.19
473.749	88.19
473.968	88.19
474.187	90.19
474.406	62.19
474.625	77.19
474.844	78.19
475.063	96.19
475.282	90.19
475.501	85.19
475.72	86.19
475.939	74.19
476.158	76.19
476.377	82.19
476.596	82.19
476.814	75.19
477.033	66.19
477.252	82.19
477.471	75.19
477.69	69.19
477.908	74.19
478.127	89.19
478.346	81.19
478.564	100.19
478.783	68.19
479.002	84.19
479.22	83.19
479.439	83.19
479.658	84.19
479.876	96.19
480.095	87.19
480.313	87.19
480.532	72.19
480.751	72.19
480.969	62.19
481.188	71.19
481.406	91.19
481.624	86.19
481.843	74.19
482.061	80.19
482.28	86.19
482.498	92.19
482.717	86.19
482.935	72.19
483.153	90.19
483.372	78.19
483.59	82.19
483.808	71.19
484.027	86.19
484.245	80.19
484.463	80.19
484.681	92.19
484.9	77.19
485.118	64.19
485.336	88.19
485.554	82.19
485.772	78.19
485.99	71.19
486.209	67.19
486.427	74.19
486.645	66.19
486.863	78.19
487.081	76.19
487.299	69.19
487.517	83.19
487.735	86.19
487.953	68.19
488.171	81.19
488.389	80.19
488.607	66.19
488.825	79.19
489.043	86.19
489.261	81.19
489.479	85.19
489.696	63.19
489.914	72.19
490.132	76.19
490.35	92.19
490.568	85.19
490.786	84.19
491.003	85.19
491.221	78.19
491.439	77.19
491.657	79.19
491.874	92.19
492.092	75.19
492.31	87.19
492.527	74.19
492.745	73.19
492.963	85.19
493.18	93.19
493.398	71.19
493.615	82.19
493.833	80.19
494.05	78.19
494.268	88.19
494.485	82.19
494.703	85.19
494.92	85.19
495.138	76.19
495.355	87.19
495.573	81.19
495.79	81.19
496.008	94.19
496.225	87.19
496.442	73.19
496.66	83.19
496.877	88.19
497.094	88.19
497.312	92.19
497.529	77.19
497.746	76.19
497.963	86.19
498.181	77.19
498.398	69.19
498.615	74.19
498.832	87.19
499.049	87.19
499.267	91.19
499.484	72.19
499.701	85.19
499.918	87.19
500.135	79.19
500.352	76.19
500.569	111.19
500.786	140.19
501.003	100.19
501.22	76.19
501.437	77.19
501.654	80.19
501.871	88.19
502.088	80.19
502.305	77.19
502.522	84.19
502.739	102.19
502.956	78.19
503.172	76.19
503.389	98.19
503.606	68.19
503.823	80.19
504.04	86.19
504.256	73.19
504.473	83.19
504.69	87.19
504.907	72.19
505.123	88.19
505.34	88.19
505.557	80.19
505.773	88.19
505.99	79.19
506.207	62.19
506.423	90.19
506.64	80.19
506.856	69.19
507.073	78.19
507.289	94.19
507.506	72.19
507.722	92.19
507.939	70.19
508.155	80.19
508.372	80.19
508.588	76.19
508.805	70.19
509.021	86.19
509.238	71.19
509.454	80.19
509.67	88.19
509.887	65.19
510.103	64.19
510.319	86.19
510.536	89.19
510.752	66.19
510.968	77.19
511.184	89.19
511.401	70.19
511.617	75.19
511.833	66.19
512.049	76.19
512.265	84.19
512.481	84.19
512.698	70.19
512.914	73.19
513.13	77.19
513.346	78.19
513.562	92.19
513.778	82.19
513.994	79.19
514.21	84.19
514.426	85.19
514.642	78.19
514.858	83.19
515.074	91.19
515.29	70.19
515.506	82.19
515.721	79.19
515.937	93.19
516.153	72.19
516.369	89.19
516.585	88.19
516.801	78.19
517.016	91.19
517.232	68.19
517.448	78.19
517.664	79.19
517.879	68.19
518.095	83.19
518.311	74.19
518.527	81.19
518.742	80.19
518.958	76.19
519.173	78.19
519.389	81.19
519.605	76.19
