Data from StdB_HRD10591_069.txt Node
Date: Fri May 16 15:25:20 EDT 2025
User: Yrep
Spectrometer: HR+D1059
Trigger mode: 1
Integration Time (sec): 1.000000E-1
Scans to average: 1
Electric dark correction enabled: true
Nonlinearity correction enabled: false
Boxcar width: 0
XAxis mode: Wavelengths
Number of Pixels in Spectrum: 2048
>>>>>Begin Spectral Data<<<<<
223.165	-14.19
223.4	-14.19
223.635	-14.19
223.869	-29.19
224.104	-30.19
224.338	-15.19
224.573	-13.19
224.808	-7.19
225.042	1.81
225.277	-2.19
225.511	-6.19
225.746	9.81
225.98	-5.19
226.215	18.81
226.449	2.81
226.683	29.81
226.918	36.81
227.152	22.81
227.387	42.81
227.621	47.81
227.856	55.81
228.09	56.81
228.324	49.81
228.559	59.81
228.793	49.81
229.027	73.81
229.262	66.81
229.496	72.81
229.73	72.81
229.964	82.81
230.199	70.81
230.433	85.81
230.667	90.81
230.901	88.81
231.136	80.81
231.37	75.81
231.604	78.81
231.838	81.81
232.072	90.81
232.306	60.81
232.541	92.81
232.775	84.81
233.009	79.81
233.243	86.81
233.477	75.81
233.711	96.81
233.945	98.81
234.179	84.81
234.413	78.81
234.647	92.81
234.881	77.81
235.115	82.81
235.349	89.81
235.583	84.81
235.817	72.81
236.051	72.81
236.285	80.81
236.519	86.81
236.753	90.81
236.987	84.81
237.221	81.81
237.455	84.81
237.689	76.81
237.922	90.81
238.156	64.81
238.39	65.81
238.624	73.81
238.858	75.81
239.091	80.81
239.325	85.81
239.559	82.81
239.793	65.81
240.027	70.81
240.26	75.81
240.494	80.81
240.728	79.81
240.961	84.81
241.195	81.81
241.429	80.81
241.662	77.81
241.896	79.81
242.13	77.81
242.363	60.81
242.597	70.81
242.83	62.81
243.064	77.81
243.298	78.81
243.531	86.81
243.765	64.81
243.998	77.81
244.232	86.81
244.465	80.81
244.699	87.81
244.932	87.81
245.166	88.81
245.399	74.81
245.633	73.81
245.866	72.81
246.099	86.81
246.333	84.81
246.566	84.81
246.8	51.81
247.033	68.81
247.266	77.81
247.5	89.81
247.733	71.81
247.966	83.81
248.2	96.81
248.433	76.81
248.666	72.81
248.899	84.81
249.133	80.81
249.366	83.81
249.599	59.81
249.832	87.81
250.066	78.81
250.299	93.81
250.532	75.81
250.765	77.81
250.998	68.81
251.231	87.81
251.465	89.81
251.698	92.81
251.931	63.81
252.164	77.81
252.397	93.81
252.63	84.81
252.863	74.81
253.096	74.81
253.329	85.81
253.562	82.81
253.795	74.81
254.028	86.81
254.261	74.81
254.494	77.81
254.727	76.81
254.96	74.81
255.193	74.81
255.426	76.81
255.659	77.81
255.892	75.81
256.124	87.81
256.357	96.81
256.59	73.81
256.823	84.81
257.056	88.81
257.289	91.81
257.521	87.81
257.754	92.81
257.987	97.81
258.22	87.81
258.452	88.81
258.685	90.81
258.918	75.81
259.151	96.81
259.383	97.81
259.616	72.81
259.849	91.81
260.081	91.81
260.314	89.81
260.547	79.81
260.779	89.81
261.012	94.81
261.244	86.81
261.477	91.81
261.71	102.81
261.942	94.81
262.175	91.81
262.407	54.81
262.64	74.81
262.872	83.81
263.105	82.81
263.337	98.81
263.57	74.81
263.802	77.81
264.035	84.81
264.267	69.81
264.499	79.81
264.732	85.81
264.964	88.81
265.197	78.81
265.429	103.81
265.661	84.81
265.894	85.81
266.126	112.81
266.358	85.81
266.591	94.81
266.823	82.81
267.055	65.81
267.287	82.81
267.52	86.81
267.752	80.81
267.984	90.81
268.216	85.81
268.448	78.81
268.681	69.81
268.913	89.81
269.145	96.81
269.377	90.81
269.609	89.81
269.841	83.81
270.073	80.81
270.306	89.81
270.538	92.81
270.77	84.81
271.002	67.81
271.234	80.81
271.466	85.81
271.698	78.81
271.93	87.81
272.162	76.81
272.394	90.81
272.626	73.81
272.858	92.81
273.09	73.81
273.322	77.81
273.553	85.81
273.785	83.81
274.017	75.81
274.249	60.81
274.481	78.81
274.713	92.81
274.945	66.81
275.176	78.81
275.408	85.81
275.64	85.81
275.872	88.81
276.104	92.81
276.335	101.81
276.567	94.81
276.799	93.81
277.031	85.81
277.262	79.81
277.494	88.81
277.726	82.81
277.957	82.81
278.189	93.81
278.421	88.81
278.652	77.81
278.884	93.81
279.115	80.81
279.347	92.81
279.579	73.81
279.81	90.81
280.042	97.81
280.273	114.81
280.505	118.81
280.736	88.81
280.968	72.81
281.199	60.81
281.431	94.81
281.662	83.81
281.894	90.81
282.125	102.81
282.356	95.81
282.588	79.81
282.819	81.81
283.051	96.81
283.282	87.81
283.513	119.81
283.745	108.81
283.976	103.81
284.207	82.81
284.439	100.81
284.67	94.81
284.901	88.81
285.132	91.81
285.364	92.81
285.595	81.81
285.826	83.81
286.057	92.81
286.288	93.81
286.52	80.81
286.751	83.81
286.982	102.81
287.213	89.81
287.444	100.81
287.675	94.81
287.906	89.81
288.138	80.81
288.369	89.81
288.6	89.81
288.831	82.81
289.062	78.81
289.293	81.81
289.524	79.81
289.755	73.81
289.986	81.81
290.217	81.81
290.448	90.81
290.679	90.81
290.91	91.81
291.141	84.81
291.371	92.81
291.602	88.81
291.833	78.81
292.064	72.81
292.295	90.81
292.526	85.81
292.757	85.81
292.987	87.81
293.218	75.81
293.449	80.81
293.68	89.81
293.91	84.81
294.141	88.81
294.372	73.81
294.603	97.81
294.833	85.81
295.064	75.81
295.295	65.81
295.525	107.81
295.756	85.81
295.987	85.81
296.217	83.81
296.448	90.81
296.679	86.81
296.909	97.81
297.14	68.81
297.37	84.81
297.601	85.81
297.831	78.81
298.062	85.81
298.292	80.81
298.523	87.81
298.753	77.81
298.984	96.81
299.214	95.81
299.445	80.81
299.675	86.81
299.905	93.81
300.136	85.81
300.366	76.81
300.597	84.81
300.827	85.81
301.057	91.81
301.288	79.81
301.518	77.81
301.748	88.81
301.979	86.81
302.209	88.81
302.439	77.81
302.669	79.81
302.9	79.81
303.13	85.81
303.36	92.81
303.59	76.81
303.82	84.81
304.051	88.81
304.281	90.81
304.511	80.81
304.741	91.81
304.971	90.81
305.201	96.81
305.431	79.81
305.661	81.81
305.891	78.81
306.121	74.81
306.352	82.81
306.582	96.81
306.812	86.81
307.042	85.81
307.272	86.81
307.502	91.81
307.731	80.81
307.961	96.81
308.191	86.81
308.421	81.81
308.651	83.81
308.881	87.81
309.111	84.81
309.341	88.81
309.571	78.81
309.8	89.81
310.03	80.81
310.26	79.81
310.49	88.81
310.72	77.81
310.949	85.81
311.179	88.81
311.409	80.81
311.639	88.81
311.868	78.81
312.098	92.81
312.328	89.81
312.557	79.81
312.787	96.81
313.017	77.81
313.246	80.81
313.476	85.81
313.706	85.81
313.935	73.81
314.165	79.81
314.394	79.81
314.624	88.81
314.853	81.81
315.083	79.81
315.312	100.81
315.542	96.81
315.771	87.81
316.001	84.81
316.23	94.81
316.46	86.81
316.689	94.81
316.919	94.81
317.148	109.81
317.377	78.81
317.607	78.81
317.836	94.81
318.065	86.81
318.295	74.81
318.524	90.81
318.753	90.81
318.983	86.81
319.212	88.81
319.441	89.81
319.67	96.81
319.9	84.81
320.129	94.81
320.358	81.81
320.587	78.81
320.816	84.81
321.046	94.81
321.275	78.81
321.504	90.81
321.733	87.81
321.962	100.81
322.191	90.81
322.42	73.81
322.649	111.81
322.878	97.81
323.108	105.81
323.337	89.81
323.566	75.81
323.795	93.81
324.024	93.81
324.253	79.81
324.482	85.81
324.71	90.81
324.939	70.81
325.168	97.81
325.397	97.81
325.626	90.81
325.855	66.81
326.084	89.81
326.313	85.81
326.542	82.81
326.77	81.81
326.999	87.81
327.228	82.81
327.457	74.81
327.686	87.81
327.914	93.81
328.143	88.81
328.372	80.81
328.6	105.81
328.829	84.81
329.058	84.81
329.287	92.81
329.515	83.81
329.744	82.81
329.972	88.81
330.201	90.81
330.43	87.81
330.658	79.81
330.887	92.81
331.115	88.81
331.344	91.81
331.572	78.81
331.801	93.81
332.03	71.81
332.258	86.81
332.486	89.81
332.715	93.81
332.943	95.81
333.172	87.81
333.4	82.81
333.629	80.81
333.857	93.81
334.085	73.81
334.314	94.81
334.542	79.81
334.771	91.81
334.999	81.81
335.227	101.81
335.455	90.81
335.684	104.81
335.912	82.81
336.14	80.81
336.369	88.81
336.597	76.81
336.825	70.81
337.053	76.81
337.281	93.81
337.51	89.81
337.738	89.81
337.966	87.81
338.194	73.81
338.422	73.81
338.65	107.81
338.878	87.81
339.106	92.81
339.334	95.81
339.562	74.81
339.79	95.81
340.018	75.81
340.246	87.81
340.474	81.81
340.702	71.81
340.93	86.81
341.158	81.81
341.386	82.81
341.614	74.81
341.842	85.81
342.07	80.81
342.298	83.81
342.526	80.81
342.754	84.81
342.981	96.81
343.209	82.81
343.437	98.81
343.665	83.81
343.893	86.81
344.12	103.81
344.348	88.81
344.576	93.81
344.804	97.81
345.031	79.81
345.259	88.81
345.487	80.81
345.714	78.81
345.942	80.81
346.17	76.81
346.397	88.81
346.625	85.81
346.853	77.81
347.08	71.81
347.308	84.81
347.535	92.81
347.763	76.81
347.99	93.81
348.218	78.81
348.445	81.81
348.673	88.81
348.9	77.81
349.128	83.81
349.355	94.81
349.583	90.81
349.81	102.81
350.037	84.81
350.265	85.81
350.492	71.81
350.72	82.81
350.947	88.81
351.174	76.81
351.402	74.81
351.629	78.81
351.856	75.81
352.083	81.81
352.311	87.81
352.538	83.81
352.765	87.81
352.992	104.81
353.22	94.81
353.447	70.81
353.674	97.81
353.901	89.81
354.128	93.81
354.355	97.81
354.583	80.81
354.81	100.81
355.037	74.81
355.264	91.81
355.491	89.81
355.718	95.81
355.945	95.81
356.172	88.81
356.399	78.81
356.626	75.81
356.853	110.81
357.08	133.81
357.307	140.81
357.534	130.81
357.761	104.81
357.988	78.81
358.215	88.81
358.441	83.81
358.668	85.81
358.895	77.81
359.122	81.81
359.349	81.81
359.576	79.81
359.802	86.81
360.029	92.81
360.256	94.81
360.483	87.81
360.709	66.81
360.936	86.81
361.163	89.81
361.39	70.81
361.616	84.81
361.843	83.81
362.07	84.81
362.296	80.81
362.523	72.81
362.749	72.81
362.976	87.81
363.203	86.81
363.429	106.81
363.656	130.81
363.882	182.81
364.109	175.81
364.335	125.81
364.562	97.81
364.788	81.81
365.015	82.81
365.241	84.81
365.468	90.81
365.694	90.81
365.92	89.81
366.147	86.81
366.373	100.81
366.599	95.81
366.826	96.81
367.052	114.81
367.278	108.81
367.505	109.81
367.731	102.81
367.957	138.81
368.184	187.81
368.41	244.81
368.636	194.81
368.862	93.81
369.089	86.81
369.315	65.81
369.541	82.81
369.767	89.81
369.993	82.81
370.219	69.81
370.445	70.81
370.672	87.81
370.898	85.81
371.124	106.81
371.35	88.81
371.576	91.81
371.802	74.81
372.028	84.81
372.254	84.81
372.48	88.81
372.706	76.81
372.932	96.81
373.158	90.81
373.384	83.81
373.61	104.81
373.835	142.81
374.061	141.81
374.287	108.81
374.513	95.81
374.739	81.81
374.965	86.81
375.191	94.81
375.416	83.81
375.642	97.81
375.868	89.81
376.094	86.81
376.319	77.81
376.545	82.81
376.771	72.81
376.997	80.81
377.222	78.81
377.448	77.81
377.674	88.81
377.899	82.81
378.125	76.81
378.35	87.81
378.576	75.81
378.802	85.81
379.027	61.81
379.253	82.81
379.478	80.81
379.704	78.81
379.929	79.81
380.155	96.81
380.38	78.81
380.606	79.81
380.831	78.81
381.057	81.81
381.282	83.81
381.507	82.81
381.733	81.81
381.958	75.81
382.184	81.81
382.409	87.81
382.634	83.81
382.86	77.81
383.085	72.81
383.31	81.81
383.535	100.81
383.761	94.81
383.986	87.81
384.211	90.81
384.436	81.81
384.662	84.81
384.887	75.81
385.112	68.81
385.337	71.81
385.562	78.81
385.787	84.81
386.013	89.81
386.238	90.81
386.463	69.81
386.688	90.81
386.913	72.81
387.138	79.81
387.363	72.81
387.588	87.81
387.813	97.81
388.038	90.81
388.263	80.81
388.488	72.81
388.713	82.81
388.938	82.81
389.163	75.81
389.387	75.81
389.612	85.81
389.837	71.81
390.062	90.81
390.287	88.81
390.512	93.81
390.736	90.81
390.961	86.81
391.186	72.81
391.411	84.81
391.636	79.81
391.86	90.81
392.085	81.81
392.31	71.81
392.534	81.81
392.759	80.81
392.984	89.81
393.208	72.81
393.433	73.81
393.658	80.81
393.882	79.81
394.107	81.81
394.331	88.81
394.556	88.81
394.78	90.81
395.005	85.81
395.229	79.81
395.454	83.81
395.678	84.81
395.903	78.81
396.127	89.81
396.352	72.81
396.576	76.81
396.801	90.81
397.025	88.81
397.249	88.81
397.474	81.81
397.698	70.81
397.922	81.81
398.147	93.81
398.371	73.81
398.595	72.81
398.82	91.81
399.044	77.81
399.268	76.81
399.492	77.81
399.717	84.81
399.941	81.81
400.165	84.81
400.389	106.81
400.613	80.81
400.837	91.81
401.062	78.81
401.286	93.81
401.51	98.81
401.734	113.81
401.958	126.81
402.182	108.81
402.406	80.81
402.63	74.81
402.854	77.81
403.078	79.81
403.302	73.81
403.526	72.81
403.75	71.81
403.974	87.81
404.198	92.81
404.422	87.81
404.645	87.81
404.869	92.81
405.093	89.81
405.317	129.81
405.541	190.81
405.765	334.81
405.988	369.81
406.212	199.81
406.436	126.81
406.66	94.81
406.883	84.81
407.107	86.81
407.331	84.81
407.555	83.81
407.778	81.81
408.002	78.81
408.226	86.81
408.449	80.81
408.673	94.81
408.896	89.81
409.12	71.81
409.344	79.81
409.567	90.81
409.791	93.81
410.014	70.81
410.238	94.81
410.461	73.81
410.685	79.81
410.908	76.81
411.132	71.81
411.355	78.81
411.578	85.81
411.802	101.81
412.025	70.81
412.249	77.81
412.472	78.81
412.695	82.81
412.919	84.81
413.142	60.81
413.365	78.81
413.589	84.81
413.812	70.81
414.035	74.81
414.258	92.81
414.482	76.81
414.705	76.81
414.928	67.81
415.151	97.81
415.374	96.81
415.597	77.81
415.821	90.81
416.044	90.81
416.267	71.81
416.49	92.81
416.713	86.81
416.936	83.81
417.159	83.81
417.382	73.81
417.605	80.81
417.828	82.81
418.051	85.81
418.274	84.81
418.497	73.81
418.72	82.81
418.943	72.81
419.166	67.81
419.389	72.81
419.611	82.81
419.834	74.81
420.057	88.81
420.28	82.81
420.503	89.81
420.726	88.81
420.948	69.81
421.171	91.81
421.394	83.81
421.617	81.81
421.839	94.81
422.062	84.81
422.285	85.81
422.507	87.81
422.73	82.81
422.953	73.81
423.175	79.81
423.398	74.81
423.621	86.81
423.843	78.81
424.066	98.81
424.288	89.81
424.511	89.81
424.733	76.81
424.956	77.81
425.178	76.81
425.401	85.81
425.623	76.81
425.846	61.81
426.068	67.81
426.291	86.81
426.513	79.81
426.735	81.81
426.958	76.81
427.18	88.81
427.402	81.81
427.625	90.81
427.847	92.81
428.069	84.81
428.292	73.81
428.514	77.81
428.736	83.81
428.958	92.81
429.181	85.81
429.403	60.81
429.625	86.81
429.847	89.81
430.069	89.81
430.292	79.81
430.514	93.81
430.736	96.81
430.958	88.81
431.18	82.81
431.402	72.81
431.624	94.81
431.846	68.81
432.068	85.81
432.29	76.81
432.512	85.81
432.734	76.81
432.956	82.81
433.178	81.81
433.4	85.81
433.622	84.81
433.844	81.81
434.066	81.81
434.287	78.81
434.509	85.81
434.731	72.81
434.953	87.81
435.175	77.81
435.397	81.81
435.618	84.81
435.84	84.81
436.062	91.81
436.284	84.81
436.505	76.81
436.727	77.81
436.949	90.81
437.17	80.81
437.392	79.81
437.614	84.81
437.835	90.81
438.057	64.81
438.278	76.81
438.5	79.81
438.721	82.81
438.943	82.81
439.165	77.81
439.386	94.81
439.608	88.81
439.829	102.81
440.05	84.81
440.272	86.81
440.493	81.81
440.715	72.81
440.936	72.81
441.158	96.81
441.379	82.81
441.6	82.81
441.822	85.81
442.043	87.81
442.264	76.81
442.486	74.81
442.707	81.81
442.928	89.81
443.149	83.81
443.371	87.81
443.592	85.81
443.813	83.81
444.034	85.81
444.255	95.81
444.476	73.81
444.698	92.81
444.919	88.81
445.14	159.81
445.361	123.81
445.582	100.81
445.803	81.81
446.024	70.81
446.245	84.81
446.466	73.81
446.687	70.81
446.908	95.81
447.129	77.81
447.35	78.81
447.571	93.81
447.792	91.81
448.013	71.81
448.234	74.81
448.455	83.81
448.675	82.81
448.896	81.81
449.117	85.81
449.338	98.81
449.559	92.81
449.779	79.81
450	86.81
450.221	89.81
450.442	77.81
450.662	86.81
450.883	81.81
451.104	84.81
451.324	89.81
451.545	89.81
451.766	71.81
451.986	70.81
452.207	80.81
452.428	77.81
452.648	90.81
452.869	85.81
453.089	84.81
453.31	81.81
453.53	74.81
453.751	81.81
453.971	83.81
454.192	78.81
454.412	85.81
454.633	71.81
454.853	81.81
455.073	82.81
455.294	77.81
455.514	87.81
455.734	76.81
455.955	73.81
456.175	93.81
456.395	88.81
456.616	89.81
456.836	88.81
457.056	90.81
457.276	84.81
457.497	60.81
457.717	74.81
457.937	92.81
458.157	77.81
458.377	85.81
458.598	79.81
458.818	100.81
459.038	76.81
459.258	75.81
459.478	85.81
459.698	84.81
459.918	98.81
460.138	88.81
460.358	75.81
460.578	90.81
460.798	88.81
461.018	75.81
461.238	74.81
461.458	82.81
461.678	72.81
461.898	82.81
462.118	82.81
462.338	87.81
462.558	86.81
462.777	84.81
462.997	87.81
463.217	79.81
463.437	81.81
463.657	86.81
463.876	85.81
464.096	92.81
464.316	68.81
464.536	80.81
464.755	82.81
464.975	74.81
465.195	102.81
465.414	91.81
465.634	91.81
465.854	88.81
466.073	74.81
466.293	86.81
466.512	72.81
466.732	70.81
466.951	77.81
467.171	84.81
467.391	80.81
467.61	80.81
467.829	71.81
468.049	82.81
468.268	76.81
468.488	75.81
468.707	69.81
468.927	95.81
469.146	79.81
469.365	84.81
469.585	86.81
469.804	74.81
470.023	70.81
470.243	87.81
470.462	84.81
470.681	91.81
470.901	93.81
471.12	81.81
471.339	81.81
471.558	80.81
471.777	85.81
471.997	84.81
472.216	92.81
472.435	97.81
472.654	72.81
472.873	90.81
473.092	86.81
473.311	92.81
473.53	81.81
473.749	73.81
473.968	94.81
474.187	82.81
474.406	76.81
474.625	79.81
474.844	81.81
475.063	75.81
475.282	84.81
475.501	80.81
475.72	94.81
475.939	90.81
476.158	85.81
476.377	80.81
476.596	81.81
476.814	93.81
477.033	78.81
477.252	73.81
477.471	84.81
477.69	76.81
477.908	86.81
478.127	102.81
478.346	76.81
478.564	81.81
478.783	86.81
479.002	90.81
479.22	95.81
479.439	89.81
479.658	77.81
479.876	84.81
480.095	76.81
480.313	83.81
480.532	89.81
480.751	102.81
480.969	85.81
481.188	76.81
481.406	77.81
481.624	79.81
481.843	88.81
482.061	85.81
482.28	91.81
482.498	84.81
482.717	94.81
482.935	85.81
483.153	89.81
483.372	86.81
483.59	87.81
483.808	70.81
484.027	84.81
484.245	89.81
484.463	75.81
484.681	101.81
484.9	86.81
485.118	87.81
485.336	87.81
485.554	68.81
485.772	90.81
485.99	91.81
486.209	80.81
486.427	83.81
486.645	71.81
486.863	86.81
487.081	79.81
487.299	76.81
487.517	88.81
487.735	88.81
487.953	76.81
488.171	82.81
488.389	85.81
488.607	81.81
488.825	68.81
489.043	82.81
489.261	75.81
489.479	81.81
489.696	86.81
489.914	96.81
490.132	82.81
490.35	104.81
490.568	86.81
490.786	106.81
491.003	82.81
491.221	86.81
491.439	83.81
491.657	89.81
491.874	89.81
492.092	97.81
492.31	87.81
492.527	86.81
492.745	90.81
492.963	91.81
493.18	81.81
493.398	85.81
493.615	93.81
493.833	65.81
494.05	83.81
494.268	96.81
494.485	84.81
494.703	81.81
494.92	84.81
495.138	81.81
495.355	82.81
495.573	98.81
495.79	95.81
496.008	89.81
496.225	84.81
496.442	91.81
496.66	109.81
496.877	96.81
497.094	94.81
497.312	88.81
497.529	86.81
497.746	89.81
497.963	85.81
498.181	82.81
498.398	76.81
498.615	89.81
498.832	103.81
499.049	92.81
499.267	81.81
499.484	81.81
499.701	85.81
499.918	88.81
500.135	109.81
500.352	94.81
500.569	114.81
500.786	128.81
501.003	88.81
501.22	85.81
501.437	95.81
501.654	88.81
501.871	91.81
502.088	79.81
502.305	86.81
502.522	85.81
502.739	78.81
502.956	70.81
503.172	90.81
503.389	86.81
503.606	97.81
503.823	81.81
504.04	87.81
504.256	85.81
504.473	85.81
504.69	88.81
504.907	104.81
505.123	76.81
505.34	85.81
505.557	73.81
505.773	95.81
505.99	86.81
506.207	82.81
506.423	89.81
506.64	87.81
506.856	85.81
507.073	82.81
507.289	77.81
507.506	88.81
507.722	82.81
507.939	86.81
508.155	85.81
508.372	77.81
508.588	81.81
508.805	82.81
509.021	74.81
509.238	80.81
509.454	80.81
509.67	82.81
509.887	76.81
510.103	86.81
510.319	94.81
510.536	86.81
510.752	92.81
510.968	92.81
511.184	95.81
511.401	91.81
511.617	82.81
511.833	87.81
512.049	94.81
512.265	91.81
512.481	74.81
512.698	87.81
512.914	79.81
513.13	83.81
513.346	78.81
513.562	93.81
513.778	84.81
513.994	88.81
514.21	84.81
514.426	101.81
514.642	94.81
514.858	91.81
515.074	84.81
515.29	87.81
515.506	89.81
515.721	83.81
515.937	100.81
516.153	81.81
516.369	78.81
516.585	88.81
516.801	86.81
517.016	82.81
517.232	74.81
517.448	78.81
517.664	88.81
517.879	94.81
518.095	82.81
518.311	91.81
518.527	79.81
518.742	93.81
518.958	90.81
519.173	89.81
