Data from StdB_HRD10591_064.txt Node
Date: Fri May 16 15:25:18 EDT 2025
User: Yrep
Spectrometer: HR+D1059
Trigger mode: 1
Integration Time (sec): 1.000000E-1
Scans to average: 1
Electric dark correction enabled: true
Nonlinearity correction enabled: false
Boxcar width: 0
XAxis mode: Wavelengths
Number of Pixels in Spectrum: 2048
>>>>>Begin Spectral Data<<<<<
223.165	-31.12
223.4	-31.12
223.635	-31.12
223.869	-18.12
224.104	-16.12
224.338	-10.12
224.573	-14.12
224.808	3.88
225.042	-12.12
225.277	-11.12
225.511	-16.12
225.746	5.88
225.98	-3.12
226.215	9.88
226.449	21.88
226.683	33.88
226.918	18.88
227.152	37.88
227.387	28.88
227.621	29.88
227.856	51.88
228.09	44.88
228.324	40.88
228.559	61.88
228.793	48.88
229.027	53.88
229.262	55.88
229.496	58.88
229.73	57.88
229.964	66.88
230.199	71.88
230.433	72.88
230.667	81.88
230.901	79.88
231.136	74.88
231.37	83.88
231.604	82.88
231.838	81.88
232.072	97.88
232.306	71.88
232.541	88.88
232.775	67.88
233.009	77.88
233.243	78.88
233.477	86.88
233.711	78.88
233.945	77.88
234.179	71.88
234.413	63.88
234.647	87.88
234.881	81.88
235.115	82.88
235.349	67.88
235.583	73.88
235.817	74.88
236.051	85.88
236.285	87.88
236.519	84.88
236.753	65.88
236.987	66.88
237.221	64.88
237.455	65.88
237.689	69.88
237.922	67.88
238.156	65.88
238.39	65.88
238.624	77.88
238.858	86.88
239.091	83.88
239.325	73.88
239.559	74.88
239.793	85.88
240.027	71.88
240.26	75.88
240.494	79.88
240.728	86.88
240.961	62.88
241.195	94.88
241.429	72.88
241.662	64.88
241.896	68.88
242.13	65.88
242.363	61.88
242.597	75.88
242.83	73.88
243.064	70.88
243.298	71.88
243.531	77.88
243.765	73.88
243.998	77.88
244.232	67.88
244.465	91.88
244.699	90.88
244.932	91.88
245.166	68.88
245.399	82.88
245.633	69.88
245.866	80.88
246.099	63.88
246.333	71.88
246.566	68.88
246.8	68.88
247.033	54.88
247.266	74.88
247.5	64.88
247.733	83.88
247.966	75.88
248.2	69.88
248.433	77.88
248.666	77.88
248.899	82.88
249.133	77.88
249.366	85.88
249.599	75.88
249.832	86.88
250.066	77.88
250.299	77.88
250.532	84.88
250.765	89.88
250.998	63.88
251.231	83.88
251.465	71.88
251.698	71.88
251.931	72.88
252.164	73.88
252.397	81.88
252.63	89.88
252.863	83.88
253.096	83.88
253.329	89.88
253.562	80.88
253.795	72.88
254.028	80.88
254.261	84.88
254.494	73.88
254.727	83.88
254.96	85.88
255.193	84.88
255.426	79.88
255.659	79.88
255.892	92.88
256.124	74.88
256.357	73.88
256.59	73.88
256.823	70.88
257.056	65.88
257.289	87.88
257.521	90.88
257.754	85.88
257.987	72.88
258.22	81.88
258.452	84.88
258.685	80.88
258.918	83.88
259.151	73.88
259.383	79.88
259.616	70.88
259.849	88.88
260.081	85.88
260.314	85.88
260.547	81.88
260.779	87.88
261.012	90.88
261.244	90.88
261.477	91.88
261.71	93.88
261.942	78.88
262.175	97.88
262.407	93.88
262.64	86.88
262.872	79.88
263.105	78.88
263.337	103.88
263.57	95.88
263.802	78.88
264.035	86.88
264.267	81.88
264.499	89.88
264.732	88.88
264.964	85.88
265.197	101.88
265.429	94.88
265.661	92.88
265.894	92.88
266.126	92.88
266.358	82.88
266.591	83.88
266.823	79.88
267.055	95.88
267.287	78.88
267.52	81.88
267.752	89.88
267.984	87.88
268.216	80.88
268.448	80.88
268.681	74.88
268.913	82.88
269.145	80.88
269.377	83.88
269.609	78.88
269.841	82.88
270.073	90.88
270.306	85.88
270.538	78.88
270.77	61.88
271.002	71.88
271.234	91.88
271.466	91.88
271.698	79.88
271.93	79.88
272.162	78.88
272.394	63.88
272.626	74.88
272.858	78.88
273.09	72.88
273.322	68.88
273.553	88.88
273.785	80.88
274.017	86.88
274.249	90.88
274.481	81.88
274.713	80.88
274.945	80.88
275.176	84.88
275.408	80.88
275.64	88.88
275.872	72.88
276.104	78.88
276.335	72.88
276.567	68.88
276.799	74.88
277.031	68.88
277.262	82.88
277.494	67.88
277.726	75.88
277.957	74.88
278.189	99.88
278.421	90.88
278.652	84.88
278.884	91.88
279.115	91.88
279.347	80.88
279.579	94.88
279.81	105.88
280.042	108.88
280.273	103.88
280.505	112.88
280.736	80.88
280.968	75.88
281.199	83.88
281.431	77.88
281.662	93.88
281.894	101.88
282.125	93.88
282.356	76.88
282.588	105.88
282.819	91.88
283.051	94.88
283.282	111.88
283.513	99.88
283.745	86.88
283.976	79.88
284.207	96.88
284.439	79.88
284.67	89.88
284.901	74.88
285.132	71.88
285.364	79.88
285.595	81.88
285.826	74.88
286.057	81.88
286.288	90.88
286.52	73.88
286.751	70.88
286.982	100.88
287.213	94.88
287.444	100.88
287.675	96.88
287.906	83.88
288.138	87.88
288.369	80.88
288.6	75.88
288.831	84.88
289.062	72.88
289.293	88.88
289.524	79.88
289.755	68.88
289.986	71.88
290.217	81.88
290.448	77.88
290.679	77.88
290.91	79.88
291.141	82.88
291.371	107.88
291.602	85.88
291.833	79.88
292.064	77.88
292.295	90.88
292.526	74.88
292.757	76.88
292.987	100.88
293.218	80.88
293.449	79.88
293.68	81.88
293.91	92.88
294.141	90.88
294.372	68.88
294.603	85.88
294.833	87.88
295.064	90.88
295.295	90.88
295.525	86.88
295.756	85.88
295.987	81.88
296.217	85.88
296.448	89.88
296.679	95.88
296.909	99.88
297.14	95.88
297.37	90.88
297.601	87.88
297.831	69.88
298.062	76.88
298.292	96.88
298.523	76.88
298.753	93.88
298.984	74.88
299.214	87.88
299.445	83.88
299.675	89.88
299.905	89.88
300.136	68.88
300.366	71.88
300.597	83.88
300.827	84.88
301.057	77.88
301.288	82.88
301.518	83.88
301.748	84.88
301.979	102.88
302.209	80.88
302.439	99.88
302.669	82.88
302.9	84.88
303.13	87.88
303.36	60.88
303.59	75.88
303.82	77.88
304.051	79.88
304.281	79.88
304.511	85.88
304.741	87.88
304.971	87.88
305.201	89.88
305.431	84.88
305.661	93.88
305.891	86.88
306.121	86.88
306.352	82.88
306.582	92.88
306.812	88.88
307.042	80.88
307.272	64.88
307.502	82.88
307.731	76.88
307.961	79.88
308.191	88.88
308.421	86.88
308.651	85.88
308.881	91.88
309.111	81.88
309.341	79.88
309.571	90.88
309.8	87.88
310.03	78.88
310.26	80.88
310.49	86.88
310.72	81.88
310.949	83.88
311.179	91.88
311.409	70.88
311.639	79.88
311.868	80.88
312.098	65.88
312.328	92.88
312.557	105.88
312.787	77.88
313.017	91.88
313.246	88.88
313.476	80.88
313.706	80.88
313.935	86.88
314.165	94.88
314.394	79.88
314.624	84.88
314.853	87.88
315.083	93.88
315.312	89.88
315.542	77.88
315.771	62.88
316.001	89.88
316.23	77.88
316.46	73.88
316.689	79.88
316.919	92.88
317.148	78.88
317.377	71.88
317.607	87.88
317.836	69.88
318.065	84.88
318.295	75.88
318.524	75.88
318.753	91.88
318.983	64.88
319.212	71.88
319.441	71.88
319.67	81.88
319.9	74.88
320.129	74.88
320.358	79.88
320.587	85.88
320.816	81.88
321.046	76.88
321.275	85.88
321.504	91.88
321.733	82.88
321.962	87.88
322.191	81.88
322.42	81.88
322.649	78.88
322.878	94.88
323.108	79.88
323.337	73.88
323.566	90.88
323.795	85.88
324.024	88.88
324.253	72.88
324.482	91.88
324.71	79.88
324.939	84.88
325.168	81.88
325.397	80.88
325.626	91.88
325.855	78.88
326.084	85.88
326.313	77.88
326.542	85.88
326.77	78.88
326.999	96.88
327.228	95.88
327.457	85.88
327.686	88.88
327.914	90.88
328.143	74.88
328.372	75.88
328.6	89.88
328.829	83.88
329.058	84.88
329.287	79.88
329.515	83.88
329.744	89.88
329.972	65.88
330.201	64.88
330.43	85.88
330.658	84.88
330.887	95.88
331.115	78.88
331.344	81.88
331.572	96.88
331.801	80.88
332.03	81.88
332.258	70.88
332.486	81.88
332.715	84.88
332.943	79.88
333.172	86.88
333.4	93.88
333.629	87.88
333.857	80.88
334.085	77.88
334.314	82.88
334.542	95.88
334.771	62.88
334.999	82.88
335.227	97.88
335.455	76.88
335.684	91.88
335.912	76.88
336.14	86.88
336.369	82.88
336.597	72.88
336.825	72.88
337.053	63.88
337.281	86.88
337.51	79.88
337.738	84.88
337.966	95.88
338.194	78.88
338.422	81.88
338.65	73.88
338.878	72.88
339.106	87.88
339.334	80.88
339.562	80.88
339.79	77.88
340.018	77.88
340.246	71.88
340.474	83.88
340.702	81.88
340.93	92.88
341.158	99.88
341.386	90.88
341.614	80.88
341.842	89.88
342.07	77.88
342.298	80.88
342.526	75.88
342.754	81.88
342.981	76.88
343.209	84.88
343.437	92.88
343.665	74.88
343.893	80.88
344.12	73.88
344.348	71.88
344.576	79.88
344.804	76.88
345.031	72.88
345.259	83.88
345.487	79.88
345.714	90.88
345.942	78.88
346.17	79.88
346.397	71.88
346.625	79.88
346.853	89.88
347.08	66.88
347.308	90.88
347.535	89.88
347.763	84.88
347.99	79.88
348.218	78.88
348.445	85.88
348.673	72.88
348.9	77.88
349.128	81.88
349.355	73.88
349.583	71.88
349.81	73.88
350.037	75.88
350.265	71.88
350.492	86.88
350.72	79.88
350.947	78.88
351.174	81.88
351.402	85.88
351.629	77.88
351.856	83.88
352.083	87.88
352.311	78.88
352.538	83.88
352.765	84.88
352.992	101.88
353.22	81.88
353.447	84.88
353.674	94.88
353.901	88.88
354.128	99.88
354.355	84.88
354.583	75.88
354.81	83.88
355.037	78.88
355.264	92.88
355.491	78.88
355.718	100.88
355.945	80.88
356.172	84.88
356.399	79.88
356.626	91.88
356.853	117.88
357.08	135.88
357.307	157.88
357.534	126.88
357.761	107.88
357.988	83.88
358.215	87.88
358.441	89.88
358.668	81.88
358.895	92.88
359.122	80.88
359.349	65.88
359.576	72.88
359.802	91.88
360.029	80.88
360.256	88.88
360.483	80.88
360.709	73.88
360.936	81.88
361.163	79.88
361.39	80.88
361.616	89.88
361.843	79.88
362.07	96.88
362.296	77.88
362.523	98.88
362.749	92.88
362.976	86.88
363.203	97.88
363.429	82.88
363.656	137.88
363.882	167.88
364.109	176.88
364.335	125.88
364.562	91.88
364.788	91.88
365.015	81.88
365.241	82.88
365.468	72.88
365.694	89.88
365.92	73.88
366.147	86.88
366.373	77.88
366.599	75.88
366.826	103.88
367.052	104.88
367.278	111.88
367.505	94.88
367.731	96.88
367.957	130.88
368.184	183.88
368.41	247.88
368.636	204.88
368.862	112.88
369.089	80.88
369.315	75.88
369.541	82.88
369.767	88.88
369.993	70.88
370.219	83.88
370.445	83.88
370.672	68.88
370.898	73.88
371.124	84.88
371.35	76.88
371.576	71.88
371.802	86.88
372.028	72.88
372.254	78.88
372.48	80.88
372.706	79.88
372.932	79.88
373.158	84.88
373.384	72.88
373.61	97.88
373.835	125.88
374.061	129.88
374.287	130.88
374.513	67.88
374.739	81.88
374.965	88.88
375.191	84.88
375.416	76.88
375.642	84.88
375.868	83.88
376.094	85.88
376.319	86.88
376.545	84.88
376.771	75.88
376.997	84.88
377.222	57.88
377.448	86.88
377.674	85.88
377.899	90.88
378.125	84.88
378.35	99.88
378.576	81.88
378.802	85.88
379.027	87.88
379.253	75.88
379.478	70.88
379.704	78.88
379.929	72.88
380.155	85.88
380.38	82.88
380.606	86.88
380.831	72.88
381.057	81.88
381.282	73.88
381.507	100.88
381.733	94.88
381.958	88.88
382.184	80.88
382.409	70.88
382.634	75.88
382.86	88.88
383.085	75.88
383.31	93.88
383.535	85.88
383.761	95.88
383.986	85.88
384.211	70.88
384.436	78.88
384.662	80.88
384.887	76.88
385.112	75.88
385.337	69.88
385.562	77.88
385.787	75.88
386.013	79.88
386.238	80.88
386.463	82.88
386.688	86.88
386.913	101.88
387.138	77.88
387.363	79.88
387.588	94.88
387.813	88.88
388.038	75.88
388.263	75.88
388.488	86.88
388.713	78.88
388.938	83.88
389.163	73.88
389.387	71.88
389.612	75.88
389.837	87.88
390.062	91.88
390.287	77.88
390.512	75.88
390.736	66.88
390.961	76.88
391.186	82.88
391.411	74.88
391.636	101.88
391.86	91.88
392.085	75.88
392.31	93.88
392.534	86.88
392.759	80.88
392.984	70.88
393.208	100.88
393.433	87.88
393.658	88.88
393.882	84.88
394.107	76.88
394.331	89.88
394.556	81.88
394.78	81.88
395.005	68.88
395.229	78.88
395.454	79.88
395.678	84.88
395.903	73.88
396.127	75.88
396.352	77.88
396.576	97.88
396.801	73.88
397.025	84.88
397.249	89.88
397.474	87.88
397.698	75.88
397.922	78.88
398.147	83.88
398.371	74.88
398.595	81.88
398.82	79.88
399.044	77.88
399.268	93.88
399.492	76.88
399.717	89.88
399.941	88.88
400.165	85.88
400.389	79.88
400.613	77.88
400.837	76.88
401.062	76.88
401.286	91.88
401.51	87.88
401.734	90.88
401.958	99.88
402.182	107.88
402.406	78.88
402.63	94.88
402.854	88.88
403.078	79.88
403.302	79.88
403.526	72.88
403.75	91.88
403.974	70.88
404.198	68.88
404.422	81.88
404.645	92.88
404.869	86.88
405.093	87.88
405.317	136.88
405.541	210.88
405.765	361.88
405.988	383.88
406.212	213.88
406.436	153.88
406.66	102.88
406.883	93.88
407.107	91.88
407.331	73.88
407.555	76.88
407.778	79.88
408.002	92.88
408.226	92.88
408.449	81.88
408.673	98.88
408.896	79.88
409.12	79.88
409.344	81.88
409.567	73.88
409.791	89.88
410.014	86.88
410.238	87.88
410.461	84.88
410.685	79.88
410.908	83.88
411.132	93.88
411.355	81.88
411.578	85.88
411.802	74.88
412.025	72.88
412.249	84.88
412.472	76.88
412.695	87.88
412.919	59.88
413.142	75.88
413.365	71.88
413.589	81.88
413.812	72.88
414.035	88.88
414.258	73.88
414.482	86.88
414.705	80.88
414.928	75.88
415.151	78.88
415.374	86.88
415.597	68.88
415.821	84.88
416.044	83.88
416.267	83.88
416.49	65.88
416.713	70.88
416.936	96.88
417.159	90.88
417.382	74.88
417.605	66.88
417.828	76.88
418.051	73.88
418.274	80.88
418.497	76.88
418.72	84.88
418.943	74.88
419.166	77.88
419.389	86.88
419.611	77.88
419.834	73.88
420.057	81.88
420.28	86.88
420.503	74.88
420.726	73.88
420.948	81.88
421.171	83.88
421.394	68.88
421.617	83.88
421.839	87.88
422.062	92.88
422.285	85.88
422.507	65.88
422.73	79.88
422.953	87.88
423.175	84.88
423.398	79.88
423.621	88.88
423.843	76.88
424.066	63.88
424.288	78.88
424.511	79.88
424.733	74.88
424.956	85.88
425.178	86.88
425.401	78.88
425.623	83.88
425.846	71.88
426.068	82.88
426.291	76.88
426.513	81.88
426.735	76.88
426.958	78.88
427.18	76.88
427.402	85.88
427.625	87.88
427.847	75.88
428.069	79.88
428.292	78.88
428.514	72.88
428.736	76.88
428.958	64.88
429.181	95.88
429.403	71.88
429.625	70.88
429.847	84.88
430.069	71.88
430.292	86.88
430.514	77.88
430.736	78.88
430.958	80.88
431.18	75.88
431.402	88.88
431.624	86.88
431.846	89.88
432.068	90.88
432.29	84.88
432.512	71.88
432.734	76.88
432.956	77.88
433.178	90.88
433.4	81.88
433.622	81.88
433.844	72.88
434.066	72.88
434.287	73.88
434.509	78.88
434.731	80.88
434.953	75.88
435.175	78.88
435.397	73.88
435.618	74.88
435.84	84.88
436.062	71.88
436.284	91.88
436.505	85.88
436.727	93.88
436.949	93.88
437.17	77.88
437.392	75.88
437.614	87.88
437.835	83.88
438.057	76.88
438.278	89.88
438.5	75.88
438.721	87.88
438.943	81.88
439.165	89.88
439.386	87.88
439.608	79.88
439.829	81.88
440.05	84.88
440.272	76.88
440.493	73.88
440.715	83.88
440.936	86.88
441.158	81.88
441.379	91.88
441.6	84.88
441.822	72.88
442.043	76.88
442.264	71.88
442.486	60.88
442.707	75.88
442.928	79.88
443.149	78.88
443.371	72.88
443.592	80.88
443.813	98.88
444.034	80.88
444.255	76.88
444.476	61.88
444.698	80.88
444.919	85.88
445.14	157.88
445.361	111.88
445.582	80.88
445.803	77.88
446.024	78.88
446.245	88.88
446.466	88.88
446.687	83.88
446.908	79.88
447.129	80.88
447.35	72.88
447.571	88.88
447.792	90.88
448.013	90.88
448.234	93.88
448.455	83.88
448.675	86.88
448.896	84.88
449.117	74.88
449.338	71.88
449.559	84.88
449.779	90.88
450	80.88
450.221	68.88
450.442	88.88
450.662	85.88
450.883	75.88
451.104	75.88
451.324	93.88
451.545	85.88
451.766	80.88
451.986	76.88
452.207	76.88
452.428	89.88
452.648	80.88
452.869	84.88
453.089	72.88
453.31	80.88
453.53	80.88
453.751	77.88
453.971	67.88
454.192	69.88
454.412	83.88
454.633	72.88
454.853	71.88
455.073	72.88
455.294	59.88
455.514	86.88
455.734	67.88
455.955	73.88
456.175	74.88
456.395	83.88
456.616	83.88
456.836	63.88
457.056	69.88
457.276	81.88
457.497	83.88
457.717	80.88
457.937	80.88
458.157	72.88
458.377	79.88
458.598	77.88
458.818	71.88
459.038	72.88
459.258	90.88
459.478	81.88
459.698	77.88
459.918	79.88
460.138	73.88
460.358	77.88
460.578	81.88
460.798	73.88
461.018	70.88
461.238	85.88
461.458	67.88
461.678	83.88
461.898	86.88
462.118	85.88
462.338	92.88
462.558	76.88
462.777	90.88
462.997	68.88
463.217	71.88
463.437	78.88
463.657	91.88
463.876	75.88
464.096	70.88
464.316	79.88
464.536	84.88
464.755	79.88
464.975	77.88
465.195	72.88
465.414	85.88
465.634	70.88
465.854	79.88
466.073	78.88
466.293	70.88
466.512	83.88
466.732	73.88
466.951	88.88
467.171	74.88
467.391	69.88
467.61	84.88
467.829	92.88
468.049	72.88
468.268	78.88
468.488	91.88
468.707	69.88
468.927	92.88
469.146	73.88
469.365	71.88
469.585	86.88
469.804	78.88
470.023	71.88
470.243	75.88
470.462	86.88
470.681	80.88
470.901	76.88
471.12	89.88
471.339	71.88
471.558	74.88
471.777	75.88
471.997	86.88
472.216	75.88
472.435	78.88
472.654	81.88
472.873	88.88
473.092	87.88
473.311	81.88
473.53	84.88
473.749	67.88
473.968	92.88
474.187	107.88
474.406	89.88
474.625	73.88
474.844	80.88
475.063	81.88
475.282	69.88
475.501	73.88
475.72	83.88
475.939	65.88
476.158	80.88
476.377	63.88
476.596	75.88
476.814	87.88
477.033	86.88
477.252	83.88
477.471	77.88
477.69	88.88
477.908	73.88
478.127	100.88
478.346	86.88
478.564	85.88
478.783	88.88
479.002	75.88
479.22	60.88
479.439	69.88
479.658	73.88
479.876	74.88
480.095	76.88
480.313	90.88
480.532	88.88
480.751	100.88
480.969	76.88
481.188	94.88
481.406	91.88
481.624	64.88
481.843	69.88
482.061	79.88
482.28	84.88
482.498	78.88
482.717	79.88
482.935	83.88
483.153	79.88
483.372	81.88
483.59	87.88
483.808	73.88
484.027	81.88
484.245	75.88
484.463	91.88
484.681	81.88
484.9	96.88
485.118	80.88
485.336	76.88
485.554	86.88
485.772	80.88
485.99	71.88
486.209	75.88
486.427	72.88
486.645	84.88
486.863	75.88
487.081	77.88
487.299	86.88
487.517	70.88
487.735	85.88
487.953	89.88
488.171	86.88
488.389	81.88
488.607	88.88
488.825	79.88
489.043	96.88
489.261	80.88
489.479	81.88
489.696	66.88
489.914	86.88
490.132	79.88
490.35	74.88
490.568	85.88
490.786	78.88
491.003	72.88
491.221	90.88
491.439	83.88
491.657	85.88
491.874	87.88
492.092	83.88
492.31	94.88
492.527	88.88
492.745	85.88
492.963	77.88
493.18	79.88
493.398	79.88
493.615	71.88
493.833	84.88
494.05	89.88
494.268	90.88
494.485	80.88
494.703	79.88
494.92	84.88
495.138	90.88
495.355	87.88
495.573	79.88
495.79	80.88
496.008	74.88
496.225	75.88
496.442	75.88
496.66	93.88
496.877	84.88
497.094	92.88
497.312	78.88
497.529	91.88
497.746	87.88
497.963	84.88
498.181	74.88
498.398	84.88
498.615	74.88
498.832	83.88
499.049	91.88
499.267	82.88
499.484	87.88
499.701	83.88
499.918	99.88
500.135	81.88
500.352	77.88
500.569	110.88
500.786	142.88
501.003	92.88
501.22	90.88
501.437	77.88
501.654	79.88
501.871	94.88
502.088	84.88
502.305	93.88
502.522	104.88
502.739	83.88
502.956	73.88
503.172	77.88
503.389	84.88
503.606	74.88
503.823	80.88
504.04	86.88
504.256	87.88
504.473	77.88
504.69	83.88
504.907	85.88
505.123	89.88
505.34	76.88
505.557	78.88
505.773	97.88
505.99	64.88
506.207	79.88
506.423	75.88
506.64	79.88
506.856	79.88
507.073	77.88
507.289	78.88
507.506	83.88
507.722	79.88
507.939	85.88
508.155	81.88
508.372	75.88
508.588	76.88
508.805	87.88
509.021	80.88
509.238	100.88
509.454	81.88
509.67	76.88
509.887	85.88
510.103	72.88
510.319	72.88
510.536	79.88
510.752	79.88
510.968	80.88
511.184	81.88
511.401	89.88
511.617	77.88
511.833	76.88
512.049	91.88
512.265	84.88
512.481	77.88
512.698	86.88
512.914	99.88
513.13	77.88
513.346	71.88
513.562	96.88
513.778	84.88
513.994	63.88
514.21	78.88
514.426	79.88
514.642	68.88
514.858	78.88
515.074	85.88
515.29	78.88
515.506	70.88
515.721	73.88
515.937	81.88
516.153	95.88
516.369	90.88
516.585	77.88
516.801	87.88
517.016	83.88
517.232	86.88
517.448	75.88
517.664	80.88
517.879	71.88
518.095	79.88
518.311	85.88
518.527	74.88
518.742	79.88
518.958	71.88
519.173	81.88
519.389	79.88
519.605	86.88
