Data from StdB_HRD10591_003.txt Node
Date: Fri May 16 15:24:47 EDT 2025
User: Yrep
Spectrometer: HR+D1059
Trigger mode: 1
Integration Time (sec): 1.000000E-1
Scans to average: 1
Electric dark correction enabled: true
Nonlinearity correction enabled: false
Boxcar width: 0
XAxis mode: Wavelengths
Number of Pixels in Spectrum: 2048
>>>>>Begin Spectral Data<<<<<
223.165	-9.56
223.4	-9.56
223.635	-9.56
223.869	-18.56
224.104	-28.56
224.338	-6.56
224.573	-12.56
224.808	-16.56
225.042	-10.56
225.277	-16.56
225.511	0.44
225.746	16.44
225.98	3.44
226.215	2.44
226.449	10.44
226.683	28.44
226.918	24.44
227.152	33.44
227.387	33.44
227.621	27.44
227.856	43.44
228.09	57.44
228.324	62.44
228.559	51.44
228.793	61.44
229.027	81.44
229.262	71.44
229.496	81.44
229.73	82.44
229.964	86.44
230.199	96.44
230.433	84.44
230.667	91.44
230.901	98.44
231.136	100.44
231.37	89.44
231.604	95.44
231.838	89.44
232.072	100.44
232.306	102.44
232.541	108.44
232.775	89.44
233.009	89.44
233.243	105.44
233.477	85.44
233.711	85.44
233.945	98.44
234.179	107.44
234.413	100.44
234.647	86.44
234.881	89.44
235.115	94.44
235.349	93.44
235.583	93.44
235.817	104.44
236.051	80.44
236.285	91.44
236.519	91.44
236.753	88.44
236.987	87.44
237.221	91.44
237.455	102.44
237.689	91.44
237.922	93.44
238.156	107.44
238.39	89.44
238.624	73.44
238.858	96.44
239.091	107.44
239.325	114.44
239.559	115.44
239.793	107.44
240.027	112.44
240.26	103.44
240.494	108.44
240.728	109.44
240.961	93.44
241.195	110.44
241.429	98.44
241.662	100.44
241.896	85.44
242.13	92.44
242.363	86.44
242.597	91.44
242.83	94.44
243.064	89.44
243.298	105.44
243.531	105.44
243.765	99.44
243.998	103.44
244.232	121.44
244.465	117.44
244.699	109.44
244.932	109.44
245.166	111.44
245.399	112.44
245.633	113.44
245.866	101.44
246.099	92.44
246.333	93.44
246.566	90.44
246.8	99.44
247.033	95.44
247.266	102.44
247.5	112.44
247.733	126.44
247.966	134.44
248.2	118.44
248.433	111.44
248.666	111.44
248.899	118.44
249.133	105.44
249.366	106.44
249.599	114.44
249.832	112.44
250.066	116.44
250.299	101.44
250.532	119.44
250.765	108.44
250.998	122.44
251.231	142.44
251.465	121.44
251.698	119.44
251.931	124.44
252.164	127.44
252.397	145.44
252.63	124.44
252.863	121.44
253.096	138.44
253.329	136.44
253.562	148.44
253.795	146.44
254.028	140.44
254.261	138.44
254.494	129.44
254.727	130.44
254.96	139.44
255.193	143.44
255.426	126.44
255.659	131.44
255.892	153.44
256.124	150.44
256.357	131.44
256.59	128.44
256.823	138.44
257.056	143.44
257.289	139.44
257.521	152.44
257.754	152.44
257.987	178.44
258.22	174.44
258.452	166.44
258.685	136.44
258.918	149.44
259.151	139.44
259.383	145.44
259.616	139.44
259.849	143.44
260.081	152.44
260.314	150.44
260.547	176.44
260.779	185.44
261.012	217.44
261.244	267.44
261.477	325.44
261.71	338.44
261.942	267.44
262.175	186.44
262.407	167.44
262.64	157.44
262.872	155.44
263.105	172.44
263.337	154.44
263.57	141.44
263.802	152.44
264.035	161.44
264.267	160.44
264.499	156.44
264.732	160.44
264.964	178.44
265.197	201.44
265.429	198.44
265.661	169.44
265.894	150.44
266.126	179.44
266.358	209.44
266.591	250.44
266.823	199.44
267.055	160.44
267.287	141.44
267.52	133.44
267.752	135.44
267.984	150.44
268.216	125.44
268.448	137.44
268.681	131.44
268.913	142.44
269.145	136.44
269.377	134.44
269.609	139.44
269.841	163.44
270.073	163.44
270.306	142.44
270.538	142.44
270.77	135.44
271.002	129.44
271.234	149.44
271.466	139.44
271.698	127.44
271.93	142.44
272.162	140.44
272.394	148.44
272.626	135.44
272.858	137.44
273.09	151.44
273.322	128.44
273.553	143.44
273.785	139.44
274.017	139.44
274.249	140.44
274.481	143.44
274.713	139.44
274.945	137.44
275.176	141.44
275.408	148.44
275.64	143.44
275.872	125.44
276.104	138.44
276.335	159.44
276.567	155.44
276.799	159.44
277.031	138.44
277.262	143.44
277.494	162.44
277.726	156.44
277.957	165.44
278.189	167.44
278.421	169.44
278.652	161.44
278.884	201.44
279.115	201.44
279.347	244.44
279.579	283.44
279.81	340.44
280.042	443.44
280.273	546.44
280.505	463.44
280.736	305.44
280.968	249.44
281.199	213.44
281.431	193.44
281.662	203.44
281.894	209.44
282.125	272.44
282.356	281.44
282.588	254.44
282.819	274.44
283.051	281.44
283.282	359.44
283.513	423.44
283.745	321.44
283.976	229.44
284.207	210.44
284.439	169.44
284.67	185.44
284.901	179.44
285.132	186.44
285.364	162.44
285.595	176.44
285.826	170.44
286.057	174.44
286.288	182.44
286.52	195.44
286.751	192.44
286.982	262.44
287.213	284.44
287.444	308.44
287.675	272.44
287.906	209.44
288.138	187.44
288.369	158.44
288.6	168.44
288.831	162.44
289.062	170.44
289.293	167.44
289.524	152.44
289.755	156.44
289.986	174.44
290.217	162.44
290.448	153.44
290.679	153.44
290.91	167.44
291.141	150.44
291.371	158.44
291.602	165.44
291.833	162.44
292.064	136.44
292.295	161.44
292.526	165.44
292.757	153.44
292.987	168.44
293.218	158.44
293.449	156.44
293.68	176.44
293.91	160.44
294.141	156.44
294.372	161.44
294.603	173.44
294.833	168.44
295.064	157.44
295.295	163.44
295.525	163.44
295.756	172.44
295.987	179.44
296.217	182.44
296.448	158.44
296.679	174.44
296.909	169.44
297.14	179.44
297.37	169.44
297.601	155.44
297.831	174.44
298.062	179.44
298.292	165.44
298.523	165.44
298.753	167.44
298.984	171.44
299.214	164.44
299.445	184.44
299.675	161.44
299.905	171.44
300.136	158.44
300.366	171.44
300.597	162.44
300.827	175.44
301.057	158.44
301.288	174.44
301.518	188.44
301.748	167.44
301.979	169.44
302.209	168.44
302.439	168.44
302.669	171.44
302.9	175.44
303.13	177.44
303.36	163.44
303.59	194.44
303.82	175.44
304.051	157.44
304.281	173.44
304.511	165.44
304.741	186.44
304.971	185.44
305.201	160.44
305.431	185.44
305.661	183.44
305.891	162.44
306.121	182.44
306.352	185.44
306.582	178.44
306.812	170.44
307.042	169.44
307.272	181.44
307.502	150.44
307.731	192.44
307.961	181.44
308.191	182.44
308.421	160.44
308.651	177.44
308.881	162.44
309.111	177.44
309.341	163.44
309.571	173.44
309.8	166.44
310.03	186.44
310.26	183.44
310.49	186.44
310.72	171.44
310.949	178.44
311.179	158.44
311.409	178.44
311.639	178.44
311.868	181.44
312.098	205.44
312.328	203.44
312.557	171.44
312.787	186.44
313.017	191.44
313.246	192.44
313.476	195.44
313.706	208.44
313.935	192.44
314.165	233.44
314.394	206.44
314.624	205.44
314.853	216.44
315.083	232.44
315.312	235.44
315.542	223.44
315.771	205.44
316.001	200.44
316.23	202.44
316.46	218.44
316.689	206.44
316.919	207.44
317.148	220.44
317.377	205.44
317.607	210.44
317.836	221.44
318.065	210.44
318.295	213.44
318.524	189.44
318.753	183.44
318.983	195.44
319.212	199.44
319.441	195.44
319.67	200.44
319.9	192.44
320.129	169.44
320.358	192.44
320.587	182.44
320.816	189.44
321.046	183.44
321.275	175.44
321.504	190.44
321.733	170.44
321.962	200.44
322.191	193.44
322.42	190.44
322.649	196.44
322.878	184.44
323.108	199.44
323.337	189.44
323.566	182.44
323.795	192.44
324.024	202.44
324.253	191.44
324.482	177.44
324.71	184.44
324.939	193.44
325.168	211.44
325.397	197.44
325.626	194.44
325.855	190.44
326.084	187.44
326.313	176.44
326.542	193.44
326.77	198.44
326.999	199.44
327.228	194.44
327.457	190.44
327.686	183.44
327.914	178.44
328.143	183.44
328.372	185.44
328.6	208.44
328.829	190.44
329.058	185.44
329.287	191.44
329.515	193.44
329.744	189.44
329.972	185.44
330.201	198.44
330.43	195.44
330.658	198.44
330.887	191.44
331.115	199.44
331.344	201.44
331.572	189.44
331.801	201.44
332.03	194.44
332.258	181.44
332.486	195.44
332.715	209.44
332.943	200.44
333.172	208.44
333.4	205.44
333.629	206.44
333.857	207.44
334.085	205.44
334.314	195.44
334.542	199.44
334.771	192.44
334.999	195.44
335.227	198.44
335.455	197.44
335.684	199.44
335.912	195.44
336.14	195.44
336.369	201.44
336.597	193.44
336.825	199.44
337.053	201.44
337.281	216.44
337.51	184.44
337.738	200.44
337.966	216.44
338.194	202.44
338.422	190.44
338.65	187.44
338.878	187.44
339.106	179.44
339.334	173.44
339.562	175.44
339.79	177.44
340.018	181.44
340.246	187.44
340.474	193.44
340.702	203.44
340.93	186.44
341.158	184.44
341.386	199.44
341.614	200.44
341.842	187.44
342.07	213.44
342.298	183.44
342.526	179.44
342.754	178.44
342.981	205.44
343.209	211.44
343.437	206.44
343.665	203.44
343.893	199.44
344.12	195.44
344.348	201.44
344.576	211.44
344.804	200.44
345.031	187.44
345.259	203.44
345.487	213.44
345.714	181.44
345.942	198.44
346.17	206.44
346.397	213.44
346.625	202.44
346.853	200.44
347.08	174.44
347.308	208.44
347.535	203.44
347.763	198.44
347.99	199.44
348.218	181.44
348.445	185.44
348.673	187.44
348.9	165.44
349.128	198.44
349.355	184.44
349.583	191.44
349.81	183.44
350.037	212.44
350.265	191.44
350.492	191.44
350.72	192.44
350.947	194.44
351.174	176.44
351.402	187.44
351.629	201.44
351.856	190.44
352.083	181.44
352.311	204.44
352.538	206.44
352.765	189.44
352.992	191.44
353.22	189.44
353.447	179.44
353.674	192.44
353.901	208.44
354.128	198.44
354.355	206.44
354.583	198.44
354.81	201.44
355.037	200.44
355.264	211.44
355.491	207.44
355.718	191.44
355.945	201.44
356.172	211.44
356.399	237.44
356.626	261.44
356.853	345.44
357.08	442.44
357.307	581.44
357.534	563.44
357.761	406.44
357.988	323.44
358.215	279.44
358.441	277.44
358.668	250.44
358.895	223.44
359.122	225.44
359.349	230.44
359.576	224.44
359.802	213.44
360.029	211.44
360.256	210.44
360.483	224.44
360.709	213.44
360.936	219.44
361.163	206.44
361.39	205.44
361.616	199.44
361.843	203.44
362.07	229.44
362.296	225.44
362.523	220.44
362.749	223.44
362.976	230.44
363.203	255.44
363.429	318.44
363.656	475.44
363.882	662.44
364.109	743.44
364.335	538.44
364.562	350.44
364.788	287.44
365.015	257.44
365.241	248.44
365.468	237.44
365.694	234.44
365.92	223.44
366.147	231.44
366.373	233.44
366.599	238.44
366.826	274.44
367.052	321.44
367.278	377.44
367.505	342.44
367.731	369.44
367.957	503.44
368.184	754.44
368.41	1004.44
368.636	871.44
368.862	515.44
369.089	390.44
369.315	323.44
369.541	295.44
369.767	251.44
369.993	249.44
370.219	248.44
370.445	245.44
370.672	245.44
370.898	216.44
371.124	238.44
371.35	237.44
371.576	246.44
371.802	236.44
372.028	221.44
372.254	221.44
372.48	225.44
372.706	247.44
372.932	237.44
373.158	251.44
373.384	279.44
373.61	354.44
373.835	492.44
374.061	651.44
374.287	587.44
374.513	379.44
374.739	297.44
374.965	263.44
375.191	248.44
375.416	231.44
375.642	252.44
375.868	219.44
376.094	224.44
376.319	218.44
376.545	209.44
376.771	218.44
376.997	223.44
377.222	215.44
377.448	193.44
377.674	210.44
377.899	225.44
378.125	215.44
378.35	222.44
378.576	222.44
378.802	223.44
379.027	213.44
379.253	226.44
379.478	217.44
379.704	207.44
379.929	217.44
380.155	219.44
380.38	213.44
380.606	203.44
380.831	221.44
381.057	207.44
381.282	210.44
381.507	218.44
381.733	215.44
381.958	211.44
382.184	198.44
382.409	203.44
382.634	218.44
382.86	218.44
383.085	200.44
383.31	214.44
383.535	187.44
383.761	206.44
383.986	221.44
384.211	238.44
384.436	219.44
384.662	207.44
384.887	220.44
385.112	203.44
385.337	214.44
385.562	225.44
385.787	241.44
386.013	230.44
386.238	227.44
386.463	231.44
386.688	223.44
386.913	221.44
387.138	204.44
387.363	217.44
387.588	215.44
387.813	211.44
388.038	218.44
388.263	227.44
388.488	232.44
388.713	209.44
388.938	197.44
389.163	224.44
389.387	218.44
389.612	212.44
389.837	219.44
390.062	213.44
390.287	218.44
390.512	223.44
390.736	215.44
390.961	233.44
391.186	192.44
391.411	225.44
391.636	208.44
391.86	207.44
392.085	214.44
392.31	243.44
392.534	214.44
392.759	215.44
392.984	215.44
393.208	235.44
393.433	263.44
393.658	239.44
393.882	226.44
394.107	215.44
394.331	222.44
394.556	216.44
394.78	224.44
395.005	211.44
395.229	215.44
395.454	222.44
395.678	221.44
395.903	219.44
396.127	231.44
396.352	244.44
396.576	242.44
396.801	234.44
397.025	253.44
397.249	246.44
397.474	243.44
397.698	217.44
397.922	234.44
398.147	211.44
398.371	232.44
398.595	248.44
398.82	235.44
399.044	231.44
399.268	250.44
399.492	250.44
399.717	270.44
399.941	268.44
400.165	275.44
400.389	249.44
400.613	257.44
400.837	249.44
401.062	238.44
401.286	237.44
401.51	258.44
401.734	287.44
401.958	302.44
402.182	306.44
402.406	252.44
402.63	259.44
402.854	260.44
403.078	258.44
403.302	269.44
403.526	251.44
403.75	272.44
403.974	277.44
404.198	288.44
404.422	290.44
404.645	314.44
404.869	346.44
405.093	391.44
405.317	485.44
405.541	817.44
405.765	1387.44
405.988	1583.44
406.212	1038.44
406.436	697.44
406.66	521.44
406.883	401.44
407.107	388.44
407.331	336.44
407.555	336.44
407.778	300.44
408.002	289.44
408.226	271.44
408.449	278.44
408.673	264.44
408.896	269.44
409.12	261.44
409.344	262.44
409.567	251.44
409.791	272.44
410.014	249.44
410.238	245.44
410.461	248.44
410.685	257.44
410.908	275.44
411.132	263.44
411.355	259.44
411.578	249.44
411.802	236.44
412.025	241.44
412.249	243.44
412.472	237.44
412.695	259.44
412.919	229.44
413.142	223.44
413.365	240.44
413.589	245.44
413.812	237.44
414.035	241.44
414.258	226.44
414.482	237.44
414.705	213.44
414.928	245.44
415.151	255.44
415.374	258.44
415.597	243.44
415.821	236.44
416.044	235.44
416.267	226.44
416.49	228.44
416.713	249.44
416.936	267.44
417.159	257.44
417.382	237.44
417.605	233.44
417.828	244.44
418.051	230.44
418.274	239.44
418.497	236.44
418.72	245.44
418.943	242.44
419.166	264.44
419.389	261.44
419.611	254.44
419.834	265.44
420.057	261.44
420.28	247.44
420.503	265.44
420.726	253.44
420.948	227.44
421.171	237.44
421.394	247.44
421.617	266.44
421.839	249.44
422.062	260.44
422.285	259.44
422.507	276.44
422.73	289.44
422.953	292.44
423.175	300.44
423.398	330.44
423.621	344.44
423.843	363.44
424.066	424.44
424.288	509.44
424.511	655.44
424.733	723.44
424.956	591.44
425.178	507.44
425.401	447.44
425.623	417.44
425.846	375.44
426.068	376.44
426.291	344.44
426.513	330.44
426.735	331.44
426.958	310.44
427.18	293.44
427.402	295.44
427.625	290.44
427.847	274.44
428.069	273.44
428.292	254.44
428.514	277.44
428.736	269.44
428.958	253.44
429.181	257.44
429.403	244.44
429.625	235.44
429.847	244.44
430.069	246.44
430.292	240.44
430.514	239.44
430.736	242.44
430.958	248.44
431.18	243.44
431.402	243.44
431.624	244.44
431.846	241.44
432.068	234.44
432.29	241.44
432.512	233.44
432.734	253.44
432.956	239.44
433.178	235.44
433.4	238.44
433.622	256.44
433.844	247.44
434.066	289.44
434.287	270.44
434.509	266.44
434.731	261.44
434.953	268.44
435.175	246.44
435.397	252.44
435.618	237.44
435.84	253.44
436.062	251.44
436.284	274.44
436.505	263.44
436.727	266.44
436.949	262.44
437.17	285.44
437.392	295.44
437.614	304.44
437.835	307.44
438.057	339.44
438.278	388.44
438.5	461.44
438.721	574.44
438.943	652.44
439.165	547.44
439.386	459.44
439.608	427.44
439.829	403.44
440.05	410.44
440.272	413.44
440.493	386.44
440.715	411.44
440.936	456.44
441.158	433.44
441.379	384.44
441.6	343.44
441.822	335.44
442.043	319.44
442.264	309.44
442.486	305.44
442.707	291.44
442.928	281.44
443.149	268.44
443.371	277.44
443.592	278.44
443.813	257.44
444.034	262.44
444.255	266.44
444.476	269.44
444.698	266.44
444.919	257.44
445.14	329.44
445.361	283.44
445.582	265.44
445.803	247.44
446.024	237.44
446.245	241.44
446.466	263.44
446.687	237.44
446.908	249.44
447.129	237.44
447.35	230.44
447.571	223.44
447.792	239.44
448.013	237.44
448.234	236.44
448.455	242.44
448.675	233.44
448.896	235.44
449.117	226.44
449.338	243.44
449.559	234.44
449.779	221.44
450	223.44
450.221	233.44
450.442	209.44
450.662	205.44
450.883	212.44
451.104	219.44
451.324	240.44
451.545	211.44
451.766	213.44
451.986	213.44
452.207	217.44
452.428	217.44
452.648	214.44
452.869	212.44
453.089	216.44
453.31	198.44
453.53	216.44
453.751	208.44
453.971	205.44
454.192	203.44
454.412	208.44
454.633	191.44
454.853	213.44
455.073	199.44
455.294	206.44
455.514	197.44
455.734	215.44
455.955	209.44
456.175	230.44
456.395	200.44
456.616	225.44
456.836	204.44
457.056	194.44
457.276	214.44
457.497	203.44
457.717	207.44
457.937	201.44
458.157	193.44
458.377	201.44
458.598	195.44
458.818	192.44
459.038	212.44
459.258	208.44
459.478	222.44
459.698	216.44
459.918	217.44
460.138	225.44
460.358	211.44
460.578	232.44
460.798	222.44
461.018	249.44
461.238	220.44
461.458	240.44
461.678	220.44
461.898	220.44
462.118	229.44
462.338	250.44
462.558	222.44
462.777	239.44
462.997	251.44
463.217	236.44
463.437	229.44
463.657	231.44
463.876	233.44
464.096	248.44
464.316	238.44
464.536	216.44
464.755	229.44
464.975	219.44
465.195	231.44
465.414	228.44
465.634	205.44
465.854	221.44
466.073	198.44
466.293	196.44
466.512	226.44
466.732	207.44
466.951	213.44
467.171	219.44
467.391	218.44
467.61	208.44
467.829	207.44
468.049	224.44
468.268	208.44
468.488	211.44
468.707	197.44
468.927	219.44
469.146	216.44
469.365	220.44
469.585	205.44
469.804	209.44
470.023	198.44
470.243	221.44
470.462	219.44
470.681	220.44
470.901	220.44
471.12	213.44
471.339	209.44
471.558	205.44
471.777	204.44
471.997	208.44
472.216	206.44
472.435	214.44
472.654	205.44
472.873	213.44
473.092	210.44
473.311	215.44
473.53	214.44
473.749	218.44
473.968	244.44
474.187	201.44
474.406	213.44
474.625	217.44
474.844	227.44
475.063	223.44
475.282	222.44
475.501	225.44
475.72	238.44
475.939	222.44
476.158	237.44
476.377	227.44
476.596	229.44
476.814	231.44
477.033	228.44
477.252	240.44
477.471	220.44
477.69	246.44
477.908	232.44
478.127	246.44
478.346	247.44
478.564	238.44
478.783	251.44
479.002	250.44
479.22	260.44
479.439	278.44
479.658	264.44
479.876	257.44
480.095	253.44
480.313	240.44
480.532	270.44
480.751	248.44
480.969	245.44
481.188	240.44
481.406	249.44
481.624	241.44
481.843	241.44
482.061	240.44
482.28	228.44
482.498	246.44
482.717	254.44
482.935	240.44
483.153	245.44
483.372	236.44
483.59	219.44
483.808	241.44
484.027	248.44
484.245	252.44
484.463	233.44
484.681	246.44
484.9	260.44
485.118	242.44
485.336	235.44
485.554	241.44
485.772	248.44
485.99	244.44
486.209	242.44
486.427	240.44
486.645	249.44
486.863	229.44
487.081	246.44
487.299	245.44
487.517	239.44
487.735	257.44
487.953	255.44
488.171	266.44
488.389	236.44
488.607	249.44
488.825	233.44
489.043	254.44
489.261	250.44
489.479	265.44
489.696	249.44
489.914	248.44
490.132	246.44
490.35	254.44
490.568	244.44
490.786	255.44
491.003	234.44
491.221	261.44
491.439	248.44
491.657	245.44
491.874	270.44
492.092	248.44
492.31	265.44
492.527	257.44
492.745	248.44
492.963	265.44
493.18	277.44
493.398	254.44
493.615	247.44
493.833	267.44
494.05	265.44
494.268	246.44
494.485	252.44
494.703	262.44
494.92	271.44
495.138	251.44
495.355	285.44
495.573	294.44
495.79	281.44
496.008	276.44
496.225	275.44
496.442	258.44
496.66	270.44
496.877	295.44
497.094	282.44
497.312	269.44
497.529	275.44
497.746	280.44
497.963	297.44
498.181	278.44
498.398	299.44
498.615	308.44
498.832	301.44
499.049	339.44
499.267	310.44
499.484	323.44
499.701	339.44
499.918	374.44
500.135	371.44
500.352	397.44
500.569	473.44
500.786	523.44
501.003	432.44
501.22	392.44
501.437	371.44
501.654	346.44
501.871	340.44
502.088	317.44
502.305	339.44
502.522	321.44
502.739	331.44
502.956	321.44
503.172	310.44
503.389	326.44
