Data from StdB_HRD10591_068.txt Node
Date: Fri May 16 15:25:20 EDT 2025
User: Yrep
Spectrometer: HR+D1059
Trigger mode: 1
Integration Time (sec): 1.000000E-1
Scans to average: 1
Electric dark correction enabled: true
Nonlinearity correction enabled: false
Boxcar width: 0
XAxis mode: Wavelengths
Number of Pixels in Spectrum: 2048
>>>>>Begin Spectral Data<<<<<
223.165	-21.56
223.4	-21.56
223.635	-21.56
223.869	-17.56
224.104	-19.56
224.338	-18.56
224.573	-6.56
224.808	-16.56
225.042	-11.56
225.277	-11.56
225.511	-8.56
225.746	11.44
225.98	8.44
226.215	7.44
226.449	13.44
226.683	18.44
226.918	34.44
227.152	38.44
227.387	44.44
227.621	38.44
227.856	33.44
228.09	35.44
228.324	44.44
228.559	67.44
228.793	65.44
229.027	58.44
229.262	64.44
229.496	56.44
229.73	55.44
229.964	65.44
230.199	73.44
230.433	57.44
230.667	87.44
230.901	58.44
231.136	78.44
231.37	76.44
231.604	87.44
231.838	75.44
232.072	65.44
232.306	70.44
232.541	70.44
232.775	73.44
233.009	74.44
233.243	70.44
233.477	79.44
233.711	78.44
233.945	79.44
234.179	90.44
234.413	69.44
234.647	78.44
234.881	85.44
235.115	67.44
235.349	79.44
235.583	85.44
235.817	79.44
236.051	77.44
236.285	76.44
236.519	57.44
236.753	66.44
236.987	70.44
237.221	71.44
237.455	80.44
237.689	96.44
237.922	75.44
238.156	77.44
238.39	74.44
238.624	71.44
238.858	77.44
239.091	69.44
239.325	72.44
239.559	86.44
239.793	90.44
240.027	87.44
240.26	78.44
240.494	77.44
240.728	74.44
240.961	80.44
241.195	58.44
241.429	78.44
241.662	79.44
241.896	88.44
242.13	69.44
242.363	74.44
242.597	76.44
242.83	56.44
243.064	67.44
243.298	62.44
243.531	89.44
243.765	80.44
243.998	66.44
244.232	66.44
244.465	66.44
244.699	77.44
244.932	74.44
245.166	85.44
245.399	66.44
245.633	69.44
245.866	82.44
246.099	71.44
246.333	63.44
246.566	66.44
246.8	70.44
247.033	73.44
247.266	74.44
247.5	85.44
247.733	77.44
247.966	76.44
248.2	67.44
248.433	64.44
248.666	81.44
248.899	78.44
249.133	71.44
249.366	76.44
249.599	77.44
249.832	74.44
250.066	85.44
250.299	63.44
250.532	76.44
250.765	65.44
250.998	72.44
251.231	83.44
251.465	85.44
251.698	82.44
251.931	85.44
252.164	85.44
252.397	72.44
252.63	89.44
252.863	80.44
253.096	78.44
253.329	81.44
253.562	78.44
253.795	93.44
254.028	94.44
254.261	90.44
254.494	78.44
254.727	84.44
254.96	74.44
255.193	72.44
255.426	75.44
255.659	85.44
255.892	80.44
256.124	91.44
256.357	66.44
256.59	81.44
256.823	89.44
257.056	74.44
257.289	84.44
257.521	86.44
257.754	82.44
257.987	84.44
258.22	92.44
258.452	80.44
258.685	77.44
258.918	79.44
259.151	86.44
259.383	76.44
259.616	73.44
259.849	76.44
260.081	72.44
260.314	81.44
260.547	79.44
260.779	80.44
261.012	88.44
261.244	81.44
261.477	108.44
261.71	92.44
261.942	82.44
262.175	85.44
262.407	69.44
262.64	75.44
262.872	88.44
263.105	91.44
263.337	74.44
263.57	82.44
263.802	71.44
264.035	84.44
264.267	87.44
264.499	85.44
264.732	87.44
264.964	72.44
265.197	86.44
265.429	86.44
265.661	74.44
265.894	72.44
266.126	79.44
266.358	77.44
266.591	72.44
266.823	81.44
267.055	68.44
267.287	76.44
267.52	72.44
267.752	79.44
267.984	78.44
268.216	82.44
268.448	91.44
268.681	92.44
268.913	75.44
269.145	83.44
269.377	75.44
269.609	73.44
269.841	65.44
270.073	80.44
270.306	77.44
270.538	83.44
270.77	72.44
271.002	82.44
271.234	82.44
271.466	81.44
271.698	71.44
271.93	86.44
272.162	96.44
272.394	84.44
272.626	79.44
272.858	86.44
273.09	61.44
273.322	81.44
273.553	80.44
273.785	76.44
274.017	59.44
274.249	64.44
274.481	74.44
274.713	62.44
274.945	70.44
275.176	77.44
275.408	77.44
275.64	78.44
275.872	72.44
276.104	85.44
276.335	73.44
276.567	72.44
276.799	83.44
277.031	88.44
277.262	96.44
277.494	82.44
277.726	94.44
277.957	89.44
278.189	80.44
278.421	76.44
278.652	70.44
278.884	76.44
279.115	84.44
279.347	89.44
279.579	85.44
279.81	84.44
280.042	90.44
280.273	119.44
280.505	117.44
280.736	85.44
280.968	88.44
281.199	81.44
281.431	75.44
281.662	76.44
281.894	81.44
282.125	91.44
282.356	102.44
282.588	92.44
282.819	100.44
283.051	77.44
283.282	111.44
283.513	100.44
283.745	84.44
283.976	77.44
284.207	94.44
284.439	95.44
284.67	82.44
284.901	91.44
285.132	84.44
285.364	85.44
285.595	70.44
285.826	67.44
286.057	93.44
286.288	83.44
286.52	90.44
286.751	81.44
286.982	81.44
287.213	100.44
287.444	110.44
287.675	96.44
287.906	73.44
288.138	86.44
288.369	77.44
288.6	96.44
288.831	84.44
289.062	72.44
289.293	84.44
289.524	92.44
289.755	93.44
289.986	84.44
290.217	97.44
290.448	72.44
290.679	83.44
290.91	97.44
291.141	87.44
291.371	67.44
291.602	104.44
291.833	84.44
292.064	79.44
292.295	76.44
292.526	71.44
292.757	73.44
292.987	66.44
293.218	84.44
293.449	91.44
293.68	83.44
293.91	75.44
294.141	79.44
294.372	93.44
294.603	89.44
294.833	82.44
295.064	81.44
295.295	90.44
295.525	77.44
295.756	80.44
295.987	80.44
296.217	81.44
296.448	79.44
296.679	64.44
296.909	70.44
297.14	83.44
297.37	78.44
297.601	83.44
297.831	87.44
298.062	84.44
298.292	83.44
298.523	91.44
298.753	80.44
298.984	73.44
299.214	73.44
299.445	87.44
299.675	90.44
299.905	86.44
300.136	97.44
300.366	86.44
300.597	74.44
300.827	80.44
301.057	85.44
301.288	81.44
301.518	86.44
301.748	78.44
301.979	88.44
302.209	84.44
302.439	89.44
302.669	81.44
302.9	82.44
303.13	82.44
303.36	74.44
303.59	85.44
303.82	74.44
304.051	72.44
304.281	78.44
304.511	89.44
304.741	79.44
304.971	80.44
305.201	86.44
305.431	80.44
305.661	80.44
305.891	101.44
306.121	95.44
306.352	90.44
306.582	90.44
306.812	98.44
307.042	79.44
307.272	80.44
307.502	83.44
307.731	87.44
307.961	82.44
308.191	76.44
308.421	82.44
308.651	80.44
308.881	71.44
309.111	81.44
309.341	70.44
309.571	76.44
309.8	86.44
310.03	86.44
310.26	81.44
310.49	66.44
310.72	73.44
310.949	76.44
311.179	81.44
311.409	91.44
311.639	88.44
311.868	91.44
312.098	87.44
312.328	85.44
312.557	87.44
312.787	83.44
313.017	91.44
313.246	84.44
313.476	75.44
313.706	88.44
313.935	88.44
314.165	73.44
314.394	91.44
314.624	96.44
314.853	78.44
315.083	98.44
315.312	89.44
315.542	80.44
315.771	84.44
316.001	83.44
316.23	93.44
316.46	81.44
316.689	89.44
316.919	89.44
317.148	70.44
317.377	81.44
317.607	82.44
317.836	96.44
318.065	84.44
318.295	79.44
318.524	92.44
318.753	77.44
318.983	77.44
319.212	93.44
319.441	96.44
319.67	89.44
319.9	76.44
320.129	87.44
320.358	90.44
320.587	88.44
320.816	92.44
321.046	72.44
321.275	84.44
321.504	63.44
321.733	88.44
321.962	81.44
322.191	97.44
322.42	79.44
322.649	74.44
322.878	74.44
323.108	80.44
323.337	72.44
323.566	77.44
323.795	88.44
324.024	76.44
324.253	81.44
324.482	74.44
324.71	87.44
324.939	92.44
325.168	72.44
325.397	96.44
325.626	82.44
325.855	82.44
326.084	86.44
326.313	89.44
326.542	90.44
326.77	90.44
326.999	78.44
327.228	81.44
327.457	72.44
327.686	86.44
327.914	87.44
328.143	85.44
328.372	66.44
328.6	84.44
328.829	90.44
329.058	80.44
329.287	87.44
329.515	78.44
329.744	84.44
329.972	75.44
330.201	85.44
330.43	82.44
330.658	94.44
330.887	77.44
331.115	86.44
331.344	77.44
331.572	78.44
331.801	74.44
332.03	99.44
332.258	92.44
332.486	73.44
332.715	79.44
332.943	82.44
333.172	91.44
333.4	83.44
333.629	73.44
333.857	68.44
334.085	89.44
334.314	88.44
334.542	89.44
334.771	69.44
334.999	80.44
335.227	72.44
335.455	75.44
335.684	101.44
335.912	88.44
336.14	85.44
336.369	95.44
336.597	92.44
336.825	84.44
337.053	82.44
337.281	67.44
337.51	79.44
337.738	92.44
337.966	84.44
338.194	78.44
338.422	76.44
338.65	97.44
338.878	88.44
339.106	82.44
339.334	86.44
339.562	84.44
339.79	85.44
340.018	79.44
340.246	85.44
340.474	93.44
340.702	86.44
340.93	87.44
341.158	82.44
341.386	76.44
341.614	82.44
341.842	90.44
342.07	84.44
342.298	81.44
342.526	89.44
342.754	75.44
342.981	92.44
343.209	87.44
343.437	86.44
343.665	70.44
343.893	80.44
344.12	89.44
344.348	89.44
344.576	81.44
344.804	78.44
345.031	77.44
345.259	85.44
345.487	84.44
345.714	77.44
345.942	94.44
346.17	86.44
346.397	79.44
346.625	77.44
346.853	103.44
347.08	85.44
347.308	86.44
347.535	84.44
347.763	90.44
347.99	89.44
348.218	84.44
348.445	78.44
348.673	72.44
348.9	90.44
349.128	82.44
349.355	87.44
349.583	100.44
349.81	82.44
350.037	79.44
350.265	79.44
350.492	86.44
350.72	80.44
350.947	84.44
351.174	85.44
351.402	85.44
351.629	79.44
351.856	88.44
352.083	92.44
352.311	72.44
352.538	86.44
352.765	89.44
352.992	85.44
353.22	76.44
353.447	79.44
353.674	88.44
353.901	93.44
354.128	84.44
354.355	87.44
354.583	78.44
354.81	95.44
355.037	85.44
355.264	79.44
355.491	80.44
355.718	89.44
355.945	85.44
356.172	85.44
356.399	80.44
356.626	87.44
356.853	96.44
357.08	122.44
357.307	145.44
357.534	127.44
357.761	96.44
357.988	84.44
358.215	92.44
358.441	99.44
358.668	83.44
358.895	77.44
359.122	78.44
359.349	75.44
359.576	98.44
359.802	82.44
360.029	79.44
360.256	68.44
360.483	75.44
360.709	87.44
360.936	87.44
361.163	109.44
361.39	82.44
361.616	86.44
361.843	94.44
362.07	84.44
362.296	81.44
362.523	88.44
362.749	72.44
362.976	84.44
363.203	89.44
363.429	91.44
363.656	129.44
363.882	162.44
364.109	182.44
364.335	117.44
364.562	96.44
364.788	82.44
365.015	79.44
365.241	80.44
365.468	80.44
365.694	86.44
365.92	88.44
366.147	91.44
366.373	85.44
366.599	100.44
366.826	108.44
367.052	94.44
367.278	124.44
367.505	103.44
367.731	105.44
367.957	136.44
368.184	185.44
368.41	243.44
368.636	186.44
368.862	116.44
369.089	87.44
369.315	87.44
369.541	90.44
369.767	69.44
369.993	85.44
370.219	78.44
370.445	95.44
370.672	81.44
370.898	96.44
371.124	81.44
371.35	77.44
371.576	92.44
371.802	85.44
372.028	90.44
372.254	73.44
372.48	79.44
372.706	86.44
372.932	84.44
373.158	74.44
373.384	105.44
373.61	82.44
373.835	123.44
374.061	141.44
374.287	118.44
374.513	85.44
374.739	78.44
374.965	86.44
375.191	84.44
375.416	87.44
375.642	80.44
375.868	78.44
376.094	81.44
376.319	66.44
376.545	76.44
376.771	82.44
376.997	69.44
377.222	76.44
377.448	72.44
377.674	85.44
377.899	78.44
378.125	70.44
378.35	76.44
378.576	90.44
378.802	85.44
379.027	77.44
379.253	72.44
379.478	76.44
379.704	59.44
379.929	91.44
380.155	79.44
380.38	84.44
380.606	79.44
380.831	91.44
381.057	83.44
381.282	88.44
381.507	93.44
381.733	93.44
381.958	68.44
382.184	80.44
382.409	67.44
382.634	91.44
382.86	88.44
383.085	89.44
383.31	75.44
383.535	82.44
383.761	71.44
383.986	75.44
384.211	87.44
384.436	77.44
384.662	72.44
384.887	81.44
385.112	76.44
385.337	80.44
385.562	76.44
385.787	86.44
386.013	84.44
386.238	86.44
386.463	90.44
386.688	88.44
386.913	79.44
387.138	80.44
387.363	68.44
387.588	84.44
387.813	89.44
388.038	86.44
388.263	89.44
388.488	86.44
388.713	80.44
388.938	78.44
389.163	76.44
389.387	79.44
389.612	84.44
389.837	84.44
390.062	84.44
390.287	87.44
390.512	80.44
390.736	80.44
390.961	66.44
391.186	80.44
391.411	86.44
391.636	86.44
391.86	91.44
392.085	86.44
392.31	84.44
392.534	89.44
392.759	78.44
392.984	81.44
393.208	83.44
393.433	84.44
393.658	66.44
393.882	75.44
394.107	85.44
394.331	89.44
394.556	98.44
394.78	88.44
395.005	84.44
395.229	86.44
395.454	77.44
395.678	80.44
395.903	77.44
396.127	99.44
396.352	78.44
396.576	90.44
396.801	85.44
397.025	84.44
397.249	87.44
397.474	85.44
397.698	87.44
397.922	82.44
398.147	79.44
398.371	91.44
398.595	93.44
398.82	89.44
399.044	94.44
399.268	72.44
399.492	77.44
399.717	72.44
399.941	81.44
400.165	82.44
400.389	86.44
400.613	80.44
400.837	90.44
401.062	83.44
401.286	93.44
401.51	88.44
401.734	97.44
401.958	106.44
402.182	88.44
402.406	100.44
402.63	84.44
402.854	72.44
403.078	79.44
403.302	89.44
403.526	84.44
403.75	92.44
403.974	85.44
404.198	78.44
404.422	102.44
404.645	87.44
404.869	80.44
405.093	97.44
405.317	115.44
405.541	204.44
405.765	332.44
405.988	360.44
406.212	192.44
406.436	123.44
406.66	97.44
406.883	76.44
407.107	84.44
407.331	87.44
407.555	86.44
407.778	78.44
408.002	75.44
408.226	82.44
408.449	78.44
408.673	81.44
408.896	80.44
409.12	89.44
409.344	84.44
409.567	68.44
409.791	86.44
410.014	90.44
410.238	85.44
410.461	76.44
410.685	84.44
410.908	66.44
411.132	81.44
411.355	82.44
411.578	89.44
411.802	77.44
412.025	93.44
412.249	84.44
412.472	84.44
412.695	72.44
412.919	89.44
413.142	89.44
413.365	76.44
413.589	81.44
413.812	78.44
414.035	76.44
414.258	74.44
414.482	78.44
414.705	78.44
414.928	85.44
415.151	79.44
415.374	92.44
415.597	98.44
415.821	89.44
416.044	81.44
416.267	81.44
416.49	86.44
416.713	81.44
416.936	97.44
417.159	102.44
417.382	93.44
417.605	88.44
417.828	94.44
418.051	80.44
418.274	81.44
418.497	78.44
418.72	79.44
418.943	82.44
419.166	74.44
419.389	89.44
419.611	95.44
419.834	70.44
420.057	82.44
420.28	75.44
420.503	81.44
420.726	82.44
420.948	73.44
421.171	78.44
421.394	88.44
421.617	71.44
421.839	73.44
422.062	94.44
422.285	70.44
422.507	71.44
422.73	80.44
422.953	97.44
423.175	86.44
423.398	77.44
423.621	89.44
423.843	59.44
424.066	79.44
424.288	79.44
424.511	79.44
424.733	87.44
424.956	95.44
425.178	76.44
425.401	73.44
425.623	84.44
425.846	77.44
426.068	90.44
426.291	72.44
426.513	84.44
426.735	75.44
426.958	73.44
427.18	82.44
427.402	89.44
427.625	90.44
427.847	84.44
428.069	69.44
428.292	69.44
428.514	84.44
428.736	80.44
428.958	79.44
429.181	86.44
429.403	80.44
429.625	81.44
429.847	68.44
430.069	80.44
430.292	82.44
430.514	79.44
430.736	94.44
430.958	92.44
431.18	90.44
431.402	93.44
431.624	91.44
431.846	77.44
432.068	80.44
432.29	88.44
432.512	82.44
432.734	77.44
432.956	81.44
433.178	83.44
433.4	88.44
433.622	75.44
433.844	75.44
434.066	96.44
434.287	88.44
434.509	90.44
434.731	91.44
434.953	80.44
435.175	90.44
435.397	82.44
435.618	73.44
435.84	82.44
436.062	80.44
436.284	72.44
436.505	80.44
436.727	80.44
436.949	84.44
437.17	74.44
437.392	76.44
437.614	88.44
437.835	78.44
438.057	72.44
438.278	78.44
438.5	84.44
438.721	77.44
438.943	84.44
439.165	72.44
439.386	90.44
439.608	85.44
439.829	70.44
440.05	80.44
440.272	72.44
440.493	86.44
440.715	76.44
440.936	83.44
441.158	74.44
441.379	76.44
441.6	78.44
441.822	74.44
442.043	82.44
442.264	82.44
442.486	75.44
442.707	80.44
442.928	78.44
443.149	86.44
443.371	76.44
443.592	76.44
443.813	85.44
444.034	76.44
444.255	76.44
444.476	98.44
444.698	70.44
444.919	78.44
445.14	158.44
445.361	109.44
445.582	82.44
445.803	81.44
446.024	78.44
446.245	88.44
446.466	77.44
446.687	97.44
446.908	75.44
447.129	76.44
447.35	80.44
447.571	73.44
447.792	89.44
448.013	91.44
448.234	80.44
448.455	100.44
448.675	87.44
448.896	86.44
449.117	93.44
449.338	80.44
449.559	92.44
449.779	82.44
450	78.44
450.221	89.44
450.442	85.44
450.662	76.44
450.883	78.44
451.104	73.44
451.324	87.44
451.545	80.44
451.766	91.44
451.986	77.44
452.207	92.44
452.428	80.44
452.648	86.44
452.869	94.44
453.089	77.44
453.31	73.44
453.53	77.44
453.751	80.44
453.971	89.44
454.192	89.44
454.412	75.44
454.633	77.44
454.853	89.44
455.073	72.44
455.294	76.44
455.514	85.44
455.734	76.44
455.955	89.44
456.175	93.44
456.395	80.44
456.616	78.44
456.836	87.44
457.056	83.44
457.276	78.44
457.497	80.44
457.717	79.44
457.937	86.44
458.157	85.44
458.377	84.44
458.598	84.44
458.818	72.44
459.038	82.44
459.258	85.44
459.478	89.44
459.698	81.44
459.918	85.44
460.138	93.44
460.358	78.44
460.578	84.44
460.798	72.44
461.018	78.44
461.238	72.44
461.458	73.44
461.678	91.44
461.898	93.44
462.118	76.44
462.338	80.44
462.558	88.44
462.777	96.44
462.997	95.44
463.217	71.44
463.437	62.44
463.657	95.44
463.876	66.44
464.096	80.44
464.316	97.44
464.536	84.44
464.755	67.44
464.975	80.44
465.195	64.44
465.414	76.44
465.634	76.44
465.854	85.44
466.073	87.44
466.293	94.44
466.512	79.44
466.732	78.44
466.951	74.44
467.171	60.44
467.391	87.44
467.61	84.44
467.829	89.44
468.049	77.44
468.268	76.44
468.488	70.44
468.707	85.44
468.927	87.44
469.146	76.44
469.365	78.44
469.585	91.44
469.804	81.44
470.023	93.44
470.243	74.44
470.462	75.44
470.681	82.44
470.901	93.44
471.12	80.44
471.339	90.44
471.558	82.44
471.777	77.44
471.997	89.44
472.216	92.44
472.435	70.44
472.654	66.44
472.873	83.44
473.092	89.44
473.311	72.44
473.53	71.44
473.749	84.44
473.968	80.44
474.187	79.44
474.406	85.44
474.625	97.44
474.844	92.44
475.063	94.44
475.282	90.44
475.501	77.44
475.72	76.44
475.939	70.44
476.158	79.44
476.377	92.44
476.596	70.44
476.814	73.44
477.033	93.44
477.252	68.44
477.471	81.44
477.69	85.44
477.908	70.44
478.127	90.44
478.346	74.44
478.564	75.44
478.783	76.44
479.002	84.44
479.22	85.44
479.439	89.44
479.658	84.44
479.876	79.44
480.095	96.44
480.313	80.44
480.532	85.44
480.751	84.44
480.969	70.44
481.188	82.44
481.406	82.44
481.624	79.44
481.843	84.44
482.061	79.44
482.28	78.44
482.498	82.44
482.717	81.44
482.935	88.44
483.153	70.44
483.372	84.44
483.59	84.44
483.808	87.44
484.027	83.44
484.245	82.44
484.463	88.44
484.681	91.44
484.9	88.44
485.118	76.44
485.336	86.44
485.554	73.44
485.772	86.44
485.99	98.44
486.209	87.44
486.427	75.44
486.645	81.44
486.863	73.44
487.081	76.44
487.299	81.44
487.517	82.44
487.735	94.44
487.953	80.44
488.171	80.44
488.389	75.44
488.607	66.44
488.825	79.44
489.043	78.44
489.261	85.44
489.479	70.44
489.696	66.44
489.914	73.44
490.132	88.44
490.35	84.44
490.568	91.44
490.786	79.44
491.003	84.44
491.221	72.44
491.439	90.44
491.657	85.44
491.874	86.44
492.092	89.44
492.31	81.44
492.527	78.44
492.745	79.44
492.963	88.44
493.18	81.44
493.398	90.44
493.615	79.44
493.833	89.44
494.05	87.44
494.268	92.44
494.485	84.44
494.703	71.44
494.92	89.44
495.138	92.44
495.355	80.44
495.573	91.44
495.79	86.44
496.008	82.44
496.225	86.44
496.442	102.44
496.66	79.44
496.877	78.44
497.094	78.44
497.312	76.44
497.529	81.44
497.746	85.44
497.963	76.44
498.181	68.44
498.398	77.44
498.615	64.44
498.832	89.44
499.049	94.44
499.267	91.44
499.484	75.44
499.701	85.44
499.918	92.44
500.135	92.44
500.352	93.44
500.569	114.44
500.786	125.44
501.003	93.44
501.22	88.44
501.437	78.44
501.654	90.44
501.871	79.44
502.088	72.44
502.305	95.44
502.522	79.44
502.739	86.44
502.956	89.44
503.172	80.44
503.389	85.44
503.606	72.44
503.823	67.44
504.04	72.44
504.256	90.44
504.473	93.44
504.69	81.44
504.907	87.44
505.123	94.44
505.34	82.44
505.557	88.44
505.773	84.44
505.99	82.44
506.207	66.44
506.423	80.44
506.64	71.44
506.856	80.44
507.073	85.44
507.289	88.44
507.506	70.44
507.722	80.44
507.939	81.44
508.155	89.44
508.372	79.44
508.588	100.44
508.805	83.44
509.021	74.44
509.238	87.44
509.454	75.44
509.67	73.44
509.887	84.44
510.103	90.44
510.319	70.44
510.536	73.44
510.752	84.44
510.968	72.44
511.184	67.44
511.401	80.44
511.617	77.44
511.833	86.44
512.049	80.44
512.265	81.44
512.481	72.44
512.698	89.44
512.914	85.44
513.13	85.44
513.346	77.44
513.562	87.44
513.778	100.44
513.994	86.44
514.21	74.44
514.426	68.44
514.642	84.44
514.858	78.44
515.074	90.44
515.29	89.44
515.506	89.44
515.721	93.44
515.937	91.44
516.153	80.44
516.369	77.44
516.585	84.44
516.801	85.44
517.016	78.44
517.232	78.44
517.448	98.44
517.664	78.44
517.879	74.44
518.095	96.44
518.311	84.44
518.527	84.44
518.742	86.44
518.958	81.44
519.173	88.44
519.389	86.44
519.605	80.44
