Data from StdB_HRD10591_065.txt Node
Date: Fri May 16 15:25:18 EDT 2025
User: Yrep
Spectrometer: HR+D1059
Trigger mode: 1
Integration Time (sec): 1.000000E-1
Scans to average: 1
Electric dark correction enabled: true
Nonlinearity correction enabled: false
Boxcar width: 0
XAxis mode: Wavelengths
Number of Pixels in Spectrum: 2048
>>>>>Begin Spectral Data<<<<<
223.165	-12.69
223.4	-12.69
223.635	-12.69
223.869	-25.69
224.104	-16.69
224.338	-7.69
224.573	-13.69
224.808	-19.69
225.042	-8.69
225.277	-4.69
225.511	-13.69
225.746	-5.69
225.98	3.31
226.215	20.31
226.449	17.31
226.683	31.31
226.918	25.31
227.152	31.31
227.387	27.31
227.621	35.31
227.856	43.31
228.09	53.31
228.324	47.31
228.559	48.31
228.793	49.31
229.027	67.31
229.262	71.31
229.496	79.31
229.73	82.31
229.964	61.31
230.199	81.31
230.433	86.31
230.667	90.31
230.901	87.31
231.136	88.31
231.37	86.31
231.604	76.31
231.838	98.31
232.072	104.31
232.306	89.31
232.541	82.31
232.775	101.31
233.009	82.31
233.243	100.31
233.477	96.31
233.711	87.31
233.945	84.31
234.179	91.31
234.413	94.31
234.647	95.31
234.881	102.31
235.115	100.31
235.349	82.31
235.583	85.31
235.817	82.31
236.051	91.31
236.285	87.31
236.519	76.31
236.753	70.31
236.987	89.31
237.221	93.31
237.455	85.31
237.689	81.31
237.922	89.31
238.156	89.31
238.39	85.31
238.624	86.31
238.858	88.31
239.091	85.31
239.325	98.31
239.559	106.31
239.793	108.31
240.027	100.31
240.26	94.31
240.494	106.31
240.728	107.31
240.961	112.31
241.195	110.31
241.429	93.31
241.662	89.31
241.896	108.31
242.13	84.31
242.363	84.31
242.597	86.31
242.83	95.31
243.064	75.31
243.298	90.31
243.531	89.31
243.765	90.31
243.998	102.31
244.232	100.31
244.465	110.31
244.699	117.31
244.932	128.31
245.166	102.31
245.399	108.31
245.633	110.31
245.866	99.31
246.099	91.31
246.333	91.31
246.566	106.31
246.8	111.31
247.033	113.31
247.266	93.31
247.5	114.31
247.733	94.31
247.966	122.31
248.2	113.31
248.433	102.31
248.666	103.31
248.899	111.31
249.133	102.31
249.366	119.31
249.599	112.31
249.832	104.31
250.066	111.31
250.299	110.31
250.532	122.31
250.765	111.31
250.998	114.31
251.231	105.31
251.465	112.31
251.698	110.31
251.931	116.31
252.164	122.31
252.397	131.31
252.63	129.31
252.863	138.31
253.096	134.31
253.329	134.31
253.562	137.31
253.795	118.31
254.028	135.31
254.261	124.31
254.494	139.31
254.727	144.31
254.96	121.31
255.193	129.31
255.426	131.31
255.659	132.31
255.892	139.31
256.124	143.31
256.357	131.31
256.59	138.31
256.823	137.31
257.056	144.31
257.289	141.31
257.521	157.31
257.754	159.31
257.987	184.31
258.22	174.31
258.452	153.31
258.685	155.31
258.918	139.31
259.151	147.31
259.383	128.31
259.616	138.31
259.849	140.31
260.081	152.31
260.314	150.31
260.547	160.31
260.779	186.31
261.012	206.31
261.244	249.31
261.477	296.31
261.71	334.31
261.942	238.31
262.175	181.31
262.407	158.31
262.64	167.31
262.872	155.31
263.105	151.31
263.337	160.31
263.57	158.31
263.802	146.31
264.035	148.31
264.267	144.31
264.499	154.31
264.732	165.31
264.964	181.31
265.197	189.31
265.429	180.31
265.661	157.31
265.894	159.31
266.126	170.31
266.358	222.31
266.591	241.31
266.823	204.31
267.055	162.31
267.287	156.31
267.52	135.31
267.752	140.31
267.984	143.31
268.216	129.31
268.448	138.31
268.681	135.31
268.913	141.31
269.145	148.31
269.377	143.31
269.609	131.31
269.841	163.31
270.073	139.31
270.306	135.31
270.538	136.31
270.77	140.31
271.002	143.31
271.234	138.31
271.466	155.31
271.698	136.31
271.93	131.31
272.162	154.31
272.394	131.31
272.626	143.31
272.858	141.31
273.09	137.31
273.322	142.31
273.553	143.31
273.785	140.31
274.017	149.31
274.249	145.31
274.481	149.31
274.713	137.31
274.945	132.31
275.176	148.31
275.408	137.31
275.64	145.31
275.872	148.31
276.104	144.31
276.335	163.31
276.567	166.31
276.799	150.31
277.031	155.31
277.262	164.31
277.494	167.31
277.726	159.31
277.957	166.31
278.189	166.31
278.421	148.31
278.652	151.31
278.884	203.31
279.115	210.31
279.347	217.31
279.579	264.31
279.81	312.31
280.042	415.31
280.273	504.31
280.505	446.31
280.736	319.31
280.968	236.31
281.199	208.31
281.431	216.31
281.662	211.31
281.894	229.31
282.125	250.31
282.356	265.31
282.588	282.31
282.819	228.31
283.051	264.31
283.282	351.31
283.513	423.31
283.745	315.31
283.976	228.31
284.207	194.31
284.439	207.31
284.67	193.31
284.901	166.31
285.132	155.31
285.364	166.31
285.595	167.31
285.826	162.31
286.057	180.31
286.288	175.31
286.52	190.31
286.751	212.31
286.982	233.31
287.213	269.31
287.444	307.31
287.675	258.31
287.906	213.31
288.138	182.31
288.369	178.31
288.6	167.31
288.831	165.31
289.062	192.31
289.293	150.31
289.524	162.31
289.755	147.31
289.986	166.31
290.217	164.31
290.448	164.31
290.679	149.31
290.91	162.31
291.141	148.31
291.371	151.31
291.602	166.31
291.833	148.31
292.064	172.31
292.295	149.31
292.526	162.31
292.757	156.31
292.987	161.31
293.218	153.31
293.449	166.31
293.68	184.31
293.91	162.31
294.141	162.31
294.372	160.31
294.603	171.31
294.833	160.31
295.064	179.31
295.295	177.31
295.525	166.31
295.756	178.31
295.987	182.31
296.217	162.31
296.448	171.31
296.679	173.31
296.909	185.31
297.14	167.31
297.37	180.31
297.601	163.31
297.831	174.31
298.062	178.31
298.292	158.31
298.523	164.31
298.753	168.31
298.984	160.31
299.214	155.31
299.445	164.31
299.675	154.31
299.905	182.31
300.136	174.31
300.366	167.31
300.597	173.31
300.827	176.31
301.057	145.31
301.288	188.31
301.518	186.31
301.748	166.31
301.979	178.31
302.209	172.31
302.439	175.31
302.669	184.31
302.9	182.31
303.13	163.31
303.36	194.31
303.59	163.31
303.82	182.31
304.051	186.31
304.281	196.31
304.511	191.31
304.741	170.31
304.971	186.31
305.201	173.31
305.431	189.31
305.661	180.31
305.891	173.31
306.121	178.31
306.352	168.31
306.582	179.31
306.812	174.31
307.042	182.31
307.272	190.31
307.502	192.31
307.731	182.31
307.961	184.31
308.191	156.31
308.421	167.31
308.651	176.31
308.881	167.31
309.111	181.31
309.341	182.31
309.571	176.31
309.8	179.31
310.03	180.31
310.26	184.31
310.49	162.31
310.72	185.31
310.949	170.31
311.179	184.31
311.409	182.31
311.639	183.31
311.868	189.31
312.098	187.31
312.328	196.31
312.557	198.31
312.787	180.31
313.017	185.31
313.246	198.31
313.476	208.31
313.706	210.31
313.935	218.31
314.165	215.31
314.394	226.31
314.624	215.31
314.853	219.31
315.083	215.31
315.312	218.31
315.542	216.31
315.771	202.31
316.001	205.31
316.23	205.31
316.46	210.31
316.689	218.31
316.919	219.31
317.148	217.31
317.377	205.31
317.607	218.31
317.836	222.31
318.065	209.31
318.295	212.31
318.524	218.31
318.753	214.31
318.983	187.31
319.212	185.31
319.441	176.31
319.67	194.31
319.9	196.31
320.129	207.31
320.358	198.31
320.587	206.31
320.816	191.31
321.046	213.31
321.275	184.31
321.504	196.31
321.733	180.31
321.962	190.31
322.191	198.31
322.42	196.31
322.649	181.31
322.878	187.31
323.108	198.31
323.337	197.31
323.566	195.31
323.795	195.31
324.024	196.31
324.253	211.31
324.482	191.31
324.71	187.31
324.939	194.31
325.168	189.31
325.397	184.31
325.626	201.31
325.855	201.31
326.084	195.31
326.313	203.31
326.542	207.31
326.77	207.31
326.999	192.31
327.228	196.31
327.457	199.31
327.686	196.31
327.914	191.31
328.143	196.31
328.372	189.31
328.6	180.31
328.829	201.31
329.058	182.31
329.287	208.31
329.515	198.31
329.744	202.31
329.972	184.31
330.201	190.31
330.43	207.31
330.658	195.31
330.887	190.31
331.115	196.31
331.344	168.31
331.572	211.31
331.801	180.31
332.03	212.31
332.258	195.31
332.486	203.31
332.715	178.31
332.943	196.31
333.172	198.31
333.4	187.31
333.629	194.31
333.857	194.31
334.085	214.31
334.314	210.31
334.542	198.31
334.771	198.31
334.999	208.31
335.227	194.31
335.455	201.31
335.684	207.31
335.912	200.31
336.14	192.31
336.369	204.31
336.597	198.31
336.825	204.31
337.053	183.31
337.281	198.31
337.51	192.31
337.738	208.31
337.966	203.31
338.194	198.31
338.422	195.31
338.65	194.31
338.878	194.31
339.106	193.31
339.334	191.31
339.562	197.31
339.79	182.31
340.018	196.31
340.246	202.31
340.474	184.31
340.702	197.31
340.93	184.31
341.158	189.31
341.386	197.31
341.614	196.31
341.842	196.31
342.07	180.31
342.298	206.31
342.526	194.31
342.754	184.31
342.981	200.31
343.209	195.31
343.437	201.31
343.665	210.31
343.893	206.31
344.12	192.31
344.348	204.31
344.576	207.31
344.804	201.31
345.031	210.31
345.259	200.31
345.487	196.31
345.714	187.31
345.942	206.31
346.17	196.31
346.397	210.31
346.625	215.31
346.853	198.31
347.08	192.31
347.308	195.31
347.535	198.31
347.763	205.31
347.99	212.31
348.218	190.31
348.445	192.31
348.673	175.31
348.9	200.31
349.128	205.31
349.355	196.31
349.583	187.31
349.81	204.31
350.037	198.31
350.265	192.31
350.492	199.31
350.72	201.31
350.947	208.31
351.174	197.31
351.402	192.31
351.629	188.31
351.856	191.31
352.083	196.31
352.311	184.31
352.538	204.31
352.765	201.31
352.992	207.31
353.22	195.31
353.447	212.31
353.674	213.31
353.901	198.31
354.128	192.31
354.355	188.31
354.583	182.31
354.81	208.31
355.037	212.31
355.264	192.31
355.491	215.31
355.718	196.31
355.945	231.31
356.172	206.31
356.399	223.31
356.626	242.31
356.853	292.31
357.08	415.31
357.307	561.31
357.534	519.31
357.761	422.31
357.988	336.31
358.215	283.31
358.441	276.31
358.668	254.31
358.895	247.31
359.122	238.31
359.349	235.31
359.576	230.31
359.802	210.31
360.029	226.31
360.256	220.31
360.483	223.31
360.709	216.31
360.936	234.31
361.163	217.31
361.39	208.31
361.616	218.31
361.843	205.31
362.07	216.31
362.296	220.31
362.523	221.31
362.749	236.31
362.976	242.31
363.203	254.31
363.429	314.31
363.656	422.31
363.882	606.31
364.109	712.31
364.335	519.31
364.562	338.31
364.788	274.31
365.015	260.31
365.241	242.31
365.468	246.31
365.694	234.31
365.92	230.31
366.147	236.31
366.373	229.31
366.599	252.31
366.826	252.31
367.052	318.31
367.278	356.31
367.505	332.31
367.731	356.31
367.957	454.31
368.184	730.31
368.41	949.31
368.636	797.31
368.862	498.31
369.089	369.31
369.315	314.31
369.541	293.31
369.767	268.31
369.993	263.31
370.219	266.31
370.445	237.31
370.672	222.31
370.898	235.31
371.124	232.31
371.35	251.31
371.576	251.31
371.802	236.31
372.028	226.31
372.254	238.31
372.48	247.31
372.706	230.31
372.932	249.31
373.158	252.31
373.384	280.31
373.61	340.31
373.835	484.31
374.061	608.31
374.287	560.31
374.513	372.31
374.739	292.31
374.965	278.31
375.191	253.31
375.416	252.31
375.642	245.31
375.868	229.31
376.094	233.31
376.319	203.31
376.545	227.31
376.771	199.31
376.997	214.31
377.222	208.31
377.448	218.31
377.674	216.31
377.899	215.31
378.125	228.31
378.35	229.31
378.576	220.31
378.802	205.31
379.027	213.31
379.253	197.31
379.478	214.31
379.704	236.31
379.929	217.31
380.155	195.31
380.38	210.31
380.606	218.31
380.831	222.31
381.057	214.31
381.282	196.31
381.507	222.31
381.733	218.31
381.958	209.31
382.184	223.31
382.409	212.31
382.634	229.31
382.86	209.31
383.085	224.31
383.31	217.31
383.535	195.31
383.761	220.31
383.986	221.31
384.211	232.31
384.436	219.31
384.662	237.31
384.887	230.31
385.112	223.31
385.337	232.31
385.562	224.31
385.787	228.31
386.013	214.31
386.238	235.31
386.463	236.31
386.688	237.31
386.913	215.31
387.138	231.31
387.363	224.31
387.588	231.31
387.813	217.31
388.038	226.31
388.263	219.31
388.488	221.31
388.713	235.31
388.938	219.31
389.163	222.31
389.387	210.31
389.612	217.31
389.837	214.31
390.062	222.31
390.287	220.31
390.512	211.31
390.736	223.31
390.961	226.31
391.186	208.31
391.411	229.31
391.636	226.31
391.86	236.31
392.085	227.31
392.31	227.31
392.534	224.31
392.759	223.31
392.984	230.31
393.208	222.31
393.433	223.31
393.658	224.31
393.882	228.31
394.107	208.31
394.331	228.31
394.556	230.31
394.78	235.31
395.005	230.31
395.229	216.31
395.454	220.31
395.678	230.31
395.903	226.31
396.127	228.31
396.352	230.31
396.576	221.31
396.801	227.31
397.025	227.31
397.249	237.31
397.474	248.31
397.698	221.31
397.922	210.31
398.147	238.31
398.371	233.31
398.595	254.31
398.82	227.31
399.044	227.31
399.268	245.31
399.492	263.31
399.717	254.31
399.941	264.31
400.165	283.31
400.389	261.31
400.613	247.31
400.837	257.31
401.062	245.31
401.286	246.31
401.51	269.31
401.734	274.31
401.958	299.31
402.182	306.31
402.406	276.31
402.63	248.31
402.854	260.31
403.078	257.31
403.302	247.31
403.526	253.31
403.75	256.31
403.974	275.31
404.198	274.31
404.422	299.31
404.645	328.31
404.869	318.31
405.093	389.31
405.317	495.31
405.541	776.31
405.765	1253.31
405.988	1424.31
406.212	949.31
406.436	660.31
406.66	485.31
406.883	438.31
407.107	362.31
407.331	362.31
407.555	341.31
407.778	324.31
408.002	314.31
408.226	287.31
408.449	271.31
408.673	287.31
408.896	271.31
409.12	271.31
409.344	262.31
409.567	262.31
409.791	247.31
410.014	269.31
410.238	258.31
410.461	266.31
410.685	249.31
410.908	239.31
411.132	274.31
411.355	238.31
411.578	248.31
411.802	250.31
412.025	231.31
412.249	244.31
412.472	253.31
412.695	248.31
412.919	250.31
413.142	253.31
413.365	242.31
413.589	253.31
413.812	256.31
414.035	243.31
414.258	246.31
414.482	245.31
414.705	254.31
414.928	267.31
415.151	234.31
415.374	246.31
415.597	254.31
415.821	252.31
416.044	239.31
416.267	250.31
416.49	242.31
416.713	242.31
416.936	267.31
417.159	250.31
417.382	231.31
417.605	223.31
417.828	240.31
418.051	247.31
418.274	251.31
418.497	245.31
418.72	234.31
418.943	247.31
419.166	249.31
419.389	262.31
419.611	266.31
419.834	259.31
420.057	251.31
420.28	238.31
420.503	255.31
420.726	250.31
420.948	251.31
421.171	241.31
421.394	265.31
421.617	259.31
421.839	264.31
422.062	251.31
422.285	277.31
422.507	276.31
422.73	299.31
422.953	294.31
423.175	294.31
423.398	304.31
423.621	341.31
423.843	363.31
424.066	396.31
424.288	508.31
424.511	631.31
424.733	696.31
424.956	572.31
425.178	498.31
425.401	448.31
425.623	421.31
425.846	375.31
426.068	334.31
426.291	324.31
426.513	329.31
426.735	302.31
426.958	314.31
427.18	302.31
427.402	291.31
427.625	290.31
427.847	270.31
428.069	281.31
428.292	272.31
428.514	264.31
428.736	256.31
428.958	265.31
429.181	241.31
429.403	248.31
429.625	247.31
429.847	234.31
430.069	244.31
430.292	251.31
430.514	238.31
430.736	234.31
430.958	241.31
431.18	230.31
431.402	259.31
431.624	239.31
431.846	242.31
432.068	247.31
432.29	252.31
432.512	260.31
432.734	255.31
432.956	245.31
433.178	251.31
433.4	245.31
433.622	248.31
433.844	266.31
434.066	292.31
434.287	292.31
434.509	268.31
434.731	271.31
434.953	255.31
435.175	250.31
435.397	259.31
435.618	254.31
435.84	266.31
436.062	265.31
436.284	267.31
436.505	270.31
436.727	250.31
436.949	261.31
437.17	268.31
437.392	302.31
437.614	310.31
437.835	321.31
438.057	336.31
438.278	387.31
438.5	459.31
438.721	581.31
438.943	610.31
439.165	532.31
439.386	480.31
439.608	450.31
439.829	404.31
440.05	395.31
440.272	372.31
440.493	383.31
440.715	399.31
440.936	445.31
441.158	428.31
441.379	381.31
441.6	357.31
441.822	332.31
442.043	305.31
442.264	305.31
442.486	286.31
442.707	288.31
442.928	277.31
443.149	271.31
443.371	277.31
443.592	275.31
443.813	272.31
444.034	263.31
444.255	276.31
444.476	253.31
444.698	263.31
444.919	272.31
445.14	347.31
445.361	292.31
445.582	267.31
445.803	250.31
446.024	244.31
446.245	246.31
446.466	242.31
446.687	231.31
446.908	242.31
447.129	223.31
447.35	222.31
447.571	228.31
447.792	224.31
448.013	233.31
448.234	218.31
448.455	218.31
448.675	228.31
448.896	222.31
449.117	219.31
449.338	237.31
449.559	226.31
449.779	215.31
450	221.31
450.221	198.31
450.442	227.31
450.662	214.31
450.883	212.31
451.104	218.31
451.324	226.31
451.545	200.31
451.766	215.31
451.986	218.31
452.207	218.31
452.428	204.31
452.648	214.31
452.869	215.31
453.089	208.31
453.31	200.31
453.53	210.31
453.751	190.31
453.971	210.31
454.192	200.31
454.412	188.31
454.633	218.31
454.853	230.31
455.073	188.31
455.294	202.31
455.514	227.31
455.734	194.31
455.955	202.31
456.175	196.31
456.395	203.31
456.616	191.31
456.836	172.31
457.056	206.31
457.276	188.31
457.497	207.31
457.717	215.31
457.937	203.31
458.157	201.31
458.377	199.31
458.598	214.31
458.818	220.31
459.038	215.31
459.258	214.31
459.478	208.31
459.698	220.31
459.918	214.31
460.138	206.31
460.358	214.31
460.578	224.31
460.798	231.31
461.018	251.31
461.238	227.31
461.458	236.31
461.678	238.31
461.898	228.31
462.118	242.31
462.338	232.31
462.558	235.31
462.777	246.31
462.997	253.31
463.217	238.31
463.437	226.31
463.657	258.31
463.876	240.31
464.096	242.31
464.316	235.31
464.536	238.31
464.755	243.31
464.975	241.31
465.195	224.31
465.414	220.31
465.634	200.31
465.854	216.31
466.073	220.31
466.293	219.31
466.512	211.31
466.732	207.31
466.951	217.31
467.171	206.31
467.391	204.31
467.61	215.31
467.829	215.31
468.049	207.31
468.268	217.31
468.488	213.31
468.707	206.31
468.927	200.31
469.146	231.31
469.365	209.31
469.585	199.31
469.804	216.31
470.023	201.31
470.243	208.31
470.462	208.31
470.681	224.31
470.901	230.31
471.12	206.31
471.339	210.31
471.558	222.31
471.777	220.31
471.997	206.31
472.216	210.31
472.435	211.31
472.654	201.31
472.873	223.31
473.092	198.31
473.311	225.31
473.53	205.31
473.749	208.31
473.968	210.31
474.187	219.31
474.406	222.31
474.625	210.31
474.844	228.31
475.063	219.31
475.282	221.31
475.501	226.31
475.72	227.31
475.939	220.31
476.158	228.31
476.377	214.31
476.596	216.31
476.814	241.31
477.033	233.31
477.252	238.31
477.471	248.31
477.69	247.31
477.908	215.31
478.127	255.31
478.346	243.31
478.564	242.31
478.783	264.31
479.002	263.31
479.22	271.31
479.439	258.31
479.658	240.31
479.876	247.31
480.095	255.31
480.313	267.31
480.532	262.31
480.751	237.31
480.969	246.31
481.188	269.31
481.406	230.31
481.624	256.31
481.843	230.31
482.061	227.31
482.28	233.31
482.498	219.31
482.717	228.31
482.935	240.31
483.153	241.31
483.372	251.31
483.59	229.31
483.808	239.31
484.027	244.31
484.245	256.31
484.463	244.31
484.681	236.31
484.9	252.31
485.118	251.31
485.336	245.31
485.554	238.31
485.772	231.31
485.99	245.31
486.209	252.31
486.427	235.31
486.645	245.31
486.863	259.31
487.081	236.31
487.299	253.31
487.517	250.31
487.735	254.31
487.953	268.31
488.171	260.31
488.389	236.31
488.607	231.31
488.825	243.31
489.043	239.31
489.261	250.31
489.479	258.31
489.696	271.31
489.914	253.31
490.132	247.31
490.35	260.31
490.568	243.31
490.786	262.31
491.003	243.31
491.221	256.31
491.439	246.31
491.657	249.31
491.874	262.31
492.092	247.31
492.31	244.31
492.527	244.31
492.745	252.31
492.963	264.31
493.18	255.31
493.398	268.31
493.615	260.31
493.833	263.31
494.05	269.31
494.268	254.31
494.485	251.31
494.703	284.31
494.92	254.31
495.138	267.31
495.355	275.31
495.573	281.31
495.79	267.31
496.008	276.31
496.225	267.31
496.442	275.31
496.66	273.31
496.877	275.31
497.094	270.31
497.312	261.31
497.529	277.31
497.746	289.31
497.963	271.31
498.181	281.31
498.398	297.31
498.615	316.31
498.832	314.31
499.049	307.31
499.267	327.31
499.484	332.31
499.701	349.31
499.918	365.31
500.135	384.31
500.352	403.31
500.569	463.31
500.786	537.31
501.003	447.31
501.22	397.31
501.437	383.31
501.654	343.31
501.871	364.31
502.088	326.31
502.305	332.31
502.522	330.31
502.739	327.31
502.956	317.31
503.172	321.31
503.389	328.31
