Data from StdB_HRD10591_082.txt Node
Date: Fri May 16 15:25:27 EDT 2025
User: Yrep
Spectrometer: HR+D1059
Trigger mode: 1
Integration Time (sec): 1.000000E-1
Scans to average: 1
Electric dark correction enabled: true
Nonlinearity correction enabled: false
Boxcar width: 0
XAxis mode: Wavelengths
Number of Pixels in Spectrum: 2048
>>>>>Begin Spectral Data<<<<<
223.165	-1.94
223.4	-1.94
223.635	-1.94
223.869	-23.94
224.104	-25.94
224.338	0.06
224.573	-23.94
224.808	-23.94
225.042	6.06
225.277	-6.94
225.511	-7.94
225.746	14.06
225.98	3.06
226.215	12.06
226.449	9.06
226.683	21.06
226.918	33.06
227.152	16.06
227.387	28.06
227.621	52.06
227.856	46.06
228.09	43.06
228.324	51.06
228.559	59.06
228.793	71.06
229.027	64.06
229.262	67.06
229.496	62.06
229.73	68.06
229.964	76.06
230.199	71.06
230.433	74.06
230.667	79.06
230.901	70.06
231.136	80.06
231.37	80.06
231.604	81.06
231.838	69.06
232.072	79.06
232.306	72.06
232.541	82.06
232.775	79.06
233.009	74.06
233.243	79.06
233.477	83.06
233.711	70.06
233.945	76.06
234.179	82.06
234.413	79.06
234.647	52.06
234.881	77.06
235.115	81.06
235.349	80.06
235.583	82.06
235.817	90.06
236.051	81.06
236.285	90.06
236.519	75.06
236.753	76.06
236.987	77.06
237.221	79.06
237.455	91.06
237.689	86.06
237.922	72.06
238.156	82.06
238.39	92.06
238.624	76.06
238.858	93.06
239.091	91.06
239.325	78.06
239.559	84.06
239.793	88.06
240.027	94.06
240.26	73.06
240.494	80.06
240.728	54.06
240.961	83.06
241.195	72.06
241.429	82.06
241.662	86.06
241.896	88.06
242.13	71.06
242.363	73.06
242.597	92.06
242.83	78.06
243.064	79.06
243.298	69.06
243.531	73.06
243.765	73.06
243.998	82.06
244.232	77.06
244.465	79.06
244.699	88.06
244.932	72.06
245.166	75.06
245.399	98.06
245.633	104.06
245.866	72.06
246.099	80.06
246.333	76.06
246.566	79.06
246.8	80.06
247.033	87.06
247.266	74.06
247.5	72.06
247.733	78.06
247.966	83.06
248.2	81.06
248.433	83.06
248.666	86.06
248.899	93.06
249.133	90.06
249.366	82.06
249.599	72.06
249.832	76.06
250.066	68.06
250.299	74.06
250.532	83.06
250.765	75.06
250.998	95.06
251.231	80.06
251.465	78.06
251.698	89.06
251.931	70.06
252.164	86.06
252.397	90.06
252.63	76.06
252.863	78.06
253.096	79.06
253.329	79.06
253.562	78.06
253.795	84.06
254.028	82.06
254.261	96.06
254.494	84.06
254.727	87.06
254.96	80.06
255.193	68.06
255.426	69.06
255.659	96.06
255.892	87.06
256.124	58.06
256.357	74.06
256.59	84.06
256.823	87.06
257.056	91.06
257.289	88.06
257.521	91.06
257.754	96.06
257.987	79.06
258.22	86.06
258.452	88.06
258.685	78.06
258.918	79.06
259.151	79.06
259.383	89.06
259.616	89.06
259.849	82.06
260.081	69.06
260.314	63.06
260.547	94.06
260.779	91.06
261.012	80.06
261.244	88.06
261.477	103.06
261.71	81.06
261.942	91.06
262.175	87.06
262.407	84.06
262.64	95.06
262.872	77.06
263.105	78.06
263.337	85.06
263.57	88.06
263.802	82.06
264.035	85.06
264.267	76.06
264.499	102.06
264.732	82.06
264.964	93.06
265.197	84.06
265.429	78.06
265.661	86.06
265.894	99.06
266.126	89.06
266.358	99.06
266.591	87.06
266.823	103.06
267.055	76.06
267.287	80.06
267.52	79.06
267.752	88.06
267.984	88.06
268.216	83.06
268.448	81.06
268.681	89.06
268.913	84.06
269.145	77.06
269.377	89.06
269.609	87.06
269.841	88.06
270.073	87.06
270.306	97.06
270.538	73.06
270.77	80.06
271.002	88.06
271.234	96.06
271.466	84.06
271.698	75.06
271.93	92.06
272.162	91.06
272.394	112.06
272.626	93.06
272.858	80.06
273.09	80.06
273.322	79.06
273.553	87.06
273.785	86.06
274.017	76.06
274.249	75.06
274.481	81.06
274.713	82.06
274.945	91.06
275.176	83.06
275.408	92.06
275.64	86.06
275.872	83.06
276.104	72.06
276.335	80.06
276.567	80.06
276.799	87.06
277.031	81.06
277.262	87.06
277.494	70.06
277.726	80.06
277.957	109.06
278.189	81.06
278.421	86.06
278.652	83.06
278.884	95.06
279.115	82.06
279.347	88.06
279.579	76.06
279.81	87.06
280.042	97.06
280.273	104.06
280.505	109.06
280.736	82.06
280.968	87.06
281.199	78.06
281.431	82.06
281.662	88.06
281.894	83.06
282.125	80.06
282.356	95.06
282.588	83.06
282.819	86.06
283.051	88.06
283.282	116.06
283.513	104.06
283.745	111.06
283.976	89.06
284.207	86.06
284.439	90.06
284.67	94.06
284.901	83.06
285.132	85.06
285.364	83.06
285.595	83.06
285.826	90.06
286.057	80.06
286.288	86.06
286.52	94.06
286.751	79.06
286.982	80.06
287.213	76.06
287.444	99.06
287.675	93.06
287.906	96.06
288.138	91.06
288.369	93.06
288.6	94.06
288.831	78.06
289.062	88.06
289.293	89.06
289.524	87.06
289.755	80.06
289.986	86.06
290.217	95.06
290.448	77.06
290.679	76.06
290.91	86.06
291.141	84.06
291.371	78.06
291.602	76.06
291.833	72.06
292.064	89.06
292.295	72.06
292.526	86.06
292.757	85.06
292.987	95.06
293.218	87.06
293.449	83.06
293.68	86.06
293.91	69.06
294.141	101.06
294.372	88.06
294.603	90.06
294.833	95.06
295.064	76.06
295.295	75.06
295.525	72.06
295.756	105.06
295.987	97.06
296.217	76.06
296.448	90.06
296.679	83.06
296.909	89.06
297.14	82.06
297.37	79.06
297.601	77.06
297.831	81.06
298.062	91.06
298.292	102.06
298.523	91.06
298.753	80.06
298.984	92.06
299.214	87.06
299.445	89.06
299.675	82.06
299.905	99.06
300.136	83.06
300.366	75.06
300.597	85.06
300.827	79.06
301.057	88.06
301.288	92.06
301.518	87.06
301.748	78.06
301.979	105.06
302.209	70.06
302.439	82.06
302.669	98.06
302.9	93.06
303.13	82.06
303.36	83.06
303.59	74.06
303.82	92.06
304.051	87.06
304.281	81.06
304.511	88.06
304.741	98.06
304.971	91.06
305.201	80.06
305.431	90.06
305.661	88.06
305.891	87.06
306.121	104.06
306.352	98.06
306.582	84.06
306.812	85.06
307.042	79.06
307.272	84.06
307.502	88.06
307.731	77.06
307.961	82.06
308.191	87.06
308.421	90.06
308.651	95.06
308.881	88.06
309.111	84.06
309.341	86.06
309.571	85.06
309.8	99.06
310.03	84.06
310.26	76.06
310.49	94.06
310.72	86.06
310.949	92.06
311.179	78.06
311.409	78.06
311.639	75.06
311.868	86.06
312.098	102.06
312.328	88.06
312.557	75.06
312.787	62.06
313.017	82.06
313.246	83.06
313.476	80.06
313.706	88.06
313.935	98.06
314.165	102.06
314.394	92.06
314.624	93.06
314.853	84.06
315.083	90.06
315.312	95.06
315.542	94.06
315.771	89.06
316.001	79.06
316.23	72.06
316.46	94.06
316.689	82.06
316.919	85.06
317.148	88.06
317.377	91.06
317.607	88.06
317.836	92.06
318.065	97.06
318.295	103.06
318.524	89.06
318.753	82.06
318.983	88.06
319.212	98.06
319.441	86.06
319.67	82.06
319.9	85.06
320.129	88.06
320.358	87.06
320.587	92.06
320.816	90.06
321.046	94.06
321.275	90.06
321.504	80.06
321.733	89.06
321.962	83.06
322.191	83.06
322.42	87.06
322.649	87.06
322.878	89.06
323.108	88.06
323.337	82.06
323.566	79.06
323.795	93.06
324.024	99.06
324.253	78.06
324.482	87.06
324.71	82.06
324.939	99.06
325.168	94.06
325.397	74.06
325.626	87.06
325.855	86.06
326.084	81.06
326.313	79.06
326.542	83.06
326.77	89.06
326.999	97.06
327.228	82.06
327.457	76.06
327.686	97.06
327.914	85.06
328.143	88.06
328.372	94.06
328.6	89.06
328.829	86.06
329.058	82.06
329.287	95.06
329.515	96.06
329.744	90.06
329.972	98.06
330.201	89.06
330.43	88.06
330.658	87.06
330.887	81.06
331.115	86.06
331.344	83.06
331.572	98.06
331.801	80.06
332.03	94.06
332.258	67.06
332.486	85.06
332.715	81.06
332.943	87.06
333.172	81.06
333.4	90.06
333.629	97.06
333.857	79.06
334.085	88.06
334.314	92.06
334.542	80.06
334.771	79.06
334.999	102.06
335.227	88.06
335.455	95.06
335.684	91.06
335.912	84.06
336.14	91.06
336.369	88.06
336.597	76.06
336.825	101.06
337.053	80.06
337.281	97.06
337.51	80.06
337.738	86.06
337.966	92.06
338.194	69.06
338.422	82.06
338.65	85.06
338.878	81.06
339.106	95.06
339.334	80.06
339.562	80.06
339.79	80.06
340.018	82.06
340.246	86.06
340.474	87.06
340.702	90.06
340.93	89.06
341.158	93.06
341.386	88.06
341.614	71.06
341.842	80.06
342.07	77.06
342.298	82.06
342.526	76.06
342.754	89.06
342.981	71.06
343.209	63.06
343.437	95.06
343.665	81.06
343.893	90.06
344.12	84.06
344.348	85.06
344.576	88.06
344.804	89.06
345.031	90.06
345.259	89.06
345.487	96.06
345.714	81.06
345.942	80.06
346.17	84.06
346.397	83.06
346.625	89.06
346.853	80.06
347.08	70.06
347.308	91.06
347.535	75.06
347.763	104.06
347.99	83.06
348.218	67.06
348.445	82.06
348.673	71.06
348.9	88.06
349.128	81.06
349.355	72.06
349.583	82.06
349.81	75.06
350.037	95.06
350.265	79.06
350.492	89.06
350.72	76.06
350.947	77.06
351.174	92.06
351.402	91.06
351.629	87.06
351.856	87.06
352.083	92.06
352.311	87.06
352.538	78.06
352.765	83.06
352.992	91.06
353.22	77.06
353.447	83.06
353.674	90.06
353.901	92.06
354.128	93.06
354.355	86.06
354.583	82.06
354.81	84.06
355.037	83.06
355.264	87.06
355.491	91.06
355.718	79.06
355.945	80.06
356.172	88.06
356.399	82.06
356.626	76.06
356.853	99.06
357.08	122.06
357.307	137.06
357.534	120.06
357.761	80.06
357.988	84.06
358.215	75.06
358.441	89.06
358.668	91.06
358.895	93.06
359.122	76.06
359.349	95.06
359.576	82.06
359.802	92.06
360.029	66.06
360.256	82.06
360.483	86.06
360.709	79.06
360.936	75.06
361.163	93.06
361.39	76.06
361.616	81.06
361.843	80.06
362.07	96.06
362.296	87.06
362.523	88.06
362.749	92.06
362.976	90.06
363.203	87.06
363.429	97.06
363.656	122.06
363.882	165.06
364.109	166.06
364.335	104.06
364.562	95.06
364.788	86.06
365.015	83.06
365.241	66.06
365.468	90.06
365.694	84.06
365.92	85.06
366.147	78.06
366.373	83.06
366.599	78.06
366.826	89.06
367.052	92.06
367.278	116.06
367.505	97.06
367.731	129.06
367.957	121.06
368.184	153.06
368.41	212.06
368.636	160.06
368.862	103.06
369.089	87.06
369.315	80.06
369.541	70.06
369.767	61.06
369.993	83.06
370.219	90.06
370.445	83.06
370.672	76.06
370.898	78.06
371.124	92.06
371.35	85.06
371.576	83.06
371.802	96.06
372.028	76.06
372.254	90.06
372.48	77.06
372.706	90.06
372.932	83.06
373.158	80.06
373.384	91.06
373.61	92.06
373.835	123.06
374.061	123.06
374.287	114.06
374.513	82.06
374.739	83.06
374.965	73.06
375.191	90.06
375.416	91.06
375.642	83.06
375.868	93.06
376.094	98.06
376.319	76.06
376.545	84.06
376.771	82.06
376.997	81.06
377.222	88.06
377.448	91.06
377.674	88.06
377.899	80.06
378.125	84.06
378.35	87.06
378.576	84.06
378.802	88.06
379.027	80.06
379.253	89.06
379.478	75.06
379.704	92.06
379.929	94.06
380.155	86.06
380.38	74.06
380.606	80.06
380.831	75.06
381.057	98.06
381.282	80.06
381.507	87.06
381.733	80.06
381.958	98.06
382.184	82.06
382.409	78.06
382.634	76.06
382.86	98.06
383.085	83.06
383.31	77.06
383.535	68.06
383.761	88.06
383.986	79.06
384.211	80.06
384.436	86.06
384.662	82.06
384.887	88.06
385.112	89.06
385.337	88.06
385.562	83.06
385.787	87.06
386.013	91.06
386.238	94.06
386.463	94.06
386.688	92.06
386.913	81.06
387.138	88.06
387.363	76.06
387.588	90.06
387.813	74.06
388.038	81.06
388.263	82.06
388.488	77.06
388.713	90.06
388.938	84.06
389.163	81.06
389.387	101.06
389.612	74.06
389.837	74.06
390.062	82.06
390.287	94.06
390.512	88.06
390.736	93.06
390.961	85.06
391.186	83.06
391.411	84.06
391.636	74.06
391.86	83.06
392.085	90.06
392.31	70.06
392.534	92.06
392.759	76.06
392.984	83.06
393.208	74.06
393.433	88.06
393.658	87.06
393.882	83.06
394.107	89.06
394.331	82.06
394.556	79.06
394.78	72.06
395.005	79.06
395.229	92.06
395.454	79.06
395.678	72.06
395.903	81.06
396.127	91.06
396.352	83.06
396.576	86.06
396.801	79.06
397.025	83.06
397.249	85.06
397.474	86.06
397.698	86.06
397.922	88.06
398.147	74.06
398.371	75.06
398.595	88.06
398.82	83.06
399.044	86.06
399.268	93.06
399.492	90.06
399.717	75.06
399.941	77.06
400.165	76.06
400.389	94.06
400.613	81.06
400.837	81.06
401.062	89.06
401.286	87.06
401.51	86.06
401.734	84.06
401.958	86.06
402.182	95.06
402.406	88.06
402.63	77.06
402.854	78.06
403.078	84.06
403.302	76.06
403.526	96.06
403.75	86.06
403.974	83.06
404.198	76.06
404.422	74.06
404.645	80.06
404.869	79.06
405.093	102.06
405.317	114.06
405.541	182.06
405.765	289.06
405.988	313.06
406.212	166.06
406.436	126.06
406.66	91.06
406.883	81.06
407.107	89.06
407.331	87.06
407.555	81.06
407.778	74.06
408.002	91.06
408.226	81.06
408.449	83.06
408.673	80.06
408.896	72.06
409.12	78.06
409.344	97.06
409.567	94.06
409.791	88.06
410.014	87.06
410.238	64.06
410.461	91.06
410.685	89.06
410.908	64.06
411.132	98.06
411.355	86.06
411.578	69.06
411.802	82.06
412.025	75.06
412.249	82.06
412.472	85.06
412.695	81.06
412.919	84.06
413.142	80.06
413.365	79.06
413.589	78.06
413.812	94.06
414.035	91.06
414.258	81.06
414.482	76.06
414.705	82.06
414.928	94.06
415.151	78.06
415.374	87.06
415.597	82.06
415.821	83.06
416.044	86.06
416.267	80.06
416.49	97.06
416.713	95.06
416.936	85.06
417.159	82.06
417.382	68.06
417.605	78.06
417.828	87.06
418.051	82.06
418.274	72.06
418.497	91.06
418.72	84.06
418.943	82.06
419.166	98.06
419.389	80.06
419.611	92.06
419.834	78.06
420.057	69.06
420.28	92.06
420.503	81.06
420.726	84.06
420.948	70.06
421.171	83.06
421.394	85.06
421.617	89.06
421.839	67.06
422.062	79.06
422.285	96.06
422.507	77.06
422.73	81.06
422.953	76.06
423.175	76.06
423.398	78.06
423.621	86.06
423.843	83.06
424.066	95.06
424.288	87.06
424.511	84.06
424.733	86.06
424.956	86.06
425.178	77.06
425.401	78.06
425.623	90.06
425.846	70.06
426.068	73.06
426.291	87.06
426.513	82.06
426.735	89.06
426.958	82.06
427.18	78.06
427.402	81.06
427.625	84.06
427.847	73.06
428.069	70.06
428.292	76.06
428.514	87.06
428.736	80.06
428.958	86.06
429.181	74.06
429.403	87.06
429.625	95.06
429.847	92.06
430.069	73.06
430.292	88.06
430.514	90.06
430.736	90.06
430.958	83.06
431.18	81.06
431.402	75.06
431.624	89.06
431.846	77.06
432.068	75.06
432.29	93.06
432.512	79.06
432.734	92.06
432.956	79.06
433.178	89.06
433.4	90.06
433.622	89.06
433.844	76.06
434.066	67.06
434.287	80.06
434.509	78.06
434.731	83.06
434.953	87.06
435.175	76.06
435.397	90.06
435.618	88.06
435.84	87.06
436.062	90.06
436.284	97.06
436.505	88.06
436.727	95.06
436.949	74.06
437.17	81.06
437.392	88.06
437.614	88.06
437.835	79.06
438.057	75.06
438.278	90.06
438.5	87.06
438.721	70.06
438.943	92.06
439.165	83.06
439.386	96.06
439.608	87.06
439.829	87.06
440.05	74.06
440.272	62.06
440.493	96.06
440.715	84.06
440.936	77.06
441.158	96.06
441.379	89.06
441.6	87.06
441.822	94.06
442.043	75.06
442.264	81.06
442.486	73.06
442.707	82.06
442.928	74.06
443.149	81.06
443.371	99.06
443.592	93.06
443.813	75.06
444.034	90.06
444.255	76.06
444.476	80.06
444.698	72.06
444.919	80.06
445.14	144.06
445.361	118.06
445.582	97.06
445.803	72.06
446.024	86.06
446.245	88.06
446.466	73.06
446.687	76.06
446.908	82.06
447.129	94.06
447.35	93.06
447.571	81.06
447.792	84.06
448.013	80.06
448.234	77.06
448.455	83.06
448.675	70.06
448.896	94.06
449.117	79.06
449.338	83.06
449.559	104.06
449.779	71.06
450	95.06
450.221	80.06
450.442	79.06
450.662	76.06
450.883	72.06
451.104	80.06
451.324	66.06
451.545	94.06
451.766	99.06
451.986	83.06
452.207	77.06
452.428	89.06
452.648	84.06
452.869	82.06
453.089	72.06
453.31	80.06
453.53	94.06
453.751	83.06
453.971	86.06
454.192	79.06
454.412	84.06
454.633	91.06
454.853	88.06
455.073	81.06
455.294	98.06
455.514	78.06
455.734	84.06
455.955	55.06
456.175	90.06
456.395	85.06
456.616	82.06
456.836	84.06
457.056	75.06
457.276	75.06
457.497	86.06
457.717	82.06
457.937	87.06
458.157	82.06
458.377	81.06
458.598	80.06
458.818	73.06
459.038	84.06
459.258	84.06
459.478	78.06
459.698	82.06
459.918	76.06
460.138	84.06
460.358	82.06
460.578	86.06
460.798	90.06
461.018	90.06
461.238	88.06
461.458	91.06
461.678	90.06
461.898	77.06
462.118	85.06
462.338	79.06
462.558	76.06
462.777	89.06
462.997	95.06
463.217	85.06
463.437	72.06
463.657	90.06
463.876	99.06
464.096	78.06
464.316	84.06
464.536	91.06
464.755	75.06
464.975	83.06
465.195	85.06
465.414	88.06
465.634	86.06
465.854	79.06
466.073	95.06
466.293	82.06
466.512	86.06
466.732	83.06
466.951	86.06
467.171	94.06
467.391	69.06
467.61	83.06
467.829	81.06
468.049	83.06
468.268	72.06
468.488	79.06
468.707	86.06
468.927	81.06
469.146	77.06
469.365	83.06
469.585	85.06
469.804	73.06
470.023	87.06
470.243	98.06
470.462	70.06
470.681	70.06
470.901	87.06
471.12	75.06
471.339	68.06
471.558	79.06
471.777	83.06
471.997	86.06
472.216	74.06
472.435	88.06
472.654	87.06
472.873	80.06
473.092	83.06
473.311	87.06
473.53	76.06
473.749	87.06
473.968	85.06
474.187	97.06
474.406	74.06
474.625	84.06
474.844	93.06
475.063	97.06
475.282	77.06
475.501	78.06
475.72	76.06
475.939	82.06
476.158	83.06
476.377	90.06
476.596	82.06
476.814	72.06
477.033	75.06
477.252	85.06
477.471	78.06
477.69	77.06
477.908	78.06
478.127	83.06
478.346	90.06
478.564	75.06
478.783	90.06
479.002	89.06
479.22	85.06
479.439	87.06
479.658	78.06
479.876	88.06
480.095	72.06
480.313	96.06
480.532	90.06
480.751	83.06
480.969	87.06
481.188	84.06
481.406	72.06
481.624	75.06
481.843	93.06
482.061	89.06
482.28	80.06
482.498	79.06
482.717	87.06
482.935	94.06
483.153	82.06
483.372	89.06
483.59	72.06
483.808	95.06
484.027	92.06
484.245	80.06
484.463	84.06
484.681	79.06
484.9	87.06
485.118	71.06
485.336	92.06
485.554	82.06
485.772	74.06
485.99	93.06
486.209	83.06
486.427	83.06
486.645	94.06
486.863	93.06
487.081	89.06
487.299	96.06
487.517	86.06
487.735	75.06
487.953	92.06
488.171	75.06
488.389	88.06
488.607	81.06
488.825	77.06
489.043	78.06
489.261	80.06
489.479	74.06
489.696	82.06
489.914	97.06
490.132	88.06
490.35	93.06
490.568	92.06
490.786	95.06
491.003	87.06
491.221	84.06
491.439	88.06
491.657	83.06
491.874	83.06
492.092	84.06
492.31	100.06
492.527	77.06
492.745	81.06
492.963	79.06
493.18	78.06
493.398	73.06
493.615	72.06
493.833	84.06
494.05	83.06
494.268	93.06
494.485	104.06
494.703	86.06
494.92	72.06
495.138	79.06
495.355	82.06
495.573	93.06
495.79	74.06
496.008	91.06
496.225	87.06
496.442	99.06
496.66	79.06
496.877	91.06
497.094	92.06
497.312	81.06
497.529	88.06
497.746	81.06
497.963	89.06
498.181	84.06
498.398	87.06
498.615	96.06
498.832	77.06
499.049	89.06
499.267	84.06
499.484	87.06
499.701	94.06
499.918	88.06
500.135	90.06
500.352	95.06
500.569	108.06
500.786	113.06
501.003	78.06
501.22	80.06
501.437	70.06
501.654	86.06
501.871	97.06
502.088	82.06
502.305	98.06
502.522	81.06
502.739	95.06
502.956	76.06
503.172	82.06
503.389	88.06
503.606	86.06
503.823	79.06
504.04	86.06
504.256	82.06
504.473	82.06
504.69	79.06
504.907	99.06
505.123	86.06
505.34	76.06
505.557	84.06
505.773	91.06
505.99	95.06
506.207	88.06
506.423	95.06
506.64	90.06
506.856	88.06
507.073	80.06
507.289	103.06
507.506	104.06
507.722	80.06
507.939	72.06
508.155	91.06
508.372	94.06
508.588	80.06
508.805	89.06
509.021	83.06
509.238	88.06
509.454	86.06
509.67	79.06
509.887	84.06
510.103	90.06
510.319	96.06
510.536	92.06
510.752	91.06
510.968	93.06
511.184	77.06
511.401	105.06
511.617	96.06
511.833	82.06
512.049	86.06
512.265	82.06
512.481	77.06
512.698	86.06
512.914	89.06
513.13	80.06
513.346	86.06
513.562	78.06
513.778	76.06
513.994	81.06
514.21	88.06
514.426	74.06
514.642	70.06
514.858	80.06
515.074	90.06
515.29	87.06
515.506	92.06
515.721	82.06
515.937	91.06
516.153	83.06
516.369	91.06
516.585	72.06
516.801	70.06
517.016	75.06
517.232	85.06
517.448	79.06
517.664	85.06
517.879	81.06
518.095	85.06
518.311	90.06
518.527	90.06
518.742	98.06
518.958	74.06
519.173	88.06
519.389	82.06
519.605	85.06
