Data from StdB_HRD10591_005.txt Node
Date: Fri May 16 15:24:48 EDT 2025
User: Yrep
Spectrometer: HR+D1059
Trigger mode: 1
Integration Time (sec): 1.000000E-1
Scans to average: 1
Electric dark correction enabled: true
Nonlinearity correction enabled: false
Boxcar width: 0
XAxis mode: Wavelengths
Number of Pixels in Spectrum: 2048
>>>>>Begin Spectral Data<<<<<
223.165	-18.88
223.4	-18.88
223.635	-18.88
223.869	-33.88
224.104	-18.88
224.338	-20.88
224.573	-23.88
224.808	-12.88
225.042	4.12
225.277	-9.88
225.511	-3.88
225.746	14.12
225.98	12.12
226.215	22.12
226.449	12.12
226.683	13.12
226.918	30.12
227.152	35.12
227.387	23.12
227.621	28.12
227.856	49.12
228.09	51.12
228.324	51.12
228.559	55.12
228.793	56.12
229.027	68.12
229.262	74.12
229.496	80.12
229.73	93.12
229.964	74.12
230.199	78.12
230.433	78.12
230.667	81.12
230.901	75.12
231.136	90.12
231.37	92.12
231.604	97.12
231.838	92.12
232.072	93.12
232.306	87.12
232.541	93.12
232.775	87.12
233.009	94.12
233.243	97.12
233.477	96.12
233.711	92.12
233.945	86.12
234.179	113.12
234.413	99.12
234.647	89.12
234.881	89.12
235.115	104.12
235.349	90.12
235.583	91.12
235.817	100.12
236.051	103.12
236.285	106.12
236.519	94.12
236.753	90.12
236.987	99.12
237.221	87.12
237.455	110.12
237.689	101.12
237.922	88.12
238.156	99.12
238.39	87.12
238.624	93.12
238.858	105.12
239.091	112.12
239.325	84.12
239.559	105.12
239.793	112.12
240.027	104.12
240.26	109.12
240.494	100.12
240.728	93.12
240.961	91.12
241.195	100.12
241.429	102.12
241.662	104.12
241.896	99.12
242.13	97.12
242.363	96.12
242.597	110.12
242.83	95.12
243.064	106.12
243.298	91.12
243.531	93.12
243.765	104.12
243.998	109.12
244.232	103.12
244.465	97.12
244.699	105.12
244.932	125.12
245.166	96.12
245.399	101.12
245.633	96.12
245.866	97.12
246.099	96.12
246.333	101.12
246.566	94.12
246.8	111.12
247.033	97.12
247.266	103.12
247.5	99.12
247.733	121.12
247.966	119.12
248.2	113.12
248.433	111.12
248.666	94.12
248.899	102.12
249.133	101.12
249.366	103.12
249.599	106.12
249.832	100.12
250.066	114.12
250.299	114.12
250.532	114.12
250.765	123.12
250.998	118.12
251.231	128.12
251.465	97.12
251.698	126.12
251.931	128.12
252.164	139.12
252.397	124.12
252.63	127.12
252.863	143.12
253.096	142.12
253.329	143.12
253.562	128.12
253.795	143.12
254.028	123.12
254.261	125.12
254.494	132.12
254.727	120.12
254.96	117.12
255.193	132.12
255.426	125.12
255.659	147.12
255.892	129.12
256.124	124.12
256.357	143.12
256.59	141.12
256.823	132.12
257.056	133.12
257.289	141.12
257.521	148.12
257.754	160.12
257.987	175.12
258.22	175.12
258.452	152.12
258.685	141.12
258.918	137.12
259.151	137.12
259.383	127.12
259.616	137.12
259.849	135.12
260.081	156.12
260.314	158.12
260.547	157.12
260.779	184.12
261.012	205.12
261.244	269.12
261.477	319.12
261.71	348.12
261.942	237.12
262.175	186.12
262.407	166.12
262.64	182.12
262.872	153.12
263.105	161.12
263.337	161.12
263.57	128.12
263.802	136.12
264.035	155.12
264.267	148.12
264.499	165.12
264.732	160.12
264.964	190.12
265.197	195.12
265.429	176.12
265.661	158.12
265.894	167.12
266.126	183.12
266.358	224.12
266.591	231.12
266.823	189.12
267.055	160.12
267.287	158.12
267.52	125.12
267.752	140.12
267.984	121.12
268.216	133.12
268.448	125.12
268.681	135.12
268.913	140.12
269.145	129.12
269.377	152.12
269.609	135.12
269.841	152.12
270.073	147.12
270.306	136.12
270.538	147.12
270.77	138.12
271.002	127.12
271.234	129.12
271.466	147.12
271.698	130.12
271.93	140.12
272.162	143.12
272.394	134.12
272.626	144.12
272.858	124.12
273.09	139.12
273.322	139.12
273.553	141.12
273.785	133.12
274.017	128.12
274.249	147.12
274.481	133.12
274.713	132.12
274.945	139.12
275.176	143.12
275.408	136.12
275.64	145.12
275.872	135.12
276.104	146.12
276.335	147.12
276.567	144.12
276.799	160.12
277.031	136.12
277.262	165.12
277.494	145.12
277.726	149.12
277.957	164.12
278.189	167.12
278.421	185.12
278.652	176.12
278.884	192.12
279.115	191.12
279.347	231.12
279.579	271.12
279.81	342.12
280.042	422.12
280.273	524.12
280.505	469.12
280.736	301.12
280.968	268.12
281.199	213.12
281.431	194.12
281.662	219.12
281.894	223.12
282.125	241.12
282.356	264.12
282.588	264.12
282.819	256.12
283.051	256.12
283.282	340.12
283.513	410.12
283.745	309.12
283.976	231.12
284.207	206.12
284.439	190.12
284.67	188.12
284.901	184.12
285.132	184.12
285.364	181.12
285.595	161.12
285.826	163.12
286.057	195.12
286.288	184.12
286.52	179.12
286.751	207.12
286.982	229.12
287.213	264.12
287.444	309.12
287.675	268.12
287.906	208.12
288.138	183.12
288.369	175.12
288.6	173.12
288.831	169.12
289.062	157.12
289.293	156.12
289.524	165.12
289.755	158.12
289.986	161.12
290.217	159.12
290.448	158.12
290.679	156.12
290.91	148.12
291.141	163.12
291.371	152.12
291.602	160.12
291.833	151.12
292.064	156.12
292.295	168.12
292.526	160.12
292.757	159.12
292.987	151.12
293.218	145.12
293.449	176.12
293.68	171.12
293.91	162.12
294.141	168.12
294.372	167.12
294.603	164.12
294.833	171.12
295.064	166.12
295.295	173.12
295.525	161.12
295.756	171.12
295.987	169.12
296.217	162.12
296.448	173.12
296.679	176.12
296.909	167.12
297.14	165.12
297.37	175.12
297.601	173.12
297.831	163.12
298.062	168.12
298.292	166.12
298.523	175.12
298.753	168.12
298.984	167.12
299.214	163.12
299.445	164.12
299.675	170.12
299.905	166.12
300.136	157.12
300.366	151.12
300.597	150.12
300.827	169.12
301.057	157.12
301.288	180.12
301.518	165.12
301.748	175.12
301.979	190.12
302.209	175.12
302.439	180.12
302.669	179.12
302.9	173.12
303.13	190.12
303.36	170.12
303.59	168.12
303.82	171.12
304.051	188.12
304.281	177.12
304.511	183.12
304.741	179.12
304.971	188.12
305.201	156.12
305.431	180.12
305.661	184.12
305.891	173.12
306.121	179.12
306.352	177.12
306.582	167.12
306.812	181.12
307.042	179.12
307.272	182.12
307.502	182.12
307.731	175.12
307.961	185.12
308.191	171.12
308.421	183.12
308.651	176.12
308.881	176.12
309.111	171.12
309.341	171.12
309.571	175.12
309.8	172.12
310.03	176.12
310.26	183.12
310.49	172.12
310.72	188.12
310.949	171.12
311.179	179.12
311.409	182.12
311.639	194.12
311.868	167.12
312.098	177.12
312.328	201.12
312.557	178.12
312.787	189.12
313.017	181.12
313.246	184.12
313.476	200.12
313.706	204.12
313.935	223.12
314.165	213.12
314.394	204.12
314.624	213.12
314.853	212.12
315.083	213.12
315.312	233.12
315.542	222.12
315.771	206.12
316.001	205.12
316.23	201.12
316.46	192.12
316.689	204.12
316.919	208.12
317.148	206.12
317.377	191.12
317.607	197.12
317.836	213.12
318.065	210.12
318.295	209.12
318.524	192.12
318.753	183.12
318.983	195.12
319.212	195.12
319.441	199.12
319.67	195.12
319.9	181.12
320.129	187.12
320.358	174.12
320.587	190.12
320.816	188.12
321.046	186.12
321.275	166.12
321.504	185.12
321.733	188.12
321.962	189.12
322.191	195.12
322.42	187.12
322.649	181.12
322.878	189.12
323.108	158.12
323.337	195.12
323.566	184.12
323.795	165.12
324.024	185.12
324.253	194.12
324.482	181.12
324.71	202.12
324.939	203.12
325.168	178.12
325.397	191.12
325.626	202.12
325.855	193.12
326.084	203.12
326.313	191.12
326.542	184.12
326.77	198.12
326.999	189.12
327.228	181.12
327.457	196.12
327.686	190.12
327.914	199.12
328.143	183.12
328.372	191.12
328.6	184.12
328.829	199.12
329.058	203.12
329.287	198.12
329.515	200.12
329.744	190.12
329.972	191.12
330.201	188.12
330.43	193.12
330.658	197.12
330.887	203.12
331.115	194.12
331.344	203.12
331.572	207.12
331.801	187.12
332.03	192.12
332.258	188.12
332.486	189.12
332.715	183.12
332.943	200.12
333.172	194.12
333.4	187.12
333.629	200.12
333.857	193.12
334.085	189.12
334.314	190.12
334.542	196.12
334.771	209.12
334.999	193.12
335.227	192.12
335.455	197.12
335.684	200.12
335.912	199.12
336.14	203.12
336.369	203.12
336.597	200.12
336.825	183.12
337.053	192.12
337.281	189.12
337.51	207.12
337.738	185.12
337.966	177.12
338.194	183.12
338.422	187.12
338.65	190.12
338.878	174.12
339.106	187.12
339.334	203.12
339.562	179.12
339.79	191.12
340.018	199.12
340.246	185.12
340.474	187.12
340.702	193.12
340.93	194.12
341.158	186.12
341.386	188.12
341.614	187.12
341.842	198.12
342.07	194.12
342.298	198.12
342.526	195.12
342.754	183.12
342.981	179.12
343.209	191.12
343.437	184.12
343.665	200.12
343.893	193.12
344.12	211.12
344.348	213.12
344.576	200.12
344.804	191.12
345.031	192.12
345.259	179.12
345.487	187.12
345.714	196.12
345.942	193.12
346.17	212.12
346.397	189.12
346.625	190.12
346.853	179.12
347.08	198.12
347.308	190.12
347.535	187.12
347.763	191.12
347.99	185.12
348.218	197.12
348.445	200.12
348.673	185.12
348.9	197.12
349.128	205.12
349.355	192.12
349.583	189.12
349.81	181.12
350.037	190.12
350.265	199.12
350.492	177.12
350.72	204.12
350.947	176.12
351.174	183.12
351.402	169.12
351.629	189.12
351.856	182.12
352.083	182.12
352.311	191.12
352.538	194.12
352.765	217.12
352.992	193.12
353.22	199.12
353.447	199.12
353.674	195.12
353.901	190.12
354.128	183.12
354.355	180.12
354.583	199.12
354.81	180.12
355.037	209.12
355.264	203.12
355.491	198.12
355.718	204.12
355.945	219.12
356.172	215.12
356.399	219.12
356.626	263.12
356.853	314.12
357.08	437.12
357.307	575.12
357.534	568.12
357.761	402.12
357.988	316.12
358.215	283.12
358.441	274.12
358.668	248.12
358.895	223.12
359.122	232.12
359.349	221.12
359.576	217.12
359.802	224.12
360.029	208.12
360.256	233.12
360.483	213.12
360.709	216.12
360.936	207.12
361.163	209.12
361.39	213.12
361.616	212.12
361.843	211.12
362.07	209.12
362.296	213.12
362.523	217.12
362.749	213.12
362.976	231.12
363.203	272.12
363.429	305.12
363.656	435.12
363.882	629.12
364.109	759.12
364.335	516.12
364.562	365.12
364.788	305.12
365.015	261.12
365.241	232.12
365.468	227.12
365.694	215.12
365.92	232.12
366.147	227.12
366.373	235.12
366.599	248.12
366.826	264.12
367.052	319.12
367.278	368.12
367.505	333.12
367.731	355.12
367.957	488.12
368.184	735.12
368.41	1012.12
368.636	845.12
368.862	515.12
369.089	363.12
369.315	313.12
369.541	281.12
369.767	244.12
369.993	248.12
370.219	233.12
370.445	243.12
370.672	238.12
370.898	227.12
371.124	219.12
371.35	239.12
371.576	220.12
371.802	223.12
372.028	240.12
372.254	239.12
372.48	236.12
372.706	223.12
372.932	249.12
373.158	244.12
373.384	273.12
373.61	337.12
373.835	485.12
374.061	631.12
374.287	576.12
374.513	382.12
374.739	322.12
374.965	267.12
375.191	238.12
375.416	225.12
375.642	221.12
375.868	222.12
376.094	219.12
376.319	203.12
376.545	238.12
376.771	218.12
376.997	196.12
377.222	200.12
377.448	205.12
377.674	208.12
377.899	204.12
378.125	226.12
378.35	206.12
378.576	199.12
378.802	240.12
379.027	213.12
379.253	220.12
379.478	222.12
379.704	207.12
379.929	201.12
380.155	205.12
380.38	206.12
380.606	213.12
380.831	204.12
381.057	203.12
381.282	207.12
381.507	211.12
381.733	208.12
381.958	205.12
382.184	215.12
382.409	211.12
382.634	230.12
382.86	217.12
383.085	219.12
383.31	212.12
383.535	205.12
383.761	201.12
383.986	226.12
384.211	204.12
384.436	206.12
384.662	214.12
384.887	230.12
385.112	220.12
385.337	213.12
385.562	221.12
385.787	218.12
386.013	209.12
386.238	212.12
386.463	221.12
386.688	223.12
386.913	207.12
387.138	220.12
387.363	208.12
387.588	211.12
387.813	223.12
388.038	211.12
388.263	229.12
388.488	215.12
388.713	214.12
388.938	200.12
389.163	233.12
389.387	203.12
389.612	212.12
389.837	225.12
390.062	213.12
390.287	209.12
390.512	236.12
390.736	217.12
390.961	225.12
391.186	220.12
391.411	204.12
391.636	219.12
391.86	225.12
392.085	214.12
392.31	241.12
392.534	216.12
392.759	240.12
392.984	222.12
393.208	235.12
393.433	236.12
393.658	229.12
393.882	210.12
394.107	213.12
394.331	223.12
394.556	234.12
394.78	210.12
395.005	233.12
395.229	222.12
395.454	231.12
395.678	222.12
395.903	220.12
396.127	199.12
396.352	223.12
396.576	212.12
396.801	213.12
397.025	212.12
397.249	247.12
397.474	232.12
397.698	222.12
397.922	219.12
398.147	225.12
398.371	213.12
398.595	230.12
398.82	222.12
399.044	250.12
399.268	263.12
399.492	247.12
399.717	261.12
399.941	275.12
400.165	253.12
400.389	257.12
400.613	254.12
400.837	257.12
401.062	251.12
401.286	253.12
401.51	268.12
401.734	274.12
401.958	317.12
402.182	304.12
402.406	256.12
402.63	252.12
402.854	251.12
403.078	259.12
403.302	269.12
403.526	253.12
403.75	261.12
403.974	269.12
404.198	268.12
404.422	291.12
404.645	280.12
404.869	309.12
405.093	393.12
405.317	482.12
405.541	821.12
405.765	1357.12
405.988	1595.12
406.212	1066.12
406.436	681.12
406.66	491.12
406.883	412.12
407.107	362.12
407.331	328.12
407.555	333.12
407.778	296.12
408.002	286.12
408.226	293.12
408.449	296.12
408.673	280.12
408.896	276.12
409.12	269.12
409.344	257.12
409.567	263.12
409.791	250.12
410.014	259.12
410.238	259.12
410.461	264.12
410.685	258.12
410.908	246.12
411.132	232.12
411.355	244.12
411.578	244.12
411.802	266.12
412.025	267.12
412.249	251.12
412.472	251.12
412.695	236.12
412.919	240.12
413.142	233.12
413.365	256.12
413.589	238.12
413.812	251.12
414.035	240.12
414.258	244.12
414.482	236.12
414.705	220.12
414.928	242.12
415.151	224.12
415.374	232.12
415.597	247.12
415.821	231.12
416.044	240.12
416.267	236.12
416.49	253.12
416.713	262.12
416.936	283.12
417.159	258.12
417.382	228.12
417.605	243.12
417.828	250.12
418.051	240.12
418.274	237.12
418.497	254.12
418.72	249.12
418.943	258.12
419.166	254.12
419.389	238.12
419.611	249.12
419.834	239.12
420.057	239.12
420.28	255.12
420.503	239.12
420.726	227.12
420.948	253.12
421.171	258.12
421.394	263.12
421.617	269.12
421.839	266.12
422.062	258.12
422.285	264.12
422.507	291.12
422.73	303.12
422.953	293.12
423.175	303.12
423.398	304.12
423.621	337.12
423.843	390.12
424.066	423.12
424.288	513.12
424.511	654.12
424.733	715.12
424.956	608.12
425.178	509.12
425.401	457.12
425.623	409.12
425.846	365.12
426.068	361.12
426.291	344.12
426.513	333.12
426.735	326.12
426.958	297.12
427.18	296.12
427.402	293.12
427.625	284.12
427.847	260.12
428.069	257.12
428.292	268.12
428.514	267.12
428.736	267.12
428.958	253.12
429.181	248.12
429.403	243.12
429.625	259.12
429.847	240.12
430.069	252.12
430.292	256.12
430.514	240.12
430.736	244.12
430.958	238.12
431.18	252.12
431.402	238.12
431.624	235.12
431.846	241.12
432.068	246.12
432.29	236.12
432.512	235.12
432.734	233.12
432.956	237.12
433.178	243.12
433.4	257.12
433.622	253.12
433.844	252.12
434.066	276.12
434.287	271.12
434.509	282.12
434.731	251.12
434.953	247.12
435.175	259.12
435.397	270.12
435.618	267.12
435.84	262.12
436.062	251.12
436.284	267.12
436.505	265.12
436.727	287.12
436.949	277.12
437.17	286.12
437.392	296.12
437.614	312.12
437.835	316.12
438.057	366.12
438.278	367.12
438.5	484.12
438.721	604.12
438.943	634.12
439.165	540.12
439.386	496.12
439.608	430.12
439.829	391.12
440.05	377.12
440.272	396.12
440.493	389.12
440.715	406.12
440.936	448.12
441.158	459.12
441.379	397.12
441.6	373.12
441.822	330.12
442.043	314.12
442.264	297.12
442.486	305.12
442.707	277.12
442.928	265.12
443.149	260.12
443.371	266.12
443.592	257.12
443.813	259.12
444.034	263.12
444.255	283.12
444.476	281.12
444.698	268.12
444.919	256.12
445.14	328.12
445.361	268.12
445.582	245.12
445.803	233.12
446.024	247.12
446.245	252.12
446.466	248.12
446.687	240.12
446.908	222.12
447.129	215.12
447.35	237.12
447.571	241.12
447.792	232.12
448.013	248.12
448.234	235.12
448.455	227.12
448.675	228.12
448.896	222.12
449.117	219.12
449.338	224.12
449.559	241.12
449.779	241.12
450	219.12
450.221	223.12
450.442	236.12
450.662	231.12
450.883	206.12
451.104	208.12
451.324	216.12
451.545	228.12
451.766	212.12
451.986	214.12
452.207	226.12
452.428	231.12
452.648	225.12
452.869	219.12
453.089	219.12
453.31	200.12
453.53	215.12
453.751	204.12
453.971	209.12
454.192	203.12
454.412	199.12
454.633	202.12
454.853	199.12
455.073	206.12
455.294	199.12
455.514	199.12
455.734	208.12
455.955	205.12
456.175	212.12
456.395	197.12
456.616	192.12
456.836	205.12
457.056	214.12
457.276	211.12
457.497	205.12
457.717	208.12
457.937	208.12
458.157	217.12
458.377	206.12
458.598	211.12
458.818	196.12
459.038	222.12
459.258	228.12
459.478	220.12
459.698	217.12
459.918	235.12
460.138	220.12
460.358	234.12
460.578	222.12
460.798	231.12
461.018	234.12
461.238	223.12
461.458	228.12
461.678	205.12
461.898	239.12
462.118	235.12
462.338	252.12
462.558	222.12
462.777	229.12
462.997	231.12
463.217	237.12
463.437	245.12
463.657	236.12
463.876	229.12
464.096	243.12
464.316	239.12
464.536	235.12
464.755	207.12
464.975	221.12
465.195	219.12
465.414	202.12
465.634	219.12
465.854	215.12
466.073	214.12
466.293	222.12
466.512	205.12
466.732	194.12
466.951	202.12
467.171	206.12
467.391	224.12
467.61	203.12
467.829	199.12
468.049	202.12
468.268	199.12
468.488	202.12
468.707	190.12
468.927	223.12
469.146	208.12
469.365	207.12
469.585	201.12
469.804	214.12
470.023	197.12
470.243	192.12
470.462	206.12
470.681	211.12
470.901	222.12
471.12	215.12
471.339	202.12
471.558	224.12
471.777	220.12
471.997	209.12
472.216	219.12
472.435	215.12
472.654	213.12
472.873	197.12
473.092	210.12
473.311	215.12
473.53	200.12
473.749	200.12
473.968	214.12
474.187	224.12
474.406	220.12
474.625	221.12
474.844	201.12
475.063	219.12
475.282	228.12
475.501	227.12
475.72	221.12
475.939	221.12
476.158	220.12
476.377	225.12
476.596	225.12
476.814	238.12
477.033	223.12
477.252	237.12
477.471	238.12
477.69	240.12
477.908	246.12
478.127	249.12
478.346	249.12
478.564	244.12
478.783	248.12
479.002	269.12
479.22	255.12
479.439	254.12
479.658	264.12
479.876	260.12
480.095	248.12
480.313	260.12
480.532	251.12
480.751	264.12
480.969	238.12
481.188	249.12
481.406	243.12
481.624	233.12
481.843	244.12
482.061	239.12
482.28	242.12
482.498	231.12
482.717	243.12
482.935	237.12
483.153	245.12
483.372	255.12
483.59	254.12
483.808	237.12
484.027	246.12
484.245	247.12
484.463	233.12
484.681	237.12
484.9	251.12
485.118	264.12
485.336	233.12
485.554	246.12
485.772	231.12
485.99	227.12
486.209	239.12
486.427	230.12
486.645	248.12
486.863	244.12
487.081	241.12
487.299	248.12
487.517	258.12
487.735	253.12
487.953	245.12
488.171	247.12
488.389	243.12
488.607	242.12
488.825	265.12
489.043	255.12
489.261	247.12
489.479	251.12
489.696	264.12
489.914	244.12
490.132	254.12
490.35	240.12
490.568	248.12
490.786	245.12
491.003	251.12
491.221	255.12
491.439	263.12
491.657	211.12
491.874	258.12
492.092	267.12
492.31	254.12
492.527	251.12
492.745	265.12
492.963	266.12
493.18	274.12
493.398	262.12
493.615	260.12
493.833	245.12
494.05	259.12
494.268	255.12
494.485	246.12
494.703	243.12
494.92	267.12
495.138	252.12
495.355	285.12
495.573	288.12
495.79	276.12
496.008	275.12
496.225	275.12
496.442	273.12
496.66	299.12
496.877	279.12
497.094	279.12
497.312	261.12
497.529	272.12
497.746	279.12
497.963	291.12
498.181	303.12
498.398	307.12
498.615	292.12
498.832	303.12
499.049	306.12
499.267	336.12
499.484	336.12
499.701	347.12
499.918	371.12
500.135	373.12
500.352	396.12
500.569	495.12
500.786	540.12
501.003	423.12
501.22	402.12
501.437	367.12
501.654	353.12
501.871	344.12
502.088	347.12
502.305	334.12
502.522	317.12
502.739	327.12
502.956	315.12
503.172	324.12
503.389	314.12
