Data from StdB_HRD10591_037.txt Node
Date: Fri May 16 15:25:04 EDT 2025
User: Yrep
Spectrometer: HR+D1059
Trigger mode: 1
Integration Time (sec): 1.000000E-1
Scans to average: 1
Electric dark correction enabled: true
Nonlinearity correction enabled: false
Boxcar width: 0
XAxis mode: Wavelengths
Number of Pixels in Spectrum: 2048
>>>>>Begin Spectral Data<<<<<
223.165	-33.62
223.4	-33.62
223.635	-33.62
223.869	-33.62
224.104	-16.62
224.338	-8.62
224.573	-9.62
224.808	-10.62
225.042	-2.62
225.277	-12.62
225.511	-8.62
225.746	-0.62
225.98	9.38
226.215	17.38
226.449	26.38
226.683	20.38
226.918	28.38
227.152	35.38
227.387	37.38
227.621	40.38
227.856	46.38
228.09	56.38
228.324	55.38
228.559	54.38
228.793	69.38
229.027	78.38
229.262	61.38
229.496	79.38
229.73	83.38
229.964	84.38
230.199	70.38
230.433	84.38
230.667	89.38
230.901	76.38
231.136	87.38
231.37	84.38
231.604	94.38
231.838	111.38
232.072	83.38
232.306	99.38
232.541	100.38
232.775	88.38
233.009	90.38
233.243	89.38
233.477	89.38
233.711	112.38
233.945	89.38
234.179	90.38
234.413	89.38
234.647	85.38
234.881	91.38
235.115	101.38
235.349	94.38
235.583	107.38
235.817	77.38
236.051	89.38
236.285	87.38
236.519	92.38
236.753	92.38
236.987	73.38
237.221	88.38
237.455	77.38
237.689	94.38
237.922	83.38
238.156	84.38
238.39	88.38
238.624	88.38
238.858	102.38
239.091	91.38
239.325	99.38
239.559	107.38
239.793	107.38
240.027	91.38
240.26	103.38
240.494	102.38
240.728	104.38
240.961	103.38
241.195	100.38
241.429	98.38
241.662	111.38
241.896	105.38
242.13	95.38
242.363	95.38
242.597	79.38
242.83	84.38
243.064	87.38
243.298	90.38
243.531	87.38
243.765	110.38
243.998	99.38
244.232	109.38
244.465	103.38
244.699	106.38
244.932	116.38
245.166	100.38
245.399	101.38
245.633	108.38
245.866	116.38
246.099	102.38
246.333	111.38
246.566	101.38
246.8	101.38
247.033	112.38
247.266	108.38
247.5	103.38
247.733	109.38
247.966	121.38
248.2	122.38
248.433	116.38
248.666	110.38
248.899	112.38
249.133	105.38
249.366	125.38
249.599	112.38
249.832	113.38
250.066	110.38
250.299	109.38
250.532	113.38
250.765	116.38
250.998	100.38
251.231	115.38
251.465	120.38
251.698	129.38
251.931	116.38
252.164	133.38
252.397	131.38
252.63	144.38
252.863	138.38
253.096	143.38
253.329	151.38
253.562	156.38
253.795	143.38
254.028	147.38
254.261	139.38
254.494	138.38
254.727	113.38
254.96	134.38
255.193	141.38
255.426	130.38
255.659	127.38
255.892	139.38
256.124	145.38
256.357	149.38
256.59	145.38
256.823	141.38
257.056	126.38
257.289	140.38
257.521	144.38
257.754	146.38
257.987	183.38
258.22	177.38
258.452	160.38
258.685	158.38
258.918	129.38
259.151	131.38
259.383	134.38
259.616	157.38
259.849	136.38
260.081	150.38
260.314	152.38
260.547	157.38
260.779	179.38
261.012	192.38
261.244	250.38
261.477	317.38
261.71	323.38
261.942	259.38
262.175	187.38
262.407	155.38
262.64	145.38
262.872	158.38
263.105	138.38
263.337	167.38
263.57	156.38
263.802	151.38
264.035	140.38
264.267	161.38
264.499	158.38
264.732	161.38
264.964	182.38
265.197	207.38
265.429	172.38
265.661	154.38
265.894	159.38
266.126	179.38
266.358	215.38
266.591	237.38
266.823	209.38
267.055	160.38
267.287	132.38
267.52	134.38
267.752	134.38
267.984	143.38
268.216	141.38
268.448	149.38
268.681	134.38
268.913	142.38
269.145	130.38
269.377	122.38
269.609	159.38
269.841	150.38
270.073	135.38
270.306	156.38
270.538	142.38
270.77	142.38
271.002	151.38
271.234	136.38
271.466	134.38
271.698	144.38
271.93	144.38
272.162	133.38
272.394	134.38
272.626	155.38
272.858	138.38
273.09	128.38
273.322	140.38
273.553	130.38
273.785	146.38
274.017	161.38
274.249	134.38
274.481	143.38
274.713	135.38
274.945	141.38
275.176	140.38
275.408	140.38
275.64	139.38
275.872	147.38
276.104	122.38
276.335	146.38
276.567	158.38
276.799	156.38
277.031	155.38
277.262	137.38
277.494	168.38
277.726	149.38
277.957	152.38
278.189	158.38
278.421	176.38
278.652	185.38
278.884	202.38
279.115	212.38
279.347	225.38
279.579	272.38
279.81	313.38
280.042	433.38
280.273	497.38
280.505	440.38
280.736	315.38
280.968	260.38
281.199	219.38
281.431	206.38
281.662	199.38
281.894	212.38
282.125	241.38
282.356	276.38
282.588	281.38
282.819	237.38
283.051	279.38
283.282	357.38
283.513	396.38
283.745	303.38
283.976	225.38
284.207	195.38
284.439	190.38
284.67	174.38
284.901	178.38
285.132	171.38
285.364	154.38
285.595	163.38
285.826	183.38
286.057	172.38
286.288	185.38
286.52	184.38
286.751	205.38
286.982	234.38
287.213	286.38
287.444	316.38
287.675	261.38
287.906	208.38
288.138	184.38
288.369	199.38
288.6	169.38
288.831	167.38
289.062	170.38
289.293	175.38
289.524	167.38
289.755	165.38
289.986	147.38
290.217	140.38
290.448	157.38
290.679	161.38
290.91	160.38
291.141	159.38
291.371	166.38
291.602	152.38
291.833	173.38
292.064	157.38
292.295	154.38
292.526	168.38
292.757	173.38
292.987	151.38
293.218	177.38
293.449	158.38
293.68	161.38
293.91	138.38
294.141	159.38
294.372	165.38
294.603	176.38
294.833	161.38
295.064	169.38
295.295	181.38
295.525	167.38
295.756	167.38
295.987	168.38
296.217	144.38
296.448	150.38
296.679	177.38
296.909	193.38
297.14	164.38
297.37	159.38
297.601	173.38
297.831	169.38
298.062	152.38
298.292	147.38
298.523	178.38
298.753	179.38
298.984	183.38
299.214	171.38
299.445	154.38
299.675	160.38
299.905	167.38
300.136	183.38
300.366	183.38
300.597	167.38
300.827	171.38
301.057	180.38
301.288	169.38
301.518	172.38
301.748	177.38
301.979	202.38
302.209	171.38
302.439	181.38
302.669	171.38
302.9	184.38
303.13	177.38
303.36	175.38
303.59	178.38
303.82	191.38
304.051	183.38
304.281	181.38
304.511	195.38
304.741	184.38
304.971	172.38
305.201	168.38
305.431	188.38
305.661	167.38
305.891	163.38
306.121	184.38
306.352	165.38
306.582	179.38
306.812	173.38
307.042	166.38
307.272	171.38
307.502	180.38
307.731	175.38
307.961	185.38
308.191	180.38
308.421	185.38
308.651	195.38
308.881	175.38
309.111	166.38
309.341	180.38
309.571	188.38
309.8	199.38
310.03	157.38
310.26	166.38
310.49	175.38
310.72	170.38
310.949	189.38
311.179	183.38
311.409	181.38
311.639	190.38
311.868	193.38
312.098	186.38
312.328	192.38
312.557	183.38
312.787	195.38
313.017	189.38
313.246	205.38
313.476	185.38
313.706	210.38
313.935	219.38
314.165	208.38
314.394	224.38
314.624	217.38
314.853	232.38
315.083	204.38
315.312	210.38
315.542	208.38
315.771	211.38
316.001	215.38
316.23	195.38
316.46	203.38
316.689	201.38
316.919	209.38
317.148	212.38
317.377	231.38
317.607	209.38
317.836	221.38
318.065	215.38
318.295	220.38
318.524	190.38
318.753	189.38
318.983	184.38
319.212	205.38
319.441	183.38
319.67	199.38
319.9	189.38
320.129	193.38
320.358	177.38
320.587	186.38
320.816	197.38
321.046	184.38
321.275	189.38
321.504	184.38
321.733	193.38
321.962	203.38
322.191	198.38
322.42	198.38
322.649	184.38
322.878	184.38
323.108	205.38
323.337	197.38
323.566	187.38
323.795	189.38
324.024	191.38
324.253	195.38
324.482	184.38
324.71	194.38
324.939	187.38
325.168	196.38
325.397	207.38
325.626	201.38
325.855	200.38
326.084	204.38
326.313	193.38
326.542	204.38
326.77	196.38
326.999	200.38
327.228	196.38
327.457	194.38
327.686	196.38
327.914	207.38
328.143	208.38
328.372	187.38
328.6	191.38
328.829	178.38
329.058	215.38
329.287	183.38
329.515	198.38
329.744	198.38
329.972	174.38
330.201	207.38
330.43	204.38
330.658	199.38
330.887	195.38
331.115	199.38
331.344	185.38
331.572	193.38
331.801	202.38
332.03	222.38
332.258	184.38
332.486	192.38
332.715	188.38
332.943	214.38
333.172	180.38
333.4	205.38
333.629	207.38
333.857	187.38
334.085	205.38
334.314	207.38
334.542	189.38
334.771	209.38
334.999	199.38
335.227	189.38
335.455	184.38
335.684	185.38
335.912	193.38
336.14	188.38
336.369	201.38
336.597	195.38
336.825	184.38
337.053	191.38
337.281	192.38
337.51	206.38
337.738	219.38
337.966	205.38
338.194	200.38
338.422	193.38
338.65	182.38
338.878	193.38
339.106	198.38
339.334	198.38
339.562	193.38
339.79	203.38
340.018	211.38
340.246	201.38
340.474	204.38
340.702	195.38
340.93	200.38
341.158	190.38
341.386	160.38
341.614	174.38
341.842	195.38
342.07	193.38
342.298	183.38
342.526	177.38
342.754	197.38
342.981	202.38
343.209	218.38
343.437	231.38
343.665	188.38
343.893	211.38
344.12	205.38
344.348	197.38
344.576	185.38
344.804	208.38
345.031	192.38
345.259	194.38
345.487	201.38
345.714	207.38
345.942	199.38
346.17	196.38
346.397	196.38
346.625	187.38
346.853	199.38
347.08	190.38
347.308	191.38
347.535	199.38
347.763	190.38
347.99	193.38
348.218	192.38
348.445	180.38
348.673	187.38
348.9	179.38
349.128	198.38
349.355	189.38
349.583	177.38
349.81	187.38
350.037	187.38
350.265	179.38
350.492	163.38
350.72	183.38
350.947	199.38
351.174	189.38
351.402	184.38
351.629	191.38
351.856	191.38
352.083	197.38
352.311	191.38
352.538	195.38
352.765	196.38
352.992	191.38
353.22	169.38
353.447	193.38
353.674	197.38
353.901	191.38
354.128	198.38
354.355	203.38
354.583	205.38
354.81	192.38
355.037	192.38
355.264	201.38
355.491	207.38
355.718	203.38
355.945	220.38
356.172	221.38
356.399	227.38
356.626	245.38
356.853	308.38
357.08	443.38
357.307	578.38
357.534	559.38
357.761	410.38
357.988	337.38
358.215	297.38
358.441	269.38
358.668	241.38
358.895	239.38
359.122	229.38
359.349	218.38
359.576	219.38
359.802	203.38
360.029	212.38
360.256	208.38
360.483	209.38
360.709	216.38
360.936	241.38
361.163	213.38
361.39	191.38
361.616	220.38
361.843	225.38
362.07	220.38
362.296	224.38
362.523	219.38
362.749	214.38
362.976	240.38
363.203	253.38
363.429	319.38
363.656	445.38
363.882	653.38
364.109	709.38
364.335	538.38
364.562	374.38
364.788	289.38
365.015	261.38
365.241	248.38
365.468	220.38
365.694	234.38
365.92	227.38
366.147	223.38
366.373	235.38
366.599	275.38
366.826	288.38
367.052	310.38
367.278	368.38
367.505	346.38
367.731	361.38
367.957	468.38
368.184	729.38
368.41	979.38
368.636	856.38
368.862	513.38
369.089	371.38
369.315	307.38
369.541	272.38
369.767	252.38
369.993	264.38
370.219	246.38
370.445	224.38
370.672	239.38
370.898	227.38
371.124	238.38
371.35	234.38
371.576	240.38
371.802	241.38
372.028	245.38
372.254	240.38
372.48	225.38
372.706	232.38
372.932	260.38
373.158	236.38
373.384	281.38
373.61	350.38
373.835	489.38
374.061	633.38
374.287	565.38
374.513	376.38
374.739	277.38
374.965	268.38
375.191	240.38
375.416	237.38
375.642	222.38
375.868	219.38
376.094	223.38
376.319	200.38
376.545	214.38
376.771	227.38
376.997	205.38
377.222	219.38
377.448	217.38
377.674	207.38
377.899	207.38
378.125	195.38
378.35	229.38
378.576	227.38
378.802	236.38
379.027	220.38
379.253	222.38
379.478	206.38
379.704	216.38
379.929	213.38
380.155	219.38
380.38	202.38
380.606	204.38
380.831	233.38
381.057	214.38
381.282	203.38
381.507	208.38
381.733	223.38
381.958	206.38
382.184	202.38
382.409	204.38
382.634	216.38
382.86	227.38
383.085	221.38
383.31	207.38
383.535	216.38
383.761	215.38
383.986	205.38
384.211	211.38
384.436	239.38
384.662	219.38
384.887	232.38
385.112	232.38
385.337	230.38
385.562	225.38
385.787	203.38
386.013	222.38
386.238	217.38
386.463	211.38
386.688	233.38
386.913	217.38
387.138	219.38
387.363	226.38
387.588	210.38
387.813	208.38
388.038	220.38
388.263	222.38
388.488	220.38
388.713	212.38
388.938	214.38
389.163	215.38
389.387	204.38
389.612	225.38
389.837	229.38
390.062	224.38
390.287	227.38
390.512	217.38
390.736	223.38
390.961	215.38
391.186	216.38
391.411	201.38
391.636	216.38
391.86	212.38
392.085	221.38
392.31	215.38
392.534	216.38
392.759	215.38
392.984	216.38
393.208	217.38
393.433	222.38
393.658	216.38
393.882	228.38
394.107	219.38
394.331	220.38
394.556	229.38
394.78	227.38
395.005	221.38
395.229	219.38
395.454	193.38
395.678	202.38
395.903	221.38
396.127	212.38
396.352	218.38
396.576	232.38
396.801	221.38
397.025	235.38
397.249	224.38
397.474	230.38
397.698	233.38
397.922	236.38
398.147	245.38
398.371	222.38
398.595	210.38
398.82	240.38
399.044	240.38
399.268	251.38
399.492	226.38
399.717	265.38
399.941	247.38
400.165	260.38
400.389	261.38
400.613	243.38
400.837	233.38
401.062	254.38
401.286	267.38
401.51	255.38
401.734	291.38
401.958	310.38
402.182	302.38
402.406	240.38
402.63	235.38
402.854	240.38
403.078	257.38
403.302	256.38
403.526	267.38
403.75	272.38
403.974	258.38
404.198	275.38
404.422	291.38
404.645	312.38
404.869	326.38
405.093	365.38
405.317	490.38
405.541	807.38
405.765	1326.38
405.988	1553.38
406.212	989.38
406.436	672.38
406.66	474.38
406.883	399.38
407.107	337.38
407.331	332.38
407.555	311.38
407.778	296.38
408.002	300.38
408.226	281.38
408.449	271.38
408.673	272.38
408.896	257.38
409.12	255.38
409.344	250.38
409.567	257.38
409.791	268.38
410.014	256.38
410.238	245.38
410.461	248.38
410.685	247.38
410.908	243.38
411.132	250.38
411.355	253.38
411.578	250.38
411.802	255.38
412.025	245.38
412.249	252.38
412.472	223.38
412.695	256.38
412.919	238.38
413.142	224.38
413.365	259.38
413.589	249.38
413.812	251.38
414.035	243.38
414.258	249.38
414.482	241.38
414.705	240.38
414.928	234.38
415.151	231.38
415.374	238.38
415.597	239.38
415.821	247.38
416.044	240.38
416.267	244.38
416.49	241.38
416.713	260.38
416.936	268.38
417.159	250.38
417.382	226.38
417.605	223.38
417.828	256.38
418.051	246.38
418.274	235.38
418.497	236.38
418.72	227.38
418.943	221.38
419.166	255.38
419.389	245.38
419.611	230.38
419.834	251.38
420.057	244.38
420.28	248.38
420.503	241.38
420.726	257.38
420.948	243.38
421.171	244.38
421.394	227.38
421.617	254.38
421.839	265.38
422.062	276.38
422.285	265.38
422.507	285.38
422.73	301.38
422.953	299.38
423.175	289.38
423.398	303.38
423.621	316.38
423.843	348.38
424.066	417.38
424.288	500.38
424.511	627.38
424.733	671.38
424.956	606.38
425.178	485.38
425.401	437.38
425.623	392.38
425.846	377.38
426.068	349.38
426.291	324.38
426.513	329.38
426.735	304.38
426.958	319.38
427.18	286.38
427.402	278.38
427.625	270.38
427.847	276.38
428.069	283.38
428.292	255.38
428.514	265.38
428.736	266.38
428.958	271.38
429.181	255.38
429.403	262.38
429.625	241.38
429.847	237.38
430.069	254.38
430.292	256.38
430.514	259.38
430.736	252.38
430.958	231.38
431.18	244.38
431.402	238.38
431.624	242.38
431.846	232.38
432.068	250.38
432.29	254.38
432.512	248.38
432.734	233.38
432.956	227.38
433.178	239.38
433.4	234.38
433.622	252.38
433.844	250.38
434.066	263.38
434.287	259.38
434.509	258.38
434.731	249.38
434.953	250.38
435.175	266.38
435.397	251.38
435.618	244.38
435.84	245.38
436.062	248.38
436.284	268.38
436.505	261.38
436.727	257.38
436.949	272.38
437.17	268.38
437.392	295.38
437.614	298.38
437.835	321.38
438.057	333.38
438.278	374.38
438.5	459.38
438.721	574.38
438.943	613.38
439.165	542.38
439.386	461.38
439.608	438.38
439.829	395.38
440.05	392.38
440.272	371.38
440.493	383.38
440.715	399.38
440.936	421.38
441.158	403.38
441.379	381.38
441.6	357.38
441.822	318.38
442.043	307.38
442.264	305.38
442.486	289.38
442.707	271.38
442.928	272.38
443.149	279.38
443.371	287.38
443.592	268.38
443.813	270.38
444.034	255.38
444.255	255.38
444.476	263.38
444.698	278.38
444.919	245.38
445.14	301.38
445.361	280.38
445.582	266.38
445.803	241.38
446.024	241.38
446.245	252.38
446.466	229.38
446.687	232.38
446.908	243.38
447.129	222.38
447.35	218.38
447.571	209.38
447.792	230.38
448.013	233.38
448.234	231.38
448.455	214.38
448.675	241.38
448.896	227.38
449.117	220.38
449.338	216.38
449.559	212.38
449.779	230.38
450	196.38
450.221	211.38
450.442	225.38
450.662	212.38
450.883	222.38
451.104	214.38
451.324	224.38
451.545	230.38
451.766	214.38
451.986	223.38
452.207	225.38
452.428	200.38
452.648	213.38
452.869	218.38
453.089	213.38
453.31	218.38
453.53	212.38
453.751	202.38
453.971	211.38
454.192	204.38
454.412	200.38
454.633	192.38
454.853	212.38
455.073	197.38
455.294	203.38
455.514	202.38
455.734	192.38
455.955	207.38
456.175	216.38
456.395	203.38
456.616	213.38
456.836	217.38
457.056	207.38
457.276	183.38
457.497	227.38
457.717	190.38
457.937	200.38
458.157	210.38
458.377	197.38
458.598	213.38
458.818	207.38
459.038	214.38
459.258	197.38
459.478	196.38
459.698	211.38
459.918	217.38
460.138	212.38
460.358	225.38
460.578	221.38
460.798	216.38
461.018	229.38
461.238	203.38
461.458	230.38
461.678	212.38
461.898	227.38
462.118	240.38
462.338	245.38
462.558	221.38
462.777	231.38
462.997	247.38
463.217	240.38
463.437	239.38
463.657	239.38
463.876	212.38
464.096	214.38
464.316	216.38
464.536	216.38
464.755	232.38
464.975	223.38
465.195	217.38
465.414	210.38
465.634	212.38
465.854	219.38
466.073	207.38
466.293	214.38
466.512	207.38
466.732	214.38
466.951	211.38
467.171	211.38
467.391	220.38
467.61	214.38
467.829	216.38
468.049	219.38
468.268	204.38
468.488	197.38
468.707	199.38
468.927	211.38
469.146	213.38
469.365	211.38
469.585	201.38
469.804	222.38
470.023	208.38
470.243	214.38
470.462	225.38
470.681	213.38
470.901	221.38
471.12	203.38
471.339	227.38
471.558	212.38
471.777	207.38
471.997	215.38
472.216	232.38
472.435	206.38
472.654	209.38
472.873	195.38
473.092	191.38
473.311	206.38
473.53	215.38
473.749	219.38
473.968	223.38
474.187	227.38
474.406	217.38
474.625	227.38
474.844	201.38
475.063	197.38
475.282	208.38
475.501	221.38
475.72	221.38
475.939	220.38
476.158	214.38
476.377	219.38
476.596	228.38
476.814	224.38
477.033	218.38
477.252	239.38
477.471	235.38
477.69	247.38
477.908	241.38
478.127	239.38
478.346	231.38
478.564	241.38
478.783	248.38
479.002	271.38
479.22	247.38
479.439	236.38
479.658	243.38
479.876	252.38
480.095	253.38
480.313	264.38
480.532	235.38
480.751	262.38
480.969	242.38
481.188	247.38
481.406	240.38
481.624	243.38
481.843	232.38
482.061	236.38
482.28	246.38
482.498	224.38
482.717	237.38
482.935	243.38
483.153	248.38
483.372	255.38
483.59	245.38
483.808	226.38
484.027	251.38
484.245	243.38
484.463	239.38
484.681	257.38
484.9	238.38
485.118	243.38
485.336	240.38
485.554	222.38
485.772	247.38
485.99	251.38
486.209	245.38
486.427	240.38
486.645	233.38
486.863	245.38
487.081	238.38
487.299	240.38
487.517	246.38
487.735	243.38
487.953	234.38
488.171	245.38
488.389	239.38
488.607	247.38
488.825	247.38
489.043	254.38
489.261	253.38
489.479	237.38
489.696	276.38
489.914	236.38
490.132	253.38
490.35	254.38
490.568	236.38
490.786	247.38
491.003	241.38
491.221	260.38
491.439	245.38
491.657	244.38
491.874	248.38
492.092	266.38
492.31	257.38
492.527	255.38
492.745	258.38
492.963	255.38
493.18	275.38
493.398	265.38
493.615	255.38
493.833	259.38
494.05	256.38
494.268	264.38
494.485	245.38
494.703	256.38
494.92	268.38
495.138	270.38
495.355	271.38
495.573	286.38
495.79	278.38
496.008	258.38
496.225	270.38
496.442	249.38
496.66	275.38
496.877	257.38
497.094	257.38
497.312	260.38
497.529	277.38
497.746	276.38
497.963	292.38
498.181	294.38
498.398	293.38
498.615	298.38
498.832	307.38
499.049	311.38
499.267	336.38
499.484	328.38
499.701	349.38
499.918	343.38
500.135	393.38
500.352	395.38
500.569	463.38
500.786	539.38
501.003	431.38
501.22	411.38
501.437	361.38
501.654	342.38
501.871	359.38
502.088	321.38
502.305	333.38
502.522	325.38
502.739	331.38
502.956	322.38
503.172	312.38
503.389	319.38
