Data from StdB_HRD10591_019.txt Node
Date: Fri May 16 15:24:55 EDT 2025
User: Yrep
Spectrometer: HR+D1059
Trigger mode: 1
Integration Time (sec): 1.000000E-1
Scans to average: 1
Electric dark correction enabled: true
Nonlinearity correction enabled: false
Boxcar width: 0
XAxis mode: Wavelengths
Number of Pixels in Spectrum: 2048
>>>>>Begin Spectral Data<<<<<
223.165	-6.06
223.4	-6.06
223.635	-6.06
223.869	-23.06
224.104	-10.06
224.338	-2.06
224.573	-17.06
224.808	-13.06
225.042	-2.06
225.277	-2.06
225.511	-5.06
225.746	6.94
225.98	-3.06
226.215	12.94
226.449	5.94
226.683	6.94
226.918	25.94
227.152	24.94
227.387	40.94
227.621	35.94
227.856	45.94
228.09	45.94
228.324	55.94
228.559	51.94
228.793	67.94
229.027	79.94
229.262	62.94
229.496	75.94
229.73	78.94
229.964	72.94
230.199	78.94
230.433	86.94
230.667	81.94
230.901	78.94
231.136	76.94
231.37	93.94
231.604	84.94
231.838	81.94
232.072	79.94
232.306	81.94
232.541	94.94
232.775	86.94
233.009	76.94
233.243	75.94
233.477	89.94
233.711	92.94
233.945	99.94
234.179	89.94
234.413	91.94
234.647	97.94
234.881	99.94
235.115	107.94
235.349	88.94
235.583	86.94
235.817	95.94
236.051	81.94
236.285	85.94
236.519	90.94
236.753	91.94
236.987	101.94
237.221	100.94
237.455	98.94
237.689	98.94
237.922	103.94
238.156	99.94
238.39	102.94
238.624	94.94
238.858	77.94
239.091	87.94
239.325	85.94
239.559	106.94
239.793	115.94
240.027	108.94
240.26	125.94
240.494	106.94
240.728	102.94
240.961	109.94
241.195	111.94
241.429	112.94
241.662	100.94
241.896	104.94
242.13	100.94
242.363	89.94
242.597	91.94
242.83	93.94
243.064	109.94
243.298	85.94
243.531	104.94
243.765	108.94
243.998	86.94
244.232	99.94
244.465	104.94
244.699	103.94
244.932	109.94
245.166	97.94
245.399	106.94
245.633	112.94
245.866	93.94
246.099	105.94
246.333	93.94
246.566	90.94
246.8	102.94
247.033	98.94
247.266	96.94
247.5	116.94
247.733	113.94
247.966	142.94
248.2	129.94
248.433	99.94
248.666	98.94
248.899	100.94
249.133	104.94
249.366	119.94
249.599	103.94
249.832	118.94
250.066	110.94
250.299	124.94
250.532	123.94
250.765	108.94
250.998	114.94
251.231	110.94
251.465	117.94
251.698	121.94
251.931	131.94
252.164	129.94
252.397	128.94
252.63	120.94
252.863	116.94
253.096	134.94
253.329	125.94
253.562	129.94
253.795	130.94
254.028	147.94
254.261	136.94
254.494	131.94
254.727	136.94
254.96	133.94
255.193	124.94
255.426	141.94
255.659	109.94
255.892	126.94
256.124	140.94
256.357	131.94
256.59	141.94
256.823	136.94
257.056	139.94
257.289	143.94
257.521	158.94
257.754	156.94
257.987	178.94
258.22	172.94
258.452	174.94
258.685	134.94
258.918	138.94
259.151	135.94
259.383	146.94
259.616	140.94
259.849	132.94
260.081	156.94
260.314	154.94
260.547	153.94
260.779	177.94
261.012	203.94
261.244	261.94
261.477	335.94
261.71	307.94
261.942	219.94
262.175	183.94
262.407	160.94
262.64	145.94
262.872	155.94
263.105	161.94
263.337	142.94
263.57	137.94
263.802	163.94
264.035	145.94
264.267	150.94
264.499	165.94
264.732	147.94
264.964	170.94
265.197	169.94
265.429	179.94
265.661	167.94
265.894	154.94
266.126	171.94
266.358	204.94
266.591	221.94
266.823	203.94
267.055	148.94
267.287	153.94
267.52	141.94
267.752	140.94
267.984	133.94
268.216	139.94
268.448	139.94
268.681	139.94
268.913	130.94
269.145	133.94
269.377	139.94
269.609	128.94
269.841	144.94
270.073	145.94
270.306	152.94
270.538	139.94
270.77	133.94
271.002	150.94
271.234	132.94
271.466	127.94
271.698	115.94
271.93	129.94
272.162	129.94
272.394	155.94
272.626	137.94
272.858	139.94
273.09	139.94
273.322	141.94
273.553	134.94
273.785	139.94
274.017	138.94
274.249	130.94
274.481	128.94
274.713	141.94
274.945	149.94
275.176	145.94
275.408	142.94
275.64	152.94
275.872	119.94
276.104	130.94
276.335	142.94
276.567	136.94
276.799	136.94
277.031	165.94
277.262	161.94
277.494	149.94
277.726	154.94
277.957	151.94
278.189	164.94
278.421	164.94
278.652	173.94
278.884	163.94
279.115	217.94
279.347	217.94
279.579	260.94
279.81	331.94
280.042	402.94
280.273	497.94
280.505	447.94
280.736	303.94
280.968	251.94
281.199	211.94
281.431	200.94
281.662	183.94
281.894	215.94
282.125	240.94
282.356	267.94
282.588	266.94
282.819	245.94
283.051	279.94
283.282	332.94
283.513	391.94
283.745	307.94
283.976	241.94
284.207	195.94
284.439	181.94
284.67	197.94
284.901	159.94
285.132	163.94
285.364	162.94
285.595	178.94
285.826	155.94
286.057	154.94
286.288	168.94
286.52	174.94
286.751	206.94
286.982	237.94
287.213	265.94
287.444	310.94
287.675	268.94
287.906	197.94
288.138	187.94
288.369	161.94
288.6	152.94
288.831	155.94
289.062	168.94
289.293	157.94
289.524	162.94
289.755	151.94
289.986	147.94
290.217	150.94
290.448	149.94
290.679	159.94
290.91	159.94
291.141	143.94
291.371	155.94
291.602	152.94
291.833	152.94
292.064	147.94
292.295	151.94
292.526	153.94
292.757	168.94
292.987	160.94
293.218	144.94
293.449	176.94
293.68	153.94
293.91	147.94
294.141	163.94
294.372	160.94
294.603	163.94
294.833	175.94
295.064	178.94
295.295	171.94
295.525	150.94
295.756	176.94
295.987	171.94
296.217	175.94
296.448	156.94
296.679	173.94
296.909	161.94
297.14	173.94
297.37	164.94
297.601	184.94
297.831	169.94
298.062	175.94
298.292	149.94
298.523	158.94
298.753	164.94
298.984	156.94
299.214	161.94
299.445	158.94
299.675	152.94
299.905	167.94
300.136	153.94
300.366	148.94
300.597	180.94
300.827	155.94
301.057	171.94
301.288	168.94
301.518	180.94
301.748	183.94
301.979	191.94
302.209	179.94
302.439	178.94
302.669	170.94
302.9	168.94
303.13	169.94
303.36	165.94
303.59	179.94
303.82	167.94
304.051	178.94
304.281	185.94
304.511	192.94
304.741	168.94
304.971	179.94
305.201	177.94
305.431	167.94
305.661	160.94
305.891	177.94
306.121	151.94
306.352	174.94
306.582	169.94
306.812	181.94
307.042	168.94
307.272	184.94
307.502	163.94
307.731	169.94
307.961	181.94
308.191	166.94
308.421	164.94
308.651	160.94
308.881	164.94
309.111	167.94
309.341	169.94
309.571	193.94
309.8	180.94
310.03	169.94
310.26	171.94
310.49	181.94
310.72	180.94
310.949	171.94
311.179	175.94
311.409	171.94
311.639	163.94
311.868	162.94
312.098	179.94
312.328	186.94
312.557	179.94
312.787	178.94
313.017	183.94
313.246	184.94
313.476	183.94
313.706	207.94
313.935	207.94
314.165	197.94
314.394	219.94
314.624	208.94
314.853	218.94
315.083	225.94
315.312	219.94
315.542	206.94
315.771	192.94
316.001	208.94
316.23	208.94
316.46	207.94
316.689	191.94
316.919	181.94
317.148	197.94
317.377	200.94
317.607	218.94
317.836	188.94
318.065	204.94
318.295	206.94
318.524	192.94
318.753	195.94
318.983	174.94
319.212	187.94
319.441	173.94
319.67	184.94
319.9	177.94
320.129	187.94
320.358	182.94
320.587	172.94
320.816	177.94
321.046	182.94
321.275	187.94
321.504	175.94
321.733	182.94
321.962	187.94
322.191	193.94
322.42	185.94
322.649	190.94
322.878	195.94
323.108	182.94
323.337	179.94
323.566	183.94
323.795	192.94
324.024	198.94
324.253	207.94
324.482	183.94
324.71	190.94
324.939	177.94
325.168	176.94
325.397	195.94
325.626	182.94
325.855	185.94
326.084	189.94
326.313	188.94
326.542	198.94
326.77	182.94
326.999	194.94
327.228	188.94
327.457	188.94
327.686	183.94
327.914	185.94
328.143	194.94
328.372	179.94
328.6	192.94
328.829	171.94
329.058	172.94
329.287	201.94
329.515	189.94
329.744	188.94
329.972	179.94
330.201	192.94
330.43	193.94
330.658	174.94
330.887	190.94
331.115	175.94
331.344	170.94
331.572	171.94
331.801	202.94
332.03	190.94
332.258	184.94
332.486	193.94
332.715	181.94
332.943	180.94
333.172	187.94
333.4	191.94
333.629	179.94
333.857	175.94
334.085	207.94
334.314	189.94
334.542	200.94
334.771	205.94
334.999	196.94
335.227	192.94
335.455	183.94
335.684	197.94
335.912	185.94
336.14	182.94
336.369	181.94
336.597	199.94
336.825	178.94
337.053	186.94
337.281	186.94
337.51	176.94
337.738	181.94
337.966	187.94
338.194	182.94
338.422	182.94
338.65	183.94
338.878	181.94
339.106	178.94
339.334	180.94
339.562	193.94
339.79	173.94
340.018	188.94
340.246	177.94
340.474	168.94
340.702	183.94
340.93	195.94
341.158	180.94
341.386	180.94
341.614	190.94
341.842	181.94
342.07	199.94
342.298	183.94
342.526	191.94
342.754	186.94
342.981	193.94
343.209	185.94
343.437	196.94
343.665	193.94
343.893	194.94
344.12	198.94
344.348	199.94
344.576	199.94
344.804	186.94
345.031	179.94
345.259	191.94
345.487	201.94
345.714	189.94
345.942	188.94
346.17	199.94
346.397	172.94
346.625	183.94
346.853	179.94
347.08	182.94
347.308	190.94
347.535	189.94
347.763	183.94
347.99	183.94
348.218	167.94
348.445	179.94
348.673	189.94
348.9	201.94
349.128	191.94
349.355	183.94
349.583	189.94
349.81	179.94
350.037	191.94
350.265	182.94
350.492	183.94
350.72	186.94
350.947	189.94
351.174	188.94
351.402	183.94
351.629	183.94
351.856	188.94
352.083	192.94
352.311	189.94
352.538	179.94
352.765	196.94
352.992	184.94
353.22	195.94
353.447	184.94
353.674	191.94
353.901	195.94
354.128	191.94
354.355	202.94
354.583	179.94
354.81	184.94
355.037	215.94
355.264	217.94
355.491	190.94
355.718	206.94
355.945	198.94
356.172	219.94
356.399	224.94
356.626	233.94
356.853	305.94
357.08	410.94
357.307	531.94
357.534	555.94
357.761	393.94
357.988	319.94
358.215	273.94
358.441	262.94
358.668	238.94
358.895	238.94
359.122	221.94
359.349	213.94
359.576	215.94
359.802	217.94
360.029	208.94
360.256	218.94
360.483	199.94
360.709	211.94
360.936	213.94
361.163	210.94
361.39	215.94
361.616	207.94
361.843	192.94
362.07	193.94
362.296	217.94
362.523	216.94
362.749	228.94
362.976	227.94
363.203	264.94
363.429	295.94
363.656	419.94
363.882	626.94
364.109	703.94
364.335	508.94
364.562	341.94
364.788	295.94
365.015	263.94
365.241	231.94
365.468	246.94
365.694	229.94
365.92	229.94
366.147	234.94
366.373	232.94
366.599	219.94
366.826	276.94
367.052	296.94
367.278	351.94
367.505	336.94
367.731	369.94
367.957	456.94
368.184	709.94
368.41	934.94
368.636	823.94
368.862	506.94
369.089	359.94
369.315	312.94
369.541	272.94
369.767	265.94
369.993	232.94
370.219	214.94
370.445	210.94
370.672	232.94
370.898	231.94
371.124	235.94
371.35	243.94
371.576	219.94
371.802	212.94
372.028	224.94
372.254	231.94
372.48	221.94
372.706	237.94
372.932	229.94
373.158	253.94
373.384	261.94
373.61	340.94
373.835	503.94
374.061	628.94
374.287	555.94
374.513	355.94
374.739	273.94
374.965	247.94
375.191	241.94
375.416	225.94
375.642	217.94
375.868	215.94
376.094	217.94
376.319	205.94
376.545	206.94
376.771	197.94
376.997	197.94
377.222	206.94
377.448	203.94
377.674	225.94
377.899	228.94
378.125	198.94
378.35	196.94
378.576	218.94
378.802	227.94
379.027	213.94
379.253	209.94
379.478	199.94
379.704	222.94
379.929	202.94
380.155	197.94
380.38	191.94
380.606	195.94
380.831	204.94
381.057	189.94
381.282	202.94
381.507	196.94
381.733	211.94
381.958	216.94
382.184	204.94
382.409	203.94
382.634	202.94
382.86	210.94
383.085	208.94
383.31	207.94
383.535	206.94
383.761	216.94
383.986	203.94
384.211	211.94
384.436	213.94
384.662	222.94
384.887	231.94
385.112	219.94
385.337	220.94
385.562	206.94
385.787	225.94
386.013	208.94
386.238	204.94
386.463	199.94
386.688	233.94
386.913	196.94
387.138	211.94
387.363	200.94
387.588	203.94
387.813	205.94
388.038	207.94
388.263	217.94
388.488	216.94
388.713	199.94
388.938	215.94
389.163	217.94
389.387	203.94
389.612	223.94
389.837	219.94
390.062	214.94
390.287	199.94
390.512	200.94
390.736	214.94
390.961	214.94
391.186	208.94
391.411	211.94
391.636	200.94
391.86	226.94
392.085	212.94
392.31	207.94
392.534	220.94
392.759	200.94
392.984	217.94
393.208	231.94
393.433	224.94
393.658	224.94
393.882	216.94
394.107	218.94
394.331	216.94
394.556	207.94
394.78	239.94
395.005	205.94
395.229	207.94
395.454	211.94
395.678	215.94
395.903	207.94
396.127	201.94
396.352	205.94
396.576	203.94
396.801	222.94
397.025	244.94
397.249	223.94
397.474	234.94
397.698	222.94
397.922	229.94
398.147	219.94
398.371	221.94
398.595	225.94
398.82	223.94
399.044	238.94
399.268	236.94
399.492	255.94
399.717	245.94
399.941	233.94
400.165	248.94
400.389	240.94
400.613	242.94
400.837	231.94
401.062	242.94
401.286	238.94
401.51	244.94
401.734	269.94
401.958	306.94
402.182	291.94
402.406	258.94
402.63	245.94
402.854	265.94
403.078	253.94
403.302	269.94
403.526	242.94
403.75	249.94
403.974	263.94
404.198	269.94
404.422	278.94
404.645	294.94
404.869	315.94
405.093	382.94
405.317	474.94
405.541	793.94
405.765	1304.94
405.988	1513.94
406.212	981.94
406.436	656.94
406.66	473.94
406.883	387.94
407.107	354.94
407.331	349.94
407.555	312.94
407.778	293.94
408.002	291.94
408.226	284.94
408.449	265.94
408.673	284.94
408.896	266.94
409.12	255.94
409.344	236.94
409.567	256.94
409.791	253.94
410.014	255.94
410.238	252.94
410.461	228.94
410.685	236.94
410.908	248.94
411.132	259.94
411.355	219.94
411.578	231.94
411.802	238.94
412.025	260.94
412.249	246.94
412.472	240.94
412.695	231.94
412.919	235.94
413.142	231.94
413.365	227.94
413.589	231.94
413.812	243.94
414.035	235.94
414.258	235.94
414.482	236.94
414.705	236.94
414.928	241.94
415.151	249.94
415.374	237.94
415.597	243.94
415.821	224.94
416.044	243.94
416.267	237.94
416.49	229.94
416.713	253.94
416.936	263.94
417.159	254.94
417.382	246.94
417.605	218.94
417.828	240.94
418.051	248.94
418.274	241.94
418.497	232.94
418.72	239.94
418.943	233.94
419.166	227.94
419.389	253.94
419.611	253.94
419.834	239.94
420.057	231.94
420.28	239.94
420.503	235.94
420.726	253.94
420.948	252.94
421.171	241.94
421.394	250.94
421.617	250.94
421.839	251.94
422.062	274.94
422.285	257.94
422.507	263.94
422.73	275.94
422.953	266.94
423.175	311.94
423.398	299.94
423.621	329.94
423.843	363.94
424.066	395.94
424.288	493.94
424.511	631.94
424.733	678.94
424.956	605.94
425.178	493.94
425.401	427.94
425.623	398.94
425.846	361.94
426.068	364.94
426.291	326.94
426.513	303.94
426.735	286.94
426.958	295.94
427.18	280.94
427.402	288.94
427.625	280.94
427.847	276.94
428.069	268.94
428.292	273.94
428.514	270.94
428.736	241.94
428.958	248.94
429.181	244.94
429.403	240.94
429.625	273.94
429.847	239.94
430.069	244.94
430.292	237.94
430.514	234.94
430.736	240.94
430.958	250.94
431.18	233.94
431.402	252.94
431.624	236.94
431.846	236.94
432.068	234.94
432.29	230.94
432.512	243.94
432.734	236.94
432.956	237.94
433.178	246.94
433.4	225.94
433.622	254.94
433.844	258.94
434.066	254.94
434.287	251.94
434.509	251.94
434.731	253.94
434.953	234.94
435.175	241.94
435.397	243.94
435.618	227.94
435.84	231.94
436.062	251.94
436.284	241.94
436.505	253.94
436.727	275.94
436.949	270.94
437.17	288.94
437.392	266.94
437.614	270.94
437.835	301.94
438.057	333.94
438.278	372.94
438.5	463.94
438.721	579.94
438.943	600.94
439.165	526.94
439.386	467.94
439.608	423.94
439.829	405.94
440.05	361.94
440.272	358.94
440.493	379.94
440.715	400.94
440.936	451.94
441.158	429.94
441.379	375.94
441.6	355.94
441.822	314.94
442.043	312.94
442.264	273.94
442.486	287.94
442.707	264.94
442.928	267.94
443.149	267.94
443.371	274.94
443.592	264.94
443.813	233.94
444.034	252.94
444.255	261.94
444.476	268.94
444.698	252.94
444.919	257.94
445.14	311.94
445.361	275.94
445.582	248.94
445.803	237.94
446.024	236.94
446.245	240.94
446.466	217.94
446.687	227.94
446.908	237.94
447.129	244.94
447.35	231.94
447.571	232.94
447.792	218.94
448.013	231.94
448.234	221.94
448.455	201.94
448.675	220.94
448.896	233.94
449.117	225.94
449.338	240.94
449.559	233.94
449.779	213.94
450	216.94
450.221	222.94
450.442	209.94
450.662	205.94
450.883	213.94
451.104	214.94
451.324	204.94
451.545	203.94
451.766	227.94
451.986	211.94
452.207	206.94
452.428	218.94
452.648	199.94
452.869	198.94
453.089	200.94
453.31	217.94
453.53	193.94
453.751	214.94
453.971	199.94
454.192	209.94
454.412	213.94
454.633	206.94
454.853	214.94
455.073	184.94
455.294	211.94
455.514	206.94
455.734	214.94
455.955	185.94
456.175	209.94
456.395	179.94
456.616	200.94
456.836	209.94
457.056	199.94
457.276	204.94
457.497	209.94
457.717	193.94
457.937	198.94
458.157	193.94
458.377	201.94
458.598	221.94
458.818	207.94
459.038	198.94
459.258	187.94
459.478	207.94
459.698	199.94
459.918	185.94
460.138	213.94
460.358	199.94
460.578	207.94
460.798	218.94
461.018	227.94
461.238	223.94
461.458	213.94
461.678	224.94
461.898	220.94
462.118	232.94
462.338	209.94
462.558	237.94
462.777	215.94
462.997	223.94
463.217	232.94
463.437	241.94
463.657	212.94
463.876	223.94
464.096	223.94
464.316	239.94
464.536	232.94
464.755	231.94
464.975	233.94
465.195	231.94
465.414	207.94
465.634	216.94
465.854	231.94
466.073	218.94
466.293	207.94
466.512	204.94
466.732	200.94
466.951	219.94
467.171	208.94
467.391	207.94
467.61	200.94
467.829	204.94
468.049	200.94
468.268	199.94
468.488	199.94
468.707	212.94
468.927	207.94
469.146	205.94
469.365	203.94
469.585	202.94
469.804	201.94
470.023	195.94
470.243	219.94
470.462	202.94
470.681	196.94
470.901	206.94
471.12	215.94
471.339	213.94
471.558	207.94
471.777	208.94
471.997	210.94
472.216	206.94
472.435	197.94
472.654	222.94
472.873	216.94
473.092	207.94
473.311	201.94
473.53	202.94
473.749	215.94
473.968	204.94
474.187	213.94
474.406	202.94
474.625	199.94
474.844	202.94
475.063	217.94
475.282	215.94
475.501	205.94
475.72	224.94
475.939	213.94
476.158	218.94
476.377	210.94
476.596	216.94
476.814	215.94
477.033	213.94
477.252	223.94
477.471	226.94
477.69	237.94
477.908	229.94
478.127	231.94
478.346	234.94
478.564	232.94
478.783	264.94
479.002	251.94
479.22	252.94
479.439	253.94
479.658	243.94
479.876	245.94
480.095	213.94
480.313	222.94
480.532	255.94
480.751	257.94
480.969	250.94
481.188	249.94
481.406	239.94
481.624	237.94
481.843	215.94
482.061	233.94
482.28	231.94
482.498	237.94
482.717	220.94
482.935	234.94
483.153	229.94
483.372	227.94
483.59	218.94
483.808	241.94
484.027	221.94
484.245	243.94
484.463	228.94
484.681	240.94
484.9	228.94
485.118	236.94
485.336	240.94
485.554	239.94
485.772	230.94
485.99	239.94
486.209	230.94
486.427	237.94
486.645	237.94
486.863	229.94
487.081	235.94
487.299	249.94
487.517	248.94
487.735	224.94
487.953	224.94
488.171	246.94
488.389	237.94
488.607	237.94
488.825	249.94
489.043	239.94
489.261	233.94
489.479	259.94
489.696	242.94
489.914	237.94
490.132	248.94
490.35	238.94
490.568	245.94
490.786	228.94
491.003	243.94
491.221	239.94
491.439	249.94
491.657	236.94
491.874	240.94
492.092	251.94
492.31	242.94
492.527	260.94
492.745	254.94
492.963	255.94
493.18	244.94
493.398	269.94
493.615	265.94
493.833	251.94
494.05	241.94
494.268	256.94
494.485	253.94
494.703	255.94
494.92	252.94
495.138	281.94
495.355	264.94
495.573	276.94
495.79	268.94
496.008	281.94
496.225	267.94
496.442	270.94
496.66	264.94
496.877	252.94
497.094	276.94
497.312	257.94
497.529	261.94
497.746	265.94
497.963	264.94
498.181	288.94
498.398	284.94
498.615	295.94
498.832	301.94
499.049	313.94
499.267	313.94
499.484	328.94
499.701	347.94
499.918	335.94
500.135	360.94
500.352	389.94
500.569	444.94
500.786	509.94
501.003	414.94
501.22	369.94
501.437	372.94
501.654	357.94
501.871	341.94
502.088	325.94
502.305	332.94
502.522	310.94
502.739	299.94
502.956	314.94
503.172	308.94
503.389	309.94
503.606	310.94
