Data from StdB_HRD10591_096.txt Node
Date: Fri May 16 15:25:34 EDT 2025
User: Yrep
Spectrometer: HR+D1059
Trigger mode: 1
Integration Time (sec): 1.000000E-1
Scans to average: 1
Electric dark correction enabled: true
Nonlinearity correction enabled: false
Boxcar width: 0
XAxis mode: Wavelengths
Number of Pixels in Spectrum: 2048
>>>>>Begin Spectral Data<<<<<
223.165	-16.25
223.4	-16.25
223.635	-16.25
223.869	-16.25
224.104	-25.25
224.338	-3.25
224.573	-17.25
224.808	-10.25
225.042	-6.25
225.277	-7.25
225.511	-8.25
225.746	3.75
225.98	12.75
226.215	20.75
226.449	2.75
226.683	7.75
226.918	14.75
227.152	47.75
227.387	40.75
227.621	34.75
227.856	34.75
228.09	46.75
228.324	60.75
228.559	53.75
228.793	63.75
229.027	55.75
229.262	80.75
229.496	82.75
229.73	83.75
229.964	81.75
230.199	91.75
230.433	82.75
230.667	86.75
230.901	86.75
231.136	83.75
231.37	94.75
231.604	90.75
231.838	92.75
232.072	84.75
232.306	90.75
232.541	88.75
232.775	90.75
233.009	99.75
233.243	90.75
233.477	91.75
233.711	94.75
233.945	91.75
234.179	86.75
234.413	92.75
234.647	97.75
234.881	106.75
235.115	91.75
235.349	94.75
235.583	91.75
235.817	90.75
236.051	95.75
236.285	100.75
236.519	98.75
236.753	88.75
236.987	90.75
237.221	93.75
237.455	92.75
237.689	95.75
237.922	104.75
238.156	88.75
238.39	95.75
238.624	106.75
238.858	98.75
239.091	100.75
239.325	100.75
239.559	114.75
239.793	108.75
240.027	125.75
240.26	120.75
240.494	113.75
240.728	112.75
240.961	99.75
241.195	104.75
241.429	107.75
241.662	108.75
241.896	93.75
242.13	104.75
242.363	102.75
242.597	86.75
242.83	97.75
243.064	96.75
243.298	101.75
243.531	110.75
243.765	98.75
243.998	113.75
244.232	115.75
244.465	105.75
244.699	105.75
244.932	115.75
245.166	103.75
245.399	126.75
245.633	90.75
245.866	111.75
246.099	110.75
246.333	93.75
246.566	106.75
246.8	102.75
247.033	115.75
247.266	116.75
247.5	113.75
247.733	132.75
247.966	123.75
248.2	128.75
248.433	111.75
248.666	122.75
248.899	130.75
249.133	118.75
249.366	114.75
249.599	118.75
249.832	109.75
250.066	124.75
250.299	110.75
250.532	116.75
250.765	119.75
250.998	109.75
251.231	135.75
251.465	123.75
251.698	115.75
251.931	136.75
252.164	129.75
252.397	132.75
252.63	110.75
252.863	130.75
253.096	120.75
253.329	135.75
253.562	151.75
253.795	140.75
254.028	143.75
254.261	132.75
254.494	138.75
254.727	129.75
254.96	141.75
255.193	137.75
255.426	139.75
255.659	126.75
255.892	124.75
256.124	130.75
256.357	146.75
256.59	148.75
256.823	142.75
257.056	155.75
257.289	161.75
257.521	157.75
257.754	145.75
257.987	174.75
258.22	159.75
258.452	175.75
258.685	155.75
258.918	137.75
259.151	145.75
259.383	153.75
259.616	147.75
259.849	144.75
260.081	148.75
260.314	177.75
260.547	157.75
260.779	184.75
261.012	201.75
261.244	234.75
261.477	295.75
261.71	296.75
261.942	227.75
262.175	183.75
262.407	159.75
262.64	161.75
262.872	176.75
263.105	165.75
263.337	158.75
263.57	148.75
263.802	154.75
264.035	142.75
264.267	163.75
264.499	169.75
264.732	167.75
264.964	184.75
265.197	186.75
265.429	178.75
265.661	151.75
265.894	165.75
266.126	189.75
266.358	218.75
266.591	226.75
266.823	203.75
267.055	167.75
267.287	157.75
267.52	149.75
267.752	129.75
267.984	155.75
268.216	147.75
268.448	155.75
268.681	150.75
268.913	150.75
269.145	153.75
269.377	148.75
269.609	150.75
269.841	150.75
270.073	156.75
270.306	149.75
270.538	144.75
270.77	135.75
271.002	139.75
271.234	129.75
271.466	148.75
271.698	150.75
271.93	128.75
272.162	160.75
272.394	149.75
272.626	144.75
272.858	156.75
273.09	129.75
273.322	153.75
273.553	145.75
273.785	152.75
274.017	152.75
274.249	154.75
274.481	137.75
274.713	145.75
274.945	156.75
275.176	156.75
275.408	149.75
275.64	145.75
275.872	162.75
276.104	154.75
276.335	148.75
276.567	156.75
276.799	168.75
277.031	166.75
277.262	159.75
277.494	158.75
277.726	164.75
277.957	164.75
278.189	156.75
278.421	177.75
278.652	194.75
278.884	203.75
279.115	202.75
279.347	226.75
279.579	264.75
279.81	324.75
280.042	392.75
280.273	470.75
280.505	392.75
280.736	298.75
280.968	246.75
281.199	236.75
281.431	220.75
281.662	202.75
281.894	211.75
282.125	251.75
282.356	268.75
282.588	257.75
282.819	231.75
283.051	280.75
283.282	305.75
283.513	388.75
283.745	300.75
283.976	224.75
284.207	206.75
284.439	213.75
284.67	188.75
284.901	187.75
285.132	196.75
285.364	178.75
285.595	170.75
285.826	171.75
286.057	174.75
286.288	174.75
286.52	200.75
286.751	228.75
286.982	250.75
287.213	279.75
287.444	327.75
287.675	285.75
287.906	213.75
288.138	196.75
288.369	180.75
288.6	163.75
288.831	158.75
289.062	175.75
289.293	168.75
289.524	157.75
289.755	170.75
289.986	168.75
290.217	178.75
290.448	175.75
290.679	175.75
290.91	159.75
291.141	176.75
291.371	182.75
291.602	172.75
291.833	166.75
292.064	174.75
292.295	168.75
292.526	156.75
292.757	166.75
292.987	168.75
293.218	164.75
293.449	170.75
293.68	168.75
293.91	175.75
294.141	153.75
294.372	159.75
294.603	155.75
294.833	173.75
295.064	180.75
295.295	192.75
295.525	190.75
295.756	172.75
295.987	191.75
296.217	192.75
296.448	170.75
296.679	179.75
296.909	188.75
297.14	173.75
297.37	186.75
297.601	174.75
297.831	188.75
298.062	185.75
298.292	160.75
298.523	170.75
298.753	176.75
298.984	185.75
299.214	189.75
299.445	183.75
299.675	167.75
299.905	176.75
300.136	177.75
300.366	176.75
300.597	150.75
300.827	190.75
301.057	162.75
301.288	163.75
301.518	178.75
301.748	192.75
301.979	190.75
302.209	179.75
302.439	188.75
302.669	183.75
302.9	184.75
303.13	183.75
303.36	178.75
303.59	194.75
303.82	192.75
304.051	190.75
304.281	175.75
304.511	196.75
304.741	185.75
304.971	194.75
305.201	168.75
305.431	179.75
305.661	179.75
305.891	189.75
306.121	187.75
306.352	187.75
306.582	172.75
306.812	186.75
307.042	181.75
307.272	178.75
307.502	174.75
307.731	188.75
307.961	188.75
308.191	180.75
308.421	202.75
308.651	188.75
308.881	186.75
309.111	182.75
309.341	182.75
309.571	196.75
309.8	197.75
310.03	182.75
310.26	184.75
310.49	182.75
310.72	171.75
310.949	200.75
311.179	188.75
311.409	197.75
311.639	186.75
311.868	196.75
312.098	195.75
312.328	195.75
312.557	205.75
312.787	204.75
313.017	218.75
313.246	209.75
313.476	218.75
313.706	222.75
313.935	222.75
314.165	203.75
314.394	214.75
314.624	234.75
314.853	212.75
315.083	232.75
315.312	225.75
315.542	230.75
315.771	209.75
316.001	215.75
316.23	217.75
316.46	202.75
316.689	206.75
316.919	216.75
317.148	212.75
317.377	213.75
317.607	210.75
317.836	225.75
318.065	219.75
318.295	209.75
318.524	207.75
318.753	194.75
318.983	210.75
319.212	216.75
319.441	212.75
319.67	210.75
319.9	196.75
320.129	190.75
320.358	192.75
320.587	198.75
320.816	191.75
321.046	199.75
321.275	199.75
321.504	199.75
321.733	189.75
321.962	195.75
322.191	199.75
322.42	197.75
322.649	207.75
322.878	196.75
323.108	188.75
323.337	204.75
323.566	201.75
323.795	193.75
324.024	201.75
324.253	193.75
324.482	204.75
324.71	216.75
324.939	186.75
325.168	195.75
325.397	191.75
325.626	204.75
325.855	209.75
326.084	203.75
326.313	196.75
326.542	201.75
326.77	208.75
326.999	190.75
327.228	205.75
327.457	206.75
327.686	195.75
327.914	198.75
328.143	220.75
328.372	213.75
328.6	203.75
328.829	218.75
329.058	194.75
329.287	197.75
329.515	210.75
329.744	204.75
329.972	200.75
330.201	209.75
330.43	195.75
330.658	210.75
330.887	199.75
331.115	196.75
331.344	195.75
331.572	208.75
331.801	200.75
332.03	206.75
332.258	204.75
332.486	223.75
332.715	205.75
332.943	216.75
333.172	219.75
333.4	211.75
333.629	219.75
333.857	209.75
334.085	219.75
334.314	207.75
334.542	216.75
334.771	214.75
334.999	202.75
335.227	209.75
335.455	230.75
335.684	204.75
335.912	211.75
336.14	210.75
336.369	206.75
336.597	210.75
336.825	197.75
337.053	183.75
337.281	198.75
337.51	203.75
337.738	195.75
337.966	206.75
338.194	199.75
338.422	196.75
338.65	185.75
338.878	220.75
339.106	193.75
339.334	195.75
339.562	188.75
339.79	192.75
340.018	199.75
340.246	214.75
340.474	209.75
340.702	189.75
340.93	188.75
341.158	206.75
341.386	196.75
341.614	186.75
341.842	215.75
342.07	208.75
342.298	199.75
342.526	218.75
342.754	197.75
342.981	196.75
343.209	214.75
343.437	202.75
343.665	220.75
343.893	206.75
344.12	214.75
344.348	210.75
344.576	211.75
344.804	206.75
345.031	196.75
345.259	198.75
345.487	211.75
345.714	206.75
345.942	214.75
346.17	209.75
346.397	218.75
346.625	203.75
346.853	202.75
347.08	206.75
347.308	192.75
347.535	190.75
347.763	206.75
347.99	192.75
348.218	192.75
348.445	193.75
348.673	194.75
348.9	184.75
349.128	191.75
349.355	196.75
349.583	204.75
349.81	206.75
350.037	190.75
350.265	205.75
350.492	196.75
350.72	193.75
350.947	207.75
351.174	200.75
351.402	209.75
351.629	202.75
351.856	208.75
352.083	183.75
352.311	202.75
352.538	212.75
352.765	204.75
352.992	202.75
353.22	195.75
353.447	198.75
353.674	197.75
353.901	187.75
354.128	196.75
354.355	204.75
354.583	209.75
354.81	210.75
355.037	223.75
355.264	206.75
355.491	202.75
355.718	205.75
355.945	224.75
356.172	214.75
356.399	239.75
356.626	273.75
356.853	317.75
357.08	411.75
357.307	519.75
357.534	524.75
357.761	395.75
357.988	351.75
358.215	306.75
358.441	273.75
358.668	275.75
358.895	242.75
359.122	238.75
359.349	227.75
359.576	238.75
359.802	226.75
360.029	224.75
360.256	233.75
360.483	195.75
360.709	223.75
360.936	246.75
361.163	230.75
361.39	213.75
361.616	225.75
361.843	208.75
362.07	231.75
362.296	219.75
362.523	231.75
362.749	227.75
362.976	247.75
363.203	267.75
363.429	308.75
363.656	406.75
363.882	580.75
364.109	657.75
364.335	497.75
364.562	346.75
364.788	305.75
365.015	292.75
365.241	260.75
365.468	242.75
365.694	244.75
365.92	243.75
366.147	235.75
366.373	252.75
366.599	261.75
366.826	267.75
367.052	310.75
367.278	332.75
367.505	349.75
367.731	354.75
367.957	459.75
368.184	674.75
368.41	861.75
368.636	780.75
368.862	496.75
369.089	398.75
369.315	329.75
369.541	296.75
369.767	279.75
369.993	264.75
370.219	258.75
370.445	247.75
370.672	242.75
370.898	239.75
371.124	225.75
371.35	254.75
371.576	253.75
371.802	252.75
372.028	228.75
372.254	235.75
372.48	234.75
372.706	242.75
372.932	253.75
373.158	249.75
373.384	287.75
373.61	331.75
373.835	480.75
374.061	586.75
374.287	537.75
374.513	385.75
374.739	319.75
374.965	274.75
375.191	254.75
375.416	255.75
375.642	232.75
375.868	244.75
376.094	231.75
376.319	232.75
376.545	223.75
376.771	220.75
376.997	225.75
377.222	203.75
377.448	228.75
377.674	230.75
377.899	226.75
378.125	238.75
378.35	256.75
378.576	245.75
378.802	234.75
379.027	254.75
379.253	227.75
379.478	231.75
379.704	239.75
379.929	206.75
380.155	206.75
380.38	216.75
380.606	221.75
380.831	196.75
381.057	215.75
381.282	221.75
381.507	224.75
381.733	212.75
381.958	208.75
382.184	212.75
382.409	220.75
382.634	223.75
382.86	213.75
383.085	207.75
383.31	218.75
383.535	218.75
383.761	246.75
383.986	238.75
384.211	223.75
384.436	232.75
384.662	221.75
384.887	241.75
385.112	229.75
385.337	237.75
385.562	225.75
385.787	224.75
386.013	223.75
386.238	227.75
386.463	225.75
386.688	251.75
386.913	236.75
387.138	225.75
387.363	231.75
387.588	220.75
387.813	220.75
388.038	230.75
388.263	216.75
388.488	216.75
388.713	220.75
388.938	203.75
389.163	223.75
389.387	224.75
389.612	226.75
389.837	216.75
390.062	199.75
390.287	186.75
390.512	238.75
390.736	220.75
390.961	230.75
391.186	220.75
391.411	212.75
391.636	222.75
391.86	233.75
392.085	231.75
392.31	224.75
392.534	241.75
392.759	234.75
392.984	216.75
393.208	218.75
393.433	220.75
393.658	237.75
393.882	227.75
394.107	223.75
394.331	212.75
394.556	223.75
394.78	241.75
395.005	218.75
395.229	202.75
395.454	224.75
395.678	232.75
395.903	227.75
396.127	242.75
396.352	238.75
396.576	226.75
396.801	223.75
397.025	231.75
397.249	231.75
397.474	233.75
397.698	222.75
397.922	237.75
398.147	238.75
398.371	240.75
398.595	243.75
398.82	243.75
399.044	240.75
399.268	267.75
399.492	248.75
399.717	260.75
399.941	265.75
400.165	270.75
400.389	242.75
400.613	273.75
400.837	243.75
401.062	262.75
401.286	255.75
401.51	281.75
401.734	281.75
401.958	299.75
402.182	291.75
402.406	256.75
402.63	259.75
402.854	252.75
403.078	265.75
403.302	261.75
403.526	282.75
403.75	273.75
403.974	280.75
404.198	272.75
404.422	287.75
404.645	296.75
404.869	326.75
405.093	377.75
405.317	483.75
405.541	710.75
405.765	1187.75
405.988	1324.75
406.212	891.75
406.436	648.75
406.66	488.75
406.883	406.75
407.107	371.75
407.331	357.75
407.555	340.75
407.778	313.75
408.002	301.75
408.226	316.75
408.449	302.75
408.673	276.75
408.896	288.75
409.12	277.75
409.344	289.75
409.567	271.75
409.791	275.75
410.014	271.75
410.238	263.75
410.461	274.75
410.685	275.75
410.908	256.75
411.132	262.75
411.355	247.75
411.578	273.75
411.802	248.75
412.025	247.75
412.249	255.75
412.472	258.75
412.695	257.75
412.919	251.75
413.142	248.75
413.365	240.75
413.589	242.75
413.812	230.75
414.035	248.75
414.258	254.75
414.482	255.75
414.705	253.75
414.928	236.75
415.151	253.75
415.374	246.75
415.597	235.75
415.821	232.75
416.044	240.75
416.267	255.75
416.49	247.75
416.713	256.75
416.936	281.75
417.159	272.75
417.382	242.75
417.605	255.75
417.828	248.75
418.051	259.75
418.274	257.75
418.497	250.75
418.72	236.75
418.943	222.75
419.166	249.75
419.389	265.75
419.611	250.75
419.834	255.75
420.057	250.75
420.28	257.75
420.503	235.75
420.726	267.75
420.948	251.75
421.171	259.75
421.394	252.75
421.617	254.75
421.839	250.75
422.062	281.75
422.285	279.75
422.507	278.75
422.73	294.75
422.953	298.75
423.175	311.75
423.398	318.75
423.621	354.75
423.843	372.75
424.066	425.75
424.288	506.75
424.511	610.75
424.733	636.75
424.956	581.75
425.178	504.75
425.401	452.75
425.623	410.75
425.846	372.75
426.068	351.75
426.291	342.75
426.513	328.75
426.735	318.75
426.958	305.75
427.18	304.75
427.402	278.75
427.625	272.75
427.847	266.75
428.069	281.75
428.292	277.75
428.514	270.75
428.736	250.75
428.958	257.75
429.181	257.75
429.403	260.75
429.625	246.75
429.847	251.75
430.069	268.75
430.292	272.75
430.514	266.75
430.736	260.75
430.958	244.75
431.18	237.75
431.402	239.75
431.624	220.75
431.846	243.75
432.068	239.75
432.29	258.75
432.512	250.75
432.734	244.75
432.956	264.75
433.178	253.75
433.4	259.75
433.622	253.75
433.844	273.75
434.066	266.75
434.287	264.75
434.509	250.75
434.731	264.75
434.953	257.75
435.175	249.75
435.397	255.75
435.618	247.75
435.84	264.75
436.062	274.75
436.284	274.75
436.505	271.75
436.727	274.75
436.949	275.75
437.17	282.75
437.392	288.75
437.614	302.75
437.835	321.75
438.057	342.75
438.278	383.75
438.5	448.75
438.721	555.75
438.943	603.75
439.165	520.75
439.386	470.75
439.608	449.75
439.829	397.75
440.05	380.75
440.272	387.75
440.493	395.75
440.715	407.75
440.936	450.75
441.158	446.75
441.379	372.75
441.6	348.75
441.822	345.75
442.043	315.75
442.264	304.75
442.486	289.75
442.707	288.75
442.928	289.75
443.149	297.75
443.371	284.75
443.592	287.75
443.813	275.75
444.034	256.75
444.255	266.75
444.476	284.75
444.698	255.75
444.919	278.75
445.14	330.75
445.361	297.75
445.582	276.75
445.803	256.75
446.024	252.75
446.245	258.75
446.466	247.75
446.687	228.75
446.908	242.75
447.129	227.75
447.35	254.75
447.571	263.75
447.792	215.75
448.013	216.75
448.234	230.75
448.455	232.75
448.675	246.75
448.896	230.75
449.117	248.75
449.338	241.75
449.559	227.75
449.779	234.75
450	219.75
450.221	234.75
450.442	220.75
450.662	222.75
450.883	232.75
451.104	219.75
451.324	243.75
451.545	234.75
451.766	203.75
451.986	225.75
452.207	208.75
452.428	204.75
452.648	223.75
452.869	206.75
453.089	211.75
453.31	225.75
453.53	228.75
453.751	225.75
453.971	221.75
454.192	220.75
454.412	204.75
454.633	207.75
454.853	209.75
455.073	204.75
455.294	216.75
455.514	204.75
455.734	202.75
455.955	197.75
456.175	218.75
456.395	208.75
456.616	208.75
456.836	200.75
457.056	220.75
457.276	201.75
457.497	211.75
457.717	212.75
457.937	200.75
458.157	199.75
458.377	185.75
458.598	211.75
458.818	230.75
459.038	232.75
459.258	208.75
459.478	214.75
459.698	240.75
459.918	233.75
460.138	226.75
460.358	227.75
460.578	226.75
460.798	242.75
461.018	238.75
461.238	228.75
461.458	223.75
461.678	230.75
461.898	235.75
462.118	223.75
462.338	244.75
462.558	230.75
462.777	226.75
462.997	240.75
463.217	255.75
463.437	259.75
463.657	249.75
463.876	238.75
464.096	241.75
464.316	232.75
464.536	247.75
464.755	234.75
464.975	218.75
465.195	231.75
465.414	222.75
465.634	239.75
465.854	199.75
466.073	220.75
466.293	248.75
466.512	234.75
466.732	233.75
466.951	205.75
467.171	224.75
467.391	220.75
467.61	212.75
467.829	222.75
468.049	212.75
468.268	233.75
468.488	225.75
468.707	225.75
468.927	217.75
469.146	213.75
469.365	218.75
469.585	212.75
469.804	221.75
470.023	235.75
470.243	214.75
470.462	221.75
470.681	218.75
470.901	221.75
471.12	227.75
471.339	227.75
471.558	221.75
471.777	221.75
471.997	217.75
472.216	208.75
472.435	218.75
472.654	224.75
472.873	204.75
473.092	215.75
473.311	223.75
473.53	224.75
473.749	223.75
473.968	224.75
474.187	214.75
474.406	211.75
474.625	215.75
474.844	221.75
475.063	227.75
475.282	224.75
475.501	207.75
475.72	220.75
475.939	234.75
476.158	224.75
476.377	242.75
476.596	222.75
476.814	219.75
477.033	238.75
477.252	230.75
477.471	236.75
477.69	232.75
477.908	241.75
478.127	256.75
478.346	231.75
478.564	253.75
478.783	257.75
479.002	275.75
479.22	261.75
479.439	245.75
479.658	256.75
479.876	270.75
480.095	250.75
480.313	262.75
480.532	260.75
480.751	252.75
480.969	257.75
481.188	262.75
481.406	255.75
481.624	249.75
481.843	253.75
482.061	252.75
482.28	236.75
482.498	247.75
482.717	250.75
482.935	258.75
483.153	243.75
483.372	255.75
483.59	242.75
483.808	254.75
484.027	236.75
484.245	242.75
484.463	244.75
484.681	264.75
484.9	248.75
485.118	244.75
485.336	251.75
485.554	244.75
485.772	257.75
485.99	259.75
486.209	253.75
486.427	254.75
486.645	256.75
486.863	269.75
487.081	242.75
487.299	242.75
487.517	255.75
487.735	258.75
487.953	244.75
488.171	253.75
488.389	241.75
488.607	238.75
488.825	248.75
489.043	275.75
489.261	265.75
489.479	270.75
489.696	253.75
489.914	257.75
490.132	260.75
490.35	274.75
490.568	243.75
490.786	247.75
491.003	251.75
491.221	277.75
491.439	278.75
491.657	259.75
491.874	258.75
492.092	269.75
492.31	249.75
492.527	250.75
492.745	256.75
492.963	256.75
493.18	261.75
493.398	259.75
493.615	276.75
493.833	255.75
494.05	260.75
494.268	267.75
494.485	264.75
494.703	268.75
494.92	274.75
495.138	272.75
495.355	272.75
495.573	291.75
495.79	271.75
496.008	267.75
496.225	279.75
496.442	273.75
496.66	280.75
496.877	282.75
497.094	271.75
497.312	288.75
497.529	276.75
497.746	300.75
497.963	296.75
498.181	280.75
498.398	288.75
498.615	284.75
498.832	322.75
499.049	328.75
499.267	334.75
499.484	336.75
499.701	350.75
499.918	351.75
500.135	383.75
500.352	399.75
500.569	455.75
500.786	500.75
501.003	458.75
501.22	392.75
501.437	378.75
501.654	366.75
501.871	349.75
502.088	360.75
502.305	350.75
502.522	317.75
502.739	323.75
502.956	313.75
503.172	306.75
503.389	328.75
