Data from StdB_HRD10591_012.txt Node
Date: Fri May 16 15:24:52 EDT 2025
User: Yrep
Spectrometer: HR+D1059
Trigger mode: 1
Integration Time (sec): 1.000000E-1
Scans to average: 1
Electric dark correction enabled: true
Nonlinearity correction enabled: false
Boxcar width: 0
XAxis mode: Wavelengths
Number of Pixels in Spectrum: 2048
>>>>>Begin Spectral Data<<<<<
223.165	-20.44
223.4	-20.44
223.635	-20.44
223.869	-17.44
224.104	-32.44
224.338	-20.44
224.573	-14.44
224.808	-11.44
225.042	-10.44
225.277	0.56
225.511	6.56
225.746	10.56
225.98	6.56
226.215	11.56
226.449	13.56
226.683	17.56
226.918	28.56
227.152	31.56
227.387	37.56
227.621	31.56
227.856	19.56
228.09	50.56
228.324	56.56
228.559	58.56
228.793	64.56
229.027	77.56
229.262	57.56
229.496	69.56
229.73	76.56
229.964	77.56
230.199	73.56
230.433	71.56
230.667	85.56
230.901	92.56
231.136	77.56
231.37	94.56
231.604	100.56
231.838	80.56
232.072	97.56
232.306	96.56
232.541	82.56
232.775	103.56
233.009	105.56
233.243	81.56
233.477	81.56
233.711	85.56
233.945	85.56
234.179	80.56
234.413	89.56
234.647	90.56
234.881	94.56
235.115	92.56
235.349	80.56
235.583	98.56
235.817	102.56
236.051	79.56
236.285	90.56
236.519	87.56
236.753	89.56
236.987	97.56
237.221	93.56
237.455	85.56
237.689	81.56
237.922	104.56
238.156	77.56
238.39	88.56
238.624	91.56
238.858	74.56
239.091	108.56
239.325	94.56
239.559	107.56
239.793	108.56
240.027	94.56
240.26	117.56
240.494	108.56
240.728	103.56
240.961	106.56
241.195	97.56
241.429	101.56
241.662	94.56
241.896	108.56
242.13	104.56
242.363	79.56
242.597	92.56
242.83	95.56
243.064	94.56
243.298	106.56
243.531	102.56
243.765	94.56
243.998	110.56
244.232	110.56
244.465	105.56
244.699	103.56
244.932	108.56
245.166	110.56
245.399	119.56
245.633	108.56
245.866	103.56
246.099	104.56
246.333	102.56
246.566	124.56
246.8	86.56
247.033	102.56
247.266	103.56
247.5	106.56
247.733	113.56
247.966	129.56
248.2	117.56
248.433	98.56
248.666	98.56
248.899	110.56
249.133	103.56
249.366	108.56
249.599	110.56
249.832	109.56
250.066	105.56
250.299	108.56
250.532	119.56
250.765	124.56
250.998	112.56
251.231	113.56
251.465	130.56
251.698	116.56
251.931	124.56
252.164	125.56
252.397	119.56
252.63	129.56
252.863	133.56
253.096	124.56
253.329	140.56
253.562	139.56
253.795	140.56
254.028	127.56
254.261	141.56
254.494	132.56
254.727	129.56
254.96	140.56
255.193	121.56
255.426	127.56
255.659	140.56
255.892	147.56
256.124	136.56
256.357	135.56
256.59	138.56
256.823	124.56
257.056	130.56
257.289	144.56
257.521	144.56
257.754	153.56
257.987	179.56
258.22	182.56
258.452	168.56
258.685	141.56
258.918	146.56
259.151	129.56
259.383	136.56
259.616	148.56
259.849	147.56
260.081	147.56
260.314	145.56
260.547	166.56
260.779	175.56
261.012	199.56
261.244	257.56
261.477	317.56
261.71	318.56
261.942	241.56
262.175	190.56
262.407	168.56
262.64	151.56
262.872	153.56
263.105	148.56
263.337	144.56
263.57	139.56
263.802	161.56
264.035	165.56
264.267	145.56
264.499	147.56
264.732	166.56
264.964	187.56
265.197	189.56
265.429	181.56
265.661	164.56
265.894	153.56
266.126	183.56
266.358	219.56
266.591	249.56
266.823	206.56
267.055	144.56
267.287	151.56
267.52	136.56
267.752	145.56
267.984	138.56
268.216	129.56
268.448	134.56
268.681	135.56
268.913	142.56
269.145	138.56
269.377	130.56
269.609	135.56
269.841	138.56
270.073	151.56
270.306	143.56
270.538	122.56
270.77	128.56
271.002	133.56
271.234	142.56
271.466	138.56
271.698	131.56
271.93	128.56
272.162	128.56
272.394	131.56
272.626	125.56
272.858	129.56
273.09	148.56
273.322	144.56
273.553	139.56
273.785	148.56
274.017	142.56
274.249	139.56
274.481	141.56
274.713	144.56
274.945	127.56
275.176	138.56
275.408	144.56
275.64	129.56
275.872	142.56
276.104	143.56
276.335	145.56
276.567	142.56
276.799	145.56
277.031	154.56
277.262	153.56
277.494	140.56
277.726	160.56
277.957	158.56
278.189	172.56
278.421	169.56
278.652	180.56
278.884	184.56
279.115	197.56
279.347	225.56
279.579	273.56
279.81	326.56
280.042	440.56
280.273	513.56
280.505	431.56
280.736	294.56
280.968	240.56
281.199	220.56
281.431	193.56
281.662	208.56
281.894	213.56
282.125	233.56
282.356	258.56
282.588	262.56
282.819	249.56
283.051	282.56
283.282	357.56
283.513	394.56
283.745	317.56
283.976	236.56
284.207	202.56
284.439	180.56
284.67	174.56
284.901	176.56
285.132	184.56
285.364	172.56
285.595	167.56
285.826	158.56
286.057	182.56
286.288	173.56
286.52	168.56
286.751	201.56
286.982	246.56
287.213	278.56
287.444	318.56
287.675	268.56
287.906	205.56
288.138	164.56
288.369	170.56
288.6	162.56
288.831	155.56
289.062	157.56
289.293	152.56
289.524	137.56
289.755	167.56
289.986	165.56
290.217	152.56
290.448	149.56
290.679	144.56
290.91	165.56
291.141	158.56
291.371	159.56
291.602	155.56
291.833	147.56
292.064	158.56
292.295	155.56
292.526	153.56
292.757	138.56
292.987	168.56
293.218	168.56
293.449	164.56
293.68	169.56
293.91	153.56
294.141	165.56
294.372	168.56
294.603	175.56
294.833	159.56
295.064	176.56
295.295	164.56
295.525	170.56
295.756	175.56
295.987	174.56
296.217	164.56
296.448	169.56
296.679	156.56
296.909	166.56
297.14	164.56
297.37	153.56
297.601	168.56
297.831	171.56
298.062	170.56
298.292	160.56
298.523	164.56
298.753	159.56
298.984	172.56
299.214	150.56
299.445	160.56
299.675	157.56
299.905	152.56
300.136	185.56
300.366	166.56
300.597	169.56
300.827	171.56
301.057	172.56
301.288	177.56
301.518	167.56
301.748	184.56
301.979	193.56
302.209	188.56
302.439	169.56
302.669	172.56
302.9	172.56
303.13	183.56
303.36	190.56
303.59	171.56
303.82	157.56
304.051	175.56
304.281	180.56
304.511	188.56
304.741	183.56
304.971	162.56
305.201	174.56
305.431	163.56
305.661	192.56
305.891	187.56
306.121	185.56
306.352	188.56
306.582	175.56
306.812	159.56
307.042	166.56
307.272	167.56
307.502	161.56
307.731	173.56
307.961	174.56
308.191	181.56
308.421	173.56
308.651	167.56
308.881	177.56
309.111	183.56
309.341	168.56
309.571	167.56
309.8	169.56
310.03	182.56
310.26	176.56
310.49	169.56
310.72	172.56
310.949	192.56
311.179	197.56
311.409	184.56
311.639	190.56
311.868	187.56
312.098	185.56
312.328	184.56
312.557	186.56
312.787	173.56
313.017	202.56
313.246	207.56
313.476	206.56
313.706	216.56
313.935	204.56
314.165	219.56
314.394	205.56
314.624	200.56
314.853	231.56
315.083	210.56
315.312	215.56
315.542	231.56
315.771	214.56
316.001	201.56
316.23	209.56
316.46	205.56
316.689	209.56
316.919	199.56
317.148	210.56
317.377	201.56
317.607	209.56
317.836	201.56
318.065	194.56
318.295	203.56
318.524	204.56
318.753	206.56
318.983	206.56
319.212	189.56
319.441	202.56
319.67	187.56
319.9	192.56
320.129	168.56
320.358	184.56
320.587	192.56
320.816	191.56
321.046	190.56
321.275	179.56
321.504	186.56
321.733	189.56
321.962	182.56
322.191	196.56
322.42	183.56
322.649	182.56
322.878	193.56
323.108	166.56
323.337	186.56
323.566	180.56
323.795	193.56
324.024	194.56
324.253	190.56
324.482	187.56
324.71	200.56
324.939	190.56
325.168	188.56
325.397	178.56
325.626	171.56
325.855	201.56
326.084	185.56
326.313	190.56
326.542	176.56
326.77	192.56
326.999	179.56
327.228	169.56
327.457	199.56
327.686	181.56
327.914	213.56
328.143	200.56
328.372	193.56
328.6	180.56
328.829	199.56
329.058	188.56
329.287	186.56
329.515	198.56
329.744	194.56
329.972	184.56
330.201	194.56
330.43	186.56
330.658	182.56
330.887	194.56
331.115	161.56
331.344	190.56
331.572	196.56
331.801	171.56
332.03	189.56
332.258	187.56
332.486	190.56
332.715	201.56
332.943	224.56
333.172	193.56
333.4	209.56
333.629	193.56
333.857	196.56
334.085	197.56
334.314	201.56
334.542	201.56
334.771	193.56
334.999	198.56
335.227	172.56
335.455	204.56
335.684	193.56
335.912	200.56
336.14	194.56
336.369	198.56
336.597	192.56
336.825	197.56
337.053	194.56
337.281	175.56
337.51	192.56
337.738	196.56
337.966	192.56
338.194	194.56
338.422	199.56
338.65	180.56
338.878	209.56
339.106	200.56
339.334	188.56
339.562	197.56
339.79	198.56
340.018	195.56
340.246	176.56
340.474	203.56
340.702	172.56
340.93	185.56
341.158	183.56
341.386	174.56
341.614	193.56
341.842	188.56
342.07	192.56
342.298	190.56
342.526	201.56
342.754	186.56
342.981	182.56
343.209	184.56
343.437	192.56
343.665	181.56
343.893	195.56
344.12	191.56
344.348	214.56
344.576	190.56
344.804	205.56
345.031	190.56
345.259	209.56
345.487	204.56
345.714	205.56
345.942	182.56
346.17	197.56
346.397	193.56
346.625	202.56
346.853	210.56
347.08	190.56
347.308	179.56
347.535	195.56
347.763	198.56
347.99	199.56
348.218	183.56
348.445	199.56
348.673	192.56
348.9	191.56
349.128	196.56
349.355	194.56
349.583	186.56
349.81	186.56
350.037	194.56
350.265	202.56
350.492	187.56
350.72	178.56
350.947	202.56
351.174	178.56
351.402	187.56
351.629	202.56
351.856	190.56
352.083	186.56
352.311	201.56
352.538	199.56
352.765	204.56
352.992	198.56
353.22	193.56
353.447	196.56
353.674	192.56
353.901	185.56
354.128	189.56
354.355	190.56
354.583	194.56
354.81	182.56
355.037	197.56
355.264	203.56
355.491	205.56
355.718	206.56
355.945	199.56
356.172	216.56
356.399	208.56
356.626	238.56
356.853	305.56
357.08	429.56
357.307	560.56
357.534	554.56
357.761	389.56
357.988	312.56
358.215	282.56
358.441	244.56
358.668	255.56
358.895	235.56
359.122	232.56
359.349	222.56
359.576	214.56
359.802	203.56
360.029	218.56
360.256	220.56
360.483	216.56
360.709	210.56
360.936	199.56
361.163	225.56
361.39	201.56
361.616	205.56
361.843	201.56
362.07	221.56
362.296	213.56
362.523	224.56
362.749	208.56
362.976	232.56
363.203	246.56
363.429	301.56
363.656	425.56
363.882	631.56
364.109	722.56
364.335	533.56
364.562	372.56
364.788	281.56
365.015	276.56
365.241	250.56
365.468	224.56
365.694	244.56
365.92	244.56
366.147	221.56
366.373	255.56
366.599	237.56
366.826	258.56
367.052	294.56
367.278	344.56
367.505	359.56
367.731	352.56
367.957	464.56
368.184	729.56
368.41	972.56
368.636	812.56
368.862	510.56
369.089	367.56
369.315	315.56
369.541	266.56
369.767	252.56
369.993	233.56
370.219	237.56
370.445	215.56
370.672	234.56
370.898	219.56
371.124	220.56
371.35	221.56
371.576	220.56
371.802	212.56
372.028	235.56
372.254	230.56
372.48	221.56
372.706	227.56
372.932	233.56
373.158	238.56
373.384	257.56
373.61	332.56
373.835	460.56
374.061	600.56
374.287	564.56
374.513	378.56
374.739	302.56
374.965	284.56
375.191	260.56
375.416	236.56
375.642	226.56
375.868	219.56
376.094	216.56
376.319	212.56
376.545	222.56
376.771	200.56
376.997	223.56
377.222	207.56
377.448	212.56
377.674	214.56
377.899	197.56
378.125	192.56
378.35	206.56
378.576	232.56
378.802	225.56
379.027	226.56
379.253	223.56
379.478	223.56
379.704	208.56
379.929	217.56
380.155	219.56
380.38	206.56
380.606	192.56
380.831	222.56
381.057	213.56
381.282	217.56
381.507	190.56
381.733	217.56
381.958	214.56
382.184	199.56
382.409	210.56
382.634	207.56
382.86	210.56
383.085	195.56
383.31	223.56
383.535	221.56
383.761	201.56
383.986	209.56
384.211	212.56
384.436	212.56
384.662	219.56
384.887	220.56
385.112	208.56
385.337	217.56
385.562	224.56
385.787	237.56
386.013	218.56
386.238	214.56
386.463	235.56
386.688	238.56
386.913	207.56
387.138	218.56
387.363	224.56
387.588	226.56
387.813	228.56
388.038	223.56
388.263	218.56
388.488	210.56
388.713	205.56
388.938	200.56
389.163	205.56
389.387	201.56
389.612	217.56
389.837	211.56
390.062	201.56
390.287	199.56
390.512	228.56
390.736	204.56
390.961	214.56
391.186	227.56
391.411	220.56
391.636	223.56
391.86	221.56
392.085	216.56
392.31	213.56
392.534	218.56
392.759	218.56
392.984	228.56
393.208	230.56
393.433	233.56
393.658	230.56
393.882	229.56
394.107	212.56
394.331	240.56
394.556	217.56
394.78	216.56
395.005	206.56
395.229	224.56
395.454	214.56
395.678	226.56
395.903	226.56
396.127	216.56
396.352	215.56
396.576	209.56
396.801	221.56
397.025	216.56
397.249	213.56
397.474	208.56
397.698	230.56
397.922	225.56
398.147	230.56
398.371	233.56
398.595	222.56
398.82	220.56
399.044	233.56
399.268	261.56
399.492	253.56
399.717	266.56
399.941	262.56
400.165	253.56
400.389	254.56
400.613	238.56
400.837	245.56
401.062	242.56
401.286	233.56
401.51	252.56
401.734	276.56
401.958	283.56
402.182	302.56
402.406	270.56
402.63	240.56
402.854	246.56
403.078	244.56
403.302	253.56
403.526	266.56
403.75	265.56
403.974	245.56
404.198	281.56
404.422	278.56
404.645	296.56
404.869	313.56
405.093	371.56
405.317	479.56
405.541	806.56
405.765	1351.56
405.988	1560.56
406.212	1016.56
406.436	652.56
406.66	486.56
406.883	380.56
407.107	364.56
407.331	348.56
407.555	327.56
407.778	298.56
408.002	298.56
408.226	268.56
408.449	281.56
408.673	245.56
408.896	257.56
409.12	257.56
409.344	261.56
409.567	241.56
409.791	264.56
410.014	250.56
410.238	269.56
410.461	250.56
410.685	242.56
410.908	242.56
411.132	261.56
411.355	261.56
411.578	245.56
411.802	257.56
412.025	239.56
412.249	230.56
412.472	256.56
412.695	231.56
412.919	246.56
413.142	248.56
413.365	245.56
413.589	226.56
413.812	234.56
414.035	246.56
414.258	239.56
414.482	225.56
414.705	216.56
414.928	239.56
415.151	241.56
415.374	241.56
415.597	224.56
415.821	238.56
416.044	249.56
416.267	245.56
416.49	243.56
416.713	270.56
416.936	280.56
417.159	250.56
417.382	236.56
417.605	254.56
417.828	222.56
418.051	235.56
418.274	230.56
418.497	229.56
418.72	249.56
418.943	247.56
419.166	242.56
419.389	238.56
419.611	237.56
419.834	252.56
420.057	254.56
420.28	253.56
420.503	235.56
420.726	251.56
420.948	246.56
421.171	247.56
421.394	250.56
421.617	246.56
421.839	253.56
422.062	255.56
422.285	256.56
422.507	288.56
422.73	289.56
422.953	302.56
423.175	287.56
423.398	326.56
423.621	342.56
423.843	351.56
424.066	435.56
424.288	511.56
424.511	645.56
424.733	690.56
424.956	598.56
425.178	504.56
425.401	468.56
425.623	410.56
425.846	368.56
426.068	348.56
426.291	316.56
426.513	302.56
426.735	299.56
426.958	295.56
427.18	286.56
427.402	282.56
427.625	268.56
427.847	266.56
428.069	278.56
428.292	261.56
428.514	260.56
428.736	246.56
428.958	252.56
429.181	240.56
429.403	251.56
429.625	240.56
429.847	241.56
430.069	237.56
430.292	248.56
430.514	241.56
430.736	256.56
430.958	217.56
431.18	258.56
431.402	232.56
431.624	221.56
431.846	244.56
432.068	239.56
432.29	240.56
432.512	239.56
432.734	256.56
432.956	249.56
433.178	206.56
433.4	243.56
433.622	234.56
433.844	262.56
434.066	268.56
434.287	268.56
434.509	257.56
434.731	250.56
434.953	263.56
435.175	274.56
435.397	252.56
435.618	245.56
435.84	252.56
436.062	262.56
436.284	264.56
436.505	272.56
436.727	276.56
436.949	272.56
437.17	272.56
437.392	304.56
437.614	293.56
437.835	325.56
438.057	367.56
438.278	391.56
438.5	485.56
438.721	589.56
438.943	617.56
439.165	540.56
439.386	476.56
439.608	425.56
439.829	413.56
440.05	414.56
440.272	377.56
440.493	376.56
440.715	398.56
440.936	455.56
441.158	439.56
441.379	380.56
441.6	344.56
441.822	344.56
442.043	304.56
442.264	284.56
442.486	288.56
442.707	301.56
442.928	283.56
443.149	282.56
443.371	278.56
443.592	258.56
443.813	254.56
444.034	266.56
444.255	268.56
444.476	250.56
444.698	263.56
444.919	258.56
445.14	316.56
445.361	284.56
445.582	243.56
445.803	252.56
446.024	253.56
446.245	226.56
446.466	226.56
446.687	224.56
446.908	222.56
447.129	221.56
447.35	236.56
447.571	218.56
447.792	234.56
448.013	234.56
448.234	233.56
448.455	226.56
448.675	235.56
448.896	229.56
449.117	212.56
449.338	220.56
449.559	232.56
449.779	229.56
450	234.56
450.221	216.56
450.442	216.56
450.662	219.56
450.883	223.56
451.104	216.56
451.324	213.56
451.545	213.56
451.766	213.56
451.986	207.56
452.207	206.56
452.428	201.56
452.648	205.56
452.869	208.56
453.089	212.56
453.31	208.56
453.53	198.56
453.751	211.56
453.971	200.56
454.192	206.56
454.412	194.56
454.633	191.56
454.853	201.56
455.073	203.56
455.294	201.56
455.514	207.56
455.734	192.56
455.955	190.56
456.175	208.56
456.395	210.56
456.616	209.56
456.836	186.56
457.056	204.56
457.276	194.56
457.497	206.56
457.717	203.56
457.937	192.56
458.157	197.56
458.377	185.56
458.598	216.56
458.818	205.56
459.038	204.56
459.258	196.56
459.478	203.56
459.698	218.56
459.918	215.56
460.138	216.56
460.358	226.56
460.578	218.56
460.798	227.56
461.018	232.56
461.238	217.56
461.458	196.56
461.678	217.56
461.898	223.56
462.118	231.56
462.338	218.56
462.558	225.56
462.777	226.56
462.997	233.56
463.217	246.56
463.437	245.56
463.657	238.56
463.876	225.56
464.096	241.56
464.316	240.56
464.536	234.56
464.755	230.56
464.975	221.56
465.195	211.56
465.414	201.56
465.634	211.56
465.854	217.56
466.073	213.56
466.293	208.56
466.512	201.56
466.732	208.56
466.951	228.56
467.171	216.56
467.391	210.56
467.61	214.56
467.829	194.56
468.049	190.56
468.268	200.56
468.488	188.56
468.707	200.56
468.927	225.56
469.146	195.56
469.365	209.56
469.585	226.56
469.804	208.56
470.023	202.56
470.243	215.56
470.462	224.56
470.681	207.56
470.901	219.56
471.12	213.56
471.339	216.56
471.558	229.56
471.777	214.56
471.997	210.56
472.216	214.56
472.435	200.56
472.654	193.56
472.873	219.56
473.092	212.56
473.311	221.56
473.53	208.56
473.749	201.56
473.968	214.56
474.187	212.56
474.406	212.56
474.625	207.56
474.844	215.56
475.063	210.56
475.282	220.56
475.501	209.56
475.72	221.56
475.939	209.56
476.158	216.56
476.377	205.56
476.596	213.56
476.814	228.56
477.033	212.56
477.252	237.56
477.471	223.56
477.69	228.56
477.908	209.56
478.127	239.56
478.346	245.56
478.564	248.56
478.783	261.56
479.002	252.56
479.22	238.56
479.439	259.56
479.658	255.56
479.876	245.56
480.095	240.56
480.313	233.56
480.532	253.56
480.751	253.56
480.969	253.56
481.188	260.56
481.406	248.56
481.624	242.56
481.843	250.56
482.061	232.56
482.28	237.56
482.498	242.56
482.717	229.56
482.935	249.56
483.153	227.56
483.372	240.56
483.59	239.56
483.808	236.56
484.027	240.56
484.245	223.56
484.463	238.56
484.681	248.56
484.9	246.56
485.118	249.56
485.336	237.56
485.554	253.56
485.772	238.56
485.99	250.56
486.209	243.56
486.427	241.56
486.645	240.56
486.863	244.56
487.081	232.56
487.299	231.56
487.517	258.56
487.735	272.56
487.953	240.56
488.171	248.56
488.389	244.56
488.607	247.56
488.825	236.56
489.043	243.56
489.261	245.56
489.479	247.56
489.696	241.56
489.914	246.56
490.132	241.56
490.35	251.56
490.568	254.56
490.786	246.56
491.003	237.56
491.221	277.56
491.439	258.56
491.657	236.56
491.874	266.56
492.092	250.56
492.31	256.56
492.527	254.56
492.745	252.56
492.963	248.56
493.18	263.56
493.398	257.56
493.615	262.56
493.833	241.56
494.05	251.56
494.268	249.56
494.485	249.56
494.703	265.56
494.92	258.56
495.138	256.56
495.355	273.56
495.573	272.56
495.79	274.56
496.008	258.56
496.225	261.56
496.442	253.56
496.66	252.56
496.877	278.56
497.094	284.56
497.312	283.56
497.529	277.56
497.746	276.56
497.963	260.56
498.181	266.56
498.398	288.56
498.615	296.56
498.832	292.56
499.049	309.56
499.267	313.56
499.484	322.56
499.701	354.56
499.918	372.56
500.135	359.56
500.352	393.56
500.569	469.56
500.786	525.56
501.003	428.56
501.22	389.56
501.437	348.56
501.654	350.56
501.871	341.56
502.088	331.56
502.305	330.56
502.522	331.56
502.739	331.56
502.956	341.56
503.172	304.56
503.389	317.56
