Data from StdB_HRD10591_017.txt Node
Date: Fri May 16 15:24:54 EDT 2025
User: Yrep
Spectrometer: HR+D1059
Trigger mode: 1
Integration Time (sec): 1.000000E-1
Scans to average: 1
Electric dark correction enabled: true
Nonlinearity correction enabled: false
Boxcar width: 0
XAxis mode: Wavelengths
Number of Pixels in Spectrum: 2048
>>>>>Begin Spectral Data<<<<<
223.165	-23.88
223.4	-23.88
223.635	-23.88
223.869	-26.88
224.104	-15.88
224.338	-14.88
224.573	-21.88
224.808	-19.88
225.042	-14.88
225.277	2.12
225.511	-2.88
225.746	2.12
225.98	0.12
226.215	13.12
226.449	20.12
226.683	30.12
226.918	40.12
227.152	33.12
227.387	32.12
227.621	36.12
227.856	48.12
228.09	54.12
228.324	56.12
228.559	50.12
228.793	66.12
229.027	77.12
229.262	75.12
229.496	88.12
229.73	81.12
229.964	86.12
230.199	101.12
230.433	92.12
230.667	84.12
230.901	92.12
231.136	82.12
231.37	90.12
231.604	96.12
231.838	82.12
232.072	84.12
232.306	90.12
232.541	91.12
232.775	94.12
233.009	90.12
233.243	112.12
233.477	98.12
233.711	93.12
233.945	105.12
234.179	98.12
234.413	87.12
234.647	101.12
234.881	91.12
235.115	81.12
235.349	94.12
235.583	96.12
235.817	96.12
236.051	92.12
236.285	98.12
236.519	80.12
236.753	90.12
236.987	94.12
237.221	94.12
237.455	95.12
237.689	105.12
237.922	101.12
238.156	90.12
238.39	105.12
238.624	105.12
238.858	98.12
239.091	101.12
239.325	90.12
239.559	108.12
239.793	110.12
240.027	112.12
240.26	122.12
240.494	112.12
240.728	97.12
240.961	110.12
241.195	106.12
241.429	126.12
241.662	112.12
241.896	102.12
242.13	106.12
242.363	94.12
242.597	104.12
242.83	106.12
243.064	95.12
243.298	106.12
243.531	100.12
243.765	93.12
243.998	108.12
244.232	114.12
244.465	116.12
244.699	110.12
244.932	100.12
245.166	107.12
245.399	88.12
245.633	100.12
245.866	110.12
246.099	86.12
246.333	112.12
246.566	110.12
246.8	117.12
247.033	99.12
247.266	121.12
247.5	130.12
247.733	120.12
247.966	134.12
248.2	124.12
248.433	120.12
248.666	117.12
248.899	115.12
249.133	94.12
249.366	104.12
249.599	102.12
249.832	114.12
250.066	122.12
250.299	116.12
250.532	125.12
250.765	108.12
250.998	134.12
251.231	126.12
251.465	121.12
251.698	109.12
251.931	128.12
252.164	134.12
252.397	134.12
252.63	151.12
252.863	147.12
253.096	129.12
253.329	149.12
253.562	142.12
253.795	158.12
254.028	133.12
254.261	142.12
254.494	150.12
254.727	137.12
254.96	135.12
255.193	138.12
255.426	138.12
255.659	138.12
255.892	150.12
256.124	140.12
256.357	144.12
256.59	153.12
256.823	148.12
257.056	128.12
257.289	159.12
257.521	140.12
257.754	165.12
257.987	172.12
258.22	183.12
258.452	161.12
258.685	142.12
258.918	162.12
259.151	151.12
259.383	141.12
259.616	147.12
259.849	138.12
260.081	146.12
260.314	167.12
260.547	171.12
260.779	198.12
261.012	213.12
261.244	258.12
261.477	327.12
261.71	336.12
261.942	244.12
262.175	198.12
262.407	171.12
262.64	168.12
262.872	157.12
263.105	165.12
263.337	146.12
263.57	149.12
263.802	173.12
264.035	158.12
264.267	152.12
264.499	168.12
264.732	175.12
264.964	196.12
265.197	206.12
265.429	203.12
265.661	174.12
265.894	159.12
266.126	190.12
266.358	245.12
266.591	257.12
266.823	197.12
267.055	180.12
267.287	154.12
267.52	132.12
267.752	122.12
267.984	146.12
268.216	137.12
268.448	127.12
268.681	142.12
268.913	142.12
269.145	133.12
269.377	147.12
269.609	152.12
269.841	152.12
270.073	160.12
270.306	143.12
270.538	144.12
270.77	144.12
271.002	139.12
271.234	140.12
271.466	145.12
271.698	139.12
271.93	147.12
272.162	144.12
272.394	171.12
272.626	144.12
272.858	148.12
273.09	145.12
273.322	163.12
273.553	147.12
273.785	134.12
274.017	130.12
274.249	140.12
274.481	152.12
274.713	139.12
274.945	137.12
275.176	154.12
275.408	148.12
275.64	133.12
275.872	144.12
276.104	150.12
276.335	156.12
276.567	152.12
276.799	156.12
277.031	174.12
277.262	157.12
277.494	152.12
277.726	173.12
277.957	154.12
278.189	169.12
278.421	175.12
278.652	166.12
278.884	197.12
279.115	207.12
279.347	253.12
279.579	286.12
279.81	338.12
280.042	415.12
280.273	530.12
280.505	480.12
280.736	319.12
280.968	239.12
281.199	228.12
281.431	200.12
281.662	216.12
281.894	215.12
282.125	262.12
282.356	285.12
282.588	280.12
282.819	244.12
283.051	275.12
283.282	347.12
283.513	410.12
283.745	317.12
283.976	258.12
284.207	210.12
284.439	192.12
284.67	180.12
284.901	182.12
285.132	177.12
285.364	187.12
285.595	176.12
285.826	180.12
286.057	188.12
286.288	185.12
286.52	190.12
286.751	205.12
286.982	257.12
287.213	281.12
287.444	335.12
287.675	267.12
287.906	190.12
288.138	198.12
288.369	185.12
288.6	187.12
288.831	164.12
289.062	165.12
289.293	165.12
289.524	171.12
289.755	168.12
289.986	157.12
290.217	165.12
290.448	166.12
290.679	163.12
290.91	171.12
291.141	168.12
291.371	162.12
291.602	157.12
291.833	174.12
292.064	173.12
292.295	172.12
292.526	166.12
292.757	157.12
292.987	164.12
293.218	168.12
293.449	170.12
293.68	167.12
293.91	183.12
294.141	166.12
294.372	173.12
294.603	173.12
294.833	187.12
295.064	185.12
295.295	171.12
295.525	173.12
295.756	184.12
295.987	168.12
296.217	194.12
296.448	182.12
296.679	174.12
296.909	176.12
297.14	157.12
297.37	182.12
297.601	180.12
297.831	170.12
298.062	184.12
298.292	162.12
298.523	168.12
298.753	148.12
298.984	175.12
299.214	162.12
299.445	178.12
299.675	163.12
299.905	179.12
300.136	178.12
300.366	194.12
300.597	177.12
300.827	174.12
301.057	176.12
301.288	182.12
301.518	165.12
301.748	165.12
301.979	190.12
302.209	192.12
302.439	179.12
302.669	180.12
302.9	190.12
303.13	171.12
303.36	159.12
303.59	180.12
303.82	173.12
304.051	180.12
304.281	188.12
304.511	188.12
304.741	190.12
304.971	184.12
305.201	204.12
305.431	191.12
305.661	189.12
305.891	190.12
306.121	179.12
306.352	174.12
306.582	193.12
306.812	169.12
307.042	165.12
307.272	172.12
307.502	188.12
307.731	177.12
307.961	189.12
308.191	161.12
308.421	188.12
308.651	180.12
308.881	176.12
309.111	195.12
309.341	201.12
309.571	189.12
309.8	183.12
310.03	161.12
310.26	191.12
310.49	171.12
310.72	187.12
310.949	183.12
311.179	184.12
311.409	180.12
311.639	189.12
311.868	195.12
312.098	192.12
312.328	202.12
312.557	208.12
312.787	206.12
313.017	198.12
313.246	195.12
313.476	210.12
313.706	214.12
313.935	206.12
314.165	195.12
314.394	216.12
314.624	217.12
314.853	221.12
315.083	212.12
315.312	206.12
315.542	208.12
315.771	221.12
316.001	217.12
316.23	213.12
316.46	204.12
316.689	212.12
316.919	222.12
317.148	220.12
317.377	206.12
317.607	220.12
317.836	202.12
318.065	217.12
318.295	205.12
318.524	193.12
318.753	210.12
318.983	194.12
319.212	212.12
319.441	199.12
319.67	192.12
319.9	189.12
320.129	194.12
320.358	208.12
320.587	193.12
320.816	206.12
321.046	170.12
321.275	201.12
321.504	206.12
321.733	193.12
321.962	216.12
322.191	190.12
322.42	190.12
322.649	193.12
322.878	188.12
323.108	156.12
323.337	192.12
323.566	182.12
323.795	202.12
324.024	210.12
324.253	201.12
324.482	202.12
324.71	207.12
324.939	188.12
325.168	186.12
325.397	211.12
325.626	196.12
325.855	188.12
326.084	197.12
326.313	205.12
326.542	198.12
326.77	194.12
326.999	209.12
327.228	203.12
327.457	194.12
327.686	199.12
327.914	193.12
328.143	196.12
328.372	203.12
328.6	199.12
328.829	197.12
329.058	182.12
329.287	188.12
329.515	184.12
329.744	204.12
329.972	203.12
330.201	197.12
330.43	192.12
330.658	196.12
330.887	198.12
331.115	199.12
331.344	205.12
331.572	204.12
331.801	200.12
332.03	201.12
332.258	208.12
332.486	215.12
332.715	198.12
332.943	202.12
333.172	208.12
333.4	194.12
333.629	199.12
333.857	205.12
334.085	195.12
334.314	190.12
334.542	202.12
334.771	209.12
334.999	207.12
335.227	199.12
335.455	200.12
335.684	194.12
335.912	205.12
336.14	185.12
336.369	198.12
336.597	197.12
336.825	198.12
337.053	194.12
337.281	201.12
337.51	200.12
337.738	204.12
337.966	192.12
338.194	188.12
338.422	194.12
338.65	195.12
338.878	190.12
339.106	184.12
339.334	203.12
339.562	189.12
339.79	190.12
340.018	186.12
340.246	199.12
340.474	184.12
340.702	189.12
340.93	192.12
341.158	202.12
341.386	187.12
341.614	184.12
341.842	203.12
342.07	192.12
342.298	196.12
342.526	189.12
342.754	199.12
342.981	202.12
343.209	190.12
343.437	214.12
343.665	212.12
343.893	207.12
344.12	219.12
344.348	199.12
344.576	184.12
344.804	196.12
345.031	205.12
345.259	206.12
345.487	195.12
345.714	190.12
345.942	206.12
346.17	199.12
346.397	197.12
346.625	201.12
346.853	190.12
347.08	193.12
347.308	202.12
347.535	184.12
347.763	191.12
347.99	203.12
348.218	188.12
348.445	193.12
348.673	186.12
348.9	192.12
349.128	208.12
349.355	187.12
349.583	202.12
349.81	198.12
350.037	207.12
350.265	192.12
350.492	194.12
350.72	179.12
350.947	202.12
351.174	189.12
351.402	193.12
351.629	187.12
351.856	196.12
352.083	198.12
352.311	192.12
352.538	206.12
352.765	198.12
352.992	207.12
353.22	203.12
353.447	182.12
353.674	207.12
353.901	203.12
354.128	208.12
354.355	211.12
354.583	195.12
354.81	208.12
355.037	207.12
355.264	211.12
355.491	206.12
355.718	202.12
355.945	222.12
356.172	223.12
356.399	227.12
356.626	261.12
356.853	321.12
357.08	452.12
357.307	573.12
357.534	572.12
357.761	422.12
357.988	324.12
358.215	280.12
358.441	272.12
358.668	273.12
358.895	236.12
359.122	248.12
359.349	227.12
359.576	238.12
359.802	238.12
360.029	223.12
360.256	226.12
360.483	228.12
360.709	200.12
360.936	236.12
361.163	213.12
361.39	212.12
361.616	200.12
361.843	216.12
362.07	232.12
362.296	226.12
362.523	214.12
362.749	242.12
362.976	248.12
363.203	263.12
363.429	310.12
363.656	454.12
363.882	651.12
364.109	760.12
364.335	527.12
364.562	355.12
364.788	316.12
365.015	272.12
365.241	262.12
365.468	257.12
365.694	228.12
365.92	236.12
366.147	244.12
366.373	249.12
366.599	261.12
366.826	283.12
367.052	316.12
367.278	368.12
367.505	338.12
367.731	364.12
367.957	533.12
368.184	734.12
368.41	1018.12
368.636	850.12
368.862	536.12
369.089	401.12
369.315	320.12
369.541	286.12
369.767	259.12
369.993	242.12
370.219	254.12
370.445	251.12
370.672	252.12
370.898	221.12
371.124	243.12
371.35	218.12
371.576	224.12
371.802	227.12
372.028	231.12
372.254	218.12
372.48	236.12
372.706	255.12
372.932	237.12
373.158	261.12
373.384	279.12
373.61	330.12
373.835	496.12
374.061	630.12
374.287	577.12
374.513	401.12
374.739	292.12
374.965	274.12
375.191	269.12
375.416	245.12
375.642	238.12
375.868	219.12
376.094	235.12
376.319	220.12
376.545	181.12
376.771	231.12
376.997	228.12
377.222	224.12
377.448	212.12
377.674	220.12
377.899	229.12
378.125	208.12
378.35	221.12
378.576	223.12
378.802	247.12
379.027	236.12
379.253	228.12
379.478	218.12
379.704	210.12
379.929	210.12
380.155	218.12
380.38	218.12
380.606	210.12
380.831	213.12
381.057	245.12
381.282	217.12
381.507	225.12
381.733	212.12
381.958	202.12
382.184	219.12
382.409	212.12
382.634	192.12
382.86	227.12
383.085	233.12
383.31	212.12
383.535	216.12
383.761	213.12
383.986	217.12
384.211	222.12
384.436	216.12
384.662	225.12
384.887	233.12
385.112	238.12
385.337	222.12
385.562	241.12
385.787	227.12
386.013	219.12
386.238	223.12
386.463	230.12
386.688	238.12
386.913	232.12
387.138	214.12
387.363	216.12
387.588	213.12
387.813	217.12
388.038	221.12
388.263	224.12
388.488	220.12
388.713	221.12
388.938	218.12
389.163	217.12
389.387	219.12
389.612	204.12
389.837	215.12
390.062	227.12
390.287	217.12
390.512	233.12
390.736	221.12
390.961	219.12
391.186	219.12
391.411	237.12
391.636	213.12
391.86	229.12
392.085	220.12
392.31	232.12
392.534	224.12
392.759	219.12
392.984	224.12
393.208	228.12
393.433	246.12
393.658	242.12
393.882	220.12
394.107	209.12
394.331	220.12
394.556	232.12
394.78	215.12
395.005	226.12
395.229	221.12
395.454	242.12
395.678	236.12
395.903	244.12
396.127	235.12
396.352	234.12
396.576	240.12
396.801	246.12
397.025	250.12
397.249	228.12
397.474	227.12
397.698	214.12
397.922	242.12
398.147	232.12
398.371	221.12
398.595	256.12
398.82	226.12
399.044	237.12
399.268	270.12
399.492	261.12
399.717	254.12
399.941	258.12
400.165	260.12
400.389	259.12
400.613	253.12
400.837	260.12
401.062	241.12
401.286	240.12
401.51	262.12
401.734	285.12
401.958	339.12
402.182	314.12
402.406	248.12
402.63	242.12
402.854	265.12
403.078	268.12
403.302	265.12
403.526	265.12
403.75	277.12
403.974	284.12
404.198	280.12
404.422	306.12
404.645	331.12
404.869	344.12
405.093	378.12
405.317	500.12
405.541	824.12
405.765	1349.12
405.988	1582.12
406.212	1028.12
406.436	692.12
406.66	512.12
406.883	429.12
407.107	372.12
407.331	345.12
407.555	347.12
407.778	344.12
408.002	303.12
408.226	288.12
408.449	290.12
408.673	277.12
408.896	253.12
409.12	267.12
409.344	284.12
409.567	270.12
409.791	277.12
410.014	251.12
410.238	258.12
410.461	255.12
410.685	252.12
410.908	245.12
411.132	245.12
411.355	248.12
411.578	244.12
411.802	252.12
412.025	253.12
412.249	257.12
412.472	277.12
412.695	253.12
412.919	248.12
413.142	236.12
413.365	244.12
413.589	236.12
413.812	232.12
414.035	260.12
414.258	242.12
414.482	235.12
414.705	229.12
414.928	223.12
415.151	263.12
415.374	251.12
415.597	248.12
415.821	224.12
416.044	235.12
416.267	245.12
416.49	236.12
416.713	259.12
416.936	272.12
417.159	251.12
417.382	227.12
417.605	250.12
417.828	253.12
418.051	242.12
418.274	236.12
418.497	222.12
418.72	240.12
418.943	245.12
419.166	264.12
419.389	275.12
419.611	262.12
419.834	248.12
420.057	252.12
420.28	253.12
420.503	261.12
420.726	250.12
420.948	249.12
421.171	250.12
421.394	252.12
421.617	248.12
421.839	236.12
422.062	247.12
422.285	255.12
422.507	265.12
422.73	270.12
422.953	304.12
423.175	322.12
423.398	305.12
423.621	338.12
423.843	382.12
424.066	419.12
424.288	518.12
424.511	652.12
424.733	700.12
424.956	608.12
425.178	507.12
425.401	452.12
425.623	438.12
425.846	392.12
426.068	371.12
426.291	351.12
426.513	326.12
426.735	327.12
426.958	296.12
427.18	307.12
427.402	283.12
427.625	283.12
427.847	282.12
428.069	284.12
428.292	267.12
428.514	271.12
428.736	274.12
428.958	265.12
429.181	264.12
429.403	257.12
429.625	235.12
429.847	246.12
430.069	239.12
430.292	251.12
430.514	225.12
430.736	250.12
430.958	270.12
431.18	255.12
431.402	246.12
431.624	235.12
431.846	245.12
432.068	253.12
432.29	271.12
432.512	250.12
432.734	250.12
432.956	247.12
433.178	257.12
433.4	250.12
433.622	254.12
433.844	262.12
434.066	283.12
434.287	284.12
434.509	259.12
434.731	267.12
434.953	261.12
435.175	250.12
435.397	262.12
435.618	262.12
435.84	272.12
436.062	252.12
436.284	262.12
436.505	252.12
436.727	280.12
436.949	274.12
437.17	278.12
437.392	273.12
437.614	302.12
437.835	318.12
438.057	334.12
438.278	380.12
438.5	483.12
438.721	586.12
438.943	616.12
439.165	554.12
439.386	492.12
439.608	428.12
439.829	405.12
440.05	405.12
440.272	377.12
440.493	387.12
440.715	425.12
440.936	465.12
441.158	423.12
441.379	381.12
441.6	353.12
441.822	328.12
442.043	315.12
442.264	319.12
442.486	301.12
442.707	300.12
442.928	282.12
443.149	287.12
443.371	287.12
443.592	278.12
443.813	283.12
444.034	272.12
444.255	269.12
444.476	281.12
444.698	266.12
444.919	252.12
445.14	347.12
445.361	288.12
445.582	252.12
445.803	261.12
446.024	239.12
446.245	252.12
446.466	252.12
446.687	241.12
446.908	229.12
447.129	244.12
447.35	233.12
447.571	259.12
447.792	228.12
448.013	217.12
448.234	214.12
448.455	228.12
448.675	225.12
448.896	213.12
449.117	220.12
449.338	234.12
449.559	236.12
449.779	237.12
450	229.12
450.221	244.12
450.442	218.12
450.662	229.12
450.883	225.12
451.104	229.12
451.324	209.12
451.545	225.12
451.766	218.12
451.986	227.12
452.207	207.12
452.428	228.12
452.648	206.12
452.869	236.12
453.089	218.12
453.31	198.12
453.53	211.12
453.751	223.12
453.971	222.12
454.192	212.12
454.412	219.12
454.633	211.12
454.853	218.12
455.073	214.12
455.294	201.12
455.514	202.12
455.734	201.12
455.955	198.12
456.175	215.12
456.395	208.12
456.616	212.12
456.836	223.12
457.056	209.12
457.276	214.12
457.497	213.12
457.717	197.12
457.937	209.12
458.157	206.12
458.377	210.12
458.598	216.12
458.818	204.12
459.038	217.12
459.258	198.12
459.478	226.12
459.698	220.12
459.918	232.12
460.138	234.12
460.358	228.12
460.578	228.12
460.798	222.12
461.018	233.12
461.238	216.12
461.458	214.12
461.678	222.12
461.898	236.12
462.118	231.12
462.338	256.12
462.558	236.12
462.777	229.12
462.997	243.12
463.217	254.12
463.437	248.12
463.657	241.12
463.876	234.12
464.096	259.12
464.316	248.12
464.536	228.12
464.755	225.12
464.975	242.12
465.195	242.12
465.414	226.12
465.634	223.12
465.854	223.12
466.073	221.12
466.293	219.12
466.512	215.12
466.732	218.12
466.951	227.12
467.171	199.12
467.391	212.12
467.61	210.12
467.829	212.12
468.049	216.12
468.268	209.12
468.488	213.12
468.707	220.12
468.927	198.12
469.146	219.12
469.365	221.12
469.585	214.12
469.804	228.12
470.023	229.12
470.243	226.12
470.462	218.12
470.681	213.12
470.901	214.12
471.12	221.12
471.339	227.12
471.558	209.12
471.777	212.12
471.997	233.12
472.216	216.12
472.435	208.12
472.654	218.12
472.873	210.12
473.092	216.12
473.311	217.12
473.53	223.12
473.749	220.12
473.968	203.12
474.187	223.12
474.406	229.12
474.625	197.12
474.844	220.12
475.063	220.12
475.282	218.12
475.501	236.12
475.72	217.12
475.939	220.12
476.158	224.12
476.377	218.12
476.596	224.12
476.814	241.12
477.033	227.12
477.252	246.12
477.471	250.12
477.69	259.12
477.908	244.12
478.127	272.12
478.346	221.12
478.564	256.12
478.783	267.12
479.002	264.12
479.22	251.12
479.439	244.12
479.658	259.12
479.876	258.12
480.095	256.12
480.313	246.12
480.532	261.12
480.751	251.12
480.969	254.12
481.188	245.12
481.406	256.12
481.624	261.12
481.843	223.12
482.061	230.12
482.28	239.12
482.498	234.12
482.717	244.12
482.935	240.12
483.153	240.12
483.372	265.12
483.59	252.12
483.808	228.12
484.027	246.12
484.245	259.12
484.463	248.12
484.681	239.12
484.9	259.12
485.118	256.12
485.336	252.12
485.554	238.12
485.772	258.12
485.99	241.12
486.209	241.12
486.427	239.12
486.645	260.12
486.863	248.12
487.081	245.12
487.299	251.12
487.517	258.12
487.735	238.12
487.953	249.12
488.171	263.12
488.389	238.12
488.607	259.12
488.825	241.12
489.043	252.12
489.261	258.12
489.479	257.12
489.696	265.12
489.914	249.12
490.132	260.12
490.35	256.12
490.568	238.12
490.786	250.12
491.003	266.12
491.221	265.12
491.439	260.12
491.657	240.12
491.874	264.12
492.092	260.12
492.31	263.12
492.527	281.12
492.745	254.12
492.963	253.12
493.18	270.12
493.398	258.12
493.615	257.12
493.833	261.12
494.05	256.12
494.268	233.12
494.485	248.12
494.703	258.12
494.92	267.12
495.138	270.12
495.355	297.12
495.573	298.12
495.79	288.12
496.008	275.12
496.225	275.12
496.442	283.12
496.66	278.12
496.877	272.12
497.094	272.12
497.312	276.12
497.529	293.12
497.746	302.12
497.963	296.12
498.181	280.12
498.398	294.12
498.615	318.12
498.832	307.12
499.049	322.12
499.267	328.12
499.484	317.12
499.701	350.12
499.918	383.12
500.135	400.12
500.352	400.12
500.569	467.12
500.786	532.12
501.003	451.12
501.22	385.12
501.437	380.12
501.654	365.12
501.871	344.12
502.088	326.12
502.305	309.12
502.522	319.12
502.739	332.12
502.956	325.12
503.172	329.12
503.389	334.12
