Data from StdB_HRD10591_027.txt Node
Date: Fri May 16 15:24:59 EDT 2025
User: Yrep
Spectrometer: HR+D1059
Trigger mode: 1
Integration Time (sec): 1.000000E-1
Scans to average: 1
Electric dark correction enabled: true
Nonlinearity correction enabled: false
Boxcar width: 0
XAxis mode: Wavelengths
Number of Pixels in Spectrum: 2048
>>>>>Begin Spectral Data<<<<<
223.165	-18.69
223.4	-18.69
223.635	-18.69
223.869	-12.69
224.104	-20.69
224.338	-7.69
224.573	-2.69
224.808	-9.69
225.042	-20.69
225.277	-16.69
225.511	-13.69
225.746	0.31
225.98	-0.69
226.215	7.31
226.449	21.31
226.683	35.31
226.918	28.31
227.152	31.31
227.387	30.31
227.621	28.31
227.856	38.31
228.09	60.31
228.324	47.31
228.559	58.31
228.793	59.31
229.027	71.31
229.262	69.31
229.496	67.31
229.73	78.31
229.964	69.31
230.199	85.31
230.433	81.31
230.667	81.31
230.901	79.31
231.136	83.31
231.37	97.31
231.604	94.31
231.838	95.31
232.072	87.31
232.306	90.31
232.541	93.31
232.775	102.31
233.009	99.31
233.243	91.31
233.477	97.31
233.711	107.31
233.945	103.31
234.179	86.31
234.413	80.31
234.647	91.31
234.881	97.31
235.115	91.31
235.349	80.31
235.583	86.31
235.817	97.31
236.051	85.31
236.285	78.31
236.519	75.31
236.753	89.31
236.987	82.31
237.221	84.31
237.455	87.31
237.689	86.31
237.922	71.31
238.156	85.31
238.39	103.31
238.624	93.31
238.858	80.31
239.091	97.31
239.325	91.31
239.559	104.31
239.793	118.31
240.027	112.31
240.26	111.31
240.494	111.31
240.728	115.31
240.961	101.31
241.195	92.31
241.429	107.31
241.662	109.31
241.896	99.31
242.13	91.31
242.363	89.31
242.597	95.31
242.83	96.31
243.064	85.31
243.298	95.31
243.531	112.31
243.765	99.31
243.998	97.31
244.232	113.31
244.465	105.31
244.699	101.31
244.932	111.31
245.166	101.31
245.399	117.31
245.633	84.31
245.866	99.31
246.099	93.31
246.333	94.31
246.566	95.31
246.8	107.31
247.033	111.31
247.266	107.31
247.5	111.31
247.733	132.31
247.966	132.31
248.2	113.31
248.433	128.31
248.666	107.31
248.899	96.31
249.133	105.31
249.366	116.31
249.599	114.31
249.832	103.31
250.066	101.31
250.299	102.31
250.532	122.31
250.765	115.31
250.998	112.31
251.231	102.31
251.465	124.31
251.698	122.31
251.931	126.31
252.164	122.31
252.397	118.31
252.63	125.31
252.863	137.31
253.096	132.31
253.329	143.31
253.562	115.31
253.795	143.31
254.028	142.31
254.261	140.31
254.494	129.31
254.727	140.31
254.96	134.31
255.193	136.31
255.426	141.31
255.659	134.31
255.892	140.31
256.124	143.31
256.357	142.31
256.59	135.31
256.823	139.31
257.056	141.31
257.289	134.31
257.521	132.31
257.754	157.31
257.987	175.31
258.22	161.31
258.452	155.31
258.685	155.31
258.918	140.31
259.151	150.31
259.383	139.31
259.616	134.31
259.849	148.31
260.081	161.31
260.314	168.31
260.547	156.31
260.779	205.31
261.012	217.31
261.244	256.31
261.477	303.31
261.71	333.31
261.942	235.31
262.175	194.31
262.407	152.31
262.64	148.31
262.872	151.31
263.105	156.31
263.337	160.31
263.57	151.31
263.802	144.31
264.035	155.31
264.267	151.31
264.499	156.31
264.732	176.31
264.964	183.31
265.197	183.31
265.429	180.31
265.661	169.31
265.894	150.31
266.126	168.31
266.358	211.31
266.591	227.31
266.823	198.31
267.055	148.31
267.287	144.31
267.52	149.31
267.752	156.31
267.984	137.31
268.216	122.31
268.448	143.31
268.681	133.31
268.913	133.31
269.145	132.31
269.377	126.31
269.609	131.31
269.841	125.31
270.073	150.31
270.306	136.31
270.538	128.31
270.77	142.31
271.002	143.31
271.234	128.31
271.466	131.31
271.698	147.31
271.93	143.31
272.162	148.31
272.394	143.31
272.626	159.31
272.858	158.31
273.09	147.31
273.322	122.31
273.553	126.31
273.785	148.31
274.017	140.31
274.249	140.31
274.481	145.31
274.713	149.31
274.945	143.31
275.176	150.31
275.408	171.31
275.64	153.31
275.872	151.31
276.104	159.31
276.335	141.31
276.567	153.31
276.799	142.31
277.031	158.31
277.262	148.31
277.494	163.31
277.726	149.31
277.957	154.31
278.189	155.31
278.421	180.31
278.652	181.31
278.884	195.31
279.115	212.31
279.347	218.31
279.579	256.31
279.81	329.31
280.042	440.31
280.273	536.31
280.505	472.31
280.736	301.31
280.968	229.31
281.199	217.31
281.431	204.31
281.662	198.31
281.894	201.31
282.125	228.31
282.356	261.31
282.588	266.31
282.819	228.31
283.051	288.31
283.282	356.31
283.513	407.31
283.745	329.31
283.976	241.31
284.207	193.31
284.439	195.31
284.67	181.31
284.901	171.31
285.132	154.31
285.364	183.31
285.595	168.31
285.826	182.31
286.057	178.31
286.288	174.31
286.52	191.31
286.751	204.31
286.982	233.31
287.213	279.31
287.444	312.31
287.675	247.31
287.906	201.31
288.138	178.31
288.369	167.31
288.6	158.31
288.831	167.31
289.062	169.31
289.293	160.31
289.524	160.31
289.755	169.31
289.986	135.31
290.217	149.31
290.448	153.31
290.679	152.31
290.91	149.31
291.141	152.31
291.371	158.31
291.602	159.31
291.833	149.31
292.064	151.31
292.295	152.31
292.526	154.31
292.757	159.31
292.987	156.31
293.218	157.31
293.449	150.31
293.68	147.31
293.91	153.31
294.141	174.31
294.372	157.31
294.603	168.31
294.833	153.31
295.064	158.31
295.295	168.31
295.525	160.31
295.756	158.31
295.987	158.31
296.217	175.31
296.448	168.31
296.679	176.31
296.909	172.31
297.14	165.31
297.37	152.31
297.601	175.31
297.831	175.31
298.062	157.31
298.292	160.31
298.523	159.31
298.753	169.31
298.984	173.31
299.214	163.31
299.445	168.31
299.675	163.31
299.905	168.31
300.136	163.31
300.366	168.31
300.597	157.31
300.827	165.31
301.057	179.31
301.288	170.31
301.518	163.31
301.748	190.31
301.979	183.31
302.209	182.31
302.439	200.31
302.669	183.31
302.9	195.31
303.13	183.31
303.36	184.31
303.59	171.31
303.82	179.31
304.051	185.31
304.281	188.31
304.511	184.31
304.741	183.31
304.971	182.31
305.201	174.31
305.431	182.31
305.661	175.31
305.891	169.31
306.121	167.31
306.352	179.31
306.582	187.31
306.812	163.31
307.042	188.31
307.272	196.31
307.502	173.31
307.731	159.31
307.961	178.31
308.191	175.31
308.421	199.31
308.651	168.31
308.881	166.31
309.111	179.31
309.341	188.31
309.571	191.31
309.8	175.31
310.03	188.31
310.26	171.31
310.49	155.31
310.72	167.31
310.949	189.31
311.179	189.31
311.409	186.31
311.639	171.31
311.868	188.31
312.098	183.31
312.328	188.31
312.557	192.31
312.787	197.31
313.017	183.31
313.246	207.31
313.476	211.31
313.706	195.31
313.935	203.31
314.165	209.31
314.394	203.31
314.624	216.31
314.853	214.31
315.083	196.31
315.312	218.31
315.542	205.31
315.771	233.31
316.001	205.31
316.23	201.31
316.46	198.31
316.689	196.31
316.919	217.31
317.148	218.31
317.377	216.31
317.607	212.31
317.836	225.31
318.065	201.31
318.295	187.31
318.524	193.31
318.753	193.31
318.983	187.31
319.212	180.31
319.441	186.31
319.67	195.31
319.9	203.31
320.129	189.31
320.358	169.31
320.587	181.31
320.816	168.31
321.046	177.31
321.275	209.31
321.504	183.31
321.733	185.31
321.962	200.31
322.191	200.31
322.42	184.31
322.649	197.31
322.878	175.31
323.108	200.31
323.337	197.31
323.566	200.31
323.795	195.31
324.024	197.31
324.253	191.31
324.482	175.31
324.71	191.31
324.939	193.31
325.168	193.31
325.397	205.31
325.626	202.31
325.855	191.31
326.084	187.31
326.313	193.31
326.542	182.31
326.77	192.31
326.999	194.31
327.228	203.31
327.457	197.31
327.686	192.31
327.914	192.31
328.143	181.31
328.372	198.31
328.6	181.31
328.829	176.31
329.058	191.31
329.287	192.31
329.515	198.31
329.744	195.31
329.972	192.31
330.201	179.31
330.43	199.31
330.658	204.31
330.887	185.31
331.115	202.31
331.344	183.31
331.572	178.31
331.801	198.31
332.03	181.31
332.258	188.31
332.486	187.31
332.715	203.31
332.943	197.31
333.172	186.31
333.4	196.31
333.629	193.31
333.857	191.31
334.085	198.31
334.314	191.31
334.542	196.31
334.771	198.31
334.999	198.31
335.227	202.31
335.455	193.31
335.684	205.31
335.912	193.31
336.14	200.31
336.369	182.31
336.597	175.31
336.825	200.31
337.053	197.31
337.281	181.31
337.51	207.31
337.738	188.31
337.966	205.31
338.194	189.31
338.422	185.31
338.65	191.31
338.878	185.31
339.106	176.31
339.334	201.31
339.562	189.31
339.79	188.31
340.018	191.31
340.246	201.31
340.474	183.31
340.702	184.31
340.93	187.31
341.158	204.31
341.386	190.31
341.614	184.31
341.842	212.31
342.07	190.31
342.298	205.31
342.526	183.31
342.754	191.31
342.981	181.31
343.209	185.31
343.437	207.31
343.665	210.31
343.893	200.31
344.12	213.31
344.348	210.31
344.576	204.31
344.804	211.31
345.031	181.31
345.259	179.31
345.487	216.31
345.714	202.31
345.942	182.31
346.17	187.31
346.397	203.31
346.625	205.31
346.853	191.31
347.08	186.31
347.308	188.31
347.535	176.31
347.763	192.31
347.99	197.31
348.218	187.31
348.445	195.31
348.673	183.31
348.9	192.31
349.128	198.31
349.355	187.31
349.583	181.31
349.81	169.31
350.037	185.31
350.265	196.31
350.492	183.31
350.72	184.31
350.947	179.31
351.174	197.31
351.402	184.31
351.629	185.31
351.856	205.31
352.083	185.31
352.311	195.31
352.538	184.31
352.765	200.31
352.992	181.31
353.22	187.31
353.447	200.31
353.674	193.31
353.901	197.31
354.128	193.31
354.355	196.31
354.583	190.31
354.81	176.31
355.037	192.31
355.264	197.31
355.491	211.31
355.718	204.31
355.945	221.31
356.172	222.31
356.399	231.31
356.626	242.31
356.853	318.31
357.08	437.31
357.307	606.31
357.534	567.31
357.761	391.31
357.988	305.31
358.215	276.31
358.441	252.31
358.668	252.31
358.895	236.31
359.122	235.31
359.349	239.31
359.576	229.31
359.802	225.31
360.029	217.31
360.256	207.31
360.483	208.31
360.709	224.31
360.936	212.31
361.163	216.31
361.39	214.31
361.616	221.31
361.843	224.31
362.07	221.31
362.296	208.31
362.523	216.31
362.749	222.31
362.976	253.31
363.203	256.31
363.429	305.31
363.656	448.31
363.882	654.31
364.109	751.31
364.335	529.31
364.562	361.31
364.788	289.31
365.015	259.31
365.241	239.31
365.468	232.31
365.694	230.31
365.92	236.31
366.147	222.31
366.373	235.31
366.599	239.31
366.826	287.31
367.052	321.31
367.278	357.31
367.505	332.31
367.731	359.31
367.957	499.31
368.184	780.31
368.41	1030.31
368.636	863.31
368.862	524.31
369.089	365.31
369.315	303.31
369.541	283.31
369.767	235.31
369.993	236.31
370.219	227.31
370.445	219.31
370.672	239.31
370.898	233.31
371.124	232.31
371.35	228.31
371.576	235.31
371.802	235.31
372.028	227.31
372.254	230.31
372.48	218.31
372.706	233.31
372.932	238.31
373.158	245.31
373.384	263.31
373.61	334.31
373.835	507.31
374.061	629.31
374.287	563.31
374.513	368.31
374.739	319.31
374.965	275.31
375.191	229.31
375.416	234.31
375.642	220.31
375.868	221.31
376.094	219.31
376.319	223.31
376.545	231.31
376.771	186.31
376.997	215.31
377.222	214.31
377.448	220.31
377.674	198.31
377.899	203.31
378.125	217.31
378.35	214.31
378.576	230.31
378.802	235.31
379.027	205.31
379.253	218.31
379.478	211.31
379.704	200.31
379.929	212.31
380.155	200.31
380.38	219.31
380.606	202.31
380.831	207.31
381.057	200.31
381.282	213.31
381.507	213.31
381.733	223.31
381.958	214.31
382.184	199.31
382.409	200.31
382.634	219.31
382.86	208.31
383.085	224.31
383.31	214.31
383.535	190.31
383.761	197.31
383.986	215.31
384.211	233.31
384.436	208.31
384.662	195.31
384.887	237.31
385.112	224.31
385.337	218.31
385.562	208.31
385.787	209.31
386.013	228.31
386.238	217.31
386.463	208.31
386.688	240.31
386.913	212.31
387.138	217.31
387.363	225.31
387.588	225.31
387.813	238.31
388.038	214.31
388.263	200.31
388.488	216.31
388.713	212.31
388.938	225.31
389.163	219.31
389.387	229.31
389.612	201.31
389.837	217.31
390.062	214.31
390.287	203.31
390.512	216.31
390.736	205.31
390.961	199.31
391.186	210.31
391.411	211.31
391.636	207.31
391.86	225.31
392.085	216.31
392.31	214.31
392.534	237.31
392.759	219.31
392.984	231.31
393.208	218.31
393.433	229.31
393.658	227.31
393.882	221.31
394.107	210.31
394.331	224.31
394.556	219.31
394.78	212.31
395.005	213.31
395.229	218.31
395.454	224.31
395.678	230.31
395.903	222.31
396.127	223.31
396.352	219.31
396.576	219.31
396.801	200.31
397.025	240.31
397.249	211.31
397.474	224.31
397.698	205.31
397.922	235.31
398.147	223.31
398.371	235.31
398.595	240.31
398.82	215.31
399.044	245.31
399.268	243.31
399.492	268.31
399.717	278.31
399.941	272.31
400.165	263.31
400.389	257.31
400.613	251.31
400.837	254.31
401.062	238.31
401.286	237.31
401.51	243.31
401.734	283.31
401.958	308.31
402.182	311.31
402.406	261.31
402.63	247.31
402.854	256.31
403.078	267.31
403.302	260.31
403.526	253.31
403.75	251.31
403.974	281.31
404.198	276.31
404.422	285.31
404.645	294.31
404.869	319.31
405.093	371.31
405.317	483.31
405.541	849.31
405.765	1417.31
405.988	1617.31
406.212	1041.31
406.436	685.31
406.66	503.31
406.883	395.31
407.107	380.31
407.331	331.31
407.555	327.31
407.778	314.31
408.002	307.31
408.226	263.31
408.449	281.31
408.673	289.31
408.896	257.31
409.12	250.31
409.344	260.31
409.567	240.31
409.791	254.31
410.014	245.31
410.238	233.31
410.461	263.31
410.685	272.31
410.908	249.31
411.132	248.31
411.355	248.31
411.578	223.31
411.802	248.31
412.025	251.31
412.249	247.31
412.472	253.31
412.695	244.31
412.919	242.31
413.142	229.31
413.365	234.31
413.589	243.31
413.812	221.31
414.035	223.31
414.258	247.31
414.482	243.31
414.705	253.31
414.928	248.31
415.151	227.31
415.374	252.31
415.597	234.31
415.821	235.31
416.044	251.31
416.267	246.31
416.49	231.31
416.713	264.31
416.936	277.31
417.159	240.31
417.382	237.31
417.605	220.31
417.828	240.31
418.051	237.31
418.274	252.31
418.497	247.31
418.72	225.31
418.943	223.31
419.166	238.31
419.389	265.31
419.611	243.31
419.834	223.31
420.057	244.31
420.28	239.31
420.503	240.31
420.726	250.31
420.948	246.31
421.171	249.31
421.394	257.31
421.617	234.31
421.839	251.31
422.062	270.31
422.285	251.31
422.507	281.31
422.73	286.31
422.953	278.31
423.175	289.31
423.398	316.31
423.621	340.31
423.843	362.31
424.066	411.31
424.288	498.31
424.511	623.31
424.733	690.31
424.956	605.31
425.178	504.31
425.401	440.31
425.623	397.31
425.846	369.31
426.068	355.31
426.291	327.31
426.513	307.31
426.735	312.31
426.958	307.31
427.18	287.31
427.402	280.31
427.625	280.31
427.847	276.31
428.069	255.31
428.292	281.31
428.514	259.31
428.736	262.31
428.958	249.31
429.181	259.31
429.403	255.31
429.625	248.31
429.847	251.31
430.069	248.31
430.292	251.31
430.514	248.31
430.736	248.31
430.958	256.31
431.18	238.31
431.402	218.31
431.624	222.31
431.846	229.31
432.068	227.31
432.29	239.31
432.512	228.31
432.734	243.31
432.956	241.31
433.178	243.31
433.4	232.31
433.622	253.31
433.844	255.31
434.066	270.31
434.287	263.31
434.509	267.31
434.731	257.31
434.953	283.31
435.175	254.31
435.397	244.31
435.618	257.31
435.84	256.31
436.062	257.31
436.284	261.31
436.505	271.31
436.727	264.31
436.949	277.31
437.17	263.31
437.392	282.31
437.614	286.31
437.835	317.31
438.057	341.31
438.278	388.31
438.5	474.31
438.721	574.31
438.943	632.31
439.165	547.31
439.386	479.31
439.608	412.31
439.829	398.31
440.05	402.31
440.272	376.31
440.493	379.31
440.715	400.31
440.936	437.31
441.158	427.31
441.379	379.31
441.6	343.31
441.822	339.31
442.043	304.31
442.264	308.31
442.486	293.31
442.707	301.31
442.928	266.31
443.149	264.31
443.371	275.31
443.592	249.31
443.813	278.31
444.034	262.31
444.255	262.31
444.476	268.31
444.698	247.31
444.919	257.31
445.14	308.31
445.361	275.31
445.582	247.31
445.803	234.31
446.024	246.31
446.245	250.31
446.466	233.31
446.687	230.31
446.908	236.31
447.129	217.31
447.35	225.31
447.571	219.31
447.792	233.31
448.013	239.31
448.234	211.31
448.455	212.31
448.675	217.31
448.896	244.31
449.117	229.31
449.338	227.31
449.559	240.31
449.779	236.31
450	210.31
450.221	234.31
450.442	228.31
450.662	225.31
450.883	227.31
451.104	203.31
451.324	208.31
451.545	196.31
451.766	202.31
451.986	219.31
452.207	221.31
452.428	205.31
452.648	222.31
452.869	201.31
453.089	214.31
453.31	201.31
453.53	185.31
453.751	202.31
453.971	203.31
454.192	206.31
454.412	220.31
454.633	211.31
454.853	208.31
455.073	200.31
455.294	189.31
455.514	206.31
455.734	192.31
455.955	185.31
456.175	221.31
456.395	202.31
456.616	201.31
456.836	192.31
457.056	196.31
457.276	173.31
457.497	185.31
457.717	187.31
457.937	216.31
458.157	207.31
458.377	199.31
458.598	198.31
458.818	227.31
459.038	188.31
459.258	199.31
459.478	214.31
459.698	202.31
459.918	203.31
460.138	223.31
460.358	209.31
460.578	216.31
460.798	210.31
461.018	214.31
461.238	234.31
461.458	214.31
461.678	227.31
461.898	223.31
462.118	237.31
462.338	234.31
462.558	223.31
462.777	240.31
462.997	233.31
463.217	253.31
463.437	227.31
463.657	247.31
463.876	235.31
464.096	234.31
464.316	226.31
464.536	220.31
464.755	237.31
464.975	233.31
465.195	217.31
465.414	231.31
465.634	214.31
465.854	205.31
466.073	226.31
466.293	208.31
466.512	209.31
466.732	193.31
466.951	214.31
467.171	205.31
467.391	211.31
467.61	204.31
467.829	191.31
468.049	219.31
468.268	209.31
468.488	202.31
468.707	216.31
468.927	214.31
469.146	200.31
469.365	209.31
469.585	213.31
469.804	195.31
470.023	233.31
470.243	211.31
470.462	205.31
470.681	218.31
470.901	190.31
471.12	195.31
471.339	201.31
471.558	201.31
471.777	204.31
471.997	191.31
472.216	202.31
472.435	201.31
472.654	202.31
472.873	206.31
473.092	203.31
473.311	211.31
473.53	222.31
473.749	199.31
473.968	217.31
474.187	206.31
474.406	200.31
474.625	221.31
474.844	209.31
475.063	208.31
475.282	213.31
475.501	225.31
475.72	220.31
475.939	203.31
476.158	211.31
476.377	211.31
476.596	212.31
476.814	213.31
477.033	231.31
477.252	224.31
477.471	216.31
477.69	256.31
477.908	227.31
478.127	244.31
478.346	244.31
478.564	250.31
478.783	237.31
479.002	260.31
479.22	269.31
479.439	265.31
479.658	252.31
479.876	253.31
480.095	244.31
480.313	244.31
480.532	257.31
480.751	265.31
480.969	250.31
481.188	251.31
481.406	240.31
481.624	246.31
481.843	244.31
482.061	227.31
482.28	227.31
482.498	233.31
482.717	245.31
482.935	237.31
483.153	241.31
483.372	244.31
483.59	236.31
483.808	239.31
484.027	240.31
484.245	256.31
484.463	236.31
484.681	247.31
484.9	244.31
485.118	246.31
485.336	227.31
485.554	241.31
485.772	232.31
485.99	242.31
486.209	258.31
486.427	232.31
486.645	229.31
486.863	246.31
487.081	233.31
487.299	247.31
487.517	251.31
487.735	243.31
487.953	244.31
488.171	247.31
488.389	248.31
488.607	237.31
488.825	254.31
489.043	254.31
489.261	257.31
489.479	246.31
489.696	260.31
489.914	234.31
490.132	248.31
490.35	245.31
490.568	255.31
490.786	237.31
491.003	245.31
491.221	237.31
491.439	253.31
491.657	256.31
491.874	255.31
492.092	240.31
492.31	243.31
492.527	240.31
492.745	265.31
492.963	254.31
493.18	249.31
493.398	249.31
493.615	237.31
493.833	253.31
494.05	272.31
494.268	267.31
494.485	253.31
494.703	257.31
494.92	252.31
495.138	267.31
495.355	295.31
495.573	299.31
495.79	272.31
496.008	254.31
496.225	270.31
496.442	267.31
496.66	272.31
496.877	268.31
497.094	272.31
497.312	267.31
497.529	254.31
497.746	274.31
497.963	286.31
498.181	276.31
498.398	311.31
498.615	299.31
498.832	312.31
499.049	318.31
499.267	330.31
499.484	344.31
499.701	326.31
499.918	338.31
500.135	369.31
500.352	423.31
500.569	483.31
500.786	556.31
501.003	443.31
501.22	387.31
501.437	363.31
501.654	358.31
501.871	358.31
502.088	316.31
502.305	335.31
502.522	339.31
502.739	330.31
502.956	306.31
503.172	315.31
503.389	311.31
