Data from StdB_HRD10591_059.txt Node
Date: Fri May 16 15:25:15 EDT 2025
User: Yrep
Spectrometer: HR+D1059
Trigger mode: 1
Integration Time (sec): 1.000000E-1
Scans to average: 1
Electric dark correction enabled: true
Nonlinearity correction enabled: false
Boxcar width: 0
XAxis mode: Wavelengths
Number of Pixels in Spectrum: 2048
>>>>>Begin Spectral Data<<<<<
223.165	-31.12
223.4	-31.12
223.635	-31.12
223.869	-18.12
224.104	-15.12
224.338	-10.12
224.573	-23.12
224.808	-13.12
225.042	-5.12
225.277	-6.12
225.511	-6.12
225.746	6.88
225.98	13.88
226.215	2.88
226.449	20.88
226.683	24.88
226.918	30.88
227.152	27.88
227.387	36.88
227.621	28.88
227.856	51.88
228.09	42.88
228.324	52.88
228.559	59.88
228.793	61.88
229.027	49.88
229.262	63.88
229.496	68.88
229.73	53.88
229.964	70.88
230.199	70.88
230.433	74.88
230.667	81.88
230.901	84.88
231.136	81.88
231.37	67.88
231.604	68.88
231.838	79.88
232.072	66.88
232.306	80.88
232.541	72.88
232.775	86.88
233.009	89.88
233.243	71.88
233.477	69.88
233.711	88.88
233.945	74.88
234.179	86.88
234.413	78.88
234.647	80.88
234.881	70.88
235.115	84.88
235.349	69.88
235.583	84.88
235.817	70.88
236.051	68.88
236.285	75.88
236.519	83.88
236.753	78.88
236.987	68.88
237.221	77.88
237.455	75.88
237.689	68.88
237.922	77.88
238.156	82.88
238.39	75.88
238.624	68.88
238.858	74.88
239.091	72.88
239.325	75.88
239.559	74.88
239.793	69.88
240.027	85.88
240.26	66.88
240.494	77.88
240.728	73.88
240.961	80.88
241.195	78.88
241.429	76.88
241.662	67.88
241.896	61.88
242.13	56.88
242.363	72.88
242.597	72.88
242.83	69.88
243.064	70.88
243.298	56.88
243.531	61.88
243.765	60.88
243.998	85.88
244.232	71.88
244.465	70.88
244.699	91.88
244.932	75.88
245.166	86.88
245.399	78.88
245.633	68.88
245.866	66.88
246.099	70.88
246.333	71.88
246.566	80.88
246.8	68.88
247.033	80.88
247.266	64.88
247.5	76.88
247.733	66.88
247.966	76.88
248.2	76.88
248.433	83.88
248.666	80.88
248.899	68.88
249.133	72.88
249.366	82.88
249.599	80.88
249.832	65.88
250.066	78.88
250.299	63.88
250.532	69.88
250.765	90.88
250.998	78.88
251.231	73.88
251.465	76.88
251.698	58.88
251.931	72.88
252.164	76.88
252.397	81.88
252.63	87.88
252.863	70.88
253.096	84.88
253.329	93.88
253.562	84.88
253.795	80.88
254.028	73.88
254.261	71.88
254.494	66.88
254.727	87.88
254.96	78.88
255.193	79.88
255.426	74.88
255.659	83.88
255.892	63.88
256.124	73.88
256.357	76.88
256.59	81.88
256.823	81.88
257.056	72.88
257.289	74.88
257.521	79.88
257.754	71.88
257.987	101.88
258.22	75.88
258.452	89.88
258.685	87.88
258.918	75.88
259.151	82.88
259.383	88.88
259.616	72.88
259.849	78.88
260.081	67.88
260.314	66.88
260.547	85.88
260.779	67.88
261.012	72.88
261.244	87.88
261.477	83.88
261.71	99.88
261.942	78.88
262.175	87.88
262.407	78.88
262.64	77.88
262.872	79.88
263.105	87.88
263.337	86.88
263.57	82.88
263.802	90.88
264.035	76.88
264.267	74.88
264.499	76.88
264.732	81.88
264.964	79.88
265.197	96.88
265.429	84.88
265.661	70.88
265.894	74.88
266.126	90.88
266.358	84.88
266.591	80.88
266.823	73.88
267.055	78.88
267.287	61.88
267.52	71.88
267.752	74.88
267.984	71.88
268.216	82.88
268.448	66.88
268.681	86.88
268.913	68.88
269.145	85.88
269.377	92.88
269.609	78.88
269.841	71.88
270.073	82.88
270.306	78.88
270.538	65.88
270.77	97.88
271.002	81.88
271.234	78.88
271.466	75.88
271.698	70.88
271.93	71.88
272.162	82.88
272.394	94.88
272.626	74.88
272.858	85.88
273.09	91.88
273.322	78.88
273.553	89.88
273.785	91.88
274.017	61.88
274.249	78.88
274.481	71.88
274.713	68.88
274.945	71.88
275.176	92.88
275.408	89.88
275.64	82.88
275.872	85.88
276.104	77.88
276.335	93.88
276.567	75.88
276.799	87.88
277.031	68.88
277.262	90.88
277.494	77.88
277.726	90.88
277.957	75.88
278.189	74.88
278.421	75.88
278.652	78.88
278.884	78.88
279.115	77.88
279.347	83.88
279.579	90.88
279.81	84.88
280.042	107.88
280.273	116.88
280.505	106.88
280.736	90.88
280.968	85.88
281.199	88.88
281.431	74.88
281.662	73.88
281.894	75.88
282.125	96.88
282.356	98.88
282.588	84.88
282.819	85.88
283.051	86.88
283.282	100.88
283.513	104.88
283.745	96.88
283.976	75.88
284.207	90.88
284.439	76.88
284.67	84.88
284.901	81.88
285.132	76.88
285.364	84.88
285.595	88.88
285.826	84.88
286.057	82.88
286.288	77.88
286.52	78.88
286.751	93.88
286.982	97.88
287.213	92.88
287.444	98.88
287.675	87.88
287.906	98.88
288.138	74.88
288.369	72.88
288.6	72.88
288.831	75.88
289.062	73.88
289.293	84.88
289.524	82.88
289.755	89.88
289.986	63.88
290.217	86.88
290.448	73.88
290.679	86.88
290.91	80.88
291.141	79.88
291.371	84.88
291.602	86.88
291.833	82.88
292.064	81.88
292.295	78.88
292.526	87.88
292.757	84.88
292.987	77.88
293.218	94.88
293.449	83.88
293.68	72.88
293.91	82.88
294.141	75.88
294.372	91.88
294.603	75.88
294.833	80.88
295.064	84.88
295.295	81.88
295.525	80.88
295.756	81.88
295.987	88.88
296.217	76.88
296.448	77.88
296.679	77.88
296.909	88.88
297.14	73.88
297.37	84.88
297.601	80.88
297.831	88.88
298.062	81.88
298.292	96.88
298.523	101.88
298.753	94.88
298.984	80.88
299.214	84.88
299.445	89.88
299.675	90.88
299.905	93.88
300.136	79.88
300.366	76.88
300.597	77.88
300.827	99.88
301.057	82.88
301.288	85.88
301.518	80.88
301.748	78.88
301.979	88.88
302.209	94.88
302.439	89.88
302.669	69.88
302.9	83.88
303.13	81.88
303.36	79.88
303.59	76.88
303.82	89.88
304.051	76.88
304.281	81.88
304.511	82.88
304.741	66.88
304.971	77.88
305.201	87.88
305.431	80.88
305.661	87.88
305.891	91.88
306.121	68.88
306.352	88.88
306.582	78.88
306.812	77.88
307.042	90.88
307.272	79.88
307.502	72.88
307.731	76.88
307.961	87.88
308.191	77.88
308.421	77.88
308.651	93.88
308.881	90.88
309.111	79.88
309.341	85.88
309.571	73.88
309.8	72.88
310.03	62.88
310.26	80.88
310.49	72.88
310.72	89.88
310.949	78.88
311.179	93.88
311.409	73.88
311.639	68.88
311.868	74.88
312.098	76.88
312.328	76.88
312.557	77.88
312.787	79.88
313.017	76.88
313.246	82.88
313.476	84.88
313.706	94.88
313.935	80.88
314.165	102.88
314.394	91.88
314.624	86.88
314.853	81.88
315.083	74.88
315.312	87.88
315.542	80.88
315.771	94.88
316.001	86.88
316.23	84.88
316.46	75.88
316.689	89.88
316.919	88.88
317.148	87.88
317.377	80.88
317.607	78.88
317.836	83.88
318.065	82.88
318.295	79.88
318.524	83.88
318.753	92.88
318.983	82.88
319.212	84.88
319.441	89.88
319.67	84.88
319.9	84.88
320.129	76.88
320.358	78.88
320.587	85.88
320.816	73.88
321.046	76.88
321.275	80.88
321.504	80.88
321.733	89.88
321.962	85.88
322.191	63.88
322.42	84.88
322.649	86.88
322.878	80.88
323.108	93.88
323.337	85.88
323.566	93.88
323.795	75.88
324.024	86.88
324.253	92.88
324.482	76.88
324.71	88.88
324.939	86.88
325.168	87.88
325.397	83.88
325.626	84.88
325.855	76.88
326.084	100.88
326.313	84.88
326.542	79.88
326.77	77.88
326.999	88.88
327.228	80.88
327.457	81.88
327.686	74.88
327.914	82.88
328.143	82.88
328.372	83.88
328.6	93.88
328.829	77.88
329.058	87.88
329.287	92.88
329.515	86.88
329.744	87.88
329.972	69.88
330.201	96.88
330.43	84.88
330.658	68.88
330.887	81.88
331.115	73.88
331.344	86.88
331.572	72.88
331.801	84.88
332.03	85.88
332.258	77.88
332.486	84.88
332.715	99.88
332.943	78.88
333.172	68.88
333.4	68.88
333.629	72.88
333.857	68.88
334.085	77.88
334.314	70.88
334.542	78.88
334.771	86.88
334.999	84.88
335.227	77.88
335.455	78.88
335.684	83.88
335.912	67.88
336.14	82.88
336.369	76.88
336.597	84.88
336.825	78.88
337.053	81.88
337.281	77.88
337.51	85.88
337.738	80.88
337.966	76.88
338.194	73.88
338.422	84.88
338.65	72.88
338.878	76.88
339.106	78.88
339.334	96.88
339.562	85.88
339.79	90.88
340.018	87.88
340.246	70.88
340.474	76.88
340.702	83.88
340.93	71.88
341.158	75.88
341.386	88.88
341.614	74.88
341.842	77.88
342.07	88.88
342.298	87.88
342.526	76.88
342.754	75.88
342.981	75.88
343.209	86.88
343.437	91.88
343.665	93.88
343.893	73.88
344.12	72.88
344.348	97.88
344.576	89.88
344.804	82.88
345.031	91.88
345.259	84.88
345.487	77.88
345.714	74.88
345.942	74.88
346.17	70.88
346.397	80.88
346.625	72.88
346.853	73.88
347.08	84.88
347.308	84.88
347.535	69.88
347.763	77.88
347.99	76.88
348.218	75.88
348.445	76.88
348.673	77.88
348.9	81.88
349.128	81.88
349.355	81.88
349.583	70.88
349.81	74.88
350.037	72.88
350.265	64.88
350.492	86.88
350.72	74.88
350.947	84.88
351.174	101.88
351.402	84.88
351.629	76.88
351.856	83.88
352.083	75.88
352.311	82.88
352.538	70.88
352.765	80.88
352.992	85.88
353.22	89.88
353.447	97.88
353.674	88.88
353.901	86.88
354.128	81.88
354.355	86.88
354.583	101.88
354.81	96.88
355.037	84.88
355.264	93.88
355.491	86.88
355.718	91.88
355.945	98.88
356.172	91.88
356.399	68.88
356.626	86.88
356.853	94.88
357.08	116.88
357.307	142.88
357.534	121.88
357.761	102.88
357.988	87.88
358.215	66.88
358.441	84.88
358.668	68.88
358.895	84.88
359.122	83.88
359.349	70.88
359.576	83.88
359.802	88.88
360.029	76.88
360.256	85.88
360.483	82.88
360.709	91.88
360.936	96.88
361.163	101.88
361.39	74.88
361.616	74.88
361.843	88.88
362.07	78.88
362.296	82.88
362.523	77.88
362.749	76.88
362.976	88.88
363.203	86.88
363.429	96.88
363.656	122.88
363.882	166.88
364.109	203.88
364.335	138.88
364.562	85.88
364.788	76.88
365.015	92.88
365.241	81.88
365.468	96.88
365.694	70.88
365.92	82.88
366.147	75.88
366.373	67.88
366.599	87.88
366.826	80.88
367.052	98.88
367.278	104.88
367.505	105.88
367.731	98.88
367.957	122.88
368.184	194.88
368.41	254.88
368.636	180.88
368.862	108.88
369.089	88.88
369.315	88.88
369.541	80.88
369.767	78.88
369.993	83.88
370.219	84.88
370.445	70.88
370.672	76.88
370.898	92.88
371.124	92.88
371.35	77.88
371.576	75.88
371.802	86.88
372.028	71.88
372.254	72.88
372.48	85.88
372.706	94.88
372.932	86.88
373.158	81.88
373.384	90.88
373.61	104.88
373.835	117.88
374.061	142.88
374.287	133.88
374.513	78.88
374.739	80.88
374.965	82.88
375.191	91.88
375.416	74.88
375.642	81.88
375.868	86.88
376.094	83.88
376.319	84.88
376.545	78.88
376.771	77.88
376.997	71.88
377.222	72.88
377.448	68.88
377.674	82.88
377.899	83.88
378.125	81.88
378.35	88.88
378.576	77.88
378.802	80.88
379.027	90.88
379.253	77.88
379.478	82.88
379.704	79.88
379.929	90.88
380.155	89.88
380.38	81.88
380.606	71.88
380.831	77.88
381.057	76.88
381.282	83.88
381.507	88.88
381.733	72.88
381.958	92.88
382.184	71.88
382.409	69.88
382.634	70.88
382.86	77.88
383.085	76.88
383.31	85.88
383.535	86.88
383.761	88.88
383.986	79.88
384.211	82.88
384.436	77.88
384.662	69.88
384.887	81.88
385.112	94.88
385.337	75.88
385.562	76.88
385.787	69.88
386.013	76.88
386.238	80.88
386.463	76.88
386.688	100.88
386.913	84.88
387.138	74.88
387.363	79.88
387.588	86.88
387.813	83.88
388.038	85.88
388.263	80.88
388.488	72.88
388.713	75.88
388.938	76.88
389.163	75.88
389.387	87.88
389.612	75.88
389.837	77.88
390.062	87.88
390.287	70.88
390.512	73.88
390.736	74.88
390.961	78.88
391.186	78.88
391.411	86.88
391.636	78.88
391.86	74.88
392.085	84.88
392.31	81.88
392.534	85.88
392.759	84.88
392.984	97.88
393.208	86.88
393.433	78.88
393.658	90.88
393.882	83.88
394.107	86.88
394.331	77.88
394.556	76.88
394.78	80.88
395.005	87.88
395.229	80.88
395.454	83.88
395.678	73.88
395.903	82.88
396.127	93.88
396.352	84.88
396.576	62.88
396.801	79.88
397.025	81.88
397.249	85.88
397.474	91.88
397.698	86.88
397.922	68.88
398.147	70.88
398.371	88.88
398.595	77.88
398.82	88.88
399.044	105.88
399.268	80.88
399.492	78.88
399.717	84.88
399.941	82.88
400.165	84.88
400.389	76.88
400.613	83.88
400.837	79.88
401.062	84.88
401.286	80.88
401.51	75.88
401.734	90.88
401.958	86.88
402.182	86.88
402.406	87.88
402.63	91.88
402.854	84.88
403.078	66.88
403.302	96.88
403.526	78.88
403.75	89.88
403.974	87.88
404.198	90.88
404.422	91.88
404.645	84.88
404.869	99.88
405.093	94.88
405.317	112.88
405.541	199.88
405.765	342.88
405.988	377.88
406.212	216.88
406.436	135.88
406.66	90.88
406.883	84.88
407.107	70.88
407.331	76.88
407.555	72.88
407.778	88.88
408.002	76.88
408.226	74.88
408.449	65.88
408.673	81.88
408.896	89.88
409.12	83.88
409.344	82.88
409.567	68.88
409.791	84.88
410.014	83.88
410.238	72.88
410.461	73.88
410.685	81.88
410.908	83.88
411.132	99.88
411.355	68.88
411.578	72.88
411.802	75.88
412.025	78.88
412.249	81.88
412.472	77.88
412.695	76.88
412.919	68.88
413.142	77.88
413.365	84.88
413.589	91.88
413.812	85.88
414.035	86.88
414.258	76.88
414.482	68.88
414.705	71.88
414.928	85.88
415.151	90.88
415.374	91.88
415.597	96.88
415.821	86.88
416.044	70.88
416.267	77.88
416.49	88.88
416.713	91.88
416.936	91.88
417.159	84.88
417.382	68.88
417.605	82.88
417.828	86.88
418.051	87.88
418.274	77.88
418.497	87.88
418.72	78.88
418.943	85.88
419.166	88.88
419.389	87.88
419.611	90.88
419.834	84.88
420.057	77.88
420.28	65.88
420.503	97.88
420.726	89.88
420.948	84.88
421.171	78.88
421.394	82.88
421.617	85.88
421.839	90.88
422.062	82.88
422.285	75.88
422.507	87.88
422.73	85.88
422.953	81.88
423.175	84.88
423.398	74.88
423.621	84.88
423.843	83.88
424.066	72.88
424.288	74.88
424.511	92.88
424.733	75.88
424.956	84.88
425.178	91.88
425.401	88.88
425.623	78.88
425.846	76.88
426.068	69.88
426.291	74.88
426.513	86.88
426.735	72.88
426.958	77.88
427.18	79.88
427.402	76.88
427.625	85.88
427.847	76.88
428.069	79.88
428.292	75.88
428.514	82.88
428.736	78.88
428.958	70.88
429.181	92.88
429.403	82.88
429.625	81.88
429.847	76.88
430.069	91.88
430.292	83.88
430.514	85.88
430.736	73.88
430.958	74.88
431.18	68.88
431.402	73.88
431.624	87.88
431.846	85.88
432.068	88.88
432.29	70.88
432.512	68.88
432.734	86.88
432.956	83.88
433.178	84.88
433.4	86.88
433.622	90.88
433.844	82.88
434.066	72.88
434.287	70.88
434.509	88.88
434.731	77.88
434.953	85.88
435.175	75.88
435.397	88.88
435.618	70.88
435.84	66.88
436.062	71.88
436.284	85.88
436.505	79.88
436.727	75.88
436.949	65.88
437.17	75.88
437.392	88.88
437.614	84.88
437.835	89.88
438.057	73.88
438.278	70.88
438.5	91.88
438.721	74.88
438.943	90.88
439.165	65.88
439.386	62.88
439.608	83.88
439.829	84.88
440.05	77.88
440.272	78.88
440.493	76.88
440.715	72.88
440.936	87.88
441.158	82.88
441.379	82.88
441.6	97.88
441.822	72.88
442.043	80.88
442.264	65.88
442.486	86.88
442.707	74.88
442.928	64.88
443.149	65.88
443.371	86.88
443.592	72.88
443.813	92.88
444.034	83.88
444.255	82.88
444.476	85.88
444.698	72.88
444.919	73.88
445.14	156.88
445.361	114.88
445.582	80.88
445.803	84.88
446.024	74.88
446.245	70.88
446.466	75.88
446.687	92.88
446.908	91.88
447.129	80.88
447.35	83.88
447.571	82.88
447.792	60.88
448.013	87.88
448.234	83.88
448.455	68.88
448.675	92.88
448.896	86.88
449.117	77.88
449.338	89.88
449.559	81.88
449.779	103.88
450	80.88
450.221	77.88
450.442	92.88
450.662	74.88
450.883	73.88
451.104	78.88
451.324	90.88
451.545	73.88
451.766	79.88
451.986	70.88
452.207	72.88
452.428	85.88
452.648	79.88
452.869	75.88
453.089	69.88
453.31	76.88
453.53	72.88
453.751	93.88
453.971	74.88
454.192	80.88
454.412	77.88
454.633	80.88
454.853	74.88
455.073	82.88
455.294	85.88
455.514	70.88
455.734	66.88
455.955	84.88
456.175	60.88
456.395	86.88
456.616	70.88
456.836	73.88
457.056	71.88
457.276	73.88
457.497	72.88
457.717	71.88
457.937	78.88
458.157	84.88
458.377	79.88
458.598	77.88
458.818	81.88
459.038	87.88
459.258	76.88
459.478	77.88
459.698	83.88
459.918	80.88
460.138	86.88
460.358	80.88
460.578	90.88
460.798	77.88
461.018	96.88
461.238	80.88
461.458	76.88
461.678	80.88
461.898	80.88
462.118	76.88
462.338	81.88
462.558	86.88
462.777	84.88
462.997	65.88
463.217	76.88
463.437	78.88
463.657	82.88
463.876	89.88
464.096	74.88
464.316	74.88
464.536	70.88
464.755	86.88
464.975	96.88
465.195	76.88
465.414	80.88
465.634	81.88
465.854	74.88
466.073	88.88
466.293	69.88
466.512	82.88
466.732	82.88
466.951	87.88
467.171	94.88
467.391	80.88
467.61	81.88
467.829	73.88
468.049	82.88
468.268	74.88
468.488	81.88
468.707	88.88
468.927	85.88
469.146	80.88
469.365	74.88
469.585	77.88
469.804	81.88
470.023	77.88
470.243	74.88
470.462	91.88
470.681	88.88
470.901	79.88
471.12	85.88
471.339	70.88
471.558	76.88
471.777	72.88
471.997	73.88
472.216	76.88
472.435	75.88
472.654	75.88
472.873	89.88
473.092	80.88
473.311	86.88
473.53	71.88
473.749	70.88
473.968	88.88
474.187	69.88
474.406	77.88
474.625	77.88
474.844	77.88
475.063	81.88
475.282	89.88
475.501	88.88
475.72	89.88
475.939	85.88
476.158	76.88
476.377	81.88
476.596	89.88
476.814	89.88
477.033	86.88
477.252	83.88
477.471	82.88
477.69	81.88
477.908	80.88
478.127	81.88
478.346	70.88
478.564	96.88
478.783	67.88
479.002	81.88
479.22	77.88
479.439	59.88
479.658	92.88
479.876	89.88
480.095	94.88
480.313	74.88
480.532	80.88
480.751	78.88
480.969	88.88
481.188	80.88
481.406	70.88
481.624	85.88
481.843	70.88
482.061	88.88
482.28	81.88
482.498	82.88
482.717	89.88
482.935	84.88
483.153	88.88
483.372	73.88
483.59	82.88
483.808	79.88
484.027	89.88
484.245	100.88
484.463	76.88
484.681	98.88
484.9	86.88
485.118	83.88
485.336	62.88
485.554	82.88
485.772	73.88
485.99	68.88
486.209	76.88
486.427	92.88
486.645	63.88
486.863	76.88
487.081	91.88
487.299	65.88
487.517	84.88
487.735	69.88
487.953	86.88
488.171	94.88
488.389	86.88
488.607	85.88
488.825	78.88
489.043	94.88
489.261	89.88
489.479	93.88
489.696	98.88
489.914	69.88
490.132	75.88
490.35	85.88
490.568	91.88
490.786	66.88
491.003	88.88
491.221	90.88
491.439	80.88
491.657	82.88
491.874	87.88
492.092	90.88
492.31	92.88
492.527	84.88
492.745	64.88
492.963	81.88
493.18	75.88
493.398	88.88
493.615	81.88
493.833	87.88
494.05	77.88
494.268	95.88
494.485	83.88
494.703	87.88
494.92	80.88
495.138	89.88
495.355	88.88
495.573	82.88
495.79	94.88
496.008	90.88
496.225	73.88
496.442	74.88
496.66	85.88
496.877	93.88
497.094	82.88
497.312	93.88
497.529	84.88
497.746	87.88
497.963	88.88
498.181	66.88
498.398	67.88
498.615	68.88
498.832	85.88
499.049	88.88
499.267	90.88
499.484	90.88
499.701	91.88
499.918	97.88
500.135	78.88
500.352	93.88
500.569	120.88
500.786	124.88
501.003	86.88
501.22	88.88
501.437	72.88
501.654	83.88
501.871	82.88
502.088	85.88
502.305	87.88
502.522	70.88
502.739	70.88
502.956	75.88
503.172	64.88
503.389	80.88
503.606	93.88
503.823	103.88
504.04	86.88
504.256	88.88
504.473	84.88
504.69	86.88
504.907	87.88
505.123	85.88
505.34	80.88
505.557	76.88
505.773	74.88
505.99	69.88
506.207	78.88
506.423	77.88
506.64	85.88
506.856	89.88
507.073	90.88
507.289	76.88
507.506	76.88
507.722	76.88
507.939	66.88
508.155	75.88
508.372	84.88
508.588	87.88
508.805	72.88
509.021	87.88
509.238	85.88
509.454	85.88
509.67	75.88
509.887	76.88
510.103	76.88
510.319	84.88
510.536	86.88
510.752	81.88
510.968	84.88
511.184	89.88
511.401	74.88
511.617	69.88
511.833	74.88
512.049	69.88
512.265	81.88
512.481	73.88
512.698	79.88
512.914	80.88
513.13	85.88
513.346	77.88
513.562	69.88
513.778	91.88
513.994	86.88
514.21	80.88
514.426	76.88
514.642	83.88
514.858	86.88
515.074	76.88
515.29	98.88
515.506	78.88
515.721	68.88
515.937	81.88
516.153	85.88
516.369	62.88
516.585	70.88
516.801	82.88
517.016	84.88
517.232	91.88
517.448	84.88
517.664	90.88
517.879	84.88
518.095	88.88
518.311	85.88
518.527	75.88
518.742	77.88
518.958	92.88
519.173	75.88
519.389	87.88
519.605	80.88
519.82	74.88
