Data from StdB_HRD10591_055.txt Node
Date: Fri May 16 15:25:13 EDT 2025
User: Yrep
Spectrometer: HR+D1059
Trigger mode: 1
Integration Time (sec): 1.000000E-1
Scans to average: 1
Electric dark correction enabled: true
Nonlinearity correction enabled: false
Boxcar width: 0
XAxis mode: Wavelengths
Number of Pixels in Spectrum: 2048
>>>>>Begin Spectral Data<<<<<
223.165	-15.56
223.4	-15.56
223.635	-15.56
223.869	-2.56
224.104	-30.56
224.338	-35.56
224.573	-14.56
224.808	-22.56
225.042	-7.56
225.277	3.44
225.511	6.44
225.746	9.44
225.98	13.44
226.215	9.44
226.449	10.44
226.683	17.44
226.918	24.44
227.152	34.44
227.387	36.44
227.621	38.44
227.856	48.44
228.09	56.44
228.324	54.44
228.559	61.44
228.793	63.44
229.027	60.44
229.262	80.44
229.496	78.44
229.73	68.44
229.964	80.44
230.199	81.44
230.433	77.44
230.667	88.44
230.901	72.44
231.136	81.44
231.37	87.44
231.604	83.44
231.838	59.44
232.072	93.44
232.306	91.44
232.541	79.44
232.775	83.44
233.009	73.44
233.243	80.44
233.477	82.44
233.711	88.44
233.945	96.44
234.179	91.44
234.413	86.44
234.647	74.44
234.881	78.44
235.115	80.44
235.349	78.44
235.583	84.44
235.817	80.44
236.051	77.44
236.285	76.44
236.519	78.44
236.753	90.44
236.987	68.44
237.221	77.44
237.455	75.44
237.689	72.44
237.922	70.44
238.156	80.44
238.39	84.44
238.624	87.44
238.858	77.44
239.091	78.44
239.325	74.44
239.559	79.44
239.793	86.44
240.027	74.44
240.26	77.44
240.494	74.44
240.728	68.44
240.961	76.44
241.195	91.44
241.429	84.44
241.662	87.44
241.896	79.44
242.13	76.44
242.363	68.44
242.597	86.44
242.83	98.44
243.064	75.44
243.298	69.44
243.531	81.44
243.765	75.44
243.998	87.44
244.232	84.44
244.465	81.44
244.699	89.44
244.932	79.44
245.166	74.44
245.399	74.44
245.633	82.44
245.866	71.44
246.099	80.44
246.333	75.44
246.566	65.44
246.8	73.44
247.033	79.44
247.266	87.44
247.5	84.44
247.733	70.44
247.966	83.44
248.2	79.44
248.433	81.44
248.666	73.44
248.899	85.44
249.133	85.44
249.366	76.44
249.599	89.44
249.832	90.44
250.066	79.44
250.299	87.44
250.532	91.44
250.765	90.44
250.998	88.44
251.231	87.44
251.465	76.44
251.698	74.44
251.931	83.44
252.164	74.44
252.397	94.44
252.63	96.44
252.863	80.44
253.096	79.44
253.329	83.44
253.562	80.44
253.795	79.44
254.028	88.44
254.261	75.44
254.494	78.44
254.727	84.44
254.96	92.44
255.193	85.44
255.426	90.44
255.659	80.44
255.892	74.44
256.124	90.44
256.357	64.44
256.59	73.44
256.823	76.44
257.056	84.44
257.289	76.44
257.521	83.44
257.754	94.44
257.987	78.44
258.22	91.44
258.452	90.44
258.685	98.44
258.918	94.44
259.151	81.44
259.383	80.44
259.616	74.44
259.849	87.44
260.081	85.44
260.314	75.44
260.547	88.44
260.779	83.44
261.012	93.44
261.244	106.44
261.477	107.44
261.71	97.44
261.942	90.44
262.175	75.44
262.407	90.44
262.64	86.44
262.872	75.44
263.105	83.44
263.337	92.44
263.57	79.44
263.802	101.44
264.035	78.44
264.267	89.44
264.499	94.44
264.732	89.44
264.964	98.44
265.197	98.44
265.429	94.44
265.661	88.44
265.894	105.44
266.126	84.44
266.358	90.44
266.591	95.44
266.823	99.44
267.055	91.44
267.287	99.44
267.52	85.44
267.752	77.44
267.984	79.44
268.216	85.44
268.448	89.44
268.681	96.44
268.913	100.44
269.145	83.44
269.377	78.44
269.609	89.44
269.841	95.44
270.073	102.44
270.306	70.44
270.538	88.44
270.77	77.44
271.002	79.44
271.234	84.44
271.466	115.44
271.698	95.44
271.93	90.44
272.162	96.44
272.394	84.44
272.626	94.44
272.858	99.44
273.09	90.44
273.322	93.44
273.553	89.44
273.785	91.44
274.017	80.44
274.249	92.44
274.481	92.44
274.713	81.44
274.945	87.44
275.176	78.44
275.408	86.44
275.64	73.44
275.872	87.44
276.104	79.44
276.335	80.44
276.567	80.44
276.799	97.44
277.031	68.44
277.262	95.44
277.494	81.44
277.726	94.44
277.957	74.44
278.189	74.44
278.421	88.44
278.652	80.44
278.884	84.44
279.115	95.44
279.347	97.44
279.579	82.44
279.81	96.44
280.042	103.44
280.273	125.44
280.505	97.44
280.736	97.44
280.968	97.44
281.199	76.44
281.431	82.44
281.662	82.44
281.894	104.44
282.125	94.44
282.356	94.44
282.588	100.44
282.819	86.44
283.051	99.44
283.282	111.44
283.513	122.44
283.745	98.44
283.976	89.44
284.207	91.44
284.439	78.44
284.67	84.44
284.901	75.44
285.132	96.44
285.364	82.44
285.595	74.44
285.826	90.44
286.057	90.44
286.288	96.44
286.52	89.44
286.751	98.44
286.982	86.44
287.213	96.44
287.444	110.44
287.675	94.44
287.906	90.44
288.138	79.44
288.369	84.44
288.6	99.44
288.831	81.44
289.062	91.44
289.293	88.44
289.524	79.44
289.755	84.44
289.986	82.44
290.217	70.44
290.448	74.44
290.679	69.44
290.91	96.44
291.141	96.44
291.371	74.44
291.602	92.44
291.833	92.44
292.064	91.44
292.295	90.44
292.526	92.44
292.757	97.44
292.987	94.44
293.218	90.44
293.449	78.44
293.68	80.44
293.91	84.44
294.141	88.44
294.372	97.44
294.603	82.44
294.833	107.44
295.064	82.44
295.295	85.44
295.525	88.44
295.756	86.44
295.987	85.44
296.217	88.44
296.448	82.44
296.679	80.44
296.909	74.44
297.14	100.44
297.37	88.44
297.601	88.44
297.831	90.44
298.062	90.44
298.292	78.44
298.523	94.44
298.753	97.44
298.984	89.44
299.214	91.44
299.445	89.44
299.675	83.44
299.905	97.44
300.136	82.44
300.366	95.44
300.597	82.44
300.827	81.44
301.057	92.44
301.288	85.44
301.518	84.44
301.748	93.44
301.979	115.44
302.209	102.44
302.439	92.44
302.669	86.44
302.9	81.44
303.13	88.44
303.36	62.44
303.59	84.44
303.82	89.44
304.051	90.44
304.281	89.44
304.511	86.44
304.741	72.44
304.971	80.44
305.201	91.44
305.431	101.44
305.661	85.44
305.891	86.44
306.121	90.44
306.352	102.44
306.582	88.44
306.812	97.44
307.042	80.44
307.272	78.44
307.502	78.44
307.731	86.44
307.961	88.44
308.191	91.44
308.421	102.44
308.651	94.44
308.881	93.44
309.111	92.44
309.341	88.44
309.571	78.44
309.8	94.44
310.03	99.44
310.26	87.44
310.49	97.44
310.72	92.44
310.949	71.44
311.179	87.44
311.409	84.44
311.639	88.44
311.868	103.44
312.098	94.44
312.328	87.44
312.557	85.44
312.787	84.44
313.017	80.44
313.246	87.44
313.476	91.44
313.706	76.44
313.935	74.44
314.165	92.44
314.394	104.44
314.624	104.44
314.853	95.44
315.083	68.44
315.312	89.44
315.542	84.44
315.771	85.44
316.001	94.44
316.23	94.44
316.46	90.44
316.689	83.44
316.919	86.44
317.148	87.44
317.377	80.44
317.607	82.44
317.836	75.44
318.065	90.44
318.295	95.44
318.524	79.44
318.753	84.44
318.983	87.44
319.212	100.44
319.441	91.44
319.67	94.44
319.9	88.44
320.129	90.44
320.358	84.44
320.587	87.44
320.816	90.44
321.046	78.44
321.275	78.44
321.504	84.44
321.733	97.44
321.962	95.44
322.191	84.44
322.42	97.44
322.649	98.44
322.878	90.44
323.108	91.44
323.337	86.44
323.566	90.44
323.795	71.44
324.024	80.44
324.253	86.44
324.482	79.44
324.71	79.44
324.939	75.44
325.168	93.44
325.397	75.44
325.626	76.44
325.855	95.44
326.084	68.44
326.313	74.44
326.542	89.44
326.77	83.44
326.999	88.44
327.228	94.44
327.457	84.44
327.686	96.44
327.914	98.44
328.143	105.44
328.372	89.44
328.6	95.44
328.829	96.44
329.058	94.44
329.287	86.44
329.515	79.44
329.744	76.44
329.972	77.44
330.201	84.44
330.43	95.44
330.658	72.44
330.887	84.44
331.115	76.44
331.344	81.44
331.572	97.44
331.801	99.44
332.03	82.44
332.258	95.44
332.486	76.44
332.715	94.44
332.943	95.44
333.172	98.44
333.4	104.44
333.629	76.44
333.857	68.44
334.085	87.44
334.314	93.44
334.542	83.44
334.771	87.44
334.999	80.44
335.227	76.44
335.455	85.44
335.684	75.44
335.912	81.44
336.14	84.44
336.369	81.44
336.597	99.44
336.825	94.44
337.053	98.44
337.281	91.44
337.51	81.44
337.738	79.44
337.966	95.44
338.194	75.44
338.422	85.44
338.65	88.44
338.878	84.44
339.106	90.44
339.334	90.44
339.562	86.44
339.79	89.44
340.018	90.44
340.246	93.44
340.474	98.44
340.702	87.44
340.93	79.44
341.158	93.44
341.386	77.44
341.614	83.44
341.842	85.44
342.07	89.44
342.298	96.44
342.526	98.44
342.754	90.44
342.981	82.44
343.209	82.44
343.437	106.44
343.665	90.44
343.893	89.44
344.12	86.44
344.348	94.44
344.576	83.44
344.804	74.44
345.031	97.44
345.259	82.44
345.487	88.44
345.714	88.44
345.942	82.44
346.17	91.44
346.397	88.44
346.625	88.44
346.853	96.44
347.08	88.44
347.308	81.44
347.535	75.44
347.763	90.44
347.99	78.44
348.218	98.44
348.445	96.44
348.673	76.44
348.9	89.44
349.128	104.44
349.355	86.44
349.583	78.44
349.81	91.44
350.037	75.44
350.265	74.44
350.492	81.44
350.72	92.44
350.947	92.44
351.174	97.44
351.402	80.44
351.629	87.44
351.856	95.44
352.083	93.44
352.311	78.44
352.538	99.44
352.765	95.44
352.992	78.44
353.22	102.44
353.447	90.44
353.674	75.44
353.901	95.44
354.128	82.44
354.355	98.44
354.583	89.44
354.81	89.44
355.037	104.44
355.264	93.44
355.491	88.44
355.718	79.44
355.945	90.44
356.172	90.44
356.399	102.44
356.626	92.44
356.853	96.44
357.08	126.44
357.307	147.44
357.534	145.44
357.761	87.44
357.988	91.44
358.215	86.44
358.441	96.44
358.668	90.44
358.895	88.44
359.122	88.44
359.349	91.44
359.576	90.44
359.802	84.44
360.029	84.44
360.256	77.44
360.483	82.44
360.709	87.44
360.936	83.44
361.163	75.44
361.39	75.44
361.616	66.44
361.843	83.44
362.07	94.44
362.296	82.44
362.523	89.44
362.749	90.44
362.976	79.44
363.203	97.44
363.429	106.44
363.656	156.44
363.882	186.44
364.109	210.44
364.335	136.44
364.562	89.44
364.788	89.44
365.015	88.44
365.241	78.44
365.468	86.44
365.694	85.44
365.92	85.44
366.147	94.44
366.373	88.44
366.599	98.44
366.826	100.44
367.052	126.44
367.278	118.44
367.505	118.44
367.731	95.44
367.957	135.44
368.184	204.44
368.41	258.44
368.636	181.44
368.862	102.44
369.089	90.44
369.315	75.44
369.541	85.44
369.767	75.44
369.993	79.44
370.219	85.44
370.445	87.44
370.672	84.44
370.898	88.44
371.124	88.44
371.35	58.44
371.576	83.44
371.802	91.44
372.028	78.44
372.254	90.44
372.48	84.44
372.706	90.44
372.932	98.44
373.158	94.44
373.384	98.44
373.61	102.44
373.835	136.44
374.061	151.44
374.287	122.44
374.513	78.44
374.739	83.44
374.965	92.44
375.191	86.44
375.416	94.44
375.642	79.44
375.868	82.44
376.094	90.44
376.319	84.44
376.545	83.44
376.771	76.44
376.997	74.44
377.222	90.44
377.448	95.44
377.674	86.44
377.899	93.44
378.125	83.44
378.35	79.44
378.576	90.44
378.802	88.44
379.027	77.44
379.253	76.44
379.478	86.44
379.704	92.44
379.929	96.44
380.155	65.44
380.38	89.44
380.606	82.44
380.831	94.44
381.057	94.44
381.282	86.44
381.507	74.44
381.733	98.44
381.958	86.44
382.184	75.44
382.409	81.44
382.634	87.44
382.86	95.44
383.085	82.44
383.31	83.44
383.535	92.44
383.761	85.44
383.986	90.44
384.211	75.44
384.436	78.44
384.662	90.44
384.887	95.44
385.112	83.44
385.337	81.44
385.562	83.44
385.787	88.44
386.013	78.44
386.238	65.44
386.463	78.44
386.688	92.44
386.913	88.44
387.138	87.44
387.363	83.44
387.588	90.44
387.813	98.44
388.038	80.44
388.263	85.44
388.488	78.44
388.713	74.44
388.938	79.44
389.163	90.44
389.387	88.44
389.612	79.44
389.837	68.44
390.062	90.44
390.287	85.44
390.512	82.44
390.736	80.44
390.961	86.44
391.186	78.44
391.411	90.44
391.636	88.44
391.86	95.44
392.085	75.44
392.31	78.44
392.534	96.44
392.759	90.44
392.984	82.44
393.208	91.44
393.433	87.44
393.658	102.44
393.882	91.44
394.107	87.44
394.331	90.44
394.556	75.44
394.78	91.44
395.005	88.44
395.229	80.44
395.454	86.44
395.678	98.44
395.903	98.44
396.127	93.44
396.352	94.44
396.576	93.44
396.801	81.44
397.025	67.44
397.249	90.44
397.474	86.44
397.698	92.44
397.922	82.44
398.147	83.44
398.371	82.44
398.595	90.44
398.82	88.44
399.044	100.44
399.268	83.44
399.492	74.44
399.717	86.44
399.941	100.44
400.165	77.44
400.389	80.44
400.613	74.44
400.837	87.44
401.062	90.44
401.286	74.44
401.51	85.44
401.734	96.44
401.958	102.44
402.182	115.44
402.406	88.44
402.63	74.44
402.854	83.44
403.078	82.44
403.302	90.44
403.526	85.44
403.75	90.44
403.974	89.44
404.198	94.44
404.422	96.44
404.645	87.44
404.869	100.44
405.093	106.44
405.317	136.44
405.541	235.44
405.765	367.44
405.988	410.44
406.212	247.44
406.436	150.44
406.66	96.44
406.883	102.44
407.107	76.44
407.331	78.44
407.555	93.44
407.778	83.44
408.002	80.44
408.226	85.44
408.449	81.44
408.673	86.44
408.896	99.44
409.12	88.44
409.344	89.44
409.567	88.44
409.791	84.44
410.014	62.44
410.238	80.44
410.461	84.44
410.685	92.44
410.908	94.44
411.132	83.44
411.355	90.44
411.578	87.44
411.802	84.44
412.025	79.44
412.249	91.44
412.472	89.44
412.695	81.44
412.919	96.44
413.142	82.44
413.365	84.44
413.589	80.44
413.812	93.44
414.035	82.44
414.258	89.44
414.482	92.44
414.705	86.44
414.928	84.44
415.151	88.44
415.374	91.44
415.597	82.44
415.821	80.44
416.044	86.44
416.267	86.44
416.49	87.44
416.713	98.44
416.936	98.44
417.159	89.44
417.382	77.44
417.605	78.44
417.828	81.44
418.051	88.44
418.274	90.44
418.497	92.44
418.72	88.44
418.943	89.44
419.166	89.44
419.389	91.44
419.611	105.44
419.834	90.44
420.057	91.44
420.28	92.44
420.503	89.44
420.726	92.44
420.948	91.44
421.171	76.44
421.394	79.44
421.617	86.44
421.839	84.44
422.062	86.44
422.285	83.44
422.507	86.44
422.73	78.44
422.953	86.44
423.175	78.44
423.398	96.44
423.621	83.44
423.843	79.44
424.066	82.44
424.288	71.44
424.511	83.44
424.733	74.44
424.956	85.44
425.178	84.44
425.401	79.44
425.623	84.44
425.846	92.44
426.068	89.44
426.291	102.44
426.513	83.44
426.735	87.44
426.958	65.44
427.18	82.44
427.402	83.44
427.625	91.44
427.847	93.44
428.069	95.44
428.292	86.44
428.514	87.44
428.736	83.44
428.958	82.44
429.181	87.44
429.403	94.44
429.625	82.44
429.847	74.44
430.069	74.44
430.292	82.44
430.514	95.44
430.736	91.44
430.958	82.44
431.18	87.44
431.402	75.44
431.624	79.44
431.846	83.44
432.068	93.44
432.29	78.44
432.512	87.44
432.734	80.44
432.956	92.44
433.178	87.44
433.4	75.44
433.622	79.44
433.844	88.44
434.066	76.44
434.287	89.44
434.509	71.44
434.731	95.44
434.953	91.44
435.175	82.44
435.397	102.44
435.618	96.44
435.84	88.44
436.062	87.44
436.284	95.44
436.505	80.44
436.727	77.44
436.949	74.44
437.17	87.44
437.392	80.44
437.614	88.44
437.835	82.44
438.057	74.44
438.278	89.44
438.5	89.44
438.721	86.44
438.943	73.44
439.165	84.44
439.386	86.44
439.608	88.44
439.829	79.44
440.05	78.44
440.272	85.44
440.493	72.44
440.715	94.44
440.936	79.44
441.158	88.44
441.379	80.44
441.6	78.44
441.822	95.44
442.043	86.44
442.264	82.44
442.486	84.44
442.707	97.44
442.928	91.44
443.149	89.44
443.371	92.44
443.592	83.44
443.813	88.44
444.034	99.44
444.255	89.44
444.476	86.44
444.698	81.44
444.919	61.44
445.14	163.44
445.361	105.44
445.582	81.44
445.803	88.44
446.024	82.44
446.245	93.44
446.466	102.44
446.687	98.44
446.908	91.44
447.129	75.44
447.35	81.44
447.571	69.44
447.792	82.44
448.013	89.44
448.234	80.44
448.455	88.44
448.675	92.44
448.896	87.44
449.117	89.44
449.338	95.44
449.559	95.44
449.779	87.44
450	90.44
450.221	80.44
450.442	107.44
450.662	91.44
450.883	79.44
451.104	93.44
451.324	83.44
451.545	87.44
451.766	80.44
451.986	72.44
452.207	75.44
452.428	84.44
452.648	79.44
452.869	89.44
453.089	86.44
453.31	86.44
453.53	74.44
453.751	73.44
453.971	79.44
454.192	77.44
454.412	94.44
454.633	83.44
454.853	83.44
455.073	73.44
455.294	95.44
455.514	85.44
455.734	90.44
455.955	76.44
456.175	87.44
456.395	88.44
456.616	81.44
456.836	88.44
457.056	88.44
457.276	78.44
457.497	81.44
457.717	88.44
457.937	81.44
458.157	82.44
458.377	76.44
458.598	83.44
458.818	88.44
459.038	90.44
459.258	94.44
459.478	78.44
459.698	86.44
459.918	94.44
460.138	83.44
460.358	92.44
460.578	111.44
460.798	92.44
461.018	67.44
461.238	80.44
461.458	74.44
461.678	90.44
461.898	88.44
462.118	94.44
462.338	76.44
462.558	82.44
462.777	102.44
462.997	81.44
463.217	82.44
463.437	50.44
463.657	71.44
463.876	92.44
464.096	84.44
464.316	86.44
464.536	76.44
464.755	81.44
464.975	82.44
465.195	90.44
465.414	74.44
465.634	77.44
465.854	78.44
466.073	85.44
466.293	80.44
466.512	92.44
466.732	97.44
466.951	92.44
467.171	90.44
467.391	72.44
467.61	74.44
467.829	84.44
468.049	79.44
468.268	86.44
468.488	93.44
468.707	88.44
468.927	83.44
469.146	96.44
469.365	84.44
469.585	91.44
469.804	91.44
470.023	79.44
470.243	79.44
470.462	79.44
470.681	82.44
470.901	94.44
471.12	68.44
471.339	96.44
471.558	88.44
471.777	92.44
471.997	83.44
472.216	91.44
472.435	93.44
472.654	86.44
472.873	86.44
473.092	104.44
473.311	93.44
473.53	88.44
473.749	76.44
473.968	94.44
474.187	80.44
474.406	73.44
474.625	87.44
474.844	86.44
475.063	89.44
475.282	93.44
475.501	81.44
475.72	77.44
475.939	86.44
476.158	94.44
476.377	84.44
476.596	87.44
476.814	78.44
477.033	78.44
477.252	98.44
477.471	82.44
477.69	87.44
477.908	104.44
478.127	92.44
478.346	88.44
478.564	70.44
478.783	97.44
479.002	90.44
479.22	102.44
479.439	89.44
479.658	91.44
479.876	86.44
480.095	88.44
480.313	68.44
480.532	74.44
480.751	82.44
480.969	95.44
481.188	79.44
481.406	95.44
481.624	88.44
481.843	73.44
482.061	79.44
482.28	87.44
482.498	83.44
482.717	79.44
482.935	92.44
483.153	83.44
483.372	107.44
483.59	88.44
483.808	80.44
484.027	89.44
484.245	88.44
484.463	75.44
484.681	90.44
484.9	96.44
485.118	93.44
485.336	83.44
485.554	90.44
485.772	101.44
485.99	83.44
486.209	92.44
486.427	86.44
486.645	78.44
486.863	88.44
487.081	82.44
487.299	86.44
487.517	82.44
487.735	91.44
487.953	91.44
488.171	90.44
488.389	88.44
488.607	81.44
488.825	81.44
489.043	79.44
489.261	82.44
489.479	94.44
489.696	97.44
489.914	80.44
490.132	86.44
490.35	85.44
490.568	83.44
490.786	88.44
491.003	92.44
491.221	94.44
491.439	92.44
491.657	88.44
491.874	71.44
492.092	78.44
492.31	89.44
492.527	97.44
492.745	85.44
492.963	102.44
493.18	72.44
493.398	86.44
493.615	83.44
493.833	95.44
494.05	86.44
494.268	99.44
494.485	86.44
494.703	83.44
494.92	83.44
495.138	89.44
495.355	96.44
495.573	93.44
495.79	102.44
496.008	86.44
496.225	90.44
496.442	95.44
496.66	91.44
496.877	82.44
497.094	93.44
497.312	89.44
497.529	86.44
497.746	86.44
497.963	94.44
498.181	90.44
498.398	88.44
498.615	90.44
498.832	88.44
499.049	87.44
499.267	87.44
499.484	96.44
499.701	99.44
499.918	102.44
500.135	84.44
500.352	84.44
500.569	114.44
500.786	158.44
501.003	98.44
501.22	86.44
501.437	93.44
501.654	92.44
501.871	91.44
502.088	88.44
502.305	82.44
502.522	80.44
502.739	78.44
502.956	81.44
503.172	80.44
503.389	88.44
503.606	84.44
503.823	81.44
504.04	94.44
504.256	78.44
504.473	66.44
504.69	85.44
504.907	95.44
505.123	80.44
505.34	99.44
505.557	82.44
505.773	80.44
505.99	82.44
506.207	80.44
506.423	86.44
506.64	81.44
506.856	76.44
507.073	80.44
507.289	94.44
507.506	89.44
507.722	78.44
507.939	75.44
508.155	84.44
508.372	93.44
508.588	81.44
508.805	89.44
509.021	94.44
509.238	89.44
509.454	81.44
509.67	76.44
509.887	90.44
510.103	81.44
510.319	86.44
510.536	84.44
510.752	87.44
510.968	89.44
511.184	84.44
511.401	95.44
511.617	85.44
511.833	79.44
512.049	74.44
512.265	84.44
512.481	94.44
512.698	96.44
512.914	102.44
513.13	97.44
513.346	78.44
513.562	95.44
513.778	86.44
513.994	93.44
514.21	86.44
514.426	88.44
514.642	94.44
514.858	88.44
515.074	99.44
515.29	83.44
515.506	89.44
515.721	89.44
515.937	88.44
516.153	88.44
516.369	82.44
516.585	79.44
516.801	78.44
517.016	83.44
517.232	84.44
517.448	77.44
517.664	84.44
517.879	82.44
518.095	86.44
518.311	78.44
518.527	73.44
518.742	89.44
518.958	89.44
519.173	86.44
