Data from StdB_HRD10591_072.txt Node
Date: Fri May 16 15:25:22 EDT 2025
User: Yrep
Spectrometer: HR+D1059
Trigger mode: 1
Integration Time (sec): 1.000000E-1
Scans to average: 1
Electric dark correction enabled: true
Nonlinearity correction enabled: false
Boxcar width: 0
XAxis mode: Wavelengths
Number of Pixels in Spectrum: 2048
>>>>>Begin Spectral Data<<<<<
223.165	-13.38
223.4	-13.38
223.635	-13.38
223.869	-18.38
224.104	-42.38
224.338	-10.38
224.573	-16.38
224.808	-7.38
225.042	-5.38
225.277	-5.38
225.511	-4.38
225.746	-9.38
225.98	16.62
226.215	18.62
226.449	26.62
226.683	21.62
226.918	25.62
227.152	23.62
227.387	38.62
227.621	47.62
227.856	43.62
228.09	51.62
228.324	54.62
228.559	47.62
228.793	60.62
229.027	60.62
229.262	67.62
229.496	65.62
229.73	65.62
229.964	64.62
230.199	74.62
230.433	71.62
230.667	64.62
230.901	75.62
231.136	82.62
231.37	91.62
231.604	76.62
231.838	93.62
232.072	62.62
232.306	75.62
232.541	78.62
232.775	94.62
233.009	77.62
233.243	92.62
233.477	88.62
233.711	70.62
233.945	76.62
234.179	76.62
234.413	79.62
234.647	73.62
234.881	89.62
235.115	83.62
235.349	80.62
235.583	66.62
235.817	78.62
236.051	75.62
236.285	68.62
236.519	81.62
236.753	84.62
236.987	65.62
237.221	86.62
237.455	57.62
237.689	72.62
237.922	76.62
238.156	72.62
238.39	76.62
238.624	76.62
238.858	66.62
239.091	73.62
239.325	78.62
239.559	76.62
239.793	62.62
240.027	77.62
240.26	75.62
240.494	83.62
240.728	76.62
240.961	75.62
241.195	70.62
241.429	79.62
241.662	71.62
241.896	68.62
242.13	77.62
242.363	71.62
242.597	80.62
242.83	74.62
243.064	67.62
243.298	63.62
243.531	78.62
243.765	69.62
243.998	73.62
244.232	76.62
244.465	77.62
244.699	86.62
244.932	69.62
245.166	72.62
245.399	75.62
245.633	78.62
245.866	66.62
246.099	80.62
246.333	79.62
246.566	72.62
246.8	69.62
247.033	63.62
247.266	69.62
247.5	75.62
247.733	81.62
247.966	85.62
248.2	84.62
248.433	86.62
248.666	70.62
248.899	72.62
249.133	84.62
249.366	68.62
249.599	76.62
249.832	83.62
250.066	86.62
250.299	73.62
250.532	70.62
250.765	82.62
250.998	74.62
251.231	92.62
251.465	75.62
251.698	72.62
251.931	74.62
252.164	81.62
252.397	82.62
252.63	79.62
252.863	66.62
253.096	68.62
253.329	74.62
253.562	78.62
253.795	73.62
254.028	76.62
254.261	74.62
254.494	80.62
254.727	84.62
254.96	84.62
255.193	87.62
255.426	91.62
255.659	84.62
255.892	75.62
256.124	78.62
256.357	82.62
256.59	72.62
256.823	85.62
257.056	76.62
257.289	82.62
257.521	68.62
257.754	80.62
257.987	83.62
258.22	82.62
258.452	93.62
258.685	75.62
258.918	67.62
259.151	76.62
259.383	87.62
259.616	96.62
259.849	69.62
260.081	79.62
260.314	66.62
260.547	78.62
260.779	71.62
261.012	89.62
261.244	73.62
261.477	98.62
261.71	85.62
261.942	83.62
262.175	73.62
262.407	85.62
262.64	88.62
262.872	92.62
263.105	84.62
263.337	92.62
263.57	73.62
263.802	86.62
264.035	91.62
264.267	73.62
264.499	79.62
264.732	86.62
264.964	82.62
265.197	71.62
265.429	85.62
265.661	75.62
265.894	83.62
266.126	78.62
266.358	82.62
266.591	86.62
266.823	76.62
267.055	78.62
267.287	84.62
267.52	74.62
267.752	82.62
267.984	86.62
268.216	83.62
268.448	76.62
268.681	93.62
268.913	77.62
269.145	80.62
269.377	82.62
269.609	70.62
269.841	82.62
270.073	88.62
270.306	78.62
270.538	91.62
270.77	92.62
271.002	79.62
271.234	78.62
271.466	71.62
271.698	86.62
271.93	80.62
272.162	93.62
272.394	67.62
272.626	77.62
272.858	73.62
273.09	71.62
273.322	86.62
273.553	81.62
273.785	90.62
274.017	68.62
274.249	98.62
274.481	88.62
274.713	89.62
274.945	98.62
275.176	92.62
275.408	80.62
275.64	71.62
275.872	83.62
276.104	81.62
276.335	79.62
276.567	77.62
276.799	88.62
277.031	87.62
277.262	74.62
277.494	69.62
277.726	78.62
277.957	73.62
278.189	87.62
278.421	86.62
278.652	86.62
278.884	85.62
279.115	78.62
279.347	91.62
279.579	77.62
279.81	83.62
280.042	100.62
280.273	103.62
280.505	106.62
280.736	74.62
280.968	86.62
281.199	83.62
281.431	98.62
281.662	86.62
281.894	74.62
282.125	75.62
282.356	86.62
282.588	101.62
282.819	72.62
283.051	86.62
283.282	89.62
283.513	97.62
283.745	85.62
283.976	83.62
284.207	91.62
284.439	97.62
284.67	87.62
284.901	85.62
285.132	68.62
285.364	89.62
285.595	86.62
285.826	78.62
286.057	88.62
286.288	70.62
286.52	78.62
286.751	94.62
286.982	94.62
287.213	85.62
287.444	86.62
287.675	92.62
287.906	91.62
288.138	85.62
288.369	86.62
288.6	79.62
288.831	74.62
289.062	70.62
289.293	86.62
289.524	74.62
289.755	70.62
289.986	78.62
290.217	78.62
290.448	84.62
290.679	69.62
290.91	85.62
291.141	84.62
291.371	80.62
291.602	67.62
291.833	79.62
292.064	104.62
292.295	75.62
292.526	78.62
292.757	74.62
292.987	71.62
293.218	76.62
293.449	80.62
293.68	79.62
293.91	84.62
294.141	83.62
294.372	87.62
294.603	92.62
294.833	68.62
295.064	76.62
295.295	82.62
295.525	76.62
295.756	84.62
295.987	73.62
296.217	72.62
296.448	81.62
296.679	75.62
296.909	81.62
297.14	99.62
297.37	91.62
297.601	82.62
297.831	79.62
298.062	85.62
298.292	70.62
298.523	70.62
298.753	85.62
298.984	81.62
299.214	82.62
299.445	76.62
299.675	89.62
299.905	87.62
300.136	88.62
300.366	68.62
300.597	76.62
300.827	83.62
301.057	85.62
301.288	89.62
301.518	78.62
301.748	77.62
301.979	93.62
302.209	71.62
302.439	83.62
302.669	90.62
302.9	92.62
303.13	85.62
303.36	81.62
303.59	76.62
303.82	78.62
304.051	75.62
304.281	84.62
304.511	83.62
304.741	71.62
304.971	84.62
305.201	75.62
305.431	73.62
305.661	85.62
305.891	74.62
306.121	79.62
306.352	90.62
306.582	67.62
306.812	86.62
307.042	82.62
307.272	77.62
307.502	87.62
307.731	87.62
307.961	86.62
308.191	85.62
308.421	88.62
308.651	88.62
308.881	72.62
309.111	78.62
309.341	79.62
309.571	102.62
309.8	63.62
310.03	78.62
310.26	80.62
310.49	74.62
310.72	81.62
310.949	83.62
311.179	73.62
311.409	86.62
311.639	78.62
311.868	91.62
312.098	91.62
312.328	83.62
312.557	92.62
312.787	82.62
313.017	78.62
313.246	79.62
313.476	86.62
313.706	75.62
313.935	74.62
314.165	92.62
314.394	84.62
314.624	78.62
314.853	83.62
315.083	79.62
315.312	91.62
315.542	82.62
315.771	101.62
316.001	72.62
316.23	86.62
316.46	86.62
316.689	78.62
316.919	98.62
317.148	70.62
317.377	95.62
317.607	84.62
317.836	76.62
318.065	76.62
318.295	85.62
318.524	88.62
318.753	72.62
318.983	87.62
319.212	83.62
319.441	84.62
319.67	87.62
319.9	78.62
320.129	78.62
320.358	83.62
320.587	83.62
320.816	89.62
321.046	85.62
321.275	87.62
321.504	81.62
321.733	82.62
321.962	91.62
322.191	93.62
322.42	84.62
322.649	90.62
322.878	90.62
323.108	82.62
323.337	71.62
323.566	70.62
323.795	83.62
324.024	82.62
324.253	79.62
324.482	80.62
324.71	83.62
324.939	79.62
325.168	68.62
325.397	80.62
325.626	68.62
325.855	102.62
326.084	90.62
326.313	91.62
326.542	86.62
326.77	93.62
326.999	77.62
327.228	77.62
327.457	86.62
327.686	88.62
327.914	70.62
328.143	78.62
328.372	82.62
328.6	71.62
328.829	75.62
329.058	77.62
329.287	80.62
329.515	82.62
329.744	91.62
329.972	78.62
330.201	80.62
330.43	86.62
330.658	77.62
330.887	74.62
331.115	72.62
331.344	80.62
331.572	72.62
331.801	82.62
332.03	91.62
332.258	82.62
332.486	79.62
332.715	77.62
332.943	73.62
333.172	82.62
333.4	80.62
333.629	79.62
333.857	89.62
334.085	83.62
334.314	68.62
334.542	69.62
334.771	74.62
334.999	79.62
335.227	80.62
335.455	86.62
335.684	81.62
335.912	79.62
336.14	95.62
336.369	79.62
336.597	76.62
336.825	83.62
337.053	70.62
337.281	70.62
337.51	91.62
337.738	89.62
337.966	85.62
338.194	75.62
338.422	90.62
338.65	76.62
338.878	88.62
339.106	63.62
339.334	96.62
339.562	79.62
339.79	85.62
340.018	84.62
340.246	72.62
340.474	85.62
340.702	76.62
340.93	66.62
341.158	88.62
341.386	83.62
341.614	71.62
341.842	82.62
342.07	82.62
342.298	88.62
342.526	80.62
342.754	83.62
342.981	86.62
343.209	74.62
343.437	111.62
343.665	80.62
343.893	87.62
344.12	83.62
344.348	89.62
344.576	99.62
344.804	78.62
345.031	77.62
345.259	67.62
345.487	82.62
345.714	82.62
345.942	84.62
346.17	79.62
346.397	71.62
346.625	77.62
346.853	79.62
347.08	79.62
347.308	74.62
347.535	79.62
347.763	88.62
347.99	79.62
348.218	71.62
348.445	87.62
348.673	79.62
348.9	78.62
349.128	77.62
349.355	80.62
349.583	70.62
349.81	77.62
350.037	74.62
350.265	81.62
350.492	95.62
350.72	74.62
350.947	70.62
351.174	61.62
351.402	73.62
351.629	69.62
351.856	76.62
352.083	82.62
352.311	86.62
352.538	98.62
352.765	84.62
352.992	92.62
353.22	75.62
353.447	90.62
353.674	74.62
353.901	75.62
354.128	91.62
354.355	82.62
354.583	91.62
354.81	72.62
355.037	82.62
355.264	87.62
355.491	85.62
355.718	81.62
355.945	87.62
356.172	84.62
356.399	90.62
356.626	86.62
356.853	94.62
357.08	119.62
357.307	135.62
357.534	139.62
357.761	95.62
357.988	89.62
358.215	84.62
358.441	86.62
358.668	86.62
358.895	107.62
359.122	82.62
359.349	84.62
359.576	82.62
359.802	84.62
360.029	91.62
360.256	96.62
360.483	79.62
360.709	91.62
360.936	84.62
361.163	77.62
361.39	75.62
361.616	86.62
361.843	89.62
362.07	80.62
362.296	89.62
362.523	81.62
362.749	84.62
362.976	78.62
363.203	83.62
363.429	95.62
363.656	131.62
363.882	166.62
364.109	190.62
364.335	109.62
364.562	104.62
364.788	75.62
365.015	82.62
365.241	84.62
365.468	81.62
365.694	71.62
365.92	75.62
366.147	74.62
366.373	93.62
366.599	80.62
366.826	93.62
367.052	106.62
367.278	113.62
367.505	101.62
367.731	99.62
367.957	133.62
368.184	203.62
368.41	228.62
368.636	178.62
368.862	101.62
369.089	82.62
369.315	68.62
369.541	86.62
369.767	75.62
369.993	69.62
370.219	70.62
370.445	95.62
370.672	80.62
370.898	89.62
371.124	86.62
371.35	77.62
371.576	75.62
371.802	84.62
372.028	82.62
372.254	83.62
372.48	87.62
372.706	93.62
372.932	88.62
373.158	71.62
373.384	68.62
373.61	87.62
373.835	110.62
374.061	123.62
374.287	117.62
374.513	72.62
374.739	63.62
374.965	88.62
375.191	70.62
375.416	69.62
375.642	90.62
375.868	91.62
376.094	77.62
376.319	88.62
376.545	86.62
376.771	79.62
376.997	94.62
377.222	79.62
377.448	74.62
377.674	82.62
377.899	82.62
378.125	78.62
378.35	92.62
378.576	101.62
378.802	84.62
379.027	82.62
379.253	83.62
379.478	91.62
379.704	83.62
379.929	91.62
380.155	76.62
380.38	86.62
380.606	80.62
380.831	82.62
381.057	87.62
381.282	98.62
381.507	76.62
381.733	74.62
381.958	69.62
382.184	70.62
382.409	83.62
382.634	83.62
382.86	84.62
383.085	71.62
383.31	92.62
383.535	92.62
383.761	86.62
383.986	87.62
384.211	84.62
384.436	86.62
384.662	84.62
384.887	84.62
385.112	82.62
385.337	72.62
385.562	70.62
385.787	74.62
386.013	76.62
386.238	85.62
386.463	93.62
386.688	99.62
386.913	95.62
387.138	84.62
387.363	90.62
387.588	87.62
387.813	74.62
388.038	77.62
388.263	87.62
388.488	75.62
388.713	86.62
388.938	76.62
389.163	92.62
389.387	80.62
389.612	79.62
389.837	74.62
390.062	75.62
390.287	76.62
390.512	83.62
390.736	83.62
390.961	74.62
391.186	84.62
391.411	73.62
391.636	75.62
391.86	84.62
392.085	88.62
392.31	78.62
392.534	74.62
392.759	104.62
392.984	72.62
393.208	66.62
393.433	93.62
393.658	76.62
393.882	84.62
394.107	89.62
394.331	86.62
394.556	80.62
394.78	76.62
395.005	81.62
395.229	82.62
395.454	88.62
395.678	83.62
395.903	88.62
396.127	82.62
396.352	70.62
396.576	80.62
396.801	75.62
397.025	72.62
397.249	87.62
397.474	86.62
397.698	88.62
397.922	79.62
398.147	77.62
398.371	83.62
398.595	92.62
398.82	84.62
399.044	55.62
399.268	91.62
399.492	84.62
399.717	84.62
399.941	98.62
400.165	81.62
400.389	82.62
400.613	84.62
400.837	75.62
401.062	76.62
401.286	80.62
401.51	73.62
401.734	83.62
401.958	94.62
402.182	104.62
402.406	73.62
402.63	83.62
402.854	72.62
403.078	82.62
403.302	84.62
403.526	90.62
403.75	77.62
403.974	92.62
404.198	74.62
404.422	84.62
404.645	75.62
404.869	98.62
405.093	95.62
405.317	128.62
405.541	199.62
405.765	311.62
405.988	356.62
406.212	195.62
406.436	140.62
406.66	98.62
406.883	93.62
407.107	72.62
407.331	89.62
407.555	84.62
407.778	77.62
408.002	80.62
408.226	81.62
408.449	84.62
408.673	82.62
408.896	83.62
409.12	81.62
409.344	84.62
409.567	73.62
409.791	85.62
410.014	78.62
410.238	86.62
410.461	79.62
410.685	70.62
410.908	86.62
411.132	82.62
411.355	76.62
411.578	70.62
411.802	79.62
412.025	86.62
412.249	81.62
412.472	80.62
412.695	96.62
412.919	82.62
413.142	84.62
413.365	95.62
413.589	79.62
413.812	87.62
414.035	82.62
414.258	86.62
414.482	88.62
414.705	80.62
414.928	90.62
415.151	81.62
415.374	79.62
415.597	71.62
415.821	101.62
416.044	92.62
416.267	79.62
416.49	95.62
416.713	83.62
416.936	90.62
417.159	79.62
417.382	80.62
417.605	78.62
417.828	77.62
418.051	79.62
418.274	94.62
418.497	74.62
418.72	71.62
418.943	88.62
419.166	83.62
419.389	69.62
419.611	70.62
419.834	83.62
420.057	83.62
420.28	73.62
420.503	68.62
420.726	79.62
420.948	73.62
421.171	91.62
421.394	87.62
421.617	62.62
421.839	79.62
422.062	87.62
422.285	78.62
422.507	95.62
422.73	75.62
422.953	92.62
423.175	81.62
423.398	70.62
423.621	72.62
423.843	71.62
424.066	63.62
424.288	83.62
424.511	80.62
424.733	62.62
424.956	84.62
425.178	76.62
425.401	75.62
425.623	72.62
425.846	75.62
426.068	75.62
426.291	79.62
426.513	74.62
426.735	79.62
426.958	62.62
427.18	84.62
427.402	84.62
427.625	81.62
427.847	100.62
428.069	76.62
428.292	104.62
428.514	102.62
428.736	84.62
428.958	82.62
429.181	75.62
429.403	88.62
429.625	88.62
429.847	89.62
430.069	88.62
430.292	71.62
430.514	82.62
430.736	82.62
430.958	84.62
431.18	71.62
431.402	70.62
431.624	75.62
431.846	62.62
432.068	74.62
432.29	73.62
432.512	83.62
432.734	99.62
432.956	88.62
433.178	74.62
433.4	80.62
433.622	78.62
433.844	79.62
434.066	92.62
434.287	76.62
434.509	80.62
434.731	88.62
434.953	79.62
435.175	80.62
435.397	78.62
435.618	70.62
435.84	76.62
436.062	77.62
436.284	73.62
436.505	80.62
436.727	75.62
436.949	84.62
437.17	83.62
437.392	83.62
437.614	80.62
437.835	82.62
438.057	89.62
438.278	73.62
438.5	63.62
438.721	86.62
438.943	70.62
439.165	92.62
439.386	77.62
439.608	83.62
439.829	74.62
440.05	80.62
440.272	90.62
440.493	91.62
440.715	88.62
440.936	67.62
441.158	80.62
441.379	82.62
441.6	89.62
441.822	76.62
442.043	79.62
442.264	79.62
442.486	77.62
442.707	84.62
442.928	81.62
443.149	83.62
443.371	75.62
443.592	76.62
443.813	75.62
444.034	82.62
444.255	85.62
444.476	79.62
444.698	62.62
444.919	76.62
445.14	149.62
445.361	114.62
445.582	72.62
445.803	74.62
446.024	77.62
446.245	70.62
446.466	88.62
446.687	82.62
446.908	82.62
447.129	88.62
447.35	84.62
447.571	83.62
447.792	78.62
448.013	83.62
448.234	87.62
448.455	82.62
448.675	77.62
448.896	78.62
449.117	78.62
449.338	84.62
449.559	80.62
449.779	83.62
450	88.62
450.221	80.62
450.442	85.62
450.662	74.62
450.883	85.62
451.104	92.62
451.324	79.62
451.545	84.62
451.766	74.62
451.986	86.62
452.207	78.62
452.428	75.62
452.648	87.62
452.869	80.62
453.089	72.62
453.31	65.62
453.53	82.62
453.751	88.62
453.971	86.62
454.192	79.62
454.412	75.62
454.633	73.62
454.853	82.62
455.073	88.62
455.294	90.62
455.514	80.62
455.734	79.62
455.955	85.62
456.175	84.62
456.395	87.62
456.616	86.62
456.836	56.62
457.056	67.62
457.276	71.62
457.497	80.62
457.717	91.62
457.937	91.62
458.157	65.62
458.377	79.62
458.598	88.62
458.818	88.62
459.038	85.62
459.258	77.62
459.478	65.62
459.698	80.62
459.918	74.62
460.138	74.62
460.358	63.62
460.578	74.62
460.798	59.62
461.018	84.62
461.238	81.62
461.458	60.62
461.678	92.62
461.898	87.62
462.118	91.62
462.338	94.62
462.558	87.62
462.777	72.62
462.997	78.62
463.217	85.62
463.437	78.62
463.657	93.62
463.876	71.62
464.096	79.62
464.316	79.62
464.536	74.62
464.755	73.62
464.975	60.62
465.195	80.62
465.414	70.62
465.634	87.62
465.854	74.62
466.073	72.62
466.293	80.62
466.512	76.62
466.732	87.62
466.951	74.62
467.171	80.62
467.391	93.62
467.61	84.62
467.829	70.62
468.049	80.62
468.268	74.62
468.488	78.62
468.707	82.62
468.927	91.62
469.146	76.62
469.365	84.62
469.585	81.62
469.804	72.62
470.023	74.62
470.243	85.62
470.462	85.62
470.681	84.62
470.901	69.62
471.12	94.62
471.339	81.62
471.558	68.62
471.777	78.62
471.997	74.62
472.216	63.62
472.435	82.62
472.654	80.62
472.873	88.62
473.092	76.62
473.311	80.62
473.53	68.62
473.749	74.62
473.968	76.62
474.187	67.62
474.406	81.62
474.625	81.62
474.844	87.62
475.063	73.62
475.282	72.62
475.501	60.62
475.72	84.62
475.939	74.62
476.158	66.62
476.377	67.62
476.596	76.62
476.814	64.62
477.033	86.62
477.252	83.62
477.471	86.62
477.69	82.62
477.908	82.62
478.127	87.62
478.346	76.62
478.564	85.62
478.783	83.62
479.002	93.62
479.22	78.62
479.439	75.62
479.658	92.62
479.876	79.62
480.095	76.62
480.313	88.62
480.532	72.62
480.751	68.62
480.969	66.62
481.188	85.62
481.406	89.62
481.624	86.62
481.843	72.62
482.061	80.62
482.28	67.62
482.498	86.62
482.717	72.62
482.935	86.62
483.153	83.62
483.372	86.62
483.59	93.62
483.808	84.62
484.027	74.62
484.245	93.62
484.463	76.62
484.681	78.62
484.9	76.62
485.118	75.62
485.336	86.62
485.554	81.62
485.772	84.62
485.99	89.62
486.209	82.62
486.427	81.62
486.645	89.62
486.863	83.62
487.081	72.62
487.299	82.62
487.517	85.62
487.735	93.62
487.953	95.62
488.171	87.62
488.389	80.62
488.607	87.62
488.825	92.62
489.043	80.62
489.261	77.62
489.479	82.62
489.696	92.62
489.914	85.62
490.132	93.62
490.35	76.62
490.568	76.62
490.786	82.62
491.003	64.62
491.221	91.62
491.439	86.62
491.657	74.62
491.874	88.62
492.092	91.62
492.31	87.62
492.527	76.62
492.745	89.62
492.963	84.62
493.18	77.62
493.398	84.62
493.615	88.62
493.833	78.62
494.05	75.62
494.268	81.62
494.485	85.62
494.703	90.62
494.92	82.62
495.138	76.62
495.355	93.62
495.573	79.62
495.79	78.62
496.008	91.62
496.225	87.62
496.442	79.62
496.66	88.62
496.877	92.62
497.094	100.62
497.312	80.62
497.529	85.62
497.746	82.62
497.963	80.62
498.181	79.62
498.398	94.62
498.615	76.62
498.832	70.62
499.049	81.62
499.267	89.62
499.484	77.62
499.701	87.62
499.918	79.62
500.135	85.62
500.352	91.62
500.569	107.62
500.786	127.62
501.003	80.62
501.22	89.62
501.437	86.62
501.654	78.62
501.871	73.62
502.088	95.62
502.305	85.62
502.522	85.62
502.739	74.62
502.956	97.62
503.172	91.62
503.389	74.62
503.606	92.62
503.823	78.62
504.04	75.62
504.256	68.62
504.473	64.62
504.69	87.62
504.907	92.62
505.123	79.62
505.34	70.62
505.557	69.62
505.773	77.62
505.99	82.62
506.207	76.62
506.423	84.62
506.64	98.62
506.856	71.62
507.073	90.62
507.289	82.62
507.506	79.62
507.722	79.62
507.939	94.62
508.155	84.62
508.372	68.62
508.588	90.62
508.805	88.62
509.021	77.62
509.238	83.62
509.454	79.62
509.67	81.62
509.887	81.62
510.103	85.62
510.319	71.62
510.536	95.62
510.752	93.62
510.968	70.62
511.184	94.62
511.401	81.62
511.617	90.62
511.833	78.62
512.049	85.62
512.265	78.62
512.481	77.62
512.698	85.62
512.914	73.62
513.13	84.62
513.346	75.62
513.562	68.62
513.778	81.62
513.994	64.62
514.21	82.62
514.426	79.62
514.642	81.62
514.858	81.62
515.074	81.62
515.29	81.62
515.506	82.62
515.721	88.62
515.937	77.62
516.153	74.62
516.369	91.62
516.585	74.62
516.801	74.62
517.016	96.62
517.232	77.62
517.448	79.62
517.664	86.62
517.879	78.62
518.095	83.62
518.311	87.62
518.527	99.62
518.742	82.62
518.958	86.62
519.173	78.62
519.389	83.62
519.605	86.62
