Data from StdB_HRD10591_066.txt Node
Date: Fri May 16 15:25:19 EDT 2025
User: Yrep
Spectrometer: HR+D1059
Trigger mode: 1
Integration Time (sec): 1.000000E-1
Scans to average: 1
Electric dark correction enabled: true
Nonlinearity correction enabled: false
Boxcar width: 0
XAxis mode: Wavelengths
Number of Pixels in Spectrum: 2048
>>>>>Begin Spectral Data<<<<<
223.165	-20
223.4	-20
223.635	-20
223.869	-23
224.104	-14
224.338	-23
224.573	-23
224.808	-2
225.042	-9
225.277	-7
225.511	8
225.746	-2
225.98	20
226.215	11
226.449	20
226.683	21
226.918	26
227.152	17
227.387	39
227.621	51
227.856	42
228.09	44
228.324	51
228.559	54
228.793	54
229.027	53
229.262	66
229.496	58
229.73	72
229.964	75
230.199	85
230.433	71
230.667	81
230.901	77
231.136	73
231.37	80
231.604	72
231.838	92
232.072	91
232.306	84
232.541	74
232.775	79
233.009	80
233.243	71
233.477	85
233.711	93
233.945	86
234.179	69
234.413	82
234.647	80
234.881	81
235.115	75
235.349	72
235.583	77
235.817	77
236.051	81
236.285	91
236.519	87
236.753	78
236.987	83
237.221	78
237.455	71
237.689	67
237.922	72
238.156	74
238.39	71
238.624	70
238.858	90
239.091	91
239.325	70
239.559	75
239.793	86
240.027	83
240.26	63
240.494	70
240.728	79
240.961	89
241.195	86
241.429	73
241.662	81
241.896	76
242.13	72
242.363	72
242.597	72
242.83	87
243.064	78
243.298	60
243.531	77
243.765	77
243.998	77
244.232	75
244.465	85
244.699	73
244.932	81
245.166	87
245.399	65
245.633	67
245.866	72
246.099	87
246.333	83
246.566	84
246.8	67
247.033	76
247.266	87
247.5	77
247.733	78
247.966	84
248.2	92
248.433	86
248.666	86
248.899	67
249.133	81
249.366	69
249.599	87
249.832	81
250.066	85
250.299	79
250.532	76
250.765	91
250.998	77
251.231	84
251.465	80
251.698	85
251.931	87
252.164	87
252.397	73
252.63	84
252.863	87
253.096	67
253.329	61
253.562	92
253.795	81
254.028	82
254.261	85
254.494	83
254.727	67
254.96	84
255.193	91
255.426	94
255.659	79
255.892	82
256.124	81
256.357	81
256.59	81
256.823	85
257.056	69
257.289	68
257.521	77
257.754	85
257.987	82
258.22	73
258.452	89
258.685	88
258.918	80
259.151	89
259.383	97
259.616	75
259.849	82
260.081	84
260.314	81
260.547	81
260.779	76
261.012	91
261.244	77
261.477	92
261.71	78
261.942	95
262.175	72
262.407	75
262.64	77
262.872	90
263.105	77
263.337	98
263.57	72
263.802	76
264.035	79
264.267	91
264.499	73
264.732	88
264.964	80
265.197	83
265.429	88
265.661	77
265.894	91
266.126	89
266.358	95
266.591	71
266.823	89
267.055	75
267.287	80
267.52	91
267.752	76
267.984	79
268.216	83
268.448	86
268.681	76
268.913	84
269.145	77
269.377	75
269.609	76
269.841	97
270.073	94
270.306	86
270.538	75
270.77	88
271.002	99
271.234	94
271.466	76
271.698	88
271.93	86
272.162	76
272.394	83
272.626	73
272.858	89
273.09	101
273.322	95
273.553	77
273.785	88
274.017	73
274.249	79
274.481	96
274.713	85
274.945	85
275.176	81
275.408	83
275.64	83
275.872	94
276.104	85
276.335	75
276.567	84
276.799	86
277.031	80
277.262	76
277.494	87
277.726	97
277.957	81
278.189	76
278.421	88
278.652	94
278.884	78
279.115	82
279.347	89
279.579	93
279.81	91
280.042	96
280.273	114
280.505	114
280.736	104
280.968	79
281.199	82
281.431	86
281.662	82
281.894	94
282.125	97
282.356	97
282.588	89
282.819	86
283.051	93
283.282	95
283.513	97
283.745	88
283.976	85
284.207	80
284.439	93
284.67	86
284.901	96
285.132	80
285.364	97
285.595	87
285.826	86
286.057	90
286.288	100
286.52	81
286.751	77
286.982	101
287.213	97
287.444	96
287.675	98
287.906	81
288.138	79
288.369	90
288.6	96
288.831	92
289.062	76
289.293	74
289.524	77
289.755	70
289.986	90
290.217	85
290.448	80
290.679	95
290.91	78
291.141	90
291.371	85
291.602	77
291.833	90
292.064	87
292.295	75
292.526	74
292.757	85
292.987	89
293.218	71
293.449	91
293.68	87
293.91	81
294.141	87
294.372	83
294.603	83
294.833	72
295.064	86
295.295	85
295.525	90
295.756	89
295.987	85
296.217	78
296.448	65
296.679	91
296.909	85
297.14	82
297.37	88
297.601	73
297.831	79
298.062	86
298.292	95
298.523	82
298.753	81
298.984	93
299.214	79
299.445	82
299.675	95
299.905	95
300.136	87
300.366	83
300.597	83
300.827	97
301.057	85
301.288	71
301.518	81
301.748	89
301.979	95
302.209	81
302.439	86
302.669	96
302.9	95
303.13	67
303.36	94
303.59	70
303.82	93
304.051	85
304.281	83
304.511	98
304.741	96
304.971	87
305.201	74
305.431	75
305.661	74
305.891	74
306.121	94
306.352	89
306.582	91
306.812	94
307.042	88
307.272	89
307.502	79
307.731	97
307.961	77
308.191	89
308.421	87
308.651	90
308.881	83
309.111	85
309.341	78
309.571	89
309.8	88
310.03	89
310.26	95
310.49	91
310.72	89
310.949	98
311.179	81
311.409	78
311.639	76
311.868	91
312.098	70
312.328	91
312.557	92
312.787	103
313.017	86
313.246	74
313.476	86
313.706	72
313.935	89
314.165	83
314.394	88
314.624	89
314.853	98
315.083	96
315.312	108
315.542	78
315.771	82
316.001	85
316.23	104
316.46	87
316.689	85
316.919	91
317.148	85
317.377	86
317.607	81
317.836	82
318.065	87
318.295	83
318.524	74
318.753	80
318.983	94
319.212	97
319.441	80
319.67	74
319.9	60
320.129	84
320.358	78
320.587	80
320.816	87
321.046	84
321.275	88
321.504	82
321.733	87
321.962	75
322.191	77
322.42	88
322.649	88
322.878	83
323.108	87
323.337	79
323.566	81
323.795	94
324.024	85
324.253	87
324.482	86
324.71	81
324.939	89
325.168	96
325.397	88
325.626	80
325.855	75
326.084	76
326.313	89
326.542	74
326.77	90
326.999	92
327.228	92
327.457	88
327.686	70
327.914	82
328.143	79
328.372	64
328.6	82
328.829	81
329.058	77
329.287	77
329.515	79
329.744	82
329.972	80
330.201	90
330.43	89
330.658	73
330.887	98
331.115	77
331.344	85
331.572	80
331.801	80
332.03	88
332.258	74
332.486	77
332.715	86
332.943	77
333.172	89
333.4	90
333.629	79
333.857	78
334.085	69
334.314	73
334.542	76
334.771	71
334.999	82
335.227	84
335.455	93
335.684	77
335.912	74
336.14	87
336.369	87
336.597	92
336.825	89
337.053	86
337.281	92
337.51	83
337.738	95
337.966	92
338.194	87
338.422	79
338.65	81
338.878	85
339.106	88
339.334	92
339.562	80
339.79	90
340.018	78
340.246	76
340.474	80
340.702	78
340.93	91
341.158	97
341.386	96
341.614	80
341.842	77
342.07	92
342.298	80
342.526	82
342.754	73
342.981	73
343.209	93
343.437	89
343.665	88
343.893	87
344.12	86
344.348	74
344.576	79
344.804	89
345.031	76
345.259	84
345.487	93
345.714	93
345.942	82
346.17	83
346.397	93
346.625	71
346.853	90
347.08	82
347.308	97
347.535	74
347.763	89
347.99	83
348.218	88
348.445	96
348.673	88
348.9	95
349.128	83
349.355	93
349.583	96
349.81	90
350.037	82
350.265	70
350.492	92
350.72	75
350.947	79
351.174	87
351.402	90
351.629	88
351.856	92
352.083	89
352.311	82
352.538	77
352.765	78
352.992	99
353.22	97
353.447	78
353.674	84
353.901	77
354.128	93
354.355	83
354.583	83
354.81	96
355.037	86
355.264	87
355.491	93
355.718	97
355.945	79
356.172	81
356.399	95
356.626	97
356.853	101
357.08	125
357.307	150
357.534	126
357.761	99
357.988	85
358.215	85
358.441	78
358.668	91
358.895	85
359.122	75
359.349	75
359.576	86
359.802	85
360.029	79
360.256	78
360.483	88
360.709	93
360.936	83
361.163	74
361.39	79
361.616	79
361.843	78
362.07	95
362.296	88
362.523	99
362.749	84
362.976	87
363.203	109
363.429	96
363.656	135
363.882	175
364.109	165
364.335	117
364.562	94
364.788	81
365.015	84
365.241	95
365.468	90
365.694	77
365.92	84
366.147	79
366.373	85
366.599	95
366.826	99
367.052	111
367.278	121
367.505	105
367.731	110
367.957	139
368.184	170
368.41	229
368.636	170
368.862	97
369.089	84
369.315	73
369.541	78
369.767	91
369.993	89
370.219	83
370.445	83
370.672	83
370.898	87
371.124	73
371.35	80
371.576	85
371.802	77
372.028	80
372.254	82
372.48	95
372.706	82
372.932	86
373.158	90
373.384	86
373.61	111
373.835	129
374.061	140
374.287	109
374.513	90
374.739	76
374.965	81
375.191	84
375.416	88
375.642	88
375.868	79
376.094	82
376.319	78
376.545	86
376.771	86
376.997	77
377.222	77
377.448	71
377.674	85
377.899	89
378.125	79
378.35	91
378.576	77
378.802	91
379.027	89
379.253	81
379.478	102
379.704	90
379.929	74
380.155	68
380.38	80
380.606	96
380.831	101
381.057	92
381.282	89
381.507	77
381.733	85
381.958	68
382.184	71
382.409	76
382.634	87
382.86	83
383.085	65
383.31	82
383.535	89
383.761	87
383.986	77
384.211	95
384.436	82
384.662	75
384.887	82
385.112	86
385.337	75
385.562	82
385.787	88
386.013	91
386.238	81
386.463	83
386.688	102
386.913	92
387.138	71
387.363	76
387.588	97
387.813	88
388.038	84
388.263	78
388.488	94
388.713	67
388.938	96
389.163	70
389.387	87
389.612	97
389.837	68
390.062	79
390.287	90
390.512	77
390.736	68
390.961	79
391.186	71
391.411	75
391.636	82
391.86	80
392.085	90
392.31	76
392.534	68
392.759	86
392.984	85
393.208	85
393.433	88
393.658	78
393.882	76
394.107	82
394.331	73
394.556	73
394.78	95
395.005	86
395.229	88
395.454	72
395.678	88
395.903	76
396.127	77
396.352	88
396.576	89
396.801	88
397.025	83
397.249	90
397.474	81
397.698	82
397.922	89
398.147	80
398.371	76
398.595	83
398.82	73
399.044	66
399.268	83
399.492	78
399.717	89
399.941	89
400.165	81
400.389	77
400.613	89
400.837	74
401.062	83
401.286	75
401.51	80
401.734	85
401.958	111
402.182	97
402.406	100
402.63	101
402.854	71
403.078	87
403.302	85
403.526	87
403.75	77
403.974	88
404.198	88
404.422	90
404.645	97
404.869	91
405.093	111
405.317	125
405.541	199
405.765	322
405.988	335
406.212	185
406.436	146
406.66	85
406.883	66
407.107	88
407.331	83
407.555	74
407.778	80
408.002	82
408.226	86
408.449	88
408.673	70
408.896	73
409.12	79
409.344	91
409.567	100
409.791	84
410.014	78
410.238	72
410.461	87
410.685	85
410.908	93
411.132	80
411.355	77
411.578	86
411.802	102
412.025	81
412.249	72
412.472	80
412.695	76
412.919	78
413.142	68
413.365	78
413.589	85
413.812	88
414.035	91
414.258	76
414.482	79
414.705	61
414.928	79
415.151	92
415.374	94
415.597	77
415.821	65
416.044	80
416.267	88
416.49	83
416.713	84
416.936	93
417.159	90
417.382	88
417.605	86
417.828	86
418.051	82
418.274	74
418.497	85
418.72	87
418.943	82
419.166	81
419.389	89
419.611	86
419.834	88
420.057	84
420.28	81
420.503	72
420.726	88
420.948	84
421.171	83
421.394	92
421.617	80
421.839	86
422.062	87
422.285	90
422.507	80
422.73	76
422.953	91
423.175	79
423.398	86
423.621	103
423.843	86
424.066	75
424.288	88
424.511	71
424.733	81
424.956	94
425.178	79
425.401	74
425.623	81
425.846	85
426.068	82
426.291	89
426.513	84
426.735	83
426.958	89
427.18	80
427.402	93
427.625	81
427.847	82
428.069	81
428.292	79
428.514	88
428.736	82
428.958	75
429.181	83
429.403	86
429.625	91
429.847	95
430.069	87
430.292	84
430.514	88
430.736	83
430.958	89
431.18	90
431.402	83
431.624	95
431.846	81
432.068	87
432.29	75
432.512	92
432.734	76
432.956	85
433.178	99
433.4	91
433.622	99
433.844	84
434.066	75
434.287	91
434.509	85
434.731	72
434.953	81
435.175	77
435.397	81
435.618	90
435.84	72
436.062	90
436.284	80
436.505	90
436.727	97
436.949	90
437.17	72
437.392	86
437.614	79
437.835	81
438.057	68
438.278	73
438.5	85
438.721	81
438.943	77
439.165	81
439.386	78
439.608	87
439.829	83
440.05	83
440.272	77
440.493	95
440.715	76
440.936	74
441.158	84
441.379	85
441.6	88
441.822	83
442.043	75
442.264	79
442.486	77
442.707	79
442.928	77
443.149	87
443.371	85
443.592	91
443.813	77
444.034	91
444.255	95
444.476	84
444.698	91
444.919	87
445.14	153
445.361	117
445.582	90
445.803	87
446.024	87
446.245	84
446.466	90
446.687	94
446.908	94
447.129	83
447.35	76
447.571	86
447.792	82
448.013	83
448.234	82
448.455	75
448.675	87
448.896	98
449.117	84
449.338	86
449.559	88
449.779	82
450	75
450.221	79
450.442	87
450.662	76
450.883	97
451.104	80
451.324	70
451.545	67
451.766	78
451.986	71
452.207	76
452.428	89
452.648	85
452.869	93
453.089	94
453.31	83
453.53	85
453.751	73
453.971	91
454.192	99
454.412	83
454.633	85
454.853	94
455.073	85
455.294	91
455.514	85
455.734	85
455.955	93
456.175	77
456.395	79
456.616	78
456.836	82
457.056	96
457.276	87
457.497	65
457.717	77
457.937	83
458.157	81
458.377	75
458.598	80
458.818	80
459.038	70
459.258	81
459.478	83
459.698	76
459.918	84
460.138	67
460.358	77
460.578	79
460.798	75
461.018	71
461.238	69
461.458	86
461.678	92
461.898	73
462.118	76
462.338	75
462.558	81
462.777	81
462.997	76
463.217	86
463.437	78
463.657	77
463.876	78
464.096	78
464.316	81
464.536	85
464.755	101
464.975	84
465.195	81
465.414	86
465.634	78
465.854	83
466.073	87
466.293	89
466.512	67
466.732	81
466.951	96
467.171	83
467.391	79
467.61	84
467.829	75
468.049	78
468.268	67
468.488	82
468.707	90
468.927	89
469.146	91
469.365	77
469.585	84
469.804	89
470.023	74
470.243	83
470.462	78
470.681	80
470.901	78
471.12	76
471.339	74
471.558	79
471.777	89
471.997	81
472.216	81
472.435	70
472.654	79
472.873	93
473.092	91
473.311	80
473.53	87
473.749	81
473.968	75
474.187	88
474.406	74
474.625	93
474.844	85
475.063	76
475.282	79
475.501	85
475.72	86
475.939	95
476.158	85
476.377	76
476.596	91
476.814	75
477.033	70
477.252	80
477.471	84
477.69	80
477.908	83
478.127	68
478.346	89
478.564	86
478.783	87
479.002	100
479.22	91
479.439	96
479.658	89
479.876	93
480.095	75
480.313	93
480.532	94
480.751	94
480.969	74
481.188	92
481.406	89
481.624	96
481.843	73
482.061	83
482.28	76
482.498	88
482.717	93
482.935	80
483.153	59
483.372	82
483.59	88
483.808	78
484.027	82
484.245	79
484.463	87
484.681	81
484.9	74
485.118	86
485.336	73
485.554	84
485.772	87
485.99	91
486.209	84
486.427	82
486.645	92
486.863	81
487.081	79
487.299	75
487.517	83
487.735	102
487.953	91
488.171	105
488.389	80
488.607	75
488.825	74
489.043	88
489.261	95
489.479	80
489.696	81
489.914	69
490.132	94
490.35	96
490.568	84
490.786	86
491.003	93
491.221	78
491.439	88
491.657	89
491.874	88
492.092	103
492.31	93
492.527	71
492.745	81
492.963	82
493.18	94
493.398	78
493.615	83
493.833	93
494.05	65
494.268	80
494.485	82
494.703	76
494.92	75
495.138	79
495.355	82
495.573	85
495.79	85
496.008	85
496.225	81
496.442	91
496.66	84
496.877	91
497.094	91
497.312	93
497.529	80
497.746	97
497.963	76
498.181	107
498.398	77
498.615	79
498.832	75
499.049	83
499.267	75
499.484	75
499.701	89
499.918	80
500.135	89
500.352	93
500.569	111
500.786	136
501.003	91
501.22	77
501.437	97
501.654	95
501.871	90
502.088	90
502.305	92
502.522	77
502.739	93
502.956	85
503.172	87
503.389	78
503.606	88
503.823	101
504.04	87
504.256	99
504.473	94
504.69	85
504.907	93
505.123	95
505.34	82
505.557	76
505.773	92
505.99	80
506.207	69
506.423	94
506.64	77
506.856	87
507.073	90
507.289	90
507.506	84
507.722	101
507.939	89
508.155	95
508.372	80
508.588	75
508.805	94
509.021	86
509.238	90
509.454	97
509.67	77
509.887	83
510.103	76
510.319	76
510.536	101
510.752	83
510.968	84
511.184	82
511.401	73
511.617	78
511.833	76
512.049	83
512.265	80
512.481	92
512.698	82
512.914	61
513.13	89
513.346	89
513.562	85
513.778	93
513.994	89
514.21	94
514.426	81
514.642	75
514.858	84
515.074	85
515.29	86
515.506	85
515.721	86
515.937	92
516.153	77
516.369	83
516.585	87
516.801	81
517.016	94
517.232	86
517.448	81
517.664	97
517.879	82
518.095	81
518.311	73
518.527	76
518.742	86
518.958	69
519.173	89
519.389	70
519.605	74
519.82	70
520.036	94
520.251	105
520.467	89
520.682	89
520.898	91
521.113	97
521.329	82
521.544	79
521.76	81
521.975	83
522.19	74
522.406	85
522.621	93
522.836	101
523.052	88
523.267	83
523.482	78
523.698	80
523.913	81
524.128	73
524.343	89
524.559	79
524.774	79
524.989	86
525.204	82
525.419	87
525.634	83
525.849	105
526.064	88
526.28	88
526.495	88
526.71	68
526.925	82
527.14	87
527.355	78
527.57	82
527.785	84
527.999	89
528.214	89
528.429	80
528.644	87
528.859	83
529.074	81
529.289	75
529.503	77
529.718	77
529.933	82
530.148	81
530.363	88
530.577	84
530.792	77
531.007	85
531.221	79
531.436	74
531.651	86
531.865	86
532.08	83
532.295	81
532.509	88
532.724	83
532.938	85
533.153	60
533.367	77
533.582	81
533.796	79
534.011	90
534.225	80
534.44	82
534.654	79
534.868	77
535.083	82
535.297	95
535.511	91
535.726	65
535.94	70
536.154	89
536.369	82
536.583	96
536.797	96
537.011	83
537.225	87
537.44	90
537.654	93
537.868	89
538.082	89
538.296	90
538.51	81
538.724	83
538.938	85
539.153	91
539.367	98
539.581	80
539.795	90
540.009	84
540.222	79
540.436	82
540.65	80
540.864	77
541.078	89
541.292	86
541.506	88
541.72	86
541.934	100
542.147	102
542.361	85
542.575	83
542.789	87
543.002	91
543.216	82
543.43	91
543.644	85
543.857	82
544.071	88
544.285	73
544.498	89
544.712	80
544.925	93
545.139	90
545.352	95
545.566	78
545.779	90
545.993	75
546.206	83
546.42	67
546.633	86
546.847	85
547.06	81
547.274	81
547.487	80
547.7	78
547.914	93
548.127	80
548.34	86
548.554	81
548.767	77
548.98	98
549.193	77
549.407	83
549.62	81
549.833	76
550.046	83
550.259	92
550.473	99
550.686	82
550.899	96
551.112	110
551.325	96
551.538	77
551.751	82
551.964	87
552.177	87
552.39	93
552.603	86
552.816	98
553.029	76
553.242	85
553.455	93
553.667	82
553.88	80
554.093	100
554.306	96
554.519	88
554.732	84
554.944	79
555.157	77
555.37	72
555.583	85
555.795	83
556.008	86
556.221	80
556.433	87
556.646	95
556.859	91
557.071	88
557.284	82
557.496	93
557.709	74
557.921	85
558.134	85
558.346	79
558.559	80
558.771	81
558.984	93
559.196	106
559.409	81
559.621	85
559.833	70
560.046	96
560.258	106
560.47	98
560.683	91
560.895	88
561.107	102
561.32	85
561.532	70
561.744	99
561.956	79
562.168	75
562.381	102
562.593	80
562.805	101
563.017	90
563.229	105
563.441	73
563.653	91
563.865	89
564.077	89
564.289	86
564.501	87
564.713	88
564.925	94
565.137	87
565.349	83
565.561	87
565.773	81
565.985	105
566.197	86
566.408	97
566.62	94
566.832	86
567.044	107
567.255	76
567.467	79
567.679	89
567.891	78
568.102	77
568.314	87
568.526	88
568.737	82
568.949	85
569.161	85
569.372	82
569.584	83
569.795	79
570.007	90
570.218	83
570.43	85
570.641	77
570.853	74
571.064	87
571.276	73
571.487	81
571.698	82
571.91	61
572.121	85
572.333	78
572.544	88
572.755	85
572.966	74
573.178	84
573.389	87
573.6	88
573.811	89
574.023	91
574.234	100
574.445	64
574.656	93
574.867	75
575.078	85
575.289	93
575.501	91
575.712	81
575.923	81
576.134	89
576.345	79
576.556	79
576.767	96
576.978	81
577.188	85
577.399	102
577.61	87
577.821	91
578.032	74
578.243	86
578.454	77
578.665	102
578.875	81
579.086	96
579.297	86
579.508	89
579.718	93
579.929	97
580.14	74
580.35	80
580.561	72
580.772	94
580.982	78
581.193	94
581.403	88
581.614	83
581.825	76
582.035	93
582.246	87
582.456	85
582.667	103
582.877	88
583.087	85
583.298	81
583.508	95
583.719	91
583.929	95
584.139	77
584.35	76
584.56	82
584.77	71
584.981	80
585.191	87
585.401	86
585.611	96
585.821	78
586.032	87
586.242	87
586.452	86
586.662	94
586.872	85
587.082	84
587.292	86
587.502	87
587.713	86
587.923	77
588.133	71
588.343	72
588.553	80
588.762	91
588.972	87
589.182	92
589.392	86
589.602	79
589.812	94
