Data from StdB_HRD10591_060.txt Node
Date: Fri May 16 15:25:16 EDT 2025
User: Yrep
Spectrometer: HR+D1059
Trigger mode: 1
Integration Time (sec): 1.000000E-1
Scans to average: 1
Electric dark correction enabled: true
Nonlinearity correction enabled: false
Boxcar width: 0
XAxis mode: Wavelengths
Number of Pixels in Spectrum: 2048
>>>>>Begin Spectral Data<<<<<
223.165	-19.69
223.4	-19.69
223.635	-19.69
223.869	-21.69
224.104	-14.69
224.338	-16.69
224.573	-14.69
224.808	-18.69
225.042	-2.69
225.277	-15.69
225.511	-14.69
225.746	7.31
225.98	9.31
226.215	10.31
226.449	18.31
226.683	26.31
226.918	22.31
227.152	45.31
227.387	10.31
227.621	28.31
227.856	42.31
228.09	59.31
228.324	57.31
228.559	60.31
228.793	47.31
229.027	60.31
229.262	58.31
229.496	69.31
229.73	72.31
229.964	67.31
230.199	71.31
230.433	65.31
230.667	88.31
230.901	85.31
231.136	66.31
231.37	58.31
231.604	73.31
231.838	92.31
232.072	63.31
232.306	73.31
232.541	81.31
232.775	77.31
233.009	80.31
233.243	80.31
233.477	69.31
233.711	81.31
233.945	83.31
234.179	84.31
234.413	81.31
234.647	67.31
234.881	74.31
235.115	78.31
235.349	74.31
235.583	72.31
235.817	87.31
236.051	88.31
236.285	74.31
236.519	90.31
236.753	78.31
236.987	86.31
237.221	71.31
237.455	89.31
237.689	70.31
237.922	82.31
238.156	81.31
238.39	65.31
238.624	59.31
238.858	76.31
239.091	80.31
239.325	79.31
239.559	82.31
239.793	74.31
240.027	76.31
240.26	73.31
240.494	72.31
240.728	72.31
240.961	78.31
241.195	73.31
241.429	70.31
241.662	80.31
241.896	72.31
242.13	85.31
242.363	74.31
242.597	85.31
242.83	69.31
243.064	78.31
243.298	86.31
243.531	81.31
243.765	54.31
243.998	72.31
244.232	70.31
244.465	61.31
244.699	89.31
244.932	74.31
245.166	77.31
245.399	81.31
245.633	74.31
245.866	78.31
246.099	79.31
246.333	71.31
246.566	76.31
246.8	80.31
247.033	76.31
247.266	75.31
247.5	78.31
247.733	71.31
247.966	85.31
248.2	82.31
248.433	91.31
248.666	70.31
248.899	81.31
249.133	62.31
249.366	77.31
249.599	85.31
249.832	58.31
250.066	74.31
250.299	78.31
250.532	82.31
250.765	78.31
250.998	71.31
251.231	67.31
251.465	78.31
251.698	92.31
251.931	85.31
252.164	79.31
252.397	92.31
252.63	84.31
252.863	84.31
253.096	63.31
253.329	76.31
253.562	71.31
253.795	73.31
254.028	93.31
254.261	78.31
254.494	85.31
254.727	92.31
254.96	72.31
255.193	85.31
255.426	71.31
255.659	94.31
255.892	89.31
256.124	80.31
256.357	82.31
256.59	85.31
256.823	80.31
257.056	75.31
257.289	69.31
257.521	90.31
257.754	82.31
257.987	85.31
258.22	85.31
258.452	81.31
258.685	73.31
258.918	72.31
259.151	73.31
259.383	77.31
259.616	84.31
259.849	80.31
260.081	81.31
260.314	85.31
260.547	96.31
260.779	78.31
261.012	74.31
261.244	90.31
261.477	93.31
261.71	104.31
261.942	88.31
262.175	74.31
262.407	81.31
262.64	74.31
262.872	78.31
263.105	82.31
263.337	86.31
263.57	81.31
263.802	89.31
264.035	90.31
264.267	76.31
264.499	101.31
264.732	96.31
264.964	76.31
265.197	74.31
265.429	87.31
265.661	80.31
265.894	81.31
266.126	85.31
266.358	77.31
266.591	72.31
266.823	92.31
267.055	95.31
267.287	74.31
267.52	89.31
267.752	65.31
267.984	68.31
268.216	70.31
268.448	73.31
268.681	70.31
268.913	78.31
269.145	70.31
269.377	66.31
269.609	82.31
269.841	80.31
270.073	86.31
270.306	82.31
270.538	88.31
270.77	95.31
271.002	81.31
271.234	75.31
271.466	84.31
271.698	92.31
271.93	92.31
272.162	71.31
272.394	93.31
272.626	81.31
272.858	71.31
273.09	86.31
273.322	76.31
273.553	78.31
273.785	92.31
274.017	81.31
274.249	75.31
274.481	84.31
274.713	87.31
274.945	93.31
275.176	100.31
275.408	72.31
275.64	87.31
275.872	100.31
276.104	86.31
276.335	79.31
276.567	66.31
276.799	88.31
277.031	88.31
277.262	67.31
277.494	81.31
277.726	77.31
277.957	81.31
278.189	104.31
278.421	86.31
278.652	79.31
278.884	86.31
279.115	84.31
279.347	86.31
279.579	97.31
279.81	97.31
280.042	102.31
280.273	111.31
280.505	110.31
280.736	93.31
280.968	93.31
281.199	71.31
281.431	92.31
281.662	85.31
281.894	71.31
282.125	90.31
282.356	97.31
282.588	105.31
282.819	74.31
283.051	90.31
283.282	106.31
283.513	111.31
283.745	110.31
283.976	92.31
284.207	84.31
284.439	88.31
284.67	94.31
284.901	81.31
285.132	82.31
285.364	78.31
285.595	76.31
285.826	92.31
286.057	78.31
286.288	66.31
286.52	86.31
286.751	86.31
286.982	101.31
287.213	104.31
287.444	93.31
287.675	88.31
287.906	92.31
288.138	88.31
288.369	87.31
288.6	84.31
288.831	80.31
289.062	89.31
289.293	78.31
289.524	76.31
289.755	104.31
289.986	93.31
290.217	84.31
290.448	82.31
290.679	77.31
290.91	82.31
291.141	78.31
291.371	78.31
291.602	86.31
291.833	74.31
292.064	79.31
292.295	65.31
292.526	85.31
292.757	83.31
292.987	96.31
293.218	93.31
293.449	82.31
293.68	87.31
293.91	85.31
294.141	90.31
294.372	82.31
294.603	80.31
294.833	80.31
295.064	86.31
295.295	93.31
295.525	82.31
295.756	88.31
295.987	63.31
296.217	88.31
296.448	89.31
296.679	94.31
296.909	93.31
297.14	88.31
297.37	95.31
297.601	72.31
297.831	88.31
298.062	87.31
298.292	95.31
298.523	90.31
298.753	84.31
298.984	81.31
299.214	73.31
299.445	78.31
299.675	73.31
299.905	88.31
300.136	82.31
300.366	89.31
300.597	67.31
300.827	96.31
301.057	89.31
301.288	65.31
301.518	86.31
301.748	91.31
301.979	95.31
302.209	92.31
302.439	79.31
302.669	80.31
302.9	82.31
303.13	89.31
303.36	93.31
303.59	92.31
303.82	74.31
304.051	82.31
304.281	95.31
304.511	90.31
304.741	85.31
304.971	86.31
305.201	81.31
305.431	86.31
305.661	78.31
305.891	78.31
306.121	95.31
306.352	86.31
306.582	84.31
306.812	90.31
307.042	76.31
307.272	83.31
307.502	81.31
307.731	78.31
307.961	80.31
308.191	78.31
308.421	103.31
308.651	67.31
308.881	78.31
309.111	80.31
309.341	92.31
309.571	82.31
309.8	85.31
310.03	73.31
310.26	66.31
310.49	70.31
310.72	86.31
310.949	79.31
311.179	88.31
311.409	94.31
311.639	95.31
311.868	77.31
312.098	79.31
312.328	75.31
312.557	93.31
312.787	95.31
313.017	80.31
313.246	80.31
313.476	100.31
313.706	85.31
313.935	78.31
314.165	88.31
314.394	78.31
314.624	88.31
314.853	100.31
315.083	86.31
315.312	81.31
315.542	80.31
315.771	72.31
316.001	73.31
316.23	89.31
316.46	84.31
316.689	81.31
316.919	94.31
317.148	90.31
317.377	81.31
317.607	85.31
317.836	90.31
318.065	80.31
318.295	79.31
318.524	77.31
318.753	73.31
318.983	89.31
319.212	84.31
319.441	85.31
319.67	67.31
319.9	85.31
320.129	98.31
320.358	92.31
320.587	84.31
320.816	81.31
321.046	81.31
321.275	91.31
321.504	96.31
321.733	87.31
321.962	92.31
322.191	96.31
322.42	102.31
322.649	80.31
322.878	88.31
323.108	82.31
323.337	88.31
323.566	82.31
323.795	77.31
324.024	85.31
324.253	88.31
324.482	90.31
324.71	87.31
324.939	93.31
325.168	93.31
325.397	86.31
325.626	86.31
325.855	82.31
326.084	80.31
326.313	81.31
326.542	77.31
326.77	93.31
326.999	85.31
327.228	74.31
327.457	83.31
327.686	92.31
327.914	69.31
328.143	84.31
328.372	87.31
328.6	86.31
328.829	91.31
329.058	85.31
329.287	72.31
329.515	78.31
329.744	84.31
329.972	77.31
330.201	89.31
330.43	77.31
330.658	67.31
330.887	78.31
331.115	89.31
331.344	79.31
331.572	85.31
331.801	89.31
332.03	89.31
332.258	87.31
332.486	82.31
332.715	92.31
332.943	101.31
333.172	88.31
333.4	86.31
333.629	86.31
333.857	71.31
334.085	86.31
334.314	72.31
334.542	92.31
334.771	72.31
334.999	76.31
335.227	80.31
335.455	84.31
335.684	81.31
335.912	89.31
336.14	81.31
336.369	69.31
336.597	85.31
336.825	74.31
337.053	90.31
337.281	89.31
337.51	81.31
337.738	80.31
337.966	77.31
338.194	73.31
338.422	93.31
338.65	81.31
338.878	91.31
339.106	77.31
339.334	75.31
339.562	89.31
339.79	93.31
340.018	87.31
340.246	84.31
340.474	87.31
340.702	79.31
340.93	74.31
341.158	79.31
341.386	89.31
341.614	81.31
341.842	95.31
342.07	86.31
342.298	88.31
342.526	84.31
342.754	80.31
342.981	91.31
343.209	81.31
343.437	108.31
343.665	81.31
343.893	77.31
344.12	89.31
344.348	79.31
344.576	72.31
344.804	64.31
345.031	72.31
345.259	67.31
345.487	84.31
345.714	78.31
345.942	78.31
346.17	76.31
346.397	91.31
346.625	86.31
346.853	89.31
347.08	84.31
347.308	85.31
347.535	86.31
347.763	74.31
347.99	81.31
348.218	89.31
348.445	77.31
348.673	80.31
348.9	78.31
349.128	75.31
349.355	79.31
349.583	78.31
349.81	76.31
350.037	85.31
350.265	92.31
350.492	65.31
350.72	89.31
350.947	96.31
351.174	83.31
351.402	86.31
351.629	91.31
351.856	93.31
352.083	75.31
352.311	72.31
352.538	76.31
352.765	88.31
352.992	80.31
353.22	84.31
353.447	70.31
353.674	81.31
353.901	94.31
354.128	75.31
354.355	92.31
354.583	90.31
354.81	76.31
355.037	89.31
355.264	80.31
355.491	70.31
355.718	78.31
355.945	90.31
356.172	84.31
356.399	87.31
356.626	81.31
356.853	100.31
357.08	126.31
357.307	140.31
357.534	129.31
357.761	104.31
357.988	84.31
358.215	80.31
358.441	84.31
358.668	66.31
358.895	78.31
359.122	86.31
359.349	79.31
359.576	74.31
359.802	79.31
360.029	82.31
360.256	84.31
360.483	67.31
360.709	62.31
360.936	84.31
361.163	86.31
361.39	74.31
361.616	88.31
361.843	64.31
362.07	84.31
362.296	94.31
362.523	101.31
362.749	85.31
362.976	87.31
363.203	96.31
363.429	97.31
363.656	145.31
363.882	179.31
364.109	186.31
364.335	119.31
364.562	101.31
364.788	90.31
365.015	76.31
365.241	89.31
365.468	91.31
365.694	78.31
365.92	88.31
366.147	76.31
366.373	90.31
366.599	88.31
366.826	100.31
367.052	109.31
367.278	111.31
367.505	94.31
367.731	106.31
367.957	135.31
368.184	188.31
368.41	244.31
368.636	182.31
368.862	119.31
369.089	70.31
369.315	82.31
369.541	79.31
369.767	75.31
369.993	85.31
370.219	79.31
370.445	89.31
370.672	69.31
370.898	95.31
371.124	72.31
371.35	84.31
371.576	86.31
371.802	78.31
372.028	72.31
372.254	85.31
372.48	89.31
372.706	90.31
372.932	85.31
373.158	74.31
373.384	94.31
373.61	97.31
373.835	117.31
374.061	135.31
374.287	122.31
374.513	86.31
374.739	81.31
374.965	83.31
375.191	89.31
375.416	81.31
375.642	87.31
375.868	81.31
376.094	84.31
376.319	89.31
376.545	70.31
376.771	75.31
376.997	78.31
377.222	78.31
377.448	66.31
377.674	75.31
377.899	79.31
378.125	80.31
378.35	96.31
378.576	69.31
378.802	84.31
379.027	87.31
379.253	81.31
379.478	72.31
379.704	73.31
379.929	75.31
380.155	74.31
380.38	87.31
380.606	81.31
380.831	77.31
381.057	87.31
381.282	82.31
381.507	76.31
381.733	89.31
381.958	84.31
382.184	91.31
382.409	73.31
382.634	83.31
382.86	86.31
383.085	92.31
383.31	77.31
383.535	61.31
383.761	92.31
383.986	70.31
384.211	65.31
384.436	76.31
384.662	86.31
384.887	84.31
385.112	92.31
385.337	88.31
385.562	78.31
385.787	76.31
386.013	91.31
386.238	83.31
386.463	86.31
386.688	92.31
386.913	77.31
387.138	78.31
387.363	81.31
387.588	79.31
387.813	81.31
388.038	88.31
388.263	84.31
388.488	82.31
388.713	93.31
388.938	80.31
389.163	74.31
389.387	73.31
389.612	68.31
389.837	80.31
390.062	97.31
390.287	78.31
390.512	95.31
390.736	91.31
390.961	79.31
391.186	84.31
391.411	65.31
391.636	78.31
391.86	75.31
392.085	76.31
392.31	82.31
392.534	69.31
392.759	86.31
392.984	72.31
393.208	100.31
393.433	76.31
393.658	92.31
393.882	73.31
394.107	96.31
394.331	79.31
394.556	84.31
394.78	81.31
395.005	78.31
395.229	73.31
395.454	77.31
395.678	78.31
395.903	102.31
396.127	74.31
396.352	72.31
396.576	80.31
396.801	81.31
397.025	87.31
397.249	93.31
397.474	84.31
397.698	64.31
397.922	92.31
398.147	92.31
398.371	91.31
398.595	84.31
398.82	78.31
399.044	73.31
399.268	72.31
399.492	77.31
399.717	80.31
399.941	74.31
400.165	80.31
400.389	83.31
400.613	80.31
400.837	84.31
401.062	87.31
401.286	103.31
401.51	82.31
401.734	84.31
401.958	96.31
402.182	105.31
402.406	93.31
402.63	80.31
402.854	76.31
403.078	81.31
403.302	81.31
403.526	80.31
403.75	84.31
403.974	74.31
404.198	87.31
404.422	84.31
404.645	90.31
404.869	85.31
405.093	89.31
405.317	110.31
405.541	197.31
405.765	336.31
405.988	383.31
406.212	193.31
406.436	159.31
406.66	97.31
406.883	84.31
407.107	83.31
407.331	87.31
407.555	89.31
407.778	85.31
408.002	88.31
408.226	86.31
408.449	80.31
408.673	93.31
408.896	83.31
409.12	86.31
409.344	95.31
409.567	79.31
409.791	98.31
410.014	89.31
410.238	80.31
410.461	86.31
410.685	90.31
410.908	81.31
411.132	86.31
411.355	90.31
411.578	92.31
411.802	89.31
412.025	81.31
412.249	79.31
412.472	71.31
412.695	100.31
412.919	88.31
413.142	67.31
413.365	86.31
413.589	76.31
413.812	79.31
414.035	76.31
414.258	88.31
414.482	82.31
414.705	82.31
414.928	83.31
415.151	80.31
415.374	73.31
415.597	75.31
415.821	91.31
416.044	88.31
416.267	70.31
416.49	85.31
416.713	91.31
416.936	97.31
417.159	88.31
417.382	79.31
417.605	80.31
417.828	85.31
418.051	82.31
418.274	78.31
418.497	94.31
418.72	85.31
418.943	75.31
419.166	79.31
419.389	97.31
419.611	75.31
419.834	78.31
420.057	96.31
420.28	85.31
420.503	70.31
420.726	84.31
420.948	91.31
421.171	79.31
421.394	81.31
421.617	82.31
421.839	75.31
422.062	73.31
422.285	82.31
422.507	83.31
422.73	79.31
422.953	84.31
423.175	54.31
423.398	81.31
423.621	90.31
423.843	87.31
424.066	75.31
424.288	70.31
424.511	76.31
424.733	100.31
424.956	88.31
425.178	78.31
425.401	89.31
425.623	66.31
425.846	62.31
426.068	66.31
426.291	85.31
426.513	79.31
426.735	68.31
426.958	80.31
427.18	78.31
427.402	86.31
427.625	81.31
427.847	76.31
428.069	89.31
428.292	87.31
428.514	76.31
428.736	88.31
428.958	73.31
429.181	85.31
429.403	82.31
429.625	86.31
429.847	81.31
430.069	56.31
430.292	96.31
430.514	87.31
430.736	78.31
430.958	79.31
431.18	84.31
431.402	76.31
431.624	79.31
431.846	81.31
432.068	88.31
432.29	67.31
432.512	78.31
432.734	87.31
432.956	92.31
433.178	77.31
433.4	93.31
433.622	85.31
433.844	77.31
434.066	89.31
434.287	77.31
434.509	81.31
434.731	73.31
434.953	90.31
435.175	94.31
435.397	69.31
435.618	98.31
435.84	92.31
436.062	79.31
436.284	72.31
436.505	87.31
436.727	72.31
436.949	86.31
437.17	93.31
437.392	79.31
437.614	92.31
437.835	83.31
438.057	80.31
438.278	85.31
438.5	87.31
438.721	69.31
438.943	80.31
439.165	68.31
439.386	64.31
439.608	79.31
439.829	84.31
440.05	86.31
440.272	89.31
440.493	101.31
440.715	97.31
440.936	81.31
441.158	93.31
441.379	71.31
441.6	80.31
441.822	88.31
442.043	77.31
442.264	90.31
442.486	78.31
442.707	77.31
442.928	82.31
443.149	82.31
443.371	80.31
443.592	72.31
443.813	80.31
444.034	81.31
444.255	77.31
444.476	78.31
444.698	100.31
444.919	78.31
445.14	160.31
445.361	118.31
445.582	80.31
445.803	80.31
446.024	83.31
446.245	86.31
446.466	97.31
446.687	87.31
446.908	93.31
447.129	93.31
447.35	80.31
447.571	89.31
447.792	90.31
448.013	76.31
448.234	101.31
448.455	74.31
448.675	84.31
448.896	74.31
449.117	84.31
449.338	91.31
449.559	88.31
449.779	84.31
450	75.31
450.221	77.31
450.442	78.31
450.662	78.31
450.883	78.31
451.104	79.31
451.324	81.31
451.545	88.31
451.766	78.31
451.986	77.31
452.207	79.31
452.428	75.31
452.648	90.31
452.869	85.31
453.089	72.31
453.31	81.31
453.53	74.31
453.751	80.31
453.971	94.31
454.192	81.31
454.412	90.31
454.633	95.31
454.853	86.31
455.073	77.31
455.294	72.31
455.514	85.31
455.734	88.31
455.955	80.31
456.175	92.31
456.395	80.31
456.616	72.31
456.836	95.31
457.056	88.31
457.276	78.31
457.497	73.31
457.717	78.31
457.937	80.31
458.157	87.31
458.377	77.31
458.598	66.31
458.818	81.31
459.038	82.31
459.258	93.31
459.478	85.31
459.698	85.31
459.918	90.31
460.138	97.31
460.358	84.31
460.578	70.31
460.798	88.31
461.018	75.31
461.238	78.31
461.458	79.31
461.678	96.31
461.898	86.31
462.118	98.31
462.338	84.31
462.558	76.31
462.777	83.31
462.997	83.31
463.217	87.31
463.437	78.31
463.657	76.31
463.876	81.31
464.096	67.31
464.316	76.31
464.536	74.31
464.755	86.31
464.975	95.31
465.195	90.31
465.414	97.31
465.634	81.31
465.854	86.31
466.073	76.31
466.293	83.31
466.512	79.31
466.732	77.31
466.951	78.31
467.171	94.31
467.391	91.31
467.61	76.31
467.829	76.31
468.049	70.31
468.268	84.31
468.488	70.31
468.707	76.31
468.927	85.31
469.146	89.31
469.365	80.31
469.585	93.31
469.804	92.31
470.023	73.31
470.243	80.31
470.462	95.31
470.681	81.31
470.901	86.31
471.12	65.31
471.339	63.31
471.558	86.31
471.777	76.31
471.997	77.31
472.216	83.31
472.435	77.31
472.654	83.31
472.873	81.31
473.092	92.31
473.311	73.31
473.53	92.31
473.749	84.31
473.968	80.31
474.187	76.31
474.406	77.31
474.625	72.31
474.844	74.31
475.063	76.31
475.282	86.31
475.501	89.31
475.72	84.31
475.939	76.31
476.158	70.31
476.377	76.31
476.596	82.31
476.814	82.31
477.033	74.31
477.252	74.31
477.471	75.31
477.69	95.31
477.908	72.31
478.127	86.31
478.346	91.31
478.564	84.31
478.783	86.31
479.002	85.31
479.22	83.31
479.439	81.31
479.658	74.31
479.876	71.31
480.095	88.31
480.313	88.31
480.532	97.31
480.751	86.31
480.969	80.31
481.188	76.31
481.406	78.31
481.624	80.31
481.843	82.31
482.061	92.31
482.28	79.31
482.498	75.31
482.717	69.31
482.935	98.31
483.153	87.31
483.372	81.31
483.59	82.31
483.808	78.31
484.027	82.31
484.245	93.31
484.463	84.31
484.681	74.31
484.9	81.31
485.118	65.31
485.336	94.31
485.554	91.31
485.772	78.31
485.99	86.31
486.209	73.31
486.427	72.31
486.645	84.31
486.863	96.31
487.081	78.31
487.299	73.31
487.517	71.31
487.735	80.31
487.953	72.31
488.171	71.31
488.389	83.31
488.607	92.31
488.825	94.31
489.043	85.31
489.261	93.31
489.479	96.31
489.696	82.31
489.914	63.31
490.132	86.31
490.35	87.31
490.568	87.31
490.786	81.31
491.003	77.31
491.221	77.31
491.439	87.31
491.657	94.31
491.874	85.31
492.092	83.31
492.31	87.31
492.527	79.31
492.745	74.31
492.963	75.31
493.18	81.31
493.398	78.31
493.615	76.31
493.833	102.31
494.05	81.31
494.268	72.31
494.485	83.31
494.703	87.31
494.92	86.31
495.138	73.31
495.355	88.31
495.573	96.31
495.79	79.31
496.008	102.31
496.225	85.31
496.442	100.31
496.66	93.31
496.877	72.31
497.094	89.31
497.312	79.31
497.529	65.31
497.746	86.31
497.963	78.31
498.181	88.31
498.398	92.31
498.615	88.31
498.832	67.31
499.049	92.31
499.267	96.31
499.484	94.31
499.701	82.31
499.918	80.31
500.135	84.31
500.352	86.31
500.569	118.31
500.786	137.31
501.003	95.31
501.22	78.31
501.437	72.31
501.654	100.31
501.871	80.31
502.088	72.31
502.305	75.31
502.522	81.31
502.739	92.31
502.956	80.31
503.172	89.31
503.389	79.31
503.606	72.31
503.823	80.31
504.04	79.31
504.256	86.31
504.473	78.31
504.69	80.31
504.907	102.31
505.123	90.31
505.34	84.31
505.557	84.31
505.773	86.31
505.99	95.31
506.207	94.31
506.423	74.31
506.64	74.31
506.856	81.31
507.073	82.31
507.289	84.31
507.506	78.31
507.722	87.31
507.939	86.31
508.155	84.31
508.372	74.31
508.588	88.31
508.805	81.31
509.021	86.31
509.238	88.31
509.454	88.31
509.67	89.31
509.887	80.31
510.103	82.31
510.319	77.31
510.536	89.31
510.752	85.31
510.968	70.31
511.184	85.31
511.401	89.31
511.617	74.31
511.833	85.31
512.049	87.31
512.265	83.31
512.481	77.31
512.698	84.31
512.914	80.31
513.13	92.31
513.346	79.31
513.562	67.31
513.778	89.31
513.994	95.31
514.21	80.31
514.426	85.31
514.642	91.31
514.858	101.31
515.074	80.31
515.29	76.31
515.506	82.31
515.721	100.31
515.937	74.31
516.153	92.31
516.369	94.31
516.585	73.31
516.801	88.31
517.016	84.31
517.232	91.31
517.448	95.31
517.664	88.31
517.879	82.31
518.095	81.31
518.311	81.31
518.527	88.31
518.742	87.31
518.958	91.31
519.173	90.31
519.389	82.31
