Data from StdB_HRD10591_078.txt Node
Date: Fri May 16 15:25:25 EDT 2025
User: Yrep
Spectrometer: HR+D1059
Trigger mode: 1
Integration Time (sec): 1.000000E-1
Scans to average: 1
Electric dark correction enabled: true
Nonlinearity correction enabled: false
Boxcar width: 0
XAxis mode: Wavelengths
Number of Pixels in Spectrum: 2048
>>>>>Begin Spectral Data<<<<<
223.165	-15.06
223.4	-15.06
223.635	-15.06
223.869	-19.06
224.104	-18.06
224.338	-13.06
224.573	-26.06
224.808	-5.06
225.042	-12.06
225.277	1.94
225.511	-5.06
225.746	10.94
225.98	1.94
226.215	7.94
226.449	5.94
226.683	21.94
226.918	33.94
227.152	28.94
227.387	37.94
227.621	45.94
227.856	49.94
228.09	28.94
228.324	41.94
228.559	44.94
228.793	57.94
229.027	67.94
229.262	59.94
229.496	59.94
229.73	69.94
229.964	80.94
230.199	70.94
230.433	75.94
230.667	67.94
230.901	74.94
231.136	60.94
231.37	81.94
231.604	76.94
231.838	83.94
232.072	80.94
232.306	75.94
232.541	75.94
232.775	77.94
233.009	76.94
233.243	94.94
233.477	71.94
233.711	86.94
233.945	94.94
234.179	81.94
234.413	75.94
234.647	77.94
234.881	75.94
235.115	76.94
235.349	68.94
235.583	84.94
235.817	73.94
236.051	79.94
236.285	70.94
236.519	78.94
236.753	74.94
236.987	75.94
237.221	73.94
237.455	82.94
237.689	69.94
237.922	60.94
238.156	79.94
238.39	79.94
238.624	79.94
238.858	88.94
239.091	65.94
239.325	61.94
239.559	67.94
239.793	83.94
240.027	71.94
240.26	81.94
240.494	96.94
240.728	67.94
240.961	61.94
241.195	78.94
241.429	53.94
241.662	65.94
241.896	70.94
242.13	67.94
242.363	72.94
242.597	65.94
242.83	85.94
243.064	72.94
243.298	86.94
243.531	86.94
243.765	66.94
243.998	77.94
244.232	65.94
244.465	78.94
244.699	71.94
244.932	67.94
245.166	64.94
245.399	75.94
245.633	78.94
245.866	71.94
246.099	83.94
246.333	77.94
246.566	73.94
246.8	72.94
247.033	54.94
247.266	80.94
247.5	71.94
247.733	71.94
247.966	78.94
248.2	73.94
248.433	64.94
248.666	52.94
248.899	61.94
249.133	64.94
249.366	71.94
249.599	93.94
249.832	79.94
250.066	75.94
250.299	86.94
250.532	75.94
250.765	76.94
250.998	72.94
251.231	70.94
251.465	74.94
251.698	57.94
251.931	75.94
252.164	89.94
252.397	83.94
252.63	73.94
252.863	79.94
253.096	62.94
253.329	85.94
253.562	83.94
253.795	73.94
254.028	89.94
254.261	77.94
254.494	72.94
254.727	84.94
254.96	73.94
255.193	94.94
255.426	71.94
255.659	66.94
255.892	75.94
256.124	83.94
256.357	84.94
256.59	73.94
256.823	87.94
257.056	88.94
257.289	97.94
257.521	79.94
257.754	80.94
257.987	77.94
258.22	83.94
258.452	84.94
258.685	88.94
258.918	81.94
259.151	70.94
259.383	77.94
259.616	62.94
259.849	71.94
260.081	78.94
260.314	81.94
260.547	73.94
260.779	68.94
261.012	79.94
261.244	70.94
261.477	86.94
261.71	93.94
261.942	84.94
262.175	69.94
262.407	78.94
262.64	71.94
262.872	92.94
263.105	69.94
263.337	70.94
263.57	84.94
263.802	77.94
264.035	90.94
264.267	69.94
264.499	91.94
264.732	72.94
264.964	93.94
265.197	77.94
265.429	90.94
265.661	74.94
265.894	82.94
266.126	74.94
266.358	81.94
266.591	91.94
266.823	81.94
267.055	80.94
267.287	72.94
267.52	75.94
267.752	86.94
267.984	78.94
268.216	71.94
268.448	86.94
268.681	79.94
268.913	91.94
269.145	83.94
269.377	78.94
269.609	81.94
269.841	69.94
270.073	70.94
270.306	75.94
270.538	68.94
270.77	74.94
271.002	85.94
271.234	71.94
271.466	85.94
271.698	72.94
271.93	78.94
272.162	81.94
272.394	74.94
272.626	72.94
272.858	77.94
273.09	78.94
273.322	91.94
273.553	85.94
273.785	76.94
274.017	78.94
274.249	60.94
274.481	81.94
274.713	74.94
274.945	82.94
275.176	76.94
275.408	97.94
275.64	76.94
275.872	80.94
276.104	73.94
276.335	80.94
276.567	67.94
276.799	96.94
277.031	77.94
277.262	81.94
277.494	69.94
277.726	75.94
277.957	75.94
278.189	68.94
278.421	93.94
278.652	97.94
278.884	71.94
279.115	77.94
279.347	79.94
279.579	81.94
279.81	78.94
280.042	93.94
280.273	116.94
280.505	109.94
280.736	92.94
280.968	97.94
281.199	85.94
281.431	85.94
281.662	91.94
281.894	86.94
282.125	98.94
282.356	84.94
282.588	92.94
282.819	71.94
283.051	73.94
283.282	92.94
283.513	94.94
283.745	97.94
283.976	91.94
284.207	77.94
284.439	90.94
284.67	73.94
284.901	84.94
285.132	97.94
285.364	85.94
285.595	101.94
285.826	97.94
286.057	81.94
286.288	66.94
286.52	70.94
286.751	70.94
286.982	81.94
287.213	86.94
287.444	99.94
287.675	82.94
287.906	90.94
288.138	84.94
288.369	90.94
288.6	81.94
288.831	85.94
289.062	78.94
289.293	79.94
289.524	66.94
289.755	81.94
289.986	70.94
290.217	96.94
290.448	71.94
290.679	76.94
290.91	74.94
291.141	85.94
291.371	77.94
291.602	80.94
291.833	77.94
292.064	75.94
292.295	84.94
292.526	85.94
292.757	78.94
292.987	80.94
293.218	81.94
293.449	70.94
293.68	87.94
293.91	76.94
294.141	85.94
294.372	85.94
294.603	70.94
294.833	77.94
295.064	74.94
295.295	88.94
295.525	95.94
295.756	75.94
295.987	77.94
296.217	67.94
296.448	93.94
296.679	78.94
296.909	73.94
297.14	79.94
297.37	86.94
297.601	86.94
297.831	81.94
298.062	71.94
298.292	71.94
298.523	79.94
298.753	81.94
298.984	90.94
299.214	81.94
299.445	87.94
299.675	76.94
299.905	91.94
300.136	77.94
300.366	79.94
300.597	90.94
300.827	75.94
301.057	60.94
301.288	83.94
301.518	81.94
301.748	82.94
301.979	94.94
302.209	82.94
302.439	84.94
302.669	83.94
302.9	88.94
303.13	84.94
303.36	83.94
303.59	87.94
303.82	71.94
304.051	75.94
304.281	84.94
304.511	88.94
304.741	101.94
304.971	84.94
305.201	77.94
305.431	75.94
305.661	77.94
305.891	87.94
306.121	74.94
306.352	84.94
306.582	89.94
306.812	85.94
307.042	82.94
307.272	84.94
307.502	77.94
307.731	82.94
307.961	81.94
308.191	78.94
308.421	93.94
308.651	88.94
308.881	87.94
309.111	94.94
309.341	100.94
309.571	69.94
309.8	89.94
310.03	70.94
310.26	78.94
310.49	96.94
310.72	85.94
310.949	92.94
311.179	72.94
311.409	73.94
311.639	88.94
311.868	74.94
312.098	82.94
312.328	90.94
312.557	70.94
312.787	77.94
313.017	79.94
313.246	75.94
313.476	81.94
313.706	84.94
313.935	73.94
314.165	84.94
314.394	89.94
314.624	81.94
314.853	94.94
315.083	80.94
315.312	70.94
315.542	76.94
315.771	87.94
316.001	65.94
316.23	83.94
316.46	101.94
316.689	65.94
316.919	88.94
317.148	82.94
317.377	69.94
317.607	77.94
317.836	84.94
318.065	84.94
318.295	70.94
318.524	78.94
318.753	83.94
318.983	95.94
319.212	73.94
319.441	79.94
319.67	88.94
319.9	88.94
320.129	70.94
320.358	69.94
320.587	90.94
320.816	79.94
321.046	82.94
321.275	77.94
321.504	88.94
321.733	72.94
321.962	78.94
322.191	85.94
322.42	89.94
322.649	85.94
322.878	73.94
323.108	88.94
323.337	97.94
323.566	91.94
323.795	88.94
324.024	86.94
324.253	84.94
324.482	71.94
324.71	79.94
324.939	76.94
325.168	90.94
325.397	81.94
325.626	81.94
325.855	81.94
326.084	88.94
326.313	75.94
326.542	70.94
326.77	74.94
326.999	77.94
327.228	81.94
327.457	77.94
327.686	79.94
327.914	81.94
328.143	90.94
328.372	82.94
328.6	83.94
328.829	84.94
329.058	79.94
329.287	80.94
329.515	86.94
329.744	92.94
329.972	79.94
330.201	81.94
330.43	87.94
330.658	76.94
330.887	67.94
331.115	67.94
331.344	74.94
331.572	83.94
331.801	84.94
332.03	86.94
332.258	88.94
332.486	77.94
332.715	75.94
332.943	91.94
333.172	86.94
333.4	79.94
333.629	79.94
333.857	89.94
334.085	79.94
334.314	79.94
334.542	86.94
334.771	83.94
334.999	85.94
335.227	67.94
335.455	69.94
335.684	82.94
335.912	77.94
336.14	81.94
336.369	70.94
336.597	75.94
336.825	97.94
337.053	71.94
337.281	65.94
337.51	81.94
337.738	82.94
337.966	79.94
338.194	79.94
338.422	89.94
338.65	77.94
338.878	74.94
339.106	63.94
339.334	97.94
339.562	74.94
339.79	75.94
340.018	73.94
340.246	77.94
340.474	78.94
340.702	85.94
340.93	73.94
341.158	76.94
341.386	70.94
341.614	82.94
341.842	79.94
342.07	80.94
342.298	83.94
342.526	74.94
342.754	66.94
342.981	83.94
343.209	75.94
343.437	89.94
343.665	75.94
343.893	70.94
344.12	88.94
344.348	90.94
344.576	70.94
344.804	102.94
345.031	92.94
345.259	89.94
345.487	82.94
345.714	68.94
345.942	73.94
346.17	91.94
346.397	75.94
346.625	80.94
346.853	87.94
347.08	72.94
347.308	80.94
347.535	95.94
347.763	79.94
347.99	88.94
348.218	73.94
348.445	61.94
348.673	79.94
348.9	85.94
349.128	74.94
349.355	92.94
349.583	79.94
349.81	80.94
350.037	70.94
350.265	76.94
350.492	89.94
350.72	87.94
350.947	77.94
351.174	65.94
351.402	70.94
351.629	76.94
351.856	83.94
352.083	87.94
352.311	72.94
352.538	77.94
352.765	82.94
352.992	88.94
353.22	77.94
353.447	78.94
353.674	82.94
353.901	75.94
354.128	71.94
354.355	78.94
354.583	85.94
354.81	82.94
355.037	82.94
355.264	83.94
355.491	75.94
355.718	86.94
355.945	84.94
356.172	83.94
356.399	75.94
356.626	92.94
356.853	103.94
357.08	104.94
357.307	149.94
357.534	111.94
357.761	97.94
357.988	91.94
358.215	76.94
358.441	75.94
358.668	83.94
358.895	71.94
359.122	83.94
359.349	83.94
359.576	62.94
359.802	73.94
360.029	79.94
360.256	65.94
360.483	77.94
360.709	76.94
360.936	68.94
361.163	78.94
361.39	86.94
361.616	87.94
361.843	83.94
362.07	86.94
362.296	90.94
362.523	92.94
362.749	74.94
362.976	77.94
363.203	97.94
363.429	99.94
363.656	131.94
363.882	139.94
364.109	171.94
364.335	102.94
364.562	84.94
364.788	87.94
365.015	84.94
365.241	92.94
365.468	84.94
365.694	70.94
365.92	80.94
366.147	80.94
366.373	73.94
366.599	73.94
366.826	98.94
367.052	101.94
367.278	117.94
367.505	86.94
367.731	98.94
367.957	113.94
368.184	169.94
368.41	210.94
368.636	162.94
368.862	105.94
369.089	82.94
369.315	92.94
369.541	82.94
369.767	79.94
369.993	77.94
370.219	77.94
370.445	83.94
370.672	89.94
370.898	86.94
371.124	82.94
371.35	79.94
371.576	74.94
371.802	88.94
372.028	89.94
372.254	83.94
372.48	83.94
372.706	79.94
372.932	77.94
373.158	79.94
373.384	84.94
373.61	83.94
373.835	116.94
374.061	141.94
374.287	102.94
374.513	94.94
374.739	82.94
374.965	98.94
375.191	89.94
375.416	77.94
375.642	85.94
375.868	88.94
376.094	75.94
376.319	74.94
376.545	85.94
376.771	81.94
376.997	70.94
377.222	85.94
377.448	81.94
377.674	84.94
377.899	70.94
378.125	86.94
378.35	88.94
378.576	88.94
378.802	87.94
379.027	79.94
379.253	72.94
379.478	76.94
379.704	81.94
379.929	79.94
380.155	88.94
380.38	88.94
380.606	86.94
380.831	82.94
381.057	83.94
381.282	70.94
381.507	77.94
381.733	89.94
381.958	84.94
382.184	76.94
382.409	76.94
382.634	90.94
382.86	60.94
383.085	91.94
383.31	85.94
383.535	69.94
383.761	74.94
383.986	68.94
384.211	75.94
384.436	80.94
384.662	69.94
384.887	71.94
385.112	90.94
385.337	82.94
385.562	76.94
385.787	90.94
386.013	79.94
386.238	75.94
386.463	84.94
386.688	88.94
386.913	80.94
387.138	91.94
387.363	85.94
387.588	75.94
387.813	86.94
388.038	82.94
388.263	85.94
388.488	64.94
388.713	77.94
388.938	76.94
389.163	96.94
389.387	71.94
389.612	87.94
389.837	76.94
390.062	73.94
390.287	76.94
390.512	75.94
390.736	78.94
390.961	78.94
391.186	90.94
391.411	90.94
391.636	69.94
391.86	65.94
392.085	71.94
392.31	81.94
392.534	72.94
392.759	83.94
392.984	79.94
393.208	75.94
393.433	57.94
393.658	80.94
393.882	83.94
394.107	89.94
394.331	69.94
394.556	85.94
394.78	77.94
395.005	85.94
395.229	80.94
395.454	85.94
395.678	69.94
395.903	69.94
396.127	64.94
396.352	87.94
396.576	82.94
396.801	63.94
397.025	63.94
397.249	74.94
397.474	87.94
397.698	80.94
397.922	76.94
398.147	74.94
398.371	77.94
398.595	61.94
398.82	76.94
399.044	87.94
399.268	73.94
399.492	88.94
399.717	67.94
399.941	69.94
400.165	73.94
400.389	81.94
400.613	79.94
400.837	78.94
401.062	84.94
401.286	77.94
401.51	75.94
401.734	86.94
401.958	102.94
402.182	83.94
402.406	78.94
402.63	96.94
402.854	82.94
403.078	80.94
403.302	71.94
403.526	77.94
403.75	85.94
403.974	89.94
404.198	81.94
404.422	73.94
404.645	81.94
404.869	87.94
405.093	98.94
405.317	120.94
405.541	178.94
405.765	310.94
405.988	350.94
406.212	176.94
406.436	130.94
406.66	101.94
406.883	89.94
407.107	84.94
407.331	86.94
407.555	87.94
407.778	77.94
408.002	81.94
408.226	93.94
408.449	76.94
408.673	89.94
408.896	80.94
409.12	76.94
409.344	85.94
409.567	63.94
409.791	77.94
410.014	82.94
410.238	77.94
410.461	78.94
410.685	72.94
410.908	78.94
411.132	78.94
411.355	70.94
411.578	90.94
411.802	74.94
412.025	72.94
412.249	88.94
412.472	71.94
412.695	72.94
412.919	77.94
413.142	89.94
413.365	83.94
413.589	78.94
413.812	80.94
414.035	91.94
414.258	72.94
414.482	81.94
414.705	93.94
414.928	80.94
415.151	71.94
415.374	78.94
415.597	80.94
415.821	75.94
416.044	81.94
416.267	86.94
416.49	73.94
416.713	94.94
416.936	85.94
417.159	93.94
417.382	78.94
417.605	81.94
417.828	79.94
418.051	74.94
418.274	78.94
418.497	92.94
418.72	77.94
418.943	76.94
419.166	84.94
419.389	79.94
419.611	79.94
419.834	71.94
420.057	76.94
420.28	79.94
420.503	81.94
420.726	83.94
420.948	71.94
421.171	75.94
421.394	89.94
421.617	68.94
421.839	63.94
422.062	69.94
422.285	75.94
422.507	76.94
422.73	63.94
422.953	81.94
423.175	87.94
423.398	81.94
423.621	85.94
423.843	82.94
424.066	81.94
424.288	72.94
424.511	69.94
424.733	74.94
424.956	89.94
425.178	88.94
425.401	81.94
425.623	78.94
425.846	77.94
426.068	90.94
426.291	85.94
426.513	65.94
426.735	83.94
426.958	89.94
427.18	73.94
427.402	82.94
427.625	81.94
427.847	72.94
428.069	82.94
428.292	86.94
428.514	82.94
428.736	77.94
428.958	74.94
429.181	83.94
429.403	78.94
429.625	66.94
429.847	72.94
430.069	77.94
430.292	90.94
430.514	83.94
430.736	70.94
430.958	70.94
431.18	67.94
431.402	88.94
431.624	73.94
431.846	83.94
432.068	62.94
432.29	70.94
432.512	81.94
432.734	78.94
432.956	79.94
433.178	81.94
433.4	76.94
433.622	89.94
433.844	73.94
434.066	72.94
434.287	71.94
434.509	73.94
434.731	85.94
434.953	87.94
435.175	86.94
435.397	85.94
435.618	87.94
435.84	74.94
436.062	80.94
436.284	78.94
436.505	73.94
436.727	73.94
436.949	81.94
437.17	75.94
437.392	64.94
437.614	79.94
437.835	69.94
438.057	81.94
438.278	73.94
438.5	78.94
438.721	76.94
438.943	73.94
439.165	75.94
439.386	73.94
439.608	89.94
439.829	81.94
440.05	86.94
440.272	84.94
440.493	78.94
440.715	71.94
440.936	84.94
441.158	83.94
441.379	88.94
441.6	85.94
441.822	61.94
442.043	81.94
442.264	77.94
442.486	84.94
442.707	76.94
442.928	82.94
443.149	77.94
443.371	85.94
443.592	74.94
443.813	82.94
444.034	84.94
444.255	96.94
444.476	73.94
444.698	91.94
444.919	79.94
445.14	152.94
445.361	114.94
445.582	86.94
445.803	69.94
446.024	64.94
446.245	78.94
446.466	86.94
446.687	75.94
446.908	82.94
447.129	81.94
447.35	69.94
447.571	94.94
447.792	85.94
448.013	79.94
448.234	68.94
448.455	74.94
448.675	66.94
448.896	84.94
449.117	89.94
449.338	81.94
449.559	85.94
449.779	86.94
450	83.94
450.221	85.94
450.442	85.94
450.662	85.94
450.883	74.94
451.104	81.94
451.324	79.94
451.545	84.94
451.766	75.94
451.986	73.94
452.207	73.94
452.428	74.94
452.648	62.94
452.869	77.94
453.089	69.94
453.31	92.94
453.53	78.94
453.751	79.94
453.971	77.94
454.192	71.94
454.412	91.94
454.633	91.94
454.853	73.94
455.073	83.94
455.294	89.94
455.514	79.94
455.734	75.94
455.955	73.94
456.175	75.94
456.395	72.94
456.616	78.94
456.836	82.94
457.056	79.94
457.276	71.94
457.497	79.94
457.717	80.94
457.937	68.94
458.157	80.94
458.377	85.94
458.598	83.94
458.818	87.94
459.038	80.94
459.258	75.94
459.478	83.94
459.698	70.94
459.918	81.94
460.138	70.94
460.358	89.94
460.578	75.94
460.798	64.94
461.018	91.94
461.238	71.94
461.458	86.94
461.678	57.94
461.898	69.94
462.118	67.94
462.338	78.94
462.558	72.94
462.777	78.94
462.997	73.94
463.217	80.94
463.437	77.94
463.657	70.94
463.876	85.94
464.096	79.94
464.316	74.94
464.536	74.94
464.755	75.94
464.975	83.94
465.195	80.94
465.414	79.94
465.634	66.94
465.854	86.94
466.073	89.94
466.293	84.94
466.512	82.94
466.732	70.94
466.951	75.94
467.171	74.94
467.391	86.94
467.61	72.94
467.829	81.94
468.049	91.94
468.268	90.94
468.488	77.94
468.707	88.94
468.927	81.94
469.146	86.94
469.365	86.94
469.585	72.94
469.804	83.94
470.023	69.94
470.243	77.94
470.462	85.94
470.681	70.94
470.901	84.94
471.12	74.94
471.339	80.94
471.558	72.94
471.777	76.94
471.997	85.94
472.216	86.94
472.435	84.94
472.654	78.94
472.873	82.94
473.092	75.94
473.311	76.94
473.53	86.94
473.749	81.94
473.968	86.94
474.187	87.94
474.406	93.94
474.625	83.94
474.844	74.94
475.063	63.94
475.282	66.94
475.501	70.94
475.72	77.94
475.939	75.94
476.158	64.94
476.377	75.94
476.596	85.94
476.814	77.94
477.033	72.94
477.252	79.94
477.471	75.94
477.69	84.94
477.908	77.94
478.127	103.94
478.346	83.94
478.564	77.94
478.783	84.94
479.002	84.94
479.22	91.94
479.439	67.94
479.658	77.94
479.876	65.94
480.095	91.94
480.313	83.94
480.532	84.94
480.751	79.94
480.969	69.94
481.188	71.94
481.406	81.94
481.624	81.94
481.843	82.94
482.061	75.94
482.28	80.94
482.498	69.94
482.717	84.94
482.935	84.94
483.153	89.94
483.372	81.94
483.59	78.94
483.808	70.94
484.027	91.94
484.245	84.94
484.463	79.94
484.681	85.94
484.9	71.94
485.118	78.94
485.336	79.94
485.554	91.94
485.772	75.94
485.99	98.94
486.209	84.94
486.427	89.94
486.645	85.94
486.863	84.94
487.081	85.94
487.299	71.94
487.517	81.94
487.735	86.94
487.953	77.94
488.171	93.94
488.389	71.94
488.607	76.94
488.825	71.94
489.043	92.94
489.261	83.94
489.479	81.94
489.696	74.94
489.914	76.94
490.132	86.94
490.35	85.94
490.568	75.94
490.786	81.94
491.003	75.94
491.221	82.94
491.439	86.94
491.657	85.94
491.874	90.94
492.092	75.94
492.31	75.94
492.527	98.94
492.745	91.94
492.963	79.94
493.18	90.94
493.398	84.94
493.615	88.94
493.833	77.94
494.05	74.94
494.268	92.94
494.485	75.94
494.703	77.94
494.92	85.94
495.138	84.94
495.355	74.94
495.573	76.94
495.79	89.94
496.008	83.94
496.225	75.94
496.442	90.94
496.66	77.94
496.877	84.94
497.094	89.94
497.312	86.94
497.529	75.94
497.746	89.94
497.963	93.94
498.181	74.94
498.398	79.94
498.615	75.94
498.832	74.94
499.049	77.94
499.267	88.94
499.484	90.94
499.701	85.94
499.918	78.94
500.135	89.94
500.352	85.94
500.569	98.94
500.786	114.94
501.003	79.94
501.22	83.94
501.437	69.94
501.654	75.94
501.871	87.94
502.088	70.94
502.305	90.94
502.522	80.94
502.739	87.94
502.956	80.94
503.172	83.94
503.389	91.94
503.606	87.94
503.823	75.94
504.04	81.94
504.256	84.94
504.473	73.94
504.69	83.94
504.907	83.94
505.123	84.94
505.34	99.94
505.557	83.94
505.773	73.94
505.99	92.94
506.207	83.94
506.423	85.94
506.64	74.94
506.856	74.94
507.073	79.94
507.289	70.94
507.506	82.94
507.722	77.94
507.939	71.94
508.155	81.94
508.372	72.94
508.588	87.94
508.805	94.94
509.021	94.94
509.238	90.94
509.454	76.94
509.67	89.94
509.887	80.94
510.103	80.94
510.319	87.94
510.536	79.94
510.752	85.94
510.968	87.94
511.184	83.94
511.401	92.94
511.617	79.94
511.833	81.94
512.049	82.94
512.265	83.94
512.481	90.94
512.698	86.94
512.914	83.94
513.13	85.94
513.346	89.94
513.562	81.94
513.778	95.94
513.994	76.94
514.21	74.94
514.426	88.94
514.642	80.94
514.858	79.94
515.074	91.94
515.29	87.94
515.506	89.94
515.721	99.94
515.937	78.94
516.153	69.94
516.369	85.94
516.585	75.94
516.801	90.94
517.016	82.94
517.232	84.94
517.448	76.94
517.664	87.94
517.879	94.94
518.095	82.94
518.311	77.94
518.527	83.94
518.742	82.94
518.958	73.94
519.173	74.94
519.389	77.94
519.605	87.94
519.82	81.94
