Data from StdB_HRD10591_028.txt Node
Date: Fri May 16 15:25:00 EDT 2025
User: Yrep
Spectrometer: HR+D1059
Trigger mode: 1
Integration Time (sec): 1.000000E-1
Scans to average: 1
Electric dark correction enabled: true
Nonlinearity correction enabled: false
Boxcar width: 0
XAxis mode: Wavelengths
Number of Pixels in Spectrum: 2048
>>>>>Begin Spectral Data<<<<<
223.165	-17
223.4	-17
223.635	-17
223.869	-21
224.104	-25
224.338	-6
224.573	-25
224.808	-24
225.042	-9
225.277	2
225.511	10
225.746	5
225.98	7
226.215	8
226.449	0
226.683	27
226.918	33
227.152	35
227.387	48
227.621	42
227.856	41
228.09	53
228.324	51
228.559	54
228.793	72
229.027	72
229.262	80
229.496	82
229.73	68
229.964	82
230.199	88
230.433	83
230.667	88
230.901	71
231.136	78
231.37	85
231.604	82
231.838	83
232.072	97
232.306	88
232.541	85
232.775	89
233.009	84
233.243	103
233.477	100
233.711	95
233.945	98
234.179	91
234.413	95
234.647	108
234.881	93
235.115	102
235.349	105
235.583	106
235.817	89
236.051	79
236.285	95
236.519	91
236.753	90
236.987	82
237.221	86
237.455	95
237.689	83
237.922	99
238.156	99
238.39	92
238.624	107
238.858	88
239.091	104
239.325	116
239.559	118
239.793	129
240.027	126
240.26	96
240.494	97
240.728	99
240.961	85
241.195	107
241.429	120
241.662	106
241.896	88
242.13	103
242.363	96
242.597	92
242.83	102
243.064	102
243.298	98
243.531	112
243.765	111
243.998	112
244.232	103
244.465	94
244.699	105
244.932	106
245.166	119
245.399	112
245.633	98
245.866	93
246.099	123
246.333	120
246.566	99
246.8	105
247.033	100
247.266	114
247.5	99
247.733	115
247.966	140
248.2	120
248.433	122
248.666	111
248.899	108
249.133	104
249.366	116
249.599	108
249.832	112
250.066	109
250.299	112
250.532	113
250.765	102
250.998	127
251.231	131
251.465	115
251.698	114
251.931	133
252.164	128
252.397	143
252.63	137
252.863	146
253.096	128
253.329	137
253.562	126
253.795	146
254.028	143
254.261	138
254.494	131
254.727	140
254.96	147
255.193	139
255.426	132
255.659	134
255.892	127
256.124	119
256.357	129
256.59	136
256.823	126
257.056	158
257.289	146
257.521	162
257.754	172
257.987	176
258.22	166
258.452	153
258.685	161
258.918	142
259.151	132
259.383	144
259.616	147
259.849	131
260.081	161
260.314	167
260.547	166
260.779	179
261.012	221
261.244	266
261.477	320
261.71	334
261.942	245
262.175	194
262.407	167
262.64	172
262.872	152
263.105	149
263.337	146
263.57	142
263.802	158
264.035	166
264.267	146
264.499	136
264.732	170
264.964	183
265.197	195
265.429	187
265.661	173
265.894	157
266.126	184
266.358	230
266.591	250
266.823	198
267.055	178
267.287	145
267.52	137
267.752	143
267.984	135
268.216	155
268.448	125
268.681	150
268.913	152
269.145	154
269.377	141
269.609	132
269.841	156
270.073	153
270.306	143
270.538	141
270.77	139
271.002	144
271.234	124
271.466	144
271.698	135
271.93	145
272.162	151
272.394	147
272.626	144
272.858	139
273.09	135
273.322	139
273.553	136
273.785	130
274.017	125
274.249	137
274.481	139
274.713	130
274.945	135
275.176	139
275.408	142
275.64	133
275.872	155
276.104	133
276.335	144
276.567	145
276.799	145
277.031	153
277.262	159
277.494	159
277.726	147
277.957	149
278.189	164
278.421	163
278.652	174
278.884	184
279.115	214
279.347	235
279.579	273
279.81	323
280.042	450
280.273	529
280.505	468
280.736	317
280.968	255
281.199	214
281.431	208
281.662	214
281.894	207
282.125	249
282.356	277
282.588	290
282.819	267
283.051	278
283.282	362
283.513	408
283.745	307
283.976	236
284.207	202
284.439	175
284.67	180
284.901	182
285.132	177
285.364	176
285.595	184
285.826	188
286.057	173
286.288	186
286.52	192
286.751	198
286.982	235
287.213	262
287.444	318
287.675	270
287.906	181
288.138	174
288.369	162
288.6	167
288.831	161
289.062	151
289.293	166
289.524	167
289.755	153
289.986	162
290.217	163
290.448	167
290.679	148
290.91	163
291.141	154
291.371	156
291.602	154
291.833	177
292.064	155
292.295	150
292.526	169
292.757	150
292.987	163
293.218	163
293.449	149
293.68	146
293.91	175
294.141	179
294.372	163
294.603	162
294.833	171
295.064	185
295.295	157
295.525	178
295.756	167
295.987	162
296.217	164
296.448	154
296.679	162
296.909	169
297.14	166
297.37	164
297.601	182
297.831	158
298.062	176
298.292	161
298.523	170
298.753	168
298.984	175
299.214	172
299.445	162
299.675	174
299.905	170
300.136	167
300.366	164
300.597	154
300.827	172
301.057	173
301.288	176
301.518	170
301.748	168
301.979	171
302.209	174
302.439	175
302.669	182
302.9	182
303.13	162
303.36	162
303.59	168
303.82	178
304.051	176
304.281	174
304.511	168
304.741	169
304.971	184
305.201	185
305.431	184
305.661	182
305.891	182
306.121	183
306.352	181
306.582	182
306.812	170
307.042	178
307.272	172
307.502	162
307.731	186
307.961	163
308.191	179
308.421	172
308.651	189
308.881	184
309.111	184
309.341	139
309.571	180
309.8	177
310.03	179
310.26	183
310.49	181
310.72	178
310.949	169
311.179	186
311.409	164
311.639	188
311.868	186
312.098	191
312.328	189
312.557	199
312.787	207
313.017	192
313.246	213
313.476	200
313.706	203
313.935	221
314.165	226
314.394	224
314.624	219
314.853	202
315.083	212
315.312	213
315.542	211
315.771	213
316.001	203
316.23	202
316.46	206
316.689	207
316.919	215
317.148	197
317.377	198
317.607	210
317.836	225
318.065	203
318.295	202
318.524	197
318.753	214
318.983	199
319.212	193
319.441	207
319.67	187
319.9	195
320.129	206
320.358	207
320.587	183
320.816	176
321.046	174
321.275	203
321.504	188
321.733	198
321.962	203
322.191	198
322.42	205
322.649	190
322.878	191
323.108	177
323.337	196
323.566	202
323.795	189
324.024	182
324.253	180
324.482	182
324.71	189
324.939	197
325.168	207
325.397	193
325.626	192
325.855	197
326.084	192
326.313	196
326.542	207
326.77	198
326.999	195
327.228	192
327.457	195
327.686	204
327.914	186
328.143	209
328.372	197
328.6	187
328.829	202
329.058	192
329.287	178
329.515	191
329.744	188
329.972	211
330.201	188
330.43	183
330.658	182
330.887	185
331.115	196
331.344	200
331.572	211
331.801	191
332.03	202
332.258	192
332.486	201
332.715	204
332.943	201
333.172	197
333.4	208
333.629	204
333.857	207
334.085	184
334.314	203
334.542	202
334.771	195
334.999	218
335.227	196
335.455	197
335.684	202
335.912	203
336.14	193
336.369	191
336.597	183
336.825	200
337.053	192
337.281	205
337.51	188
337.738	196
337.966	201
338.194	171
338.422	201
338.65	176
338.878	192
339.106	191
339.334	177
339.562	196
339.79	188
340.018	193
340.246	193
340.474	193
340.702	199
340.93	201
341.158	195
341.386	193
341.614	188
341.842	208
342.07	173
342.298	186
342.526	184
342.754	186
342.981	196
343.209	179
343.437	190
343.665	192
343.893	189
344.12	207
344.348	195
344.576	210
344.804	192
345.031	191
345.259	172
345.487	195
345.714	193
345.942	205
346.17	197
346.397	182
346.625	187
346.853	197
347.08	200
347.308	180
347.535	171
347.763	185
347.99	210
348.218	196
348.445	185
348.673	192
348.9	187
349.128	198
349.355	195
349.583	197
349.81	184
350.037	194
350.265	187
350.492	202
350.72	204
350.947	193
351.174	191
351.402	191
351.629	175
351.856	175
352.083	187
352.311	183
352.538	192
352.765	196
352.992	185
353.22	178
353.447	186
353.674	199
353.901	224
354.128	199
354.355	182
354.583	184
354.81	203
355.037	197
355.264	199
355.491	193
355.718	207
355.945	212
356.172	215
356.399	240
356.626	252
356.853	320
357.08	426
357.307	582
357.534	587
357.761	423
357.988	332
358.215	297
358.441	251
358.668	267
358.895	248
359.122	241
359.349	221
359.576	212
359.802	215
360.029	209
360.256	203
360.483	207
360.709	211
360.936	215
361.163	208
361.39	214
361.616	222
361.843	220
362.07	217
362.296	210
362.523	211
362.749	226
362.976	249
363.203	253
363.429	313
363.656	457
363.882	645
364.109	755
364.335	500
364.562	352
364.788	280
365.015	248
365.241	258
365.468	256
365.694	232
365.92	227
366.147	243
366.373	233
366.599	250
366.826	264
367.052	300
367.278	374
367.505	348
367.731	359
367.957	491
368.184	759
368.41	1056
368.636	886
368.862	537
369.089	394
369.315	321
369.541	272
369.767	250
369.993	243
370.219	234
370.445	225
370.672	244
370.898	238
371.124	234
371.35	230
371.576	228
371.802	238
372.028	225
372.254	223
372.48	226
372.706	258
372.932	233
373.158	241
373.384	279
373.61	338
373.835	488
374.061	641
374.287	574
374.513	385
374.739	306
374.965	277
375.191	259
375.416	249
375.642	239
375.868	225
376.094	216
376.319	215
376.545	224
376.771	211
376.997	208
377.222	206
377.448	202
377.674	206
377.899	227
378.125	202
378.35	222
378.576	232
378.802	247
379.027	225
379.253	224
379.478	209
379.704	210
379.929	217
380.155	193
380.38	196
380.606	208
380.831	212
381.057	195
381.282	206
381.507	216
381.733	192
381.958	222
382.184	208
382.409	185
382.634	210
382.86	215
383.085	208
383.31	216
383.535	207
383.761	205
383.986	224
384.211	220
384.436	222
384.662	225
384.887	220
385.112	225
385.337	222
385.562	217
385.787	215
386.013	218
386.238	232
386.463	217
386.688	235
386.913	224
387.138	214
387.363	203
387.588	212
387.813	218
388.038	222
388.263	201
388.488	219
388.713	220
388.938	221
389.163	225
389.387	210
389.612	201
389.837	217
390.062	223
390.287	196
390.512	201
390.736	201
390.961	220
391.186	213
391.411	208
391.636	211
391.86	208
392.085	225
392.31	215
392.534	215
392.759	220
392.984	225
393.208	214
393.433	242
393.658	237
393.882	209
394.107	222
394.331	211
394.556	227
394.78	218
395.005	223
395.229	203
395.454	226
395.678	214
395.903	213
396.127	218
396.352	223
396.576	224
396.801	214
397.025	218
397.249	213
397.474	226
397.698	218
397.922	225
398.147	224
398.371	226
398.595	242
398.82	237
399.044	255
399.268	241
399.492	271
399.717	274
399.941	257
400.165	288
400.389	246
400.613	264
400.837	225
401.062	267
401.286	262
401.51	256
401.734	286
401.958	320
402.182	315
402.406	272
402.63	234
402.854	251
403.078	257
403.302	257
403.526	257
403.75	279
403.974	282
404.198	264
404.422	296
404.645	318
404.869	336
405.093	376
405.317	480
405.541	841
405.765	1402
405.988	1614
406.212	1029
406.436	691
406.66	494
406.883	397
407.107	362
407.331	360
407.555	329
407.778	303
408.002	294
408.226	296
408.449	275
408.673	262
408.896	264
409.12	265
409.344	252
409.567	251
409.791	256
410.014	270
410.238	255
410.461	256
410.685	255
410.908	258
411.132	261
411.355	242
411.578	244
411.802	253
412.025	244
412.249	255
412.472	236
412.695	231
412.919	249
413.142	247
413.365	240
413.589	225
413.812	237
414.035	244
414.258	237
414.482	225
414.705	234
414.928	248
415.151	243
415.374	232
415.597	242
415.821	239
416.044	248
416.267	233
416.49	254
416.713	272
416.936	259
417.159	258
417.382	235
417.605	236
417.828	235
418.051	251
418.274	237
418.497	237
418.72	244
418.943	248
419.166	232
419.389	250
419.611	252
419.834	244
420.057	245
420.28	248
420.503	244
420.726	243
420.948	258
421.171	244
421.394	244
421.617	246
421.839	250
422.062	266
422.285	266
422.507	287
422.73	280
422.953	316
423.175	303
423.398	304
423.621	322
423.843	363
424.066	415
424.288	507
424.511	643
424.733	701
424.956	605
425.178	503
425.401	454
425.623	394
425.846	367
426.068	351
426.291	319
426.513	313
426.735	310
426.958	291
427.18	287
427.402	289
427.625	274
427.847	273
428.069	257
428.292	269
428.514	263
428.736	271
428.958	260
429.181	235
429.403	252
429.625	246
429.847	248
430.069	247
430.292	238
430.514	245
430.736	255
430.958	223
431.18	259
431.402	242
431.624	222
431.846	236
432.068	247
432.29	252
432.512	240
432.734	239
432.956	235
433.178	257
433.4	257
433.622	263
433.844	252
434.066	288
434.287	266
434.509	260
434.731	274
434.953	260
435.175	248
435.397	271
435.618	251
435.84	270
436.062	255
436.284	275
436.505	281
436.727	268
436.949	275
437.17	281
437.392	272
437.614	311
437.835	316
438.057	335
438.278	374
438.5	473
438.721	592
438.943	621
439.165	559
439.386	479
439.608	432
439.829	401
440.05	377
440.272	360
440.493	369
440.715	412
440.936	444
441.158	413
441.379	377
441.6	365
441.822	347
442.043	321
442.264	310
442.486	282
442.707	286
442.928	300
443.149	277
443.371	279
443.592	275
443.813	257
444.034	272
444.255	238
444.476	265
444.698	280
444.919	264
445.14	320
445.361	292
445.582	250
445.803	258
446.024	249
446.245	269
446.466	230
446.687	253
446.908	222
447.129	241
447.35	227
447.571	235
447.792	254
448.013	234
448.234	235
448.455	218
448.675	246
448.896	233
449.117	226
449.338	221
449.559	218
449.779	222
450	233
450.221	222
450.442	220
450.662	223
450.883	216
451.104	217
451.324	217
451.545	224
451.766	235
451.986	223
452.207	219
452.428	214
452.648	217
452.869	212
453.089	209
453.31	211
453.53	215
453.751	204
453.971	214
454.192	221
454.412	197
454.633	218
454.853	208
455.073	199
455.294	202
455.514	212
455.734	211
455.955	203
456.175	223
456.395	194
456.616	210
456.836	220
457.056	204
457.276	205
457.497	209
457.717	197
457.937	212
458.157	208
458.377	201
458.598	214
458.818	210
459.038	210
459.258	215
459.478	206
459.698	217
459.918	221
460.138	213
460.358	227
460.578	228
460.798	226
461.018	226
461.238	230
461.458	223
461.678	236
461.898	224
462.118	225
462.338	228
462.558	238
462.777	244
462.997	233
463.217	234
463.437	243
463.657	251
463.876	244
464.096	253
464.316	231
464.536	239
464.755	248
464.975	227
465.195	194
465.414	218
465.634	218
465.854	218
466.073	218
466.293	212
466.512	208
466.732	210
466.951	226
467.171	206
467.391	209
467.61	206
467.829	221
468.049	220
468.268	231
468.488	196
468.707	186
468.927	179
469.146	200
469.365	200
469.585	212
469.804	215
470.023	211
470.243	202
470.462	208
470.681	216
470.901	214
471.12	217
471.339	204
471.558	204
471.777	210
471.997	210
472.216	204
472.435	214
472.654	211
472.873	207
473.092	195
473.311	218
473.53	200
473.749	222
473.968	215
474.187	216
474.406	209
474.625	202
474.844	212
475.063	210
475.282	201
475.501	209
475.72	210
475.939	211
476.158	217
476.377	215
476.596	210
476.814	222
477.033	225
477.252	227
477.471	239
477.69	235
477.908	247
478.127	236
478.346	260
478.564	244
478.783	251
479.002	266
479.22	262
479.439	246
479.658	260
479.876	232
480.095	242
480.313	252
480.532	267
480.751	257
480.969	254
481.188	253
481.406	229
481.624	226
481.843	246
482.061	234
482.28	256
482.498	239
482.717	234
482.935	240
483.153	243
483.372	228
483.59	242
483.808	244
484.027	235
484.245	246
484.463	246
484.681	236
484.9	249
485.118	245
485.336	239
485.554	234
485.772	258
485.99	234
486.209	255
486.427	255
486.645	246
486.863	245
487.081	247
487.299	238
487.517	233
487.735	243
487.953	244
488.171	255
488.389	258
488.607	238
488.825	241
489.043	248
489.261	235
489.479	253
489.696	259
489.914	254
490.132	249
490.35	248
490.568	234
490.786	248
491.003	237
491.221	262
491.439	251
491.657	267
491.874	247
492.092	251
492.31	256
492.527	251
492.745	227
492.963	255
493.18	264
493.398	248
493.615	257
493.833	257
494.05	260
494.268	256
494.485	263
494.703	251
494.92	266
495.138	250
495.355	275
495.573	299
495.79	282
496.008	282
496.225	268
496.442	270
496.66	269
496.877	273
497.094	273
497.312	274
497.529	282
497.746	285
497.963	272
498.181	292
498.398	274
498.615	301
498.832	294
499.049	322
499.267	320
499.484	348
499.701	343
499.918	363
500.135	383
500.352	408
500.569	476
500.786	541
501.003	442
501.22	394
501.437	379
501.654	354
501.871	339
502.088	346
502.305	337
502.522	315
502.739	329
502.956	306
503.172	313
503.389	315
503.606	335
503.823	310
504.04	352
504.256	346
504.473	370
504.69	361
504.907	358
505.123	347
505.34	328
505.557	300
505.773	302
505.99	315
506.207	298
506.423	312
506.64	282
506.856	286
507.073	288
507.289	298
507.506	273
507.722	263
507.939	259
508.155	265
508.372	270
508.588	261
508.805	267
509.021	264
509.238	270
509.454	268
509.67	254
509.887	263
510.103	270
510.319	251
510.536	254
510.752	259
510.968	251
511.184	248
511.401	230
511.617	235
511.833	253
512.049	237
512.265	234
512.481	252
512.698	233
512.914	246
513.13	246
513.346	246
513.562	228
513.778	243
513.994	242
514.21	242
514.426	250
514.642	254
514.858	260
515.074	235
515.29	256
515.506	255
515.721	273
515.937	267
516.153	252
516.369	258
516.585	265
516.801	261
517.016	260
517.232	270
517.448	271
517.664	268
517.879	247
518.095	258
518.311	257
518.527	262
518.742	256
518.958	257
519.173	252
519.389	243
519.605	232
519.82	253
520.036	232
520.251	267
520.467	274
520.682	245
520.898	236
521.113	230
521.329	244
521.544	243
521.76	248
521.975	253
522.19	262
522.406	267
522.621	272
522.836	310
523.052	314
523.267	288
523.482	266
523.698	258
523.913	251
524.128	242
524.343	235
524.559	253
524.774	237
524.989	238
525.204	246
525.419	240
525.634	235
525.849	241
526.064	232
526.28	240
526.495	220
526.71	210
526.925	217
527.14	236
527.355	242
527.57	222
527.785	232
527.999	221
528.214	233
528.429	221
528.644	223
528.859	225
529.074	224
529.289	229
529.503	233
529.718	239
529.933	241
530.148	239
530.363	232
530.577	217
530.792	230
531.007	246
531.221	218
531.436	234
531.651	218
531.865	220
532.08	225
532.295	229
532.509	222
532.724	262
532.938	268
533.153	253
533.367	240
533.582	244
533.796	223
534.011	244
534.225	234
534.44	240
534.654	257
534.868	238
535.083	249
535.297	255
535.511	254
535.726	249
535.94	260
536.154	260
536.369	298
536.583	289
536.797	309
537.011	349
537.225	404
537.44	476
537.654	469
537.868	396
538.082	367
538.296	331
538.51	318
538.724	304
538.938	303
539.153	274
539.367	292
539.581	263
539.795	256
540.009	260
540.222	276
540.436	260
540.65	241
540.864	231
541.078	242
541.292	251
541.506	237
541.72	248
541.934	255
542.147	244
542.361	236
542.575	220
542.789	228
543.002	230
543.216	234
543.43	216
543.644	235
543.857	219
544.071	240
544.285	226
544.498	224
544.712	224
544.925	237
545.139	221
545.352	215
545.566	232
545.779	213
545.993	222
546.206	222
546.42	220
546.633	232
546.847	222
547.06	215
547.274	223
547.487	238
547.7	219
547.914	214
548.127	216
548.34	222
548.554	240
548.767	222
548.98	228
549.193	231
549.407	225
549.62	230
549.833	229
550.046	236
550.259	227
550.473	230
550.686	220
550.899	232
551.112	218
551.325	232
551.538	224
551.751	222
551.964	238
552.177	226
552.39	242
552.603	239
552.816	236
553.029	245
553.242	238
553.455	243
553.667	265
553.88	271
554.093	296
554.306	296
554.519	298
554.732	306
554.944	328
555.157	295
555.37	287
555.583	278
555.795	300
556.008	274
556.221	270
556.433	267
556.646	275
556.859	251
557.071	272
557.284	276
557.496	258
557.709	252
557.921	275
558.134	263
558.346	270
558.559	272
558.771	283
558.984	296
559.196	310
559.409	323
559.621	359
559.833	369
560.046	404
560.258	470
560.47	551
560.683	681
560.895	918
561.107	1098
561.32	760
561.532	518
561.744	433
561.956	381
562.168	344
562.381	320
562.593	304
562.805	295
563.017	277
563.229	248
563.441	269
563.653	239
563.865	236
564.077	234
564.289	238
564.501	250
564.713	244
564.925	246
565.137	252
565.349	227
