Data from StdB_HRD10591_006.txt Node
Date: Fri May 16 15:24:49 EDT 2025
User: Yrep
Spectrometer: HR+D1059
Trigger mode: 1
Integration Time (sec): 1.000000E-1
Scans to average: 1
Electric dark correction enabled: true
Nonlinearity correction enabled: false
Boxcar width: 0
XAxis mode: Wavelengths
Number of Pixels in Spectrum: 2048
>>>>>Begin Spectral Data<<<<<
223.165	-24.69
223.4	-24.69
223.635	-24.69
223.869	-17.69
224.104	-17.69
224.338	-3.69
224.573	-15.69
224.808	-6.69
225.042	-4.69
225.277	-15.69
225.511	2.31
225.746	9.31
225.98	12.31
226.215	2.31
226.449	13.31
226.683	17.31
226.918	26.31
227.152	23.31
227.387	47.31
227.621	66.31
227.856	34.31
228.09	57.31
228.324	58.31
228.559	59.31
228.793	58.31
229.027	63.31
229.262	81.31
229.496	80.31
229.73	74.31
229.964	92.31
230.199	85.31
230.433	76.31
230.667	92.31
230.901	91.31
231.136	100.31
231.37	82.31
231.604	84.31
231.838	70.31
232.072	82.31
232.306	87.31
232.541	95.31
232.775	85.31
233.009	82.31
233.243	82.31
233.477	90.31
233.711	82.31
233.945	98.31
234.179	90.31
234.413	90.31
234.647	96.31
234.881	93.31
235.115	95.31
235.349	103.31
235.583	90.31
235.817	104.31
236.051	97.31
236.285	106.31
236.519	99.31
236.753	91.31
236.987	86.31
237.221	76.31
237.455	89.31
237.689	97.31
237.922	87.31
238.156	91.31
238.39	86.31
238.624	93.31
238.858	96.31
239.091	94.31
239.325	103.31
239.559	115.31
239.793	101.31
240.027	118.31
240.26	117.31
240.494	97.31
240.728	108.31
240.961	95.31
241.195	108.31
241.429	92.31
241.662	104.31
241.896	86.31
242.13	93.31
242.363	109.31
242.597	96.31
242.83	103.31
243.064	96.31
243.298	99.31
243.531	98.31
243.765	95.31
243.998	96.31
244.232	103.31
244.465	102.31
244.699	111.31
244.932	110.31
245.166	122.31
245.399	100.31
245.633	100.31
245.866	106.31
246.099	104.31
246.333	105.31
246.566	119.31
246.8	109.31
247.033	104.31
247.266	100.31
247.5	128.31
247.733	119.31
247.966	129.31
248.2	122.31
248.433	115.31
248.666	98.31
248.899	116.31
249.133	105.31
249.366	108.31
249.599	110.31
249.832	118.31
250.066	120.31
250.299	100.31
250.532	127.31
250.765	112.31
250.998	119.31
251.231	105.31
251.465	121.31
251.698	111.31
251.931	114.31
252.164	116.31
252.397	136.31
252.63	124.31
252.863	154.31
253.096	144.31
253.329	129.31
253.562	150.31
253.795	140.31
254.028	138.31
254.261	151.31
254.494	144.31
254.727	118.31
254.96	129.31
255.193	129.31
255.426	132.31
255.659	132.31
255.892	145.31
256.124	144.31
256.357	140.31
256.59	148.31
256.823	136.31
257.056	135.31
257.289	151.31
257.521	159.31
257.754	183.31
257.987	187.31
258.22	184.31
258.452	143.31
258.685	144.31
258.918	144.31
259.151	139.31
259.383	148.31
259.616	140.31
259.849	147.31
260.081	159.31
260.314	158.31
260.547	166.31
260.779	177.31
261.012	216.31
261.244	259.31
261.477	326.31
261.71	330.31
261.942	250.31
262.175	187.31
262.407	164.31
262.64	173.31
262.872	156.31
263.105	166.31
263.337	162.31
263.57	160.31
263.802	170.31
264.035	161.31
264.267	159.31
264.499	150.31
264.732	177.31
264.964	179.31
265.197	188.31
265.429	175.31
265.661	190.31
265.894	166.31
266.126	189.31
266.358	218.31
266.591	236.31
266.823	210.31
267.055	167.31
267.287	154.31
267.52	157.31
267.752	156.31
267.984	132.31
268.216	136.31
268.448	120.31
268.681	150.31
268.913	138.31
269.145	131.31
269.377	143.31
269.609	143.31
269.841	137.31
270.073	142.31
270.306	151.31
270.538	141.31
270.77	134.31
271.002	129.31
271.234	131.31
271.466	138.31
271.698	123.31
271.93	135.31
272.162	140.31
272.394	137.31
272.626	138.31
272.858	151.31
273.09	144.31
273.322	168.31
273.553	147.31
273.785	135.31
274.017	139.31
274.249	141.31
274.481	140.31
274.713	129.31
274.945	162.31
275.176	144.31
275.408	153.31
275.64	163.31
275.872	146.31
276.104	145.31
276.335	133.31
276.567	144.31
276.799	159.31
277.031	175.31
277.262	153.31
277.494	163.31
277.726	167.31
277.957	179.31
278.189	170.31
278.421	188.31
278.652	174.31
278.884	197.31
279.115	202.31
279.347	226.31
279.579	255.31
279.81	332.31
280.042	418.31
280.273	521.31
280.505	464.31
280.736	312.31
280.968	257.31
281.199	233.31
281.431	190.31
281.662	204.31
281.894	223.31
282.125	243.31
282.356	283.31
282.588	275.31
282.819	233.31
283.051	264.31
283.282	339.31
283.513	394.31
283.745	314.31
283.976	226.31
284.207	201.31
284.439	193.31
284.67	184.31
284.901	193.31
285.132	194.31
285.364	188.31
285.595	175.31
285.826	180.31
286.057	174.31
286.288	186.31
286.52	204.31
286.751	202.31
286.982	243.31
287.213	281.31
287.444	310.31
287.675	281.31
287.906	207.31
288.138	190.31
288.369	175.31
288.6	167.31
288.831	158.31
289.062	176.31
289.293	174.31
289.524	156.31
289.755	157.31
289.986	149.31
290.217	178.31
290.448	148.31
290.679	151.31
290.91	169.31
291.141	151.31
291.371	160.31
291.602	150.31
291.833	173.31
292.064	158.31
292.295	170.31
292.526	163.31
292.757	155.31
292.987	144.31
293.218	161.31
293.449	164.31
293.68	158.31
293.91	168.31
294.141	172.31
294.372	157.31
294.603	170.31
294.833	154.31
295.064	167.31
295.295	189.31
295.525	177.31
295.756	173.31
295.987	162.31
296.217	176.31
296.448	175.31
296.679	162.31
296.909	166.31
297.14	147.31
297.37	168.31
297.601	180.31
297.831	174.31
298.062	184.31
298.292	160.31
298.523	186.31
298.753	168.31
298.984	177.31
299.214	175.31
299.445	168.31
299.675	175.31
299.905	183.31
300.136	180.31
300.366	186.31
300.597	172.31
300.827	162.31
301.057	159.31
301.288	157.31
301.518	179.31
301.748	184.31
301.979	202.31
302.209	185.31
302.439	188.31
302.669	191.31
302.9	196.31
303.13	172.31
303.36	180.31
303.59	173.31
303.82	164.31
304.051	191.31
304.281	186.31
304.511	199.31
304.741	176.31
304.971	174.31
305.201	171.31
305.431	171.31
305.661	195.31
305.891	197.31
306.121	179.31
306.352	177.31
306.582	170.31
306.812	178.31
307.042	168.31
307.272	189.31
307.502	189.31
307.731	174.31
307.961	172.31
308.191	172.31
308.421	191.31
308.651	169.31
308.881	183.31
309.111	170.31
309.341	173.31
309.571	167.31
309.8	191.31
310.03	182.31
310.26	185.31
310.49	194.31
310.72	175.31
310.949	180.31
311.179	199.31
311.409	192.31
311.639	186.31
311.868	188.31
312.098	172.31
312.328	194.31
312.557	187.31
312.787	194.31
313.017	188.31
313.246	209.31
313.476	214.31
313.706	200.31
313.935	214.31
314.165	208.31
314.394	222.31
314.624	220.31
314.853	213.31
315.083	228.31
315.312	217.31
315.542	218.31
315.771	220.31
316.001	210.31
316.23	208.31
316.46	197.31
316.689	198.31
316.919	205.31
317.148	217.31
317.377	210.31
317.607	207.31
317.836	209.31
318.065	208.31
318.295	214.31
318.524	210.31
318.753	201.31
318.983	194.31
319.212	177.31
319.441	175.31
319.67	184.31
319.9	182.31
320.129	188.31
320.358	192.31
320.587	176.31
320.816	196.31
321.046	190.31
321.275	185.31
321.504	206.31
321.733	183.31
321.962	206.31
322.191	193.31
322.42	195.31
322.649	201.31
322.878	207.31
323.108	198.31
323.337	195.31
323.566	182.31
323.795	192.31
324.024	179.31
324.253	182.31
324.482	184.31
324.71	194.31
324.939	212.31
325.168	187.31
325.397	187.31
325.626	199.31
325.855	193.31
326.084	211.31
326.313	196.31
326.542	193.31
326.77	204.31
326.999	202.31
327.228	172.31
327.457	192.31
327.686	188.31
327.914	204.31
328.143	192.31
328.372	195.31
328.6	200.31
328.829	179.31
329.058	190.31
329.287	188.31
329.515	192.31
329.744	193.31
329.972	192.31
330.201	187.31
330.43	196.31
330.658	203.31
330.887	189.31
331.115	207.31
331.344	192.31
331.572	195.31
331.801	201.31
332.03	204.31
332.258	208.31
332.486	186.31
332.715	189.31
332.943	210.31
333.172	201.31
333.4	207.31
333.629	210.31
333.857	200.31
334.085	203.31
334.314	211.31
334.542	199.31
334.771	217.31
334.999	201.31
335.227	193.31
335.455	192.31
335.684	212.31
335.912	204.31
336.14	175.31
336.369	207.31
336.597	199.31
336.825	187.31
337.053	190.31
337.281	204.31
337.51	191.31
337.738	202.31
337.966	188.31
338.194	193.31
338.422	209.31
338.65	192.31
338.878	194.31
339.106	194.31
339.334	205.31
339.562	187.31
339.79	192.31
340.018	185.31
340.246	198.31
340.474	187.31
340.702	197.31
340.93	217.31
341.158	204.31
341.386	190.31
341.614	194.31
341.842	186.31
342.07	182.31
342.298	196.31
342.526	194.31
342.754	192.31
342.981	171.31
343.209	196.31
343.437	208.31
343.665	200.31
343.893	210.31
344.12	204.31
344.348	194.31
344.576	207.31
344.804	193.31
345.031	205.31
345.259	203.31
345.487	200.31
345.714	198.31
345.942	194.31
346.17	212.31
346.397	209.31
346.625	175.31
346.853	193.31
347.08	204.31
347.308	188.31
347.535	184.31
347.763	194.31
347.99	202.31
348.218	191.31
348.445	198.31
348.673	174.31
348.9	192.31
349.128	200.31
349.355	195.31
349.583	202.31
349.81	184.31
350.037	202.31
350.265	186.31
350.492	196.31
350.72	191.31
350.947	194.31
351.174	204.31
351.402	199.31
351.629	179.31
351.856	192.31
352.083	186.31
352.311	195.31
352.538	181.31
352.765	198.31
352.992	207.31
353.22	194.31
353.447	214.31
353.674	202.31
353.901	182.31
354.128	220.31
354.355	207.31
354.583	200.31
354.81	186.31
355.037	201.31
355.264	209.31
355.491	208.31
355.718	218.31
355.945	212.31
356.172	232.31
356.399	230.31
356.626	244.31
356.853	316.31
357.08	419.31
357.307	574.31
357.534	598.31
357.761	397.31
357.988	324.31
358.215	296.31
358.441	267.31
358.668	234.31
358.895	237.31
359.122	244.31
359.349	220.31
359.576	234.31
359.802	220.31
360.029	223.31
360.256	220.31
360.483	222.31
360.709	214.31
360.936	220.31
361.163	227.31
361.39	206.31
361.616	206.31
361.843	218.31
362.07	216.31
362.296	219.31
362.523	233.31
362.749	226.31
362.976	250.31
363.203	265.31
363.429	298.31
363.656	474.31
363.882	642.31
364.109	757.31
364.335	521.31
364.562	362.31
364.788	287.31
365.015	274.31
365.241	259.31
365.468	245.31
365.694	218.31
365.92	234.31
366.147	238.31
366.373	251.31
366.599	250.31
366.826	281.31
367.052	315.31
367.278	381.31
367.505	348.31
367.731	361.31
367.957	492.31
368.184	724.31
368.41	995.31
368.636	883.31
368.862	514.31
369.089	408.31
369.315	333.31
369.541	278.31
369.767	274.31
369.993	245.31
370.219	238.31
370.445	235.31
370.672	241.31
370.898	241.31
371.124	238.31
371.35	221.31
371.576	223.31
371.802	225.31
372.028	226.31
372.254	233.31
372.48	235.31
372.706	242.31
372.932	234.31
373.158	252.31
373.384	260.31
373.61	358.31
373.835	486.31
374.061	632.31
374.287	569.31
374.513	383.31
374.739	310.31
374.965	265.31
375.191	230.31
375.416	240.31
375.642	239.31
375.868	227.31
376.094	204.31
376.319	232.31
376.545	216.31
376.771	226.31
376.997	213.31
377.222	209.31
377.448	210.31
377.674	217.31
377.899	216.31
378.125	213.31
378.35	227.31
378.576	234.31
378.802	224.31
379.027	237.31
379.253	234.31
379.478	215.31
379.704	220.31
379.929	226.31
380.155	228.31
380.38	207.31
380.606	205.31
380.831	222.31
381.057	214.31
381.282	201.31
381.507	201.31
381.733	214.31
381.958	206.31
382.184	218.31
382.409	214.31
382.634	216.31
382.86	217.31
383.085	224.31
383.31	210.31
383.535	209.31
383.761	225.31
383.986	218.31
384.211	217.31
384.436	233.31
384.662	225.31
384.887	234.31
385.112	230.31
385.337	242.31
385.562	224.31
385.787	215.31
386.013	211.31
386.238	211.31
386.463	220.31
386.688	235.31
386.913	210.31
387.138	207.31
387.363	208.31
387.588	224.31
387.813	235.31
388.038	224.31
388.263	218.31
388.488	214.31
388.713	211.31
388.938	224.31
389.163	222.31
389.387	215.31
389.612	219.31
389.837	202.31
390.062	217.31
390.287	215.31
390.512	199.31
390.736	224.31
390.961	207.31
391.186	224.31
391.411	219.31
391.636	239.31
391.86	223.31
392.085	225.31
392.31	217.31
392.534	227.31
392.759	232.31
392.984	236.31
393.208	243.31
393.433	239.31
393.658	240.31
393.882	212.31
394.107	232.31
394.331	234.31
394.556	219.31
394.78	220.31
395.005	219.31
395.229	232.31
395.454	217.31
395.678	222.31
395.903	225.31
396.127	234.31
396.352	233.31
396.576	220.31
396.801	223.31
397.025	235.31
397.249	223.31
397.474	230.31
397.698	227.31
397.922	244.31
398.147	237.31
398.371	233.31
398.595	248.31
398.82	257.31
399.044	255.31
399.268	238.31
399.492	259.31
399.717	267.31
399.941	267.31
400.165	265.31
400.389	235.31
400.613	270.31
400.837	246.31
401.062	259.31
401.286	257.31
401.51	268.31
401.734	286.31
401.958	294.31
402.182	312.31
402.406	278.31
402.63	273.31
402.854	263.31
403.078	257.31
403.302	272.31
403.526	260.31
403.75	270.31
403.974	286.31
404.198	272.31
404.422	284.31
404.645	315.31
404.869	339.31
405.093	382.31
405.317	508.31
405.541	824.31
405.765	1347.31
405.988	1559.31
406.212	1036.31
406.436	696.31
406.66	496.31
406.883	400.31
407.107	372.31
407.331	350.31
407.555	322.31
407.778	313.31
408.002	319.31
408.226	289.31
408.449	289.31
408.673	275.31
408.896	260.31
409.12	269.31
409.344	271.31
409.567	258.31
409.791	244.31
410.014	257.31
410.238	264.31
410.461	254.31
410.685	256.31
410.908	244.31
411.132	270.31
411.355	264.31
411.578	259.31
411.802	244.31
412.025	241.31
412.249	266.31
412.472	237.31
412.695	236.31
412.919	250.31
413.142	238.31
413.365	242.31
413.589	247.31
413.812	232.31
414.035	256.31
414.258	243.31
414.482	231.31
414.705	236.31
414.928	243.31
415.151	234.31
415.374	250.31
415.597	235.31
415.821	233.31
416.044	238.31
416.267	249.31
416.49	252.31
416.713	246.31
416.936	281.31
417.159	247.31
417.382	241.31
417.605	240.31
417.828	234.31
418.051	242.31
418.274	257.31
418.497	216.31
418.72	248.31
418.943	251.31
419.166	253.31
419.389	266.31
419.611	250.31
419.834	250.31
420.057	248.31
420.28	262.31
420.503	246.31
420.726	258.31
420.948	246.31
421.171	237.31
421.394	259.31
421.617	254.31
421.839	264.31
422.062	283.31
422.285	275.31
422.507	295.31
422.73	280.31
422.953	301.31
423.175	292.31
423.398	304.31
423.621	333.31
423.843	365.31
424.066	440.31
424.288	524.31
424.511	635.31
424.733	694.31
424.956	592.31
425.178	509.31
425.401	467.31
425.623	416.31
425.846	385.31
426.068	353.31
426.291	338.31
426.513	333.31
426.735	334.31
426.958	323.31
427.18	309.31
427.402	293.31
427.625	279.31
427.847	266.31
428.069	276.31
428.292	278.31
428.514	268.31
428.736	266.31
428.958	249.31
429.181	261.31
429.403	242.31
429.625	250.31
429.847	238.31
430.069	248.31
430.292	252.31
430.514	263.31
430.736	252.31
430.958	248.31
431.18	249.31
431.402	253.31
431.624	235.31
431.846	229.31
432.068	240.31
432.29	236.31
432.512	248.31
432.734	263.31
432.956	248.31
433.178	258.31
433.4	275.31
433.622	253.31
433.844	271.31
434.066	279.31
434.287	271.31
434.509	268.31
434.731	264.31
434.953	267.31
435.175	266.31
435.397	256.31
435.618	266.31
435.84	243.31
436.062	257.31
436.284	249.31
436.505	273.31
436.727	255.31
436.949	278.31
437.17	292.31
437.392	304.31
437.614	311.31
437.835	327.31
438.057	340.31
438.278	391.31
438.5	475.31
438.721	558.31
438.943	622.31
439.165	554.31
439.386	480.31
439.608	427.31
439.829	399.31
440.05	392.31
440.272	373.31
440.493	398.31
440.715	426.31
440.936	459.31
441.158	450.31
441.379	374.31
441.6	366.31
441.822	339.31
442.043	316.31
442.264	311.31
442.486	310.31
442.707	299.31
442.928	268.31
443.149	269.31
443.371	273.31
443.592	282.31
443.813	271.31
444.034	267.31
444.255	274.31
444.476	271.31
444.698	261.31
444.919	263.31
445.14	335.31
445.361	297.31
445.582	264.31
445.803	249.31
446.024	243.31
446.245	244.31
446.466	255.31
446.687	243.31
446.908	232.31
447.129	233.31
447.35	226.31
447.571	238.31
447.792	248.31
448.013	231.31
448.234	225.31
448.455	248.31
448.675	214.31
448.896	236.31
449.117	214.31
449.338	236.31
449.559	243.31
449.779	224.31
450	221.31
450.221	222.31
450.442	227.31
450.662	240.31
450.883	223.31
451.104	216.31
451.324	221.31
451.545	226.31
451.766	220.31
451.986	231.31
452.207	189.31
452.428	213.31
452.648	230.31
452.869	222.31
453.089	204.31
453.31	230.31
453.53	202.31
453.751	212.31
453.971	204.31
454.192	204.31
454.412	204.31
454.633	224.31
454.853	198.31
455.073	199.31
455.294	194.31
455.514	207.31
455.734	206.31
455.955	202.31
456.175	205.31
456.395	195.31
456.616	208.31
456.836	208.31
457.056	195.31
457.276	199.31
457.497	211.31
457.717	198.31
457.937	212.31
458.157	193.31
458.377	205.31
458.598	202.31
458.818	202.31
459.038	217.31
459.258	222.31
459.478	202.31
459.698	212.31
459.918	205.31
460.138	230.31
460.358	232.31
460.578	236.31
460.798	233.31
461.018	224.31
461.238	217.31
461.458	238.31
461.678	232.31
461.898	250.31
462.118	238.31
462.338	252.31
462.558	247.31
462.777	241.31
462.997	261.31
463.217	244.31
463.437	232.31
463.657	237.31
463.876	225.31
464.096	247.31
464.316	233.31
464.536	225.31
464.755	240.31
464.975	230.31
465.195	231.31
465.414	246.31
465.634	229.31
465.854	206.31
466.073	216.31
466.293	223.31
466.512	215.31
466.732	231.31
466.951	217.31
467.171	216.31
467.391	225.31
467.61	204.31
467.829	217.31
468.049	216.31
468.268	226.31
468.488	209.31
468.707	196.31
468.927	214.31
469.146	210.31
469.365	202.31
469.585	209.31
469.804	242.31
470.023	225.31
470.243	212.31
470.462	206.31
470.681	212.31
470.901	222.31
471.12	201.31
471.339	216.31
471.558	215.31
471.777	211.31
471.997	239.31
472.216	212.31
472.435	217.31
472.654	219.31
472.873	208.31
473.092	207.31
473.311	214.31
473.53	207.31
473.749	204.31
473.968	221.31
474.187	226.31
474.406	212.31
474.625	236.31
474.844	236.31
475.063	216.31
475.282	228.31
475.501	228.31
475.72	209.31
475.939	226.31
476.158	235.31
476.377	213.31
476.596	213.31
476.814	232.31
477.033	219.31
477.252	225.31
477.471	236.31
477.69	245.31
477.908	233.31
478.127	257.31
478.346	252.31
478.564	241.31
478.783	258.31
479.002	268.31
479.22	268.31
479.439	254.31
479.658	244.31
479.876	249.31
480.095	232.31
480.313	252.31
480.532	273.31
480.751	287.31
480.969	252.31
481.188	246.31
481.406	251.31
481.624	256.31
481.843	243.31
482.061	238.31
482.28	243.31
482.498	248.31
482.717	246.31
482.935	261.31
483.153	253.31
483.372	252.31
483.59	232.31
483.808	247.31
484.027	251.31
484.245	254.31
484.463	253.31
484.681	236.31
484.9	238.31
485.118	251.31
485.336	258.31
485.554	239.31
485.772	255.31
485.99	264.31
486.209	240.31
486.427	251.31
486.645	258.31
486.863	263.31
487.081	259.31
487.299	250.31
487.517	249.31
487.735	244.31
487.953	255.31
488.171	251.31
488.389	244.31
488.607	241.31
488.825	240.31
489.043	254.31
489.261	257.31
489.479	266.31
489.696	269.31
489.914	256.31
490.132	261.31
490.35	240.31
490.568	256.31
490.786	255.31
491.003	257.31
491.221	254.31
491.439	235.31
491.657	256.31
491.874	240.31
492.092	254.31
492.31	264.31
492.527	279.31
492.745	260.31
492.963	256.31
493.18	257.31
493.398	263.31
493.615	276.31
493.833	256.31
494.05	267.31
494.268	252.31
494.485	267.31
494.703	266.31
494.92	257.31
495.138	269.31
495.355	272.31
495.573	297.31
495.79	281.31
496.008	279.31
496.225	272.31
496.442	267.31
496.66	279.31
496.877	269.31
497.094	278.31
497.312	264.31
497.529	282.31
497.746	290.31
497.963	279.31
498.181	300.31
498.398	296.31
498.615	296.31
498.832	316.31
499.049	340.31
499.267	347.31
499.484	330.31
499.701	349.31
499.918	385.31
500.135	401.31
500.352	410.31
500.569	462.31
500.786	544.31
501.003	452.31
501.22	399.31
501.437	369.31
501.654	354.31
501.871	352.31
502.088	333.31
502.305	339.31
502.522	319.31
502.739	328.31
502.956	312.31
503.172	319.31
503.389	312.31
