Data from StdB_HRD10591_076.txt Node
Date: Fri May 16 15:25:24 EDT 2025
User: Yrep
Spectrometer: HR+D1059
Trigger mode: 1
Integration Time (sec): 1.000000E-1
Scans to average: 1
Electric dark correction enabled: true
Nonlinearity correction enabled: false
Boxcar width: 0
XAxis mode: Wavelengths
Number of Pixels in Spectrum: 2048
>>>>>Begin Spectral Data<<<<<
223.165	-14.94
223.4	-14.94
223.635	-14.94
223.869	-25.94
224.104	-2.94
224.338	-7.94
224.573	-23.94
224.808	-10.94
225.042	-13.94
225.277	-9.94
225.511	-0.94
225.746	-7.94
225.98	12.06
226.215	0.06
226.449	22.06
226.683	18.06
226.918	30.06
227.152	37.06
227.387	42.06
227.621	50.06
227.856	42.06
228.09	56.06
228.324	67.06
228.559	53.06
228.793	52.06
229.027	67.06
229.262	81.06
229.496	75.06
229.73	83.06
229.964	80.06
230.199	75.06
230.433	62.06
230.667	70.06
230.901	89.06
231.136	77.06
231.37	69.06
231.604	83.06
231.838	94.06
232.072	81.06
232.306	82.06
232.541	95.06
232.775	88.06
233.009	88.06
233.243	91.06
233.477	82.06
233.711	77.06
233.945	82.06
234.179	78.06
234.413	80.06
234.647	87.06
234.881	85.06
235.115	85.06
235.349	73.06
235.583	85.06
235.817	90.06
236.051	82.06
236.285	75.06
236.519	93.06
236.753	86.06
236.987	82.06
237.221	77.06
237.455	74.06
237.689	83.06
237.922	82.06
238.156	74.06
238.39	75.06
238.624	84.06
238.858	71.06
239.091	92.06
239.325	80.06
239.559	88.06
239.793	87.06
240.027	88.06
240.26	78.06
240.494	70.06
240.728	78.06
240.961	76.06
241.195	83.06
241.429	70.06
241.662	78.06
241.896	65.06
242.13	85.06
242.363	65.06
242.597	85.06
242.83	78.06
243.064	84.06
243.298	77.06
243.531	91.06
243.765	62.06
243.998	83.06
244.232	97.06
244.465	87.06
244.699	80.06
244.932	75.06
245.166	87.06
245.399	83.06
245.633	96.06
245.866	87.06
246.099	82.06
246.333	81.06
246.566	70.06
246.8	84.06
247.033	67.06
247.266	83.06
247.5	79.06
247.733	75.06
247.966	78.06
248.2	82.06
248.433	83.06
248.666	79.06
248.899	85.06
249.133	88.06
249.366	83.06
249.599	95.06
249.832	75.06
250.066	76.06
250.299	79.06
250.532	71.06
250.765	70.06
250.998	85.06
251.231	87.06
251.465	79.06
251.698	85.06
251.931	82.06
252.164	76.06
252.397	93.06
252.63	91.06
252.863	85.06
253.096	100.06
253.329	81.06
253.562	81.06
253.795	99.06
254.028	93.06
254.261	99.06
254.494	82.06
254.727	98.06
254.96	80.06
255.193	77.06
255.426	91.06
255.659	89.06
255.892	82.06
256.124	80.06
256.357	83.06
256.59	91.06
256.823	79.06
257.056	82.06
257.289	81.06
257.521	81.06
257.754	83.06
257.987	92.06
258.22	77.06
258.452	83.06
258.685	89.06
258.918	84.06
259.151	81.06
259.383	106.06
259.616	94.06
259.849	84.06
260.081	88.06
260.314	88.06
260.547	92.06
260.779	100.06
261.012	90.06
261.244	87.06
261.477	104.06
261.71	114.06
261.942	101.06
262.175	93.06
262.407	91.06
262.64	81.06
262.872	94.06
263.105	87.06
263.337	86.06
263.57	89.06
263.802	101.06
264.035	90.06
264.267	83.06
264.499	91.06
264.732	90.06
264.964	90.06
265.197	97.06
265.429	78.06
265.661	78.06
265.894	88.06
266.126	81.06
266.358	86.06
266.591	98.06
266.823	88.06
267.055	93.06
267.287	77.06
267.52	93.06
267.752	98.06
267.984	88.06
268.216	77.06
268.448	76.06
268.681	84.06
268.913	99.06
269.145	92.06
269.377	75.06
269.609	92.06
269.841	93.06
270.073	76.06
270.306	78.06
270.538	83.06
270.77	87.06
271.002	81.06
271.234	86.06
271.466	89.06
271.698	82.06
271.93	92.06
272.162	85.06
272.394	76.06
272.626	77.06
272.858	91.06
273.09	78.06
273.322	88.06
273.553	85.06
273.785	78.06
274.017	93.06
274.249	80.06
274.481	96.06
274.713	88.06
274.945	91.06
275.176	79.06
275.408	98.06
275.64	86.06
275.872	73.06
276.104	88.06
276.335	92.06
276.567	74.06
276.799	84.06
277.031	90.06
277.262	79.06
277.494	89.06
277.726	94.06
277.957	86.06
278.189	93.06
278.421	91.06
278.652	86.06
278.884	89.06
279.115	84.06
279.347	88.06
279.579	78.06
279.81	96.06
280.042	112.06
280.273	115.06
280.505	108.06
280.736	86.06
280.968	108.06
281.199	86.06
281.431	85.06
281.662	93.06
281.894	98.06
282.125	78.06
282.356	98.06
282.588	95.06
282.819	108.06
283.051	102.06
283.282	97.06
283.513	97.06
283.745	104.06
283.976	96.06
284.207	95.06
284.439	86.06
284.67	84.06
284.901	93.06
285.132	88.06
285.364	78.06
285.595	85.06
285.826	87.06
286.057	92.06
286.288	86.06
286.52	94.06
286.751	84.06
286.982	90.06
287.213	100.06
287.444	96.06
287.675	98.06
287.906	92.06
288.138	92.06
288.369	88.06
288.6	73.06
288.831	101.06
289.062	102.06
289.293	85.06
289.524	90.06
289.755	81.06
289.986	95.06
290.217	90.06
290.448	83.06
290.679	94.06
290.91	71.06
291.141	90.06
291.371	96.06
291.602	94.06
291.833	76.06
292.064	73.06
292.295	83.06
292.526	91.06
292.757	79.06
292.987	77.06
293.218	82.06
293.449	66.06
293.68	89.06
293.91	92.06
294.141	83.06
294.372	90.06
294.603	78.06
294.833	83.06
295.064	84.06
295.295	88.06
295.525	90.06
295.756	84.06
295.987	83.06
296.217	86.06
296.448	90.06
296.679	86.06
296.909	88.06
297.14	74.06
297.37	84.06
297.601	78.06
297.831	89.06
298.062	94.06
298.292	101.06
298.523	89.06
298.753	74.06
298.984	92.06
299.214	88.06
299.445	93.06
299.675	78.06
299.905	100.06
300.136	91.06
300.366	80.06
300.597	88.06
300.827	85.06
301.057	94.06
301.288	95.06
301.518	68.06
301.748	82.06
301.979	86.06
302.209	74.06
302.439	95.06
302.669	95.06
302.9	86.06
303.13	95.06
303.36	83.06
303.59	91.06
303.82	83.06
304.051	80.06
304.281	87.06
304.511	87.06
304.741	90.06
304.971	80.06
305.201	82.06
305.431	67.06
305.661	77.06
305.891	93.06
306.121	87.06
306.352	83.06
306.582	104.06
306.812	82.06
307.042	87.06
307.272	93.06
307.502	90.06
307.731	75.06
307.961	87.06
308.191	89.06
308.421	90.06
308.651	80.06
308.881	90.06
309.111	89.06
309.341	95.06
309.571	96.06
309.8	94.06
310.03	82.06
310.26	98.06
310.49	80.06
310.72	88.06
310.949	95.06
311.179	94.06
311.409	93.06
311.639	83.06
311.868	84.06
312.098	78.06
312.328	78.06
312.557	95.06
312.787	98.06
313.017	92.06
313.246	83.06
313.476	91.06
313.706	89.06
313.935	86.06
314.165	82.06
314.394	90.06
314.624	86.06
314.853	97.06
315.083	101.06
315.312	76.06
315.542	84.06
315.771	107.06
316.001	84.06
316.23	94.06
316.46	91.06
316.689	94.06
316.919	93.06
317.148	90.06
317.377	94.06
317.607	89.06
317.836	101.06
318.065	98.06
318.295	97.06
318.524	89.06
318.753	77.06
318.983	82.06
319.212	100.06
319.441	91.06
319.67	106.06
319.9	94.06
320.129	82.06
320.358	81.06
320.587	84.06
320.816	77.06
321.046	92.06
321.275	96.06
321.504	93.06
321.733	92.06
321.962	87.06
322.191	92.06
322.42	98.06
322.649	82.06
322.878	86.06
323.108	111.06
323.337	101.06
323.566	81.06
323.795	82.06
324.024	85.06
324.253	82.06
324.482	85.06
324.71	105.06
324.939	99.06
325.168	89.06
325.397	92.06
325.626	95.06
325.855	102.06
326.084	79.06
326.313	87.06
326.542	88.06
326.77	85.06
326.999	83.06
327.228	88.06
327.457	88.06
327.686	85.06
327.914	62.06
328.143	87.06
328.372	81.06
328.6	100.06
328.829	94.06
329.058	88.06
329.287	77.06
329.515	94.06
329.744	86.06
329.972	94.06
330.201	88.06
330.43	72.06
330.658	93.06
330.887	82.06
331.115	90.06
331.344	85.06
331.572	97.06
331.801	90.06
332.03	93.06
332.258	94.06
332.486	80.06
332.715	78.06
332.943	78.06
333.172	76.06
333.4	83.06
333.629	85.06
333.857	81.06
334.085	83.06
334.314	89.06
334.542	82.06
334.771	84.06
334.999	99.06
335.227	93.06
335.455	99.06
335.684	83.06
335.912	80.06
336.14	91.06
336.369	94.06
336.597	75.06
336.825	88.06
337.053	95.06
337.281	94.06
337.51	88.06
337.738	97.06
337.966	83.06
338.194	80.06
338.422	78.06
338.65	92.06
338.878	92.06
339.106	88.06
339.334	80.06
339.562	82.06
339.79	83.06
340.018	88.06
340.246	84.06
340.474	76.06
340.702	85.06
340.93	76.06
341.158	89.06
341.386	85.06
341.614	79.06
341.842	84.06
342.07	88.06
342.298	89.06
342.526	97.06
342.754	93.06
342.981	87.06
343.209	97.06
343.437	94.06
343.665	80.06
343.893	96.06
344.12	97.06
344.348	85.06
344.576	97.06
344.804	89.06
345.031	85.06
345.259	97.06
345.487	89.06
345.714	85.06
345.942	88.06
346.17	78.06
346.397	80.06
346.625	84.06
346.853	79.06
347.08	92.06
347.308	88.06
347.535	89.06
347.763	88.06
347.99	79.06
348.218	78.06
348.445	74.06
348.673	102.06
348.9	86.06
349.128	91.06
349.355	101.06
349.583	95.06
349.81	82.06
350.037	101.06
350.265	93.06
350.492	77.06
350.72	80.06
350.947	86.06
351.174	86.06
351.402	85.06
351.629	79.06
351.856	93.06
352.083	91.06
352.311	97.06
352.538	75.06
352.765	88.06
352.992	85.06
353.22	88.06
353.447	81.06
353.674	74.06
353.901	101.06
354.128	82.06
354.355	87.06
354.583	91.06
354.81	92.06
355.037	96.06
355.264	87.06
355.491	78.06
355.718	83.06
355.945	91.06
356.172	85.06
356.399	100.06
356.626	100.06
356.853	97.06
357.08	138.06
357.307	155.06
357.534	126.06
357.761	96.06
357.988	78.06
358.215	90.06
358.441	95.06
358.668	91.06
358.895	77.06
359.122	86.06
359.349	84.06
359.576	81.06
359.802	91.06
360.029	80.06
360.256	88.06
360.483	88.06
360.709	73.06
360.936	81.06
361.163	95.06
361.39	80.06
361.616	81.06
361.843	88.06
362.07	80.06
362.296	79.06
362.523	86.06
362.749	82.06
362.976	97.06
363.203	85.06
363.429	92.06
363.656	129.06
363.882	164.06
364.109	183.06
364.335	137.06
364.562	90.06
364.788	85.06
365.015	96.06
365.241	89.06
365.468	89.06
365.694	81.06
365.92	97.06
366.147	83.06
366.373	83.06
366.599	77.06
366.826	99.06
367.052	121.06
367.278	111.06
367.505	108.06
367.731	111.06
367.957	138.06
368.184	177.06
368.41	234.06
368.636	181.06
368.862	102.06
369.089	80.06
369.315	88.06
369.541	99.06
369.767	84.06
369.993	89.06
370.219	91.06
370.445	89.06
370.672	94.06
370.898	76.06
371.124	84.06
371.35	92.06
371.576	92.06
371.802	84.06
372.028	88.06
372.254	82.06
372.48	81.06
372.706	93.06
372.932	85.06
373.158	76.06
373.384	88.06
373.61	93.06
373.835	123.06
374.061	149.06
374.287	126.06
374.513	75.06
374.739	88.06
374.965	77.06
375.191	87.06
375.416	91.06
375.642	98.06
375.868	96.06
376.094	96.06
376.319	84.06
376.545	83.06
376.771	83.06
376.997	83.06
377.222	80.06
377.448	85.06
377.674	78.06
377.899	82.06
378.125	85.06
378.35	101.06
378.576	75.06
378.802	93.06
379.027	93.06
379.253	90.06
379.478	92.06
379.704	98.06
379.929	82.06
380.155	79.06
380.38	90.06
380.606	76.06
380.831	93.06
381.057	93.06
381.282	79.06
381.507	78.06
381.733	82.06
381.958	86.06
382.184	86.06
382.409	81.06
382.634	72.06
382.86	71.06
383.085	84.06
383.31	86.06
383.535	78.06
383.761	91.06
383.986	82.06
384.211	90.06
384.436	73.06
384.662	80.06
384.887	104.06
385.112	73.06
385.337	92.06
385.562	81.06
385.787	99.06
386.013	88.06
386.238	90.06
386.463	78.06
386.688	93.06
386.913	88.06
387.138	94.06
387.363	81.06
387.588	89.06
387.813	87.06
388.038	89.06
388.263	85.06
388.488	70.06
388.713	86.06
388.938	83.06
389.163	99.06
389.387	80.06
389.612	94.06
389.837	83.06
390.062	83.06
390.287	77.06
390.512	92.06
390.736	93.06
390.961	80.06
391.186	81.06
391.411	97.06
391.636	90.06
391.86	87.06
392.085	91.06
392.31	93.06
392.534	85.06
392.759	100.06
392.984	88.06
393.208	79.06
393.433	87.06
393.658	88.06
393.882	92.06
394.107	101.06
394.331	81.06
394.556	92.06
394.78	84.06
395.005	84.06
395.229	91.06
395.454	93.06
395.678	77.06
395.903	74.06
396.127	80.06
396.352	84.06
396.576	66.06
396.801	66.06
397.025	93.06
397.249	88.06
397.474	67.06
397.698	75.06
397.922	83.06
398.147	82.06
398.371	88.06
398.595	84.06
398.82	78.06
399.044	85.06
399.268	84.06
399.492	90.06
399.717	81.06
399.941	84.06
400.165	96.06
400.389	72.06
400.613	81.06
400.837	90.06
401.062	77.06
401.286	76.06
401.51	92.06
401.734	95.06
401.958	115.06
402.182	102.06
402.406	85.06
402.63	75.06
402.854	89.06
403.078	84.06
403.302	86.06
403.526	70.06
403.75	77.06
403.974	89.06
404.198	85.06
404.422	93.06
404.645	101.06
404.869	93.06
405.093	110.06
405.317	118.06
405.541	194.06
405.765	336.06
405.988	358.06
406.212	198.06
406.436	131.06
406.66	108.06
406.883	92.06
407.107	88.06
407.331	94.06
407.555	96.06
407.778	96.06
408.002	75.06
408.226	87.06
408.449	88.06
408.673	75.06
408.896	84.06
409.12	82.06
409.344	77.06
409.567	82.06
409.791	91.06
410.014	87.06
410.238	89.06
410.461	88.06
410.685	82.06
410.908	86.06
411.132	75.06
411.355	84.06
411.578	82.06
411.802	73.06
412.025	81.06
412.249	86.06
412.472	88.06
412.695	88.06
412.919	77.06
413.142	97.06
413.365	96.06
413.589	84.06
413.812	76.06
414.035	92.06
414.258	81.06
414.482	76.06
414.705	88.06
414.928	83.06
415.151	89.06
415.374	86.06
415.597	92.06
415.821	90.06
416.044	85.06
416.267	101.06
416.49	87.06
416.713	79.06
416.936	102.06
417.159	81.06
417.382	101.06
417.605	101.06
417.828	87.06
418.051	80.06
418.274	86.06
418.497	90.06
418.72	80.06
418.943	93.06
419.166	85.06
419.389	94.06
419.611	66.06
419.834	72.06
420.057	90.06
420.28	92.06
420.503	79.06
420.726	85.06
420.948	89.06
421.171	92.06
421.394	77.06
421.617	95.06
421.839	81.06
422.062	78.06
422.285	83.06
422.507	78.06
422.73	83.06
422.953	91.06
423.175	73.06
423.398	81.06
423.621	93.06
423.843	90.06
424.066	78.06
424.288	83.06
424.511	97.06
424.733	77.06
424.956	91.06
425.178	93.06
425.401	78.06
425.623	91.06
425.846	81.06
426.068	89.06
426.291	84.06
426.513	86.06
426.735	89.06
426.958	97.06
427.18	76.06
427.402	83.06
427.625	92.06
427.847	85.06
428.069	94.06
428.292	81.06
428.514	74.06
428.736	66.06
428.958	75.06
429.181	76.06
429.403	101.06
429.625	82.06
429.847	80.06
430.069	78.06
430.292	88.06
430.514	97.06
430.736	86.06
430.958	97.06
431.18	81.06
431.402	94.06
431.624	80.06
431.846	80.06
432.068	86.06
432.29	89.06
432.512	80.06
432.734	81.06
432.956	83.06
433.178	90.06
433.4	93.06
433.622	85.06
433.844	68.06
434.066	80.06
434.287	76.06
434.509	76.06
434.731	90.06
434.953	91.06
435.175	89.06
435.397	79.06
435.618	78.06
435.84	82.06
436.062	90.06
436.284	77.06
436.505	92.06
436.727	89.06
436.949	74.06
437.17	86.06
437.392	106.06
437.614	96.06
437.835	88.06
438.057	88.06
438.278	83.06
438.5	78.06
438.721	100.06
438.943	94.06
439.165	74.06
439.386	96.06
439.608	93.06
439.829	94.06
440.05	88.06
440.272	74.06
440.493	96.06
440.715	75.06
440.936	72.06
441.158	97.06
441.379	89.06
441.6	96.06
441.822	93.06
442.043	84.06
442.264	100.06
442.486	92.06
442.707	93.06
442.928	88.06
443.149	90.06
443.371	81.06
443.592	72.06
443.813	84.06
444.034	91.06
444.255	81.06
444.476	88.06
444.698	84.06
444.919	101.06
445.14	170.06
445.361	110.06
445.582	90.06
445.803	93.06
446.024	78.06
446.245	81.06
446.466	83.06
446.687	97.06
446.908	88.06
447.129	80.06
447.35	86.06
447.571	90.06
447.792	92.06
448.013	103.06
448.234	80.06
448.455	76.06
448.675	79.06
448.896	96.06
449.117	79.06
449.338	85.06
449.559	94.06
449.779	112.06
450	84.06
450.221	82.06
450.442	93.06
450.662	70.06
450.883	66.06
451.104	85.06
451.324	72.06
451.545	76.06
451.766	94.06
451.986	89.06
452.207	88.06
452.428	88.06
452.648	84.06
452.869	91.06
453.089	88.06
453.31	78.06
453.53	102.06
453.751	94.06
453.971	83.06
454.192	79.06
454.412	69.06
454.633	89.06
454.853	95.06
455.073	82.06
455.294	72.06
455.514	96.06
455.734	88.06
455.955	77.06
456.175	78.06
456.395	86.06
456.616	65.06
456.836	91.06
457.056	88.06
457.276	69.06
457.497	76.06
457.717	90.06
457.937	84.06
458.157	84.06
458.377	75.06
458.598	91.06
458.818	76.06
459.038	90.06
459.258	71.06
459.478	89.06
459.698	86.06
459.918	97.06
460.138	80.06
460.358	83.06
460.578	97.06
460.798	88.06
461.018	94.06
461.238	86.06
461.458	102.06
461.678	93.06
461.898	80.06
462.118	82.06
462.338	83.06
462.558	86.06
462.777	84.06
462.997	80.06
463.217	92.06
463.437	73.06
463.657	71.06
463.876	98.06
464.096	97.06
464.316	87.06
464.536	88.06
464.755	83.06
464.975	85.06
465.195	80.06
465.414	79.06
465.634	99.06
465.854	80.06
466.073	75.06
466.293	91.06
466.512	78.06
466.732	86.06
466.951	83.06
467.171	93.06
467.391	88.06
467.61	83.06
467.829	96.06
468.049	80.06
468.268	77.06
468.488	102.06
468.707	85.06
468.927	84.06
469.146	85.06
469.365	81.06
469.585	92.06
469.804	86.06
470.023	65.06
470.243	76.06
470.462	87.06
470.681	90.06
470.901	75.06
471.12	69.06
471.339	90.06
471.558	72.06
471.777	75.06
471.997	91.06
472.216	89.06
472.435	80.06
472.654	84.06
472.873	108.06
473.092	81.06
473.311	88.06
473.53	89.06
473.749	92.06
473.968	98.06
474.187	83.06
474.406	92.06
474.625	90.06
474.844	97.06
475.063	92.06
475.282	88.06
475.501	77.06
475.72	86.06
475.939	75.06
476.158	86.06
476.377	90.06
476.596	72.06
476.814	85.06
477.033	92.06
477.252	90.06
477.471	76.06
477.69	77.06
477.908	88.06
478.127	72.06
478.346	76.06
478.564	90.06
478.783	106.06
479.002	75.06
479.22	79.06
479.439	89.06
479.658	77.06
479.876	87.06
480.095	82.06
480.313	93.06
480.532	91.06
480.751	94.06
480.969	85.06
481.188	76.06
481.406	81.06
481.624	89.06
481.843	86.06
482.061	70.06
482.28	77.06
482.498	73.06
482.717	86.06
482.935	91.06
483.153	84.06
483.372	85.06
483.59	76.06
483.808	84.06
484.027	88.06
484.245	96.06
484.463	80.06
484.681	93.06
484.9	88.06
485.118	91.06
485.336	79.06
485.554	84.06
485.772	81.06
485.99	96.06
486.209	83.06
486.427	93.06
486.645	81.06
486.863	86.06
487.081	67.06
487.299	85.06
487.517	73.06
487.735	89.06
487.953	94.06
488.171	90.06
488.389	99.06
488.607	92.06
488.825	82.06
489.043	77.06
489.261	82.06
489.479	78.06
489.696	84.06
489.914	97.06
490.132	101.06
490.35	81.06
490.568	84.06
490.786	86.06
491.003	85.06
491.221	88.06
491.439	82.06
491.657	93.06
491.874	84.06
492.092	101.06
492.31	84.06
492.527	91.06
492.745	95.06
492.963	89.06
493.18	84.06
493.398	82.06
493.615	82.06
493.833	82.06
494.05	98.06
494.268	85.06
494.485	104.06
494.703	87.06
494.92	89.06
495.138	80.06
495.355	82.06
495.573	91.06
495.79	82.06
496.008	79.06
496.225	85.06
496.442	89.06
496.66	96.06
496.877	84.06
497.094	88.06
497.312	76.06
497.529	84.06
497.746	88.06
497.963	88.06
498.181	89.06
498.398	79.06
498.615	83.06
498.832	76.06
499.049	84.06
499.267	86.06
499.484	100.06
499.701	97.06
499.918	90.06
500.135	81.06
500.352	84.06
500.569	110.06
500.786	131.06
501.003	94.06
501.22	89.06
501.437	87.06
501.654	81.06
501.871	80.06
502.088	93.06
502.305	78.06
502.522	79.06
502.739	74.06
502.956	83.06
503.172	87.06
503.389	89.06
503.606	85.06
503.823	71.06
504.04	99.06
504.256	86.06
504.473	85.06
504.69	85.06
504.907	95.06
505.123	97.06
505.34	81.06
505.557	66.06
505.773	85.06
505.99	87.06
506.207	93.06
506.423	83.06
506.64	76.06
506.856	79.06
507.073	96.06
507.289	83.06
507.506	97.06
507.722	84.06
507.939	85.06
508.155	91.06
508.372	83.06
508.588	83.06
508.805	101.06
509.021	84.06
509.238	88.06
509.454	74.06
509.67	91.06
509.887	64.06
510.103	91.06
510.319	77.06
510.536	87.06
510.752	77.06
510.968	92.06
511.184	84.06
511.401	85.06
511.617	83.06
511.833	85.06
512.049	83.06
512.265	74.06
512.481	90.06
512.698	85.06
512.914	92.06
513.13	95.06
513.346	86.06
513.562	86.06
513.778	88.06
513.994	65.06
514.21	84.06
514.426	80.06
514.642	106.06
514.858	90.06
515.074	94.06
515.29	101.06
515.506	71.06
515.721	94.06
515.937	85.06
516.153	92.06
516.369	82.06
516.585	85.06
516.801	100.06
517.016	85.06
517.232	99.06
517.448	77.06
517.664	99.06
517.879	87.06
518.095	71.06
518.311	80.06
518.527	88.06
518.742	88.06
518.958	86.06
