Data from StdB_HRD10591_031.txt Node
Date: Fri May 16 15:25:01 EDT 2025
User: Yrep
Spectrometer: HR+D1059
Trigger mode: 1
Integration Time (sec): 1.000000E-1
Scans to average: 1
Electric dark correction enabled: true
Nonlinearity correction enabled: false
Boxcar width: 0
XAxis mode: Wavelengths
Number of Pixels in Spectrum: 2048
>>>>>Begin Spectral Data<<<<<
223.165	-0.5
223.4	-0.5
223.635	-0.5
223.869	-8.5
224.104	-22.5
224.338	-4.5
224.573	-19.5
224.808	-15.5
225.042	5.5
225.277	-15.5
225.511	-7.5
225.746	3.5
225.98	-14.5
226.215	19.5
226.449	20.5
226.683	10.5
226.918	18.5
227.152	30.5
227.387	43.5
227.621	53.5
227.856	44.5
228.09	54.5
228.324	58.5
228.559	54.5
228.793	69.5
229.027	77.5
229.262	66.5
229.496	58.5
229.73	66.5
229.964	67.5
230.199	81.5
230.433	91.5
230.667	77.5
230.901	82.5
231.136	92.5
231.37	74.5
231.604	82.5
231.838	88.5
232.072	90.5
232.306	86.5
232.541	85.5
232.775	98.5
233.009	98.5
233.243	84.5
233.477	101.5
233.711	93.5
233.945	88.5
234.179	95.5
234.413	88.5
234.647	80.5
234.881	85.5
235.115	96.5
235.349	85.5
235.583	92.5
235.817	92.5
236.051	101.5
236.285	82.5
236.519	95.5
236.753	97.5
236.987	94.5
237.221	88.5
237.455	97.5
237.689	94.5
237.922	90.5
238.156	78.5
238.39	102.5
238.624	100.5
238.858	97.5
239.091	90.5
239.325	111.5
239.559	110.5
239.793	113.5
240.027	96.5
240.26	104.5
240.494	130.5
240.728	108.5
240.961	94.5
241.195	115.5
241.429	102.5
241.662	116.5
241.896	102.5
242.13	97.5
242.363	104.5
242.597	96.5
242.83	92.5
243.064	93.5
243.298	92.5
243.531	103.5
243.765	97.5
243.998	93.5
244.232	108.5
244.465	108.5
244.699	109.5
244.932	114.5
245.166	87.5
245.399	100.5
245.633	117.5
245.866	101.5
246.099	106.5
246.333	105.5
246.566	99.5
246.8	100.5
247.033	93.5
247.266	103.5
247.5	107.5
247.733	114.5
247.966	126.5
248.2	125.5
248.433	111.5
248.666	108.5
248.899	101.5
249.133	101.5
249.366	114.5
249.599	101.5
249.832	129.5
250.066	106.5
250.299	108.5
250.532	113.5
250.765	105.5
250.998	105.5
251.231	124.5
251.465	125.5
251.698	117.5
251.931	116.5
252.164	129.5
252.397	122.5
252.63	136.5
252.863	120.5
253.096	124.5
253.329	124.5
253.562	157.5
253.795	139.5
254.028	152.5
254.261	133.5
254.494	133.5
254.727	130.5
254.96	108.5
255.193	136.5
255.426	124.5
255.659	137.5
255.892	121.5
256.124	127.5
256.357	130.5
256.59	126.5
256.823	144.5
257.056	141.5
257.289	145.5
257.521	138.5
257.754	160.5
257.987	183.5
258.22	169.5
258.452	158.5
258.685	139.5
258.918	145.5
259.151	127.5
259.383	136.5
259.616	135.5
259.849	148.5
260.081	151.5
260.314	172.5
260.547	157.5
260.779	197.5
261.012	209.5
261.244	268.5
261.477	330.5
261.71	316.5
261.942	234.5
262.175	198.5
262.407	184.5
262.64	158.5
262.872	157.5
263.105	159.5
263.337	159.5
263.57	149.5
263.802	159.5
264.035	154.5
264.267	164.5
264.499	154.5
264.732	172.5
264.964	189.5
265.197	193.5
265.429	189.5
265.661	174.5
265.894	161.5
266.126	184.5
266.358	224.5
266.591	244.5
266.823	200.5
267.055	150.5
267.287	166.5
267.52	140.5
267.752	144.5
267.984	142.5
268.216	152.5
268.448	144.5
268.681	135.5
268.913	128.5
269.145	141.5
269.377	149.5
269.609	155.5
269.841	162.5
270.073	147.5
270.306	151.5
270.538	141.5
270.77	136.5
271.002	158.5
271.234	133.5
271.466	140.5
271.698	148.5
271.93	136.5
272.162	142.5
272.394	130.5
272.626	142.5
272.858	150.5
273.09	141.5
273.322	138.5
273.553	128.5
273.785	126.5
274.017	136.5
274.249	152.5
274.481	129.5
274.713	143.5
274.945	149.5
275.176	140.5
275.408	146.5
275.64	142.5
275.872	138.5
276.104	139.5
276.335	147.5
276.567	154.5
276.799	148.5
277.031	159.5
277.262	152.5
277.494	164.5
277.726	160.5
277.957	155.5
278.189	168.5
278.421	165.5
278.652	192.5
278.884	192.5
279.115	217.5
279.347	250.5
279.579	288.5
279.81	334.5
280.042	425.5
280.273	505.5
280.505	448.5
280.736	304.5
280.968	245.5
281.199	212.5
281.431	202.5
281.662	216.5
281.894	238.5
282.125	232.5
282.356	268.5
282.588	267.5
282.819	252.5
283.051	279.5
283.282	343.5
283.513	387.5
283.745	330.5
283.976	236.5
284.207	210.5
284.439	188.5
284.67	183.5
284.901	183.5
285.132	181.5
285.364	178.5
285.595	183.5
285.826	175.5
286.057	182.5
286.288	186.5
286.52	180.5
286.751	196.5
286.982	246.5
287.213	281.5
287.444	331.5
287.675	282.5
287.906	196.5
288.138	185.5
288.369	169.5
288.6	175.5
288.831	172.5
289.062	158.5
289.293	168.5
289.524	166.5
289.755	154.5
289.986	162.5
290.217	167.5
290.448	161.5
290.679	155.5
290.91	153.5
291.141	160.5
291.371	153.5
291.602	151.5
291.833	161.5
292.064	167.5
292.295	150.5
292.526	168.5
292.757	169.5
292.987	176.5
293.218	168.5
293.449	168.5
293.68	178.5
293.91	174.5
294.141	157.5
294.372	178.5
294.603	162.5
294.833	184.5
295.064	170.5
295.295	170.5
295.525	167.5
295.756	187.5
295.987	163.5
296.217	163.5
296.448	181.5
296.679	184.5
296.909	167.5
297.14	172.5
297.37	176.5
297.601	172.5
297.831	162.5
298.062	166.5
298.292	169.5
298.523	166.5
298.753	180.5
298.984	169.5
299.214	175.5
299.445	176.5
299.675	149.5
299.905	157.5
300.136	178.5
300.366	178.5
300.597	164.5
300.827	172.5
301.057	171.5
301.288	175.5
301.518	187.5
301.748	177.5
301.979	194.5
302.209	187.5
302.439	169.5
302.669	169.5
302.9	161.5
303.13	180.5
303.36	165.5
303.59	168.5
303.82	190.5
304.051	173.5
304.281	176.5
304.511	181.5
304.741	186.5
304.971	183.5
305.201	171.5
305.431	182.5
305.661	199.5
305.891	183.5
306.121	157.5
306.352	182.5
306.582	174.5
306.812	191.5
307.042	164.5
307.272	179.5
307.502	188.5
307.731	170.5
307.961	179.5
308.191	156.5
308.421	187.5
308.651	174.5
308.881	169.5
309.111	180.5
309.341	167.5
309.571	185.5
309.8	178.5
310.03	186.5
310.26	168.5
310.49	185.5
310.72	194.5
310.949	177.5
311.179	187.5
311.409	194.5
311.639	195.5
311.868	180.5
312.098	185.5
312.328	171.5
312.557	199.5
312.787	184.5
313.017	206.5
313.246	183.5
313.476	204.5
313.706	208.5
313.935	203.5
314.165	214.5
314.394	226.5
314.624	218.5
314.853	198.5
315.083	208.5
315.312	209.5
315.542	227.5
315.771	222.5
316.001	226.5
316.23	203.5
316.46	194.5
316.689	199.5
316.919	218.5
317.148	205.5
317.377	220.5
317.607	208.5
317.836	204.5
318.065	216.5
318.295	214.5
318.524	202.5
318.753	209.5
318.983	191.5
319.212	198.5
319.441	203.5
319.67	186.5
319.9	192.5
320.129	195.5
320.358	173.5
320.587	176.5
320.816	184.5
321.046	191.5
321.275	192.5
321.504	197.5
321.733	195.5
321.962	206.5
322.191	219.5
322.42	204.5
322.649	184.5
322.878	181.5
323.108	196.5
323.337	213.5
323.566	185.5
323.795	197.5
324.024	188.5
324.253	194.5
324.482	193.5
324.71	186.5
324.939	191.5
325.168	196.5
325.397	198.5
325.626	199.5
325.855	176.5
326.084	201.5
326.313	207.5
326.542	180.5
326.77	188.5
326.999	221.5
327.228	198.5
327.457	200.5
327.686	191.5
327.914	203.5
328.143	197.5
328.372	202.5
328.6	206.5
328.829	196.5
329.058	191.5
329.287	188.5
329.515	191.5
329.744	196.5
329.972	183.5
330.201	184.5
330.43	196.5
330.658	203.5
330.887	198.5
331.115	177.5
331.344	199.5
331.572	208.5
331.801	202.5
332.03	189.5
332.258	204.5
332.486	186.5
332.715	202.5
332.943	191.5
333.172	197.5
333.4	180.5
333.629	201.5
333.857	201.5
334.085	221.5
334.314	210.5
334.542	207.5
334.771	190.5
334.999	214.5
335.227	201.5
335.455	184.5
335.684	192.5
335.912	202.5
336.14	189.5
336.369	188.5
336.597	201.5
336.825	199.5
337.053	192.5
337.281	208.5
337.51	199.5
337.738	198.5
337.966	182.5
338.194	200.5
338.422	187.5
338.65	196.5
338.878	180.5
339.106	185.5
339.334	205.5
339.562	205.5
339.79	195.5
340.018	191.5
340.246	189.5
340.474	193.5
340.702	200.5
340.93	198.5
341.158	169.5
341.386	192.5
341.614	192.5
341.842	187.5
342.07	202.5
342.298	191.5
342.526	199.5
342.754	196.5
342.981	181.5
343.209	198.5
343.437	188.5
343.665	203.5
343.893	189.5
344.12	213.5
344.348	210.5
344.576	212.5
344.804	188.5
345.031	197.5
345.259	201.5
345.487	193.5
345.714	198.5
345.942	193.5
346.17	190.5
346.397	188.5
346.625	201.5
346.853	201.5
347.08	189.5
347.308	195.5
347.535	189.5
347.763	181.5
347.99	188.5
348.218	202.5
348.445	192.5
348.673	198.5
348.9	198.5
349.128	181.5
349.355	202.5
349.583	190.5
349.81	203.5
350.037	194.5
350.265	201.5
350.492	209.5
350.72	182.5
350.947	185.5
351.174	206.5
351.402	192.5
351.629	194.5
351.856	203.5
352.083	181.5
352.311	192.5
352.538	200.5
352.765	201.5
352.992	194.5
353.22	193.5
353.447	183.5
353.674	180.5
353.901	201.5
354.128	203.5
354.355	204.5
354.583	205.5
354.81	217.5
355.037	212.5
355.264	211.5
355.491	215.5
355.718	195.5
355.945	214.5
356.172	214.5
356.399	244.5
356.626	262.5
356.853	320.5
357.08	456.5
357.307	582.5
357.534	560.5
357.761	427.5
357.988	305.5
358.215	294.5
358.441	276.5
358.668	253.5
358.895	250.5
359.122	238.5
359.349	226.5
359.576	232.5
359.802	226.5
360.029	218.5
360.256	212.5
360.483	216.5
360.709	215.5
360.936	226.5
361.163	212.5
361.39	214.5
361.616	208.5
361.843	199.5
362.07	212.5
362.296	228.5
362.523	226.5
362.749	226.5
362.976	243.5
363.203	257.5
363.429	318.5
363.656	450.5
363.882	663.5
364.109	773.5
364.335	530.5
364.562	348.5
364.788	275.5
365.015	265.5
365.241	246.5
365.468	246.5
365.694	219.5
365.92	241.5
366.147	253.5
366.373	241.5
366.599	258.5
366.826	281.5
367.052	326.5
367.278	389.5
367.505	347.5
367.731	360.5
367.957	495.5
368.184	774.5
368.41	1000.5
368.636	835.5
368.862	514.5
369.089	383.5
369.315	337.5
369.541	290.5
369.767	267.5
369.993	255.5
370.219	248.5
370.445	251.5
370.672	242.5
370.898	232.5
371.124	218.5
371.35	237.5
371.576	230.5
371.802	216.5
372.028	235.5
372.254	238.5
372.48	241.5
372.706	234.5
372.932	240.5
373.158	249.5
373.384	264.5
373.61	360.5
373.835	498.5
374.061	654.5
374.287	585.5
374.513	383.5
374.739	292.5
374.965	281.5
375.191	259.5
375.416	231.5
375.642	230.5
375.868	217.5
376.094	220.5
376.319	208.5
376.545	212.5
376.771	214.5
376.997	216.5
377.222	202.5
377.448	209.5
377.674	202.5
377.899	230.5
378.125	221.5
378.35	225.5
378.576	223.5
378.802	242.5
379.027	233.5
379.253	215.5
379.478	217.5
379.704	208.5
379.929	214.5
380.155	209.5
380.38	207.5
380.606	205.5
380.831	216.5
381.057	206.5
381.282	208.5
381.507	224.5
381.733	211.5
381.958	204.5
382.184	213.5
382.409	214.5
382.634	213.5
382.86	224.5
383.085	217.5
383.31	205.5
383.535	207.5
383.761	222.5
383.986	231.5
384.211	230.5
384.436	234.5
384.662	238.5
384.887	214.5
385.112	226.5
385.337	224.5
385.562	222.5
385.787	213.5
386.013	217.5
386.238	218.5
386.463	230.5
386.688	247.5
386.913	217.5
387.138	225.5
387.363	206.5
387.588	211.5
387.813	223.5
388.038	209.5
388.263	226.5
388.488	212.5
388.713	229.5
388.938	228.5
389.163	220.5
389.387	216.5
389.612	210.5
389.837	205.5
390.062	189.5
390.287	206.5
390.512	208.5
390.736	214.5
390.961	230.5
391.186	218.5
391.411	228.5
391.636	225.5
391.86	216.5
392.085	228.5
392.31	213.5
392.534	226.5
392.759	231.5
392.984	226.5
393.208	226.5
393.433	237.5
393.658	218.5
393.882	223.5
394.107	207.5
394.331	220.5
394.556	199.5
394.78	219.5
395.005	229.5
395.229	219.5
395.454	230.5
395.678	233.5
395.903	221.5
396.127	230.5
396.352	243.5
396.576	233.5
396.801	209.5
397.025	218.5
397.249	218.5
397.474	220.5
397.698	209.5
397.922	221.5
398.147	232.5
398.371	236.5
398.595	257.5
398.82	238.5
399.044	241.5
399.268	251.5
399.492	257.5
399.717	268.5
399.941	272.5
400.165	263.5
400.389	257.5
400.613	253.5
400.837	254.5
401.062	264.5
401.286	232.5
401.51	254.5
401.734	296.5
401.958	314.5
402.182	310.5
402.406	261.5
402.63	262.5
402.854	253.5
403.078	262.5
403.302	254.5
403.526	263.5
403.75	252.5
403.974	268.5
404.198	272.5
404.422	302.5
404.645	343.5
404.869	332.5
405.093	382.5
405.317	495.5
405.541	824.5
405.765	1382.5
405.988	1615.5
406.212	1033.5
406.436	665.5
406.66	512.5
406.883	417.5
407.107	372.5
407.331	348.5
407.555	335.5
407.778	317.5
408.002	303.5
408.226	302.5
408.449	287.5
408.673	274.5
408.896	262.5
409.12	265.5
409.344	270.5
409.567	267.5
409.791	239.5
410.014	264.5
410.238	268.5
410.461	244.5
410.685	248.5
410.908	257.5
411.132	256.5
411.355	244.5
411.578	248.5
411.802	244.5
412.025	252.5
412.249	252.5
412.472	246.5
412.695	249.5
412.919	248.5
413.142	249.5
413.365	241.5
413.589	236.5
413.812	240.5
414.035	247.5
414.258	235.5
414.482	241.5
414.705	239.5
414.928	250.5
415.151	235.5
415.374	251.5
415.597	236.5
415.821	245.5
416.044	225.5
416.267	254.5
416.49	253.5
416.713	268.5
416.936	264.5
417.159	252.5
417.382	235.5
417.605	232.5
417.828	235.5
418.051	254.5
418.274	240.5
418.497	234.5
418.72	260.5
418.943	242.5
419.166	258.5
419.389	266.5
419.611	255.5
419.834	259.5
420.057	258.5
420.28	247.5
420.503	256.5
420.726	238.5
420.948	250.5
421.171	253.5
421.394	244.5
421.617	259.5
421.839	265.5
422.062	257.5
422.285	268.5
422.507	278.5
422.73	266.5
422.953	305.5
423.175	302.5
423.398	329.5
423.621	323.5
423.843	368.5
424.066	430.5
424.288	501.5
424.511	660.5
424.733	700.5
424.956	588.5
425.178	524.5
425.401	437.5
425.623	409.5
425.846	382.5
426.068	354.5
426.291	345.5
426.513	331.5
426.735	321.5
426.958	298.5
427.18	298.5
427.402	296.5
427.625	282.5
427.847	282.5
428.069	277.5
428.292	273.5
428.514	275.5
428.736	273.5
428.958	267.5
429.181	251.5
429.403	249.5
429.625	253.5
429.847	257.5
430.069	249.5
430.292	240.5
430.514	249.5
430.736	235.5
430.958	246.5
431.18	244.5
431.402	246.5
431.624	252.5
431.846	241.5
432.068	225.5
432.29	237.5
432.512	233.5
432.734	254.5
432.956	267.5
433.178	253.5
433.4	252.5
433.622	271.5
433.844	265.5
434.066	273.5
434.287	279.5
434.509	267.5
434.731	258.5
434.953	242.5
435.175	250.5
435.397	252.5
435.618	248.5
435.84	245.5
436.062	262.5
436.284	278.5
436.505	276.5
436.727	272.5
436.949	272.5
437.17	267.5
437.392	284.5
437.614	302.5
437.835	322.5
438.057	342.5
438.278	386.5
438.5	484.5
438.721	589.5
438.943	628.5
439.165	564.5
439.386	491.5
439.608	442.5
439.829	408.5
440.05	387.5
440.272	399.5
440.493	396.5
440.715	414.5
440.936	421.5
441.158	417.5
441.379	369.5
441.6	361.5
441.822	334.5
442.043	330.5
442.264	310.5
442.486	311.5
442.707	301.5
442.928	289.5
443.149	278.5
443.371	283.5
443.592	273.5
443.813	277.5
444.034	284.5
444.255	261.5
444.476	259.5
444.698	273.5
444.919	278.5
445.14	330.5
445.361	278.5
445.582	276.5
445.803	253.5
446.024	255.5
446.245	248.5
446.466	253.5
446.687	235.5
446.908	247.5
447.129	228.5
447.35	240.5
447.571	250.5
447.792	223.5
448.013	249.5
448.234	222.5
448.455	221.5
448.675	213.5
448.896	218.5
449.117	232.5
449.338	225.5
449.559	236.5
449.779	243.5
450	232.5
450.221	228.5
450.442	223.5
450.662	224.5
450.883	211.5
451.104	220.5
451.324	202.5
451.545	196.5
451.766	207.5
451.986	212.5
452.207	219.5
452.428	206.5
452.648	224.5
452.869	213.5
453.089	211.5
453.31	212.5
453.53	206.5
453.751	204.5
453.971	213.5
454.192	214.5
454.412	216.5
454.633	213.5
454.853	203.5
455.073	202.5
455.294	214.5
455.514	225.5
455.734	214.5
455.955	213.5
456.175	194.5
456.395	197.5
456.616	195.5
456.836	220.5
457.056	221.5
457.276	201.5
457.497	192.5
457.717	228.5
457.937	195.5
458.157	194.5
458.377	209.5
458.598	216.5
458.818	208.5
459.038	215.5
459.258	215.5
459.478	224.5
459.698	199.5
459.918	225.5
460.138	203.5
460.358	228.5
460.578	216.5
460.798	229.5
461.018	224.5
461.238	214.5
461.458	225.5
461.678	236.5
461.898	230.5
462.118	206.5
462.338	228.5
462.558	246.5
462.777	241.5
462.997	247.5
463.217	240.5
463.437	241.5
463.657	243.5
463.876	239.5
464.096	230.5
464.316	242.5
464.536	236.5
464.755	238.5
464.975	229.5
465.195	226.5
465.414	232.5
465.634	218.5
465.854	216.5
466.073	215.5
466.293	209.5
466.512	206.5
466.732	193.5
466.951	212.5
467.171	218.5
467.391	210.5
467.61	211.5
467.829	222.5
468.049	219.5
468.268	200.5
468.488	220.5
468.707	221.5
468.927	210.5
469.146	212.5
469.365	209.5
469.585	217.5
469.804	225.5
470.023	216.5
470.243	207.5
470.462	232.5
470.681	227.5
470.901	211.5
471.12	219.5
471.339	201.5
471.558	202.5
471.777	209.5
471.997	232.5
472.216	207.5
472.435	213.5
472.654	224.5
472.873	212.5
473.092	206.5
473.311	218.5
473.53	210.5
473.749	232.5
473.968	228.5
474.187	208.5
474.406	204.5
474.625	212.5
474.844	213.5
475.063	213.5
475.282	233.5
475.501	234.5
475.72	226.5
475.939	208.5
476.158	221.5
476.377	210.5
476.596	229.5
476.814	230.5
477.033	232.5
477.252	220.5
477.471	212.5
477.69	240.5
477.908	234.5
478.127	249.5
478.346	232.5
478.564	249.5
478.783	251.5
479.002	258.5
479.22	254.5
479.439	243.5
479.658	257.5
479.876	249.5
480.095	258.5
480.313	253.5
480.532	258.5
480.751	269.5
480.969	254.5
481.188	256.5
481.406	256.5
481.624	260.5
481.843	247.5
482.061	238.5
482.28	256.5
482.498	228.5
482.717	234.5
482.935	236.5
483.153	237.5
483.372	251.5
483.59	248.5
483.808	239.5
484.027	241.5
484.245	240.5
484.463	240.5
484.681	252.5
484.9	248.5
485.118	245.5
485.336	242.5
485.554	246.5
485.772	254.5
485.99	252.5
486.209	246.5
486.427	247.5
486.645	238.5
486.863	253.5
487.081	253.5
487.299	240.5
487.517	248.5
487.735	247.5
487.953	238.5
488.171	233.5
488.389	242.5
488.607	236.5
488.825	242.5
489.043	252.5
489.261	262.5
489.479	260.5
489.696	273.5
489.914	259.5
490.132	261.5
490.35	250.5
490.568	260.5
490.786	251.5
491.003	248.5
491.221	258.5
491.439	228.5
491.657	245.5
491.874	255.5
492.092	250.5
492.31	250.5
492.527	247.5
492.745	268.5
492.963	262.5
493.18	249.5
493.398	259.5
493.615	272.5
493.833	258.5
494.05	260.5
494.268	248.5
494.485	265.5
494.703	274.5
494.92	272.5
495.138	276.5
495.355	276.5
495.573	297.5
495.79	272.5
496.008	264.5
496.225	271.5
496.442	267.5
496.66	270.5
496.877	285.5
497.094	273.5
497.312	276.5
497.529	266.5
497.746	285.5
497.963	294.5
498.181	297.5
498.398	300.5
498.615	315.5
498.832	300.5
499.049	328.5
499.267	330.5
499.484	353.5
499.701	339.5
499.918	363.5
500.135	393.5
500.352	428.5
500.569	506.5
500.786	538.5
501.003	457.5
501.22	409.5
501.437	388.5
501.654	356.5
501.871	358.5
502.088	341.5
502.305	312.5
502.522	325.5
502.739	316.5
502.956	323.5
503.172	320.5
503.389	321.5
503.606	312.5
503.823	337.5
504.04	337.5
504.256	360.5
504.473	368.5
504.69	381.5
504.907	371.5
505.123	362.5
505.34	340.5
505.557	323.5
505.773	312.5
505.99	306.5
506.207	325.5
506.423	307.5
506.64	309.5
506.856	308.5
507.073	298.5
507.289	284.5
507.506	262.5
507.722	283.5
507.939	286.5
508.155	280.5
508.372	272.5
508.588	277.5
508.805	271.5
509.021	270.5
509.238	270.5
509.454	248.5
509.67	268.5
509.887	251.5
510.103	244.5
510.319	262.5
510.536	253.5
510.752	250.5
510.968	248.5
511.184	255.5
511.401	244.5
511.617	249.5
511.833	243.5
512.049	254.5
512.265	268.5
512.481	247.5
512.698	240.5
512.914	247.5
513.13	251.5
513.346	244.5
513.562	238.5
513.778	256.5
513.994	254.5
514.21	246.5
514.426	241.5
514.642	238.5
514.858	255.5
515.074	246.5
515.29	260.5
515.506	281.5
515.721	284.5
515.937	283.5
516.153	277.5
516.369	273.5
516.585	261.5
516.801	276.5
517.016	271.5
517.232	280.5
517.448	258.5
517.664	267.5
517.879	258.5
518.095	279.5
518.311	245.5
518.527	252.5
518.742	258.5
518.958	259.5
519.173	258.5
519.389	244.5
519.605	243.5
519.82	254.5
520.036	264.5
520.251	277.5
520.467	264.5
520.682	264.5
520.898	251.5
521.113	231.5
521.329	234.5
521.544	259.5
