Data from StdB_HRD10591_015.txt Node
Date: Fri May 16 15:24:53 EDT 2025
User: Yrep
Spectrometer: HR+D1059
Trigger mode: 1
Integration Time (sec): 1.000000E-1
Scans to average: 1
Electric dark correction enabled: true
Nonlinearity correction enabled: false
Boxcar width: 0
XAxis mode: Wavelengths
Number of Pixels in Spectrum: 2048
>>>>>Begin Spectral Data<<<<<
223.165	-22.75
223.4	-22.75
223.635	-22.75
223.869	-8.75
224.104	-31.75
224.338	-22.75
224.573	-12.75
224.808	3.25
225.042	-19.75
225.277	-5.75
225.511	2.25
225.746	-7.75
225.98	17.25
226.215	22.25
226.449	16.25
226.683	18.25
226.918	14.25
227.152	38.25
227.387	43.25
227.621	45.25
227.856	43.25
228.09	55.25
228.324	53.25
228.559	57.25
228.793	73.25
229.027	70.25
229.262	71.25
229.496	75.25
229.73	74.25
229.964	86.25
230.199	93.25
230.433	94.25
230.667	94.25
230.901	105.25
231.136	94.25
231.37	84.25
231.604	85.25
231.838	84.25
232.072	81.25
232.306	73.25
232.541	84.25
232.775	101.25
233.009	93.25
233.243	108.25
233.477	72.25
233.711	102.25
233.945	83.25
234.179	90.25
234.413	92.25
234.647	95.25
234.881	79.25
235.115	90.25
235.349	94.25
235.583	88.25
235.817	92.25
236.051	85.25
236.285	94.25
236.519	83.25
236.753	91.25
236.987	96.25
237.221	93.25
237.455	80.25
237.689	79.25
237.922	77.25
238.156	88.25
238.39	83.25
238.624	94.25
238.858	92.25
239.091	86.25
239.325	93.25
239.559	83.25
239.793	107.25
240.027	104.25
240.26	111.25
240.494	107.25
240.728	93.25
240.961	92.25
241.195	107.25
241.429	97.25
241.662	92.25
241.896	95.25
242.13	106.25
242.363	105.25
242.597	98.25
242.83	96.25
243.064	96.25
243.298	100.25
243.531	96.25
243.765	93.25
243.998	93.25
244.232	109.25
244.465	113.25
244.699	122.25
244.932	113.25
245.166	104.25
245.399	94.25
245.633	97.25
245.866	109.25
246.099	95.25
246.333	106.25
246.566	106.25
246.8	107.25
247.033	114.25
247.266	98.25
247.5	101.25
247.733	115.25
247.966	133.25
248.2	116.25
248.433	121.25
248.666	114.25
248.899	100.25
249.133	109.25
249.366	109.25
249.599	110.25
249.832	117.25
250.066	118.25
250.299	108.25
250.532	101.25
250.765	102.25
250.998	119.25
251.231	113.25
251.465	119.25
251.698	115.25
251.931	124.25
252.164	129.25
252.397	133.25
252.63	123.25
252.863	117.25
253.096	128.25
253.329	123.25
253.562	137.25
253.795	146.25
254.028	131.25
254.261	145.25
254.494	124.25
254.727	135.25
254.96	128.25
255.193	136.25
255.426	125.25
255.659	145.25
255.892	146.25
256.124	128.25
256.357	140.25
256.59	124.25
256.823	140.25
257.056	125.25
257.289	141.25
257.521	154.25
257.754	178.25
257.987	188.25
258.22	174.25
258.452	165.25
258.685	155.25
258.918	156.25
259.151	155.25
259.383	150.25
259.616	148.25
259.849	136.25
260.081	146.25
260.314	151.25
260.547	164.25
260.779	164.25
261.012	199.25
261.244	252.25
261.477	322.25
261.71	330.25
261.942	236.25
262.175	182.25
262.407	159.25
262.64	150.25
262.872	154.25
263.105	152.25
263.337	160.25
263.57	162.25
263.802	149.25
264.035	164.25
264.267	157.25
264.499	139.25
264.732	157.25
264.964	193.25
265.197	193.25
265.429	177.25
265.661	154.25
265.894	153.25
266.126	174.25
266.358	207.25
266.591	242.25
266.823	215.25
267.055	165.25
267.287	155.25
267.52	138.25
267.752	123.25
267.984	140.25
268.216	147.25
268.448	143.25
268.681	134.25
268.913	117.25
269.145	134.25
269.377	128.25
269.609	131.25
269.841	146.25
270.073	147.25
270.306	131.25
270.538	131.25
270.77	133.25
271.002	145.25
271.234	147.25
271.466	137.25
271.698	134.25
271.93	139.25
272.162	134.25
272.394	146.25
272.626	131.25
272.858	115.25
273.09	149.25
273.322	145.25
273.553	138.25
273.785	133.25
274.017	159.25
274.249	140.25
274.481	141.25
274.713	141.25
274.945	138.25
275.176	147.25
275.408	141.25
275.64	136.25
275.872	134.25
276.104	156.25
276.335	155.25
276.567	134.25
276.799	151.25
277.031	139.25
277.262	152.25
277.494	152.25
277.726	159.25
277.957	175.25
278.189	174.25
278.421	165.25
278.652	196.25
278.884	184.25
279.115	211.25
279.347	238.25
279.579	267.25
279.81	343.25
280.042	452.25
280.273	519.25
280.505	444.25
280.736	330.25
280.968	246.25
281.199	216.25
281.431	214.25
281.662	218.25
281.894	220.25
282.125	241.25
282.356	290.25
282.588	268.25
282.819	241.25
283.051	275.25
283.282	338.25
283.513	398.25
283.745	304.25
283.976	239.25
284.207	190.25
284.439	200.25
284.67	191.25
284.901	175.25
285.132	181.25
285.364	154.25
285.595	156.25
285.826	182.25
286.057	174.25
286.288	170.25
286.52	192.25
286.751	214.25
286.982	227.25
287.213	285.25
287.444	308.25
287.675	275.25
287.906	217.25
288.138	180.25
288.369	175.25
288.6	165.25
288.831	175.25
289.062	157.25
289.293	162.25
289.524	154.25
289.755	149.25
289.986	164.25
290.217	147.25
290.448	166.25
290.679	162.25
290.91	154.25
291.141	147.25
291.371	140.25
291.602	145.25
291.833	167.25
292.064	165.25
292.295	152.25
292.526	158.25
292.757	150.25
292.987	168.25
293.218	164.25
293.449	163.25
293.68	180.25
293.91	165.25
294.141	169.25
294.372	164.25
294.603	179.25
294.833	156.25
295.064	178.25
295.295	184.25
295.525	166.25
295.756	172.25
295.987	192.25
296.217	159.25
296.448	169.25
296.679	160.25
296.909	178.25
297.14	177.25
297.37	169.25
297.601	167.25
297.831	162.25
298.062	170.25
298.292	188.25
298.523	173.25
298.753	142.25
298.984	154.25
299.214	164.25
299.445	160.25
299.675	171.25
299.905	157.25
300.136	173.25
300.366	167.25
300.597	152.25
300.827	170.25
301.057	173.25
301.288	160.25
301.518	176.25
301.748	183.25
301.979	179.25
302.209	179.25
302.439	182.25
302.669	188.25
302.9	178.25
303.13	181.25
303.36	163.25
303.59	189.25
303.82	167.25
304.051	183.25
304.281	178.25
304.511	172.25
304.741	200.25
304.971	164.25
305.201	181.25
305.431	179.25
305.661	173.25
305.891	170.25
306.121	168.25
306.352	178.25
306.582	182.25
306.812	181.25
307.042	182.25
307.272	175.25
307.502	159.25
307.731	180.25
307.961	171.25
308.191	166.25
308.421	180.25
308.651	186.25
308.881	196.25
309.111	170.25
309.341	167.25
309.571	179.25
309.8	187.25
310.03	179.25
310.26	188.25
310.49	171.25
310.72	183.25
310.949	190.25
311.179	178.25
311.409	172.25
311.639	189.25
311.868	178.25
312.098	172.25
312.328	191.25
312.557	191.25
312.787	193.25
313.017	192.25
313.246	192.25
313.476	219.25
313.706	202.25
313.935	229.25
314.165	206.25
314.394	216.25
314.624	215.25
314.853	223.25
315.083	232.25
315.312	216.25
315.542	217.25
315.771	216.25
316.001	204.25
316.23	210.25
316.46	189.25
316.689	190.25
316.919	202.25
317.148	217.25
317.377	199.25
317.607	200.25
317.836	210.25
318.065	206.25
318.295	197.25
318.524	204.25
318.753	179.25
318.983	192.25
319.212	206.25
319.441	182.25
319.67	190.25
319.9	175.25
320.129	195.25
320.358	179.25
320.587	186.25
320.816	178.25
321.046	186.25
321.275	197.25
321.504	178.25
321.733	195.25
321.962	198.25
322.191	186.25
322.42	202.25
322.649	197.25
322.878	181.25
323.108	187.25
323.337	192.25
323.566	190.25
323.795	190.25
324.024	197.25
324.253	180.25
324.482	178.25
324.71	202.25
324.939	202.25
325.168	212.25
325.397	193.25
325.626	196.25
325.855	178.25
326.084	178.25
326.313	195.25
326.542	181.25
326.77	202.25
326.999	198.25
327.228	188.25
327.457	197.25
327.686	202.25
327.914	196.25
328.143	209.25
328.372	192.25
328.6	194.25
328.829	196.25
329.058	188.25
329.287	178.25
329.515	186.25
329.744	199.25
329.972	198.25
330.201	202.25
330.43	206.25
330.658	192.25
330.887	191.25
331.115	197.25
331.344	182.25
331.572	196.25
331.801	189.25
332.03	200.25
332.258	198.25
332.486	184.25
332.715	194.25
332.943	215.25
333.172	186.25
333.4	191.25
333.629	201.25
333.857	206.25
334.085	207.25
334.314	206.25
334.542	189.25
334.771	204.25
334.999	209.25
335.227	209.25
335.455	197.25
335.684	196.25
335.912	217.25
336.14	180.25
336.369	192.25
336.597	205.25
336.825	210.25
337.053	188.25
337.281	204.25
337.51	197.25
337.738	185.25
337.966	171.25
338.194	183.25
338.422	202.25
338.65	190.25
338.878	200.25
339.106	198.25
339.334	190.25
339.562	188.25
339.79	184.25
340.018	197.25
340.246	188.25
340.474	192.25
340.702	184.25
340.93	195.25
341.158	196.25
341.386	181.25
341.614	210.25
341.842	202.25
342.07	200.25
342.298	180.25
342.526	186.25
342.754	189.25
342.981	189.25
343.209	208.25
343.437	194.25
343.665	203.25
343.893	202.25
344.12	190.25
344.348	204.25
344.576	210.25
344.804	187.25
345.031	196.25
345.259	197.25
345.487	190.25
345.714	203.25
345.942	197.25
346.17	190.25
346.397	184.25
346.625	200.25
346.853	196.25
347.08	192.25
347.308	205.25
347.535	186.25
347.763	201.25
347.99	197.25
348.218	193.25
348.445	185.25
348.673	186.25
348.9	202.25
349.128	198.25
349.355	192.25
349.583	199.25
349.81	200.25
350.037	185.25
350.265	187.25
350.492	197.25
350.72	190.25
350.947	186.25
351.174	191.25
351.402	187.25
351.629	189.25
351.856	183.25
352.083	184.25
352.311	190.25
352.538	202.25
352.765	196.25
352.992	186.25
353.22	192.25
353.447	194.25
353.674	190.25
353.901	198.25
354.128	206.25
354.355	207.25
354.583	192.25
354.81	184.25
355.037	217.25
355.264	211.25
355.491	201.25
355.718	213.25
355.945	206.25
356.172	229.25
356.399	223.25
356.626	264.25
356.853	317.25
357.08	438.25
357.307	563.25
357.534	566.25
357.761	405.25
357.988	321.25
358.215	291.25
358.441	257.25
358.668	236.25
358.895	237.25
359.122	235.25
359.349	220.25
359.576	226.25
359.802	208.25
360.029	209.25
360.256	207.25
360.483	235.25
360.709	216.25
360.936	212.25
361.163	216.25
361.39	213.25
361.616	213.25
361.843	230.25
362.07	227.25
362.296	223.25
362.523	230.25
362.749	220.25
362.976	236.25
363.203	249.25
363.429	301.25
363.656	442.25
363.882	648.25
364.109	754.25
364.335	550.25
364.562	366.25
364.788	277.25
365.015	274.25
365.241	255.25
365.468	226.25
365.694	229.25
365.92	230.25
366.147	245.25
366.373	251.25
366.599	258.25
366.826	265.25
367.052	304.25
367.278	344.25
367.505	348.25
367.731	367.25
367.957	488.25
368.184	729.25
368.41	983.25
368.636	861.25
368.862	510.25
369.089	382.25
369.315	315.25
369.541	284.25
369.767	268.25
369.993	275.25
370.219	241.25
370.445	239.25
370.672	224.25
370.898	224.25
371.124	229.25
371.35	231.25
371.576	240.25
371.802	237.25
372.028	229.25
372.254	215.25
372.48	234.25
372.706	238.25
372.932	234.25
373.158	235.25
373.384	262.25
373.61	340.25
373.835	479.25
374.061	644.25
374.287	582.25
374.513	383.25
374.739	298.25
374.965	275.25
375.191	253.25
375.416	254.25
375.642	254.25
375.868	235.25
376.094	222.25
376.319	224.25
376.545	222.25
376.771	221.25
376.997	229.25
377.222	207.25
377.448	202.25
377.674	203.25
377.899	218.25
378.125	219.25
378.35	216.25
378.576	223.25
378.802	215.25
379.027	244.25
379.253	237.25
379.478	218.25
379.704	210.25
379.929	206.25
380.155	223.25
380.38	216.25
380.606	213.25
380.831	182.25
381.057	192.25
381.282	199.25
381.507	194.25
381.733	214.25
381.958	227.25
382.184	218.25
382.409	212.25
382.634	210.25
382.86	214.25
383.085	220.25
383.31	204.25
383.535	218.25
383.761	210.25
383.986	230.25
384.211	216.25
384.436	198.25
384.662	214.25
384.887	229.25
385.112	223.25
385.337	219.25
385.562	231.25
385.787	228.25
386.013	245.25
386.238	214.25
386.463	211.25
386.688	232.25
386.913	226.25
387.138	227.25
387.363	220.25
387.588	226.25
387.813	223.25
388.038	218.25
388.263	209.25
388.488	208.25
388.713	243.25
388.938	220.25
389.163	227.25
389.387	221.25
389.612	216.25
389.837	215.25
390.062	208.25
390.287	215.25
390.512	225.25
390.736	217.25
390.961	239.25
391.186	231.25
391.411	223.25
391.636	211.25
391.86	224.25
392.085	222.25
392.31	216.25
392.534	220.25
392.759	218.25
392.984	223.25
393.208	234.25
393.433	231.25
393.658	226.25
393.882	222.25
394.107	218.25
394.331	218.25
394.556	219.25
394.78	217.25
395.005	219.25
395.229	221.25
395.454	213.25
395.678	243.25
395.903	207.25
396.127	215.25
396.352	218.25
396.576	213.25
396.801	242.25
397.025	222.25
397.249	243.25
397.474	223.25
397.698	216.25
397.922	210.25
398.147	239.25
398.371	227.25
398.595	247.25
398.82	254.25
399.044	248.25
399.268	251.25
399.492	260.25
399.717	262.25
399.941	252.25
400.165	251.25
400.389	264.25
400.613	239.25
400.837	268.25
401.062	234.25
401.286	251.25
401.51	269.25
401.734	265.25
401.958	304.25
402.182	287.25
402.406	266.25
402.63	254.25
402.854	265.25
403.078	264.25
403.302	263.25
403.526	266.25
403.75	258.25
403.974	278.25
404.198	273.25
404.422	304.25
404.645	316.25
404.869	327.25
405.093	380.25
405.317	512.25
405.541	804.25
405.765	1372.25
405.988	1560.25
406.212	1020.25
406.436	680.25
406.66	475.25
406.883	415.25
407.107	372.25
407.331	358.25
407.555	325.25
407.778	300.25
408.002	285.25
408.226	298.25
408.449	284.25
408.673	274.25
408.896	280.25
409.12	263.25
409.344	266.25
409.567	264.25
409.791	269.25
410.014	247.25
410.238	255.25
410.461	258.25
410.685	261.25
410.908	247.25
411.132	240.25
411.355	244.25
411.578	264.25
411.802	248.25
412.025	258.25
412.249	248.25
412.472	252.25
412.695	222.25
412.919	243.25
413.142	255.25
413.365	251.25
413.589	224.25
413.812	236.25
414.035	234.25
414.258	245.25
414.482	244.25
414.705	240.25
414.928	241.25
415.151	253.25
415.374	233.25
415.597	240.25
415.821	238.25
416.044	241.25
416.267	249.25
416.49	255.25
416.713	280.25
416.936	275.25
417.159	247.25
417.382	243.25
417.605	232.25
417.828	244.25
418.051	258.25
418.274	244.25
418.497	230.25
418.72	238.25
418.943	224.25
419.166	237.25
419.389	254.25
419.611	254.25
419.834	251.25
420.057	228.25
420.28	247.25
420.503	242.25
420.726	255.25
420.948	253.25
421.171	253.25
421.394	266.25
421.617	265.25
421.839	251.25
422.062	268.25
422.285	258.25
422.507	282.25
422.73	280.25
422.953	295.25
423.175	303.25
423.398	327.25
423.621	343.25
423.843	368.25
424.066	450.25
424.288	500.25
424.511	644.25
424.733	715.25
424.956	610.25
425.178	485.25
425.401	446.25
425.623	413.25
425.846	375.25
426.068	356.25
426.291	346.25
426.513	347.25
426.735	339.25
426.958	311.25
427.18	297.25
427.402	283.25
427.625	280.25
427.847	265.25
428.069	277.25
428.292	251.25
428.514	271.25
428.736	262.25
428.958	260.25
429.181	262.25
429.403	268.25
429.625	249.25
429.847	267.25
430.069	253.25
430.292	245.25
430.514	237.25
430.736	244.25
430.958	239.25
431.18	240.25
431.402	233.25
431.624	228.25
431.846	226.25
432.068	268.25
432.29	249.25
432.512	228.25
432.734	229.25
432.956	244.25
433.178	259.25
433.4	249.25
433.622	253.25
433.844	279.25
434.066	279.25
434.287	280.25
434.509	261.25
434.731	266.25
434.953	255.25
435.175	263.25
435.397	262.25
435.618	261.25
435.84	254.25
436.062	260.25
436.284	264.25
436.505	263.25
436.727	274.25
436.949	267.25
437.17	286.25
437.392	286.25
437.614	314.25
437.835	340.25
438.057	368.25
438.278	389.25
438.5	454.25
438.721	592.25
438.943	646.25
439.165	562.25
439.386	504.25
439.608	446.25
439.829	420.25
440.05	398.25
440.272	375.25
440.493	380.25
440.715	424.25
440.936	460.25
441.158	466.25
441.379	388.25
441.6	370.25
441.822	337.25
442.043	319.25
442.264	293.25
442.486	293.25
442.707	286.25
442.928	276.25
443.149	283.25
443.371	291.25
443.592	265.25
443.813	282.25
444.034	263.25
444.255	269.25
444.476	253.25
444.698	272.25
444.919	264.25
445.14	335.25
445.361	284.25
445.582	255.25
445.803	251.25
446.024	263.25
446.245	236.25
446.466	238.25
446.687	238.25
446.908	238.25
447.129	229.25
447.35	215.25
447.571	226.25
447.792	228.25
448.013	239.25
448.234	226.25
448.455	215.25
448.675	233.25
448.896	234.25
449.117	214.25
449.338	250.25
449.559	229.25
449.779	233.25
450	245.25
450.221	216.25
450.442	224.25
450.662	205.25
450.883	211.25
451.104	217.25
451.324	226.25
451.545	226.25
451.766	223.25
451.986	230.25
452.207	212.25
452.428	225.25
452.648	221.25
452.869	203.25
453.089	209.25
453.31	220.25
453.53	195.25
453.751	215.25
453.971	219.25
454.192	192.25
454.412	199.25
454.633	215.25
454.853	202.25
455.073	222.25
455.294	204.25
455.514	210.25
455.734	200.25
455.955	213.25
456.175	209.25
456.395	191.25
456.616	213.25
456.836	207.25
457.056	198.25
457.276	201.25
457.497	213.25
457.717	220.25
457.937	208.25
458.157	208.25
458.377	206.25
458.598	218.25
458.818	205.25
459.038	198.25
459.258	199.25
459.478	208.25
459.698	208.25
459.918	215.25
460.138	212.25
460.358	216.25
460.578	225.25
460.798	235.25
461.018	235.25
461.238	229.25
461.458	230.25
461.678	220.25
461.898	243.25
462.118	228.25
462.338	233.25
462.558	238.25
462.777	231.25
462.997	245.25
463.217	248.25
463.437	242.25
463.657	243.25
463.876	222.25
464.096	219.25
464.316	232.25
464.536	229.25
464.755	232.25
464.975	231.25
465.195	220.25
465.414	212.25
465.634	214.25
465.854	228.25
466.073	221.25
466.293	212.25
466.512	203.25
466.732	204.25
466.951	211.25
467.171	216.25
467.391	214.25
467.61	208.25
467.829	224.25
468.049	214.25
468.268	206.25
468.488	207.25
468.707	218.25
468.927	204.25
469.146	201.25
469.365	194.25
469.585	210.25
469.804	227.25
470.023	222.25
470.243	215.25
470.462	214.25
470.681	234.25
470.901	221.25
471.12	222.25
471.339	218.25
471.558	221.25
471.777	224.25
471.997	227.25
472.216	203.25
472.435	219.25
472.654	222.25
472.873	228.25
473.092	226.25
473.311	217.25
473.53	217.25
473.749	223.25
473.968	229.25
474.187	220.25
474.406	205.25
474.625	216.25
474.844	205.25
475.063	212.25
475.282	214.25
475.501	214.25
475.72	227.25
475.939	222.25
476.158	215.25
476.377	239.25
476.596	210.25
476.814	234.25
477.033	226.25
477.252	226.25
477.471	228.25
477.69	247.25
477.908	254.25
478.127	255.25
478.346	249.25
478.564	260.25
478.783	258.25
479.002	260.25
479.22	262.25
479.439	260.25
479.658	226.25
479.876	249.25
480.095	242.25
480.313	256.25
480.532	261.25
480.751	263.25
480.969	251.25
481.188	258.25
481.406	252.25
481.624	245.25
481.843	223.25
482.061	243.25
482.28	252.25
482.498	239.25
482.717	228.25
482.935	255.25
483.153	234.25
483.372	230.25
483.59	245.25
483.808	238.25
484.027	228.25
484.245	234.25
484.463	235.25
484.681	254.25
484.9	251.25
485.118	261.25
485.336	253.25
485.554	250.25
485.772	235.25
485.99	242.25
486.209	256.25
486.427	248.25
486.645	247.25
486.863	242.25
487.081	256.25
487.299	235.25
487.517	240.25
487.735	246.25
487.953	246.25
488.171	259.25
488.389	253.25
488.607	260.25
488.825	246.25
489.043	248.25
489.261	281.25
489.479	250.25
489.696	259.25
489.914	253.25
490.132	249.25
490.35	257.25
490.568	242.25
490.786	246.25
491.003	267.25
491.221	260.25
491.439	249.25
491.657	238.25
491.874	251.25
492.092	268.25
492.31	257.25
492.527	250.25
492.745	251.25
492.963	244.25
493.18	257.25
493.398	254.25
493.615	278.25
493.833	271.25
494.05	253.25
494.268	264.25
494.485	274.25
494.703	262.25
494.92	256.25
495.138	260.25
495.355	250.25
495.573	316.25
495.79	278.25
496.008	290.25
496.225	262.25
496.442	265.25
496.66	271.25
496.877	275.25
497.094	269.25
497.312	278.25
497.529	269.25
497.746	291.25
497.963	268.25
498.181	284.25
498.398	296.25
498.615	292.25
498.832	301.25
499.049	317.25
499.267	341.25
499.484	338.25
499.701	357.25
499.918	368.25
500.135	392.25
500.352	410.25
500.569	485.25
500.786	547.25
501.003	456.25
501.22	388.25
501.437	392.25
501.654	365.25
501.871	373.25
502.088	341.25
502.305	338.25
502.522	331.25
502.739	318.25
502.956	315.25
503.172	307.25
503.389	327.25
503.606	334.25
