Data from Uncirc_1997_H10_HRD10591_00026.txt Node
Date: Wed Jan 03 11:28:35 EST 2024
User: Yrep
Spectrometer: HR+D1059
Trigger mode: 1
Integration Time (sec): 1.000000E-1
Scans to average: 1
Electric dark correction enabled: true
Nonlinearity correction enabled: false
Boxcar width: 0
XAxis mode: Wavelengths
Number of Pixels in Spectrum: 2048
>>>>>Begin Spectral Data<<<<<
223.165	-14.62
223.4	-14.62
223.635	-14.62
223.869	-17.62
224.104	-10.62
224.338	-19.62
224.573	-8.62
224.808	3.38
225.042	-11.62
225.277	-2.62
225.511	-10.62
225.746	6.38
225.98	8.38
226.215	14.38
226.449	13.38
226.683	17.38
226.918	12.38
227.152	20.38
227.387	38.38
227.621	39.38
227.856	47.38
228.09	33.38
228.324	60.38
228.559	59.38
228.793	61.38
229.027	56.38
229.262	73.38
229.496	62.38
229.73	77.38
229.964	74.38
230.199	79.38
230.433	71.38
230.667	72.38
230.901	83.38
231.136	99.38
231.37	94.38
231.604	86.38
231.838	78.38
232.072	83.38
232.306	76.38
232.541	76.38
232.775	91.38
233.009	77.38
233.243	76.38
233.477	81.38
233.711	86.38
233.945	79.38
234.179	79.38
234.413	74.38
234.647	72.38
234.881	73.38
235.115	72.38
235.349	83.38
235.583	71.38
235.817	75.38
236.051	76.38
236.285	76.38
236.519	73.38
236.753	74.38
236.987	71.38
237.221	89.38
237.455	84.38
237.689	59.38
237.922	79.38
238.156	63.38
238.39	73.38
238.624	84.38
238.858	82.38
239.091	69.38
239.325	77.38
239.559	89.38
239.793	72.38
240.027	81.38
240.26	71.38
240.494	73.38
240.728	93.38
240.961	75.38
241.195	79.38
241.429	74.38
241.662	83.38
241.896	78.38
242.13	78.38
242.363	74.38
242.597	81.38
242.83	85.38
243.064	87.38
243.298	52.38
243.531	81.38
243.765	69.38
243.998	72.38
244.232	86.38
244.465	75.38
244.699	84.38
244.932	68.38
245.166	68.38
245.399	81.38
245.633	72.38
245.866	83.38
246.099	78.38
246.333	64.38
246.566	76.38
246.8	74.38
247.033	86.38
247.266	86.38
247.5	76.38
247.733	67.38
247.966	87.38
248.2	74.38
248.433	82.38
248.666	72.38
248.899	76.38
249.133	78.38
249.366	103.38
249.599	90.38
249.832	86.38
250.066	76.38
250.299	77.38
250.532	76.38
250.765	81.38
250.998	91.38
251.231	79.38
251.465	68.38
251.698	84.38
251.931	73.38
252.164	71.38
252.397	96.38
252.63	75.38
252.863	77.38
253.096	77.38
253.329	69.38
253.562	71.38
253.795	80.38
254.028	71.38
254.261	85.38
254.494	95.38
254.727	86.38
254.96	69.38
255.193	87.38
255.426	72.38
255.659	79.38
255.892	95.38
256.124	79.38
256.357	92.38
256.59	81.38
256.823	74.38
257.056	77.38
257.289	79.38
257.521	82.38
257.754	83.38
257.987	80.38
258.22	77.38
258.452	87.38
258.685	83.38
258.918	92.38
259.151	74.38
259.383	76.38
259.616	84.38
259.849	89.38
260.081	97.38
260.314	89.38
260.547	80.38
260.779	89.38
261.012	73.38
261.244	75.38
261.477	89.38
261.71	70.38
261.942	115.38
262.175	97.38
262.407	86.38
262.64	104.38
262.872	99.38
263.105	71.38
263.337	80.38
263.57	68.38
263.802	74.38
264.035	82.38
264.267	74.38
264.499	87.38
264.732	86.38
264.964	83.38
265.197	83.38
265.429	84.38
265.661	78.38
265.894	66.38
266.126	90.38
266.358	80.38
266.591	80.38
266.823	78.38
267.055	79.38
267.287	69.38
267.52	63.38
267.752	90.38
267.984	90.38
268.216	79.38
268.448	83.38
268.681	95.38
268.913	93.38
269.145	85.38
269.377	80.38
269.609	72.38
269.841	62.38
270.073	81.38
270.306	79.38
270.538	91.38
270.77	73.38
271.002	87.38
271.234	89.38
271.466	81.38
271.698	87.38
271.93	83.38
272.162	83.38
272.394	94.38
272.626	84.38
272.858	89.38
273.09	99.38
273.322	83.38
273.553	85.38
273.785	94.38
274.017	77.38
274.249	96.38
274.481	81.38
274.713	70.38
274.945	80.38
275.176	91.38
275.408	85.38
275.64	73.38
275.872	70.38
276.104	85.38
276.335	81.38
276.567	92.38
276.799	99.38
277.031	95.38
277.262	93.38
277.494	76.38
277.726	91.38
277.957	75.38
278.189	83.38
278.421	77.38
278.652	79.38
278.884	88.38
279.115	83.38
279.347	96.38
279.579	78.38
279.81	87.38
280.042	87.38
280.273	76.38
280.505	79.38
280.736	79.38
280.968	88.38
281.199	76.38
281.431	84.38
281.662	73.38
281.894	92.38
282.125	91.38
282.356	119.38
282.588	116.38
282.819	105.38
283.051	78.38
283.282	86.38
283.513	97.38
283.745	86.38
283.976	90.38
284.207	89.38
284.439	78.38
284.67	75.38
284.901	93.38
285.132	92.38
285.364	78.38
285.595	73.38
285.826	89.38
286.057	83.38
286.288	77.38
286.52	77.38
286.751	77.38
286.982	76.38
287.213	91.38
287.444	87.38
287.675	87.38
287.906	100.38
288.138	98.38
288.369	76.38
288.6	91.38
288.831	88.38
289.062	94.38
289.293	104.38
289.524	91.38
289.755	86.38
289.986	86.38
290.217	76.38
290.448	84.38
290.679	86.38
290.91	83.38
291.141	93.38
291.371	90.38
291.602	74.38
291.833	70.38
292.064	80.38
292.295	81.38
292.526	90.38
292.757	87.38
292.987	81.38
293.218	94.38
293.449	92.38
293.68	82.38
293.91	99.38
294.141	87.38
294.372	83.38
294.603	92.38
294.833	80.38
295.064	85.38
295.295	87.38
295.525	88.38
295.756	101.38
295.987	95.38
296.217	125.38
296.448	97.38
296.679	85.38
296.909	80.38
297.14	76.38
297.37	84.38
297.601	85.38
297.831	96.38
298.062	80.38
298.292	90.38
298.523	81.38
298.753	89.38
298.984	91.38
299.214	88.38
299.445	87.38
299.675	100.38
299.905	88.38
300.136	90.38
300.366	79.38
300.597	88.38
300.827	91.38
301.057	82.38
301.288	89.38
301.518	95.38
301.748	85.38
301.979	95.38
302.209	91.38
302.439	102.38
302.669	95.38
302.9	95.38
303.13	92.38
303.36	91.38
303.59	91.38
303.82	97.38
304.051	81.38
304.281	86.38
304.511	87.38
304.741	98.38
304.971	89.38
305.201	87.38
305.431	97.38
305.661	88.38
305.891	76.38
306.121	78.38
306.352	96.38
306.582	104.38
306.812	97.38
307.042	93.38
307.272	85.38
307.502	95.38
307.731	91.38
307.961	86.38
308.191	79.38
308.421	82.38
308.651	85.38
308.881	84.38
309.111	86.38
309.341	107.38
309.571	94.38
309.8	86.38
310.03	84.38
310.26	87.38
310.49	89.38
310.72	104.38
310.949	88.38
311.179	86.38
311.409	94.38
311.639	89.38
311.868	86.38
312.098	101.38
312.328	105.38
312.557	91.38
312.787	99.38
313.017	95.38
313.246	101.38
313.476	85.38
313.706	86.38
313.935	81.38
314.165	99.38
314.394	91.38
314.624	80.38
314.853	107.38
315.083	87.38
315.312	70.38
315.542	80.38
315.771	90.38
316.001	107.38
316.23	84.38
316.46	96.38
316.689	78.38
316.919	95.38
317.148	103.38
317.377	99.38
317.607	100.38
317.836	87.38
318.065	86.38
318.295	75.38
318.524	79.38
318.753	87.38
318.983	94.38
319.212	103.38
319.441	96.38
319.67	90.38
319.9	95.38
320.129	89.38
320.358	90.38
320.587	93.38
320.816	89.38
321.046	106.38
321.275	104.38
321.504	94.38
321.733	85.38
321.962	104.38
322.191	84.38
322.42	102.38
322.649	86.38
322.878	115.38
323.108	108.38
323.337	119.38
323.566	109.38
323.795	152.38
324.024	192.38
324.253	375.38
324.482	761.38
324.71	1552.38
324.939	2023.38
325.168	723.38
325.397	238.38
325.626	147.38
325.855	139.38
326.084	113.38
326.313	131.38
326.542	138.38
326.77	208.38
326.999	424.38
327.228	870.38
327.457	1615.38
327.686	1247.38
327.914	328.38
328.143	179.38
328.372	131.38
328.6	104.38
328.829	96.38
329.058	99.38
329.287	122.38
329.515	108.38
329.744	84.38
329.972	84.38
330.201	94.38
330.43	120.38
330.658	108.38
330.887	136.38
331.115	125.38
331.344	108.38
331.572	89.38
331.801	90.38
332.03	95.38
332.258	102.38
332.486	79.38
332.715	96.38
332.943	87.38
333.172	92.38
333.4	80.38
333.629	82.38
333.857	96.38
334.085	104.38
334.314	99.38
334.542	107.38
334.771	101.38
334.999	81.38
335.227	85.38
335.455	93.38
335.684	89.38
335.912	99.38
336.14	90.38
336.369	96.38
336.597	97.38
336.825	91.38
337.053	102.38
337.281	89.38
337.51	80.38
337.738	103.38
337.966	92.38
338.194	83.38
338.422	109.38
338.65	79.38
338.878	94.38
339.106	94.38
339.334	87.38
339.562	89.38
339.79	90.38
340.018	73.38
340.246	76.38
340.474	91.38
340.702	89.38
340.93	101.38
341.158	85.38
341.386	86.38
341.614	92.38
341.842	97.38
342.07	89.38
342.298	81.38
342.526	90.38
342.754	81.38
342.981	86.38
343.209	84.38
343.437	91.38
343.665	103.38
343.893	92.38
344.12	98.38
344.348	81.38
344.576	86.38
344.804	96.38
345.031	91.38
345.259	93.38
345.487	98.38
345.714	81.38
345.942	77.38
346.17	93.38
346.397	93.38
346.625	93.38
346.853	97.38
347.08	87.38
347.308	84.38
347.535	87.38
347.763	106.38
347.99	95.38
348.218	96.38
348.445	104.38
348.673	93.38
348.9	85.38
349.128	98.38
349.355	96.38
349.583	92.38
349.81	92.38
350.037	104.38
350.265	94.38
350.492	97.38
350.72	106.38
350.947	100.38
351.174	112.38
351.402	92.38
351.629	95.38
351.856	93.38
352.083	101.38
352.311	95.38
352.538	92.38
352.765	117.38
352.992	120.38
353.22	116.38
353.447	97.38
353.674	88.38
353.901	101.38
354.128	88.38
354.355	93.38
354.583	100.38
354.81	99.38
355.037	90.38
355.264	89.38
355.491	71.38
355.718	95.38
355.945	87.38
356.172	93.38
356.399	95.38
356.626	103.38
356.853	82.38
357.08	92.38
357.307	94.38
357.534	86.38
357.761	84.38
357.988	91.38
358.215	78.38
358.441	89.38
358.668	97.38
358.895	90.38
359.122	86.38
359.349	97.38
359.576	80.38
359.802	100.38
360.029	94.38
360.256	97.38
360.483	90.38
360.709	80.38
360.936	100.38
361.163	90.38
361.39	96.38
361.616	92.38
361.843	95.38
362.07	94.38
362.296	98.38
362.523	88.38
362.749	91.38
362.976	90.38
363.203	85.38
363.429	100.38
363.656	83.38
363.882	63.38
364.109	80.38
364.335	85.38
364.562	89.38
364.788	97.38
365.015	83.38
365.241	93.38
365.468	94.38
365.694	107.38
365.92	96.38
366.147	96.38
366.373	76.38
366.599	78.38
366.826	81.38
367.052	87.38
367.278	95.38
367.505	90.38
367.731	99.38
367.957	78.38
368.184	96.38
368.41	96.38
368.636	98.38
368.862	122.38
369.089	108.38
369.315	88.38
369.541	85.38
369.767	89.38
369.993	86.38
370.219	90.38
370.445	75.38
370.672	80.38
370.898	81.38
371.124	93.38
371.35	86.38
371.576	84.38
371.802	96.38
372.028	75.38
372.254	87.38
372.48	91.38
372.706	83.38
372.932	76.38
373.158	89.38
373.384	95.38
373.61	79.38
373.835	89.38
374.061	82.38
374.287	85.38
374.513	95.38
374.739	86.38
374.965	92.38
375.191	90.38
375.416	88.38
375.642	89.38
375.868	95.38
376.094	87.38
376.319	78.38
376.545	93.38
376.771	89.38
376.997	96.38
377.222	85.38
377.448	85.38
377.674	88.38
377.899	80.38
378.125	64.38
378.35	75.38
378.576	87.38
378.802	95.38
379.027	93.38
379.253	104.38
379.478	99.38
379.704	80.38
379.929	92.38
380.155	108.38
380.38	91.38
380.606	93.38
380.831	86.38
381.057	93.38
381.282	82.38
381.507	100.38
381.733	91.38
381.958	96.38
382.184	98.38
382.409	92.38
382.634	104.38
382.86	94.38
383.085	98.38
383.31	90.38
383.535	97.38
383.761	101.38
383.986	92.38
384.211	90.38
384.436	96.38
384.662	95.38
384.887	110.38
385.112	105.38
385.337	83.38
385.562	89.38
385.787	99.38
386.013	103.38
386.238	107.38
386.463	98.38
386.688	100.38
386.913	101.38
387.138	86.38
387.363	87.38
387.588	93.38
387.813	120.38
388.038	91.38
388.263	99.38
388.488	101.38
388.713	101.38
388.938	89.38
389.163	102.38
389.387	94.38
389.612	98.38
389.837	78.38
390.062	91.38
390.287	99.38
390.512	84.38
390.736	81.38
390.961	110.38
391.186	115.38
391.411	76.38
391.636	69.38
391.86	75.38
392.085	81.38
392.31	76.38
392.534	64.38
392.759	79.38
392.984	101.38
393.208	88.38
393.433	96.38
393.658	75.38
393.882	97.38
394.107	91.38
394.331	75.38
394.556	91.38
394.78	89.38
395.005	97.38
395.229	84.38
395.454	88.38
395.678	86.38
395.903	86.38
396.127	97.38
396.352	95.38
396.576	79.38
396.801	75.38
397.025	84.38
397.249	105.38
397.474	91.38
397.698	92.38
397.922	82.38
398.147	84.38
398.371	78.38
398.595	93.38
398.82	81.38
399.044	76.38
399.268	84.38
399.492	82.38
399.717	78.38
399.941	92.38
400.165	80.38
400.389	96.38
400.613	80.38
400.837	87.38
401.062	73.38
401.286	85.38
401.51	80.38
401.734	92.38
401.958	106.38
402.182	115.38
402.406	123.38
402.63	103.38
402.854	89.38
403.078	80.38
403.302	84.38
403.526	72.38
403.75	78.38
403.974	84.38
404.198	71.38
404.422	88.38
404.645	92.38
404.869	80.38
405.093	97.38
405.317	88.38
405.541	87.38
405.765	86.38
405.988	111.38
406.212	151.38
406.436	183.38
406.66	129.38
406.883	108.38
407.107	84.38
407.331	96.38
407.555	80.38
407.778	86.38
408.002	81.38
408.226	87.38
408.449	79.38
408.673	82.38
408.896	92.38
409.12	75.38
409.344	89.38
409.567	92.38
409.791	78.38
410.014	86.38
410.238	83.38
410.461	100.38
410.685	76.38
410.908	92.38
411.132	97.38
411.355	96.38
411.578	95.38
411.802	100.38
412.025	79.38
412.249	77.38
412.472	85.38
412.695	84.38
412.919	90.38
413.142	97.38
413.365	86.38
413.589	91.38
413.812	80.38
414.035	88.38
414.258	94.38
414.482	89.38
414.705	78.38
414.928	100.38
415.151	97.38
415.374	84.38
415.597	80.38
415.821	89.38
416.044	93.38
416.267	89.38
416.49	94.38
416.713	83.38
416.936	91.38
417.159	86.38
417.382	95.38
417.605	83.38
417.828	94.38
418.051	79.38
418.274	88.38
418.497	78.38
418.72	76.38
418.943	85.38
419.166	87.38
419.389	94.38
419.611	89.38
419.834	89.38
420.057	93.38
420.28	81.38
420.503	87.38
420.726	73.38
420.948	97.38
421.171	97.38
421.394	88.38
421.617	89.38
421.839	89.38
422.062	78.38
422.285	86.38
422.507	96.38
422.73	94.38
422.953	77.38
423.175	85.38
423.398	82.38
423.621	84.38
423.843	82.38
424.066	98.38
424.288	94.38
424.511	101.38
424.733	91.38
424.956	99.38
425.178	85.38
425.401	79.38
425.623	97.38
425.846	88.38
426.068	91.38
426.291	93.38
426.513	85.38
426.735	80.38
426.958	94.38
427.18	107.38
427.402	116.38
427.625	147.38
427.847	135.38
428.069	96.38
428.292	92.38
428.514	90.38
428.736	92.38
428.958	82.38
429.181	93.38
429.403	86.38
429.625	73.38
429.847	104.38
430.069	92.38
430.292	91.38
430.514	85.38
430.736	84.38
430.958	76.38
431.18	80.38
431.402	78.38
431.624	79.38
431.846	97.38
432.068	100.38
432.29	75.38
432.512	90.38
432.734	97.38
432.956	84.38
433.178	84.38
433.4	85.38
433.622	90.38
433.844	97.38
434.066	104.38
434.287	87.38
434.509	98.38
434.731	91.38
434.953	76.38
435.175	68.38
435.397	77.38
435.618	86.38
435.84	101.38
436.062	113.38
436.284	96.38
436.505	94.38
436.727	96.38
436.949	87.38
437.17	81.38
437.392	94.38
437.614	97.38
437.835	98.38
438.057	107.38
438.278	92.38
438.5	87.38
438.721	113.38
438.943	109.38
439.165	84.38
439.386	87.38
439.608	92.38
439.829	90.38
440.05	105.38
440.272	124.38
440.493	90.38
440.715	81.38
440.936	84.38
441.158	77.38
441.379	72.38
441.6	91.38
441.822	81.38
442.043	71.38
442.264	90.38
442.486	95.38
442.707	97.38
442.928	100.38
443.149	116.38
443.371	114.38
443.592	106.38
443.813	116.38
444.034	104.38
444.255	93.38
444.476	84.38
444.698	86.38
444.919	85.38
445.14	121.38
445.361	125.38
445.582	111.38
445.803	116.38
446.024	128.38
446.245	129.38
446.466	103.38
446.687	79.38
446.908	83.38
447.129	88.38
447.35	92.38
447.571	86.38
447.792	93.38
448.013	102.38
448.234	104.38
448.455	89.38
448.675	104.38
448.896	100.38
449.117	82.38
449.338	89.38
449.559	124.38
449.779	109.38
450	91.38
450.221	74.38
450.442	82.38
450.662	87.38
450.883	96.38
451.104	94.38
451.324	87.38
451.545	83.38
451.766	96.38
451.986	72.38
452.207	87.38
452.428	81.38
452.648	86.38
452.869	117.38
453.089	111.38
453.31	97.38
453.53	88.38
453.751	78.38
453.971	88.38
454.192	103.38
454.412	95.38
454.633	95.38
454.853	83.38
455.073	81.38
455.294	87.38
455.514	90.38
455.734	94.38
455.955	91.38
456.175	79.38
456.395	77.38
456.616	70.38
456.836	69.38
457.056	83.38
457.276	72.38
457.497	82.38
457.717	85.38
457.937	84.38
458.157	83.38
458.377	96.38
458.598	89.38
458.818	119.38
459.038	143.38
459.258	91.38
459.478	95.38
459.698	71.38
459.918	91.38
460.138	76.38
460.358	89.38
460.578	77.38
460.798	85.38
461.018	87.38
461.238	60.38
461.458	84.38
461.678	72.38
461.898	76.38
462.118	76.38
462.338	96.38
462.558	90.38
462.777	82.38
462.997	81.38
463.217	91.38
463.437	85.38
463.657	84.38
463.876	89.38
464.096	97.38
464.316	85.38
464.536	95.38
464.755	83.38
464.975	86.38
465.195	150.38
465.414	125.38
465.634	101.38
465.854	90.38
466.073	88.38
466.293	92.38
466.512	90.38
466.732	88.38
466.951	77.38
467.171	79.38
467.391	95.38
467.61	111.38
467.829	93.38
468.049	89.38
468.268	91.38
468.488	87.38
468.707	86.38
468.927	94.38
469.146	75.38
469.365	72.38
469.585	91.38
469.804	91.38
470.023	104.38
470.243	83.38
470.462	108.38
470.681	110.38
470.901	78.38
471.12	84.38
471.339	80.38
471.558	96.38
471.777	80.38
471.997	78.38
472.216	94.38
472.435	92.38
472.654	81.38
472.873	86.38
473.092	81.38
473.311	88.38
473.53	86.38
473.749	93.38
473.968	83.38
474.187	90.38
474.406	96.38
474.625	81.38
474.844	75.38
475.063	72.38
475.282	84.38
475.501	86.38
475.72	88.38
475.939	67.38
476.158	95.38
476.377	100.38
476.596	79.38
476.814	84.38
477.033	81.38
477.252	76.38
477.471	85.38
477.69	79.38
477.908	85.38
478.127	100.38
478.346	88.38
478.564	80.38
478.783	80.38
479.002	98.38
479.22	93.38
479.439	78.38
479.658	88.38
479.876	94.38
480.095	100.38
480.313	83.38
480.532	69.38
480.751	83.38
480.969	108.38
481.188	111.38
481.406	116.38
481.624	91.38
481.843	93.38
482.061	86.38
482.28	88.38
482.498	65.38
482.717	85.38
482.935	99.38
483.153	88.38
483.372	74.38
483.59	72.38
483.808	82.38
484.027	93.38
484.245	96.38
484.463	91.38
484.681	93.38
484.9	93.38
485.118	108.38
485.336	98.38
485.554	85.38
485.772	83.38
485.99	98.38
486.209	105.38
486.427	94.38
486.645	103.38
486.863	99.38
487.081	101.38
487.299	78.38
487.517	95.38
487.735	78.38
487.953	87.38
488.171	92.38
488.389	93.38
488.607	112.38
488.825	88.38
489.043	89.38
489.261	86.38
489.479	96.38
489.696	81.38
489.914	78.38
490.132	100.38
490.35	77.38
490.568	85.38
490.786	70.38
491.003	78.38
491.221	88.38
491.439	103.38
491.657	88.38
491.874	103.38
492.092	87.38
492.31	97.38
492.527	84.38
492.745	79.38
492.963	97.38
493.18	101.38
493.398	95.38
493.615	89.38
493.833	74.38
494.05	99.38
494.268	83.38
494.485	77.38
494.703	89.38
494.92	101.38
495.138	73.38
495.355	93.38
495.573	88.38
495.79	84.38
496.008	92.38
496.225	95.38
496.442	102.38
496.66	76.38
496.877	80.38
497.094	88.38
497.312	103.38
497.529	92.38
497.746	102.38
497.963	85.38
498.181	73.38
498.398	91.38
498.615	98.38
498.832	92.38
499.049	94.38
499.267	97.38
499.484	89.38
499.701	87.38
499.918	80.38
500.135	96.38
500.352	82.38
500.569	104.38
500.786	93.38
501.003	83.38
501.22	92.38
501.437	86.38
501.654	86.38
501.871	88.38
502.088	86.38
502.305	94.38
502.522	88.38
502.739	81.38
502.956	80.38
503.172	97.38
503.389	104.38
503.606	111.38
503.823	76.38
504.04	80.38
504.256	101.38
504.473	93.38
504.69	101.38
504.907	83.38
505.123	83.38
505.34	85.38
505.557	84.38
505.773	99.38
505.99	112.38
506.207	91.38
506.423	96.38
506.64	85.38
506.856	89.38
507.073	76.38
507.289	93.38
507.506	85.38
507.722	95.38
507.939	102.38
508.155	91.38
508.372	91.38
508.588	92.38
508.805	97.38
509.021	81.38
509.238	94.38
509.454	108.38
509.67	105.38
509.887	96.38
510.103	119.38
510.319	213.38
510.536	677.38
510.752	2055.38
510.968	567.38
511.184	163.38
511.401	111.38
511.617	101.38
511.833	90.38
512.049	79.38
512.265	91.38
512.481	87.38
512.698	89.38
512.914	105.38
513.13	93.38
513.346	92.38
513.562	105.38
513.778	75.38
513.994	90.38
514.21	103.38
514.426	104.38
514.642	128.38
514.858	113.38
515.074	141.38
515.29	401.38
515.506	1225.38
515.721	478.38
515.937	149.38
516.153	103.38
516.369	116.38
516.585	87.38
516.801	81.38
517.016	79.38
