Data from Uncirc_1997_H10_HRD10591_00062.txt Node
Date: Wed Jan 03 11:28:43 EST 2024
User: Yrep
Spectrometer: HR+D1059
Trigger mode: 1
Integration Time (sec): 1.000000E-1
Scans to average: 1
Electric dark correction enabled: true
Nonlinearity correction enabled: false
Boxcar width: 0
XAxis mode: Wavelengths
Number of Pixels in Spectrum: 2048
>>>>>Begin Spectral Data<<<<<
223.165	-11.69
223.4	-11.69
223.635	-11.69
223.869	-22.69
224.104	-35.69
224.338	-17.69
224.573	-18.69
224.808	-15.69
225.042	-1.69
225.277	-8.69
225.511	-4.69
225.746	10.31
225.98	6.31
226.215	9.31
226.449	9.31
226.683	31.31
226.918	35.31
227.152	35.31
227.387	41.31
227.621	40.31
227.856	45.31
228.09	42.31
228.324	49.31
228.559	73.31
228.793	56.31
229.027	63.31
229.262	63.31
229.496	75.31
229.73	78.31
229.964	73.31
230.199	58.31
230.433	71.31
230.667	66.31
230.901	76.31
231.136	64.31
231.37	90.31
231.604	81.31
231.838	87.31
232.072	76.31
232.306	74.31
232.541	73.31
232.775	76.31
233.009	76.31
233.243	73.31
233.477	80.31
233.711	77.31
233.945	76.31
234.179	81.31
234.413	78.31
234.647	89.31
234.881	80.31
235.115	71.31
235.349	75.31
235.583	79.31
235.817	65.31
236.051	81.31
236.285	68.31
236.519	60.31
236.753	87.31
236.987	76.31
237.221	85.31
237.455	79.31
237.689	72.31
237.922	81.31
238.156	66.31
238.39	87.31
238.624	76.31
238.858	80.31
239.091	76.31
239.325	76.31
239.559	81.31
239.793	74.31
240.027	86.31
240.26	64.31
240.494	72.31
240.728	78.31
240.961	79.31
241.195	78.31
241.429	83.31
241.662	67.31
241.896	69.31
242.13	77.31
242.363	67.31
242.597	80.31
242.83	86.31
243.064	78.31
243.298	82.31
243.531	61.31
243.765	68.31
243.998	68.31
244.232	88.31
244.465	103.31
244.699	85.31
244.932	78.31
245.166	78.31
245.399	71.31
245.633	93.31
245.866	86.31
246.099	77.31
246.333	81.31
246.566	69.31
246.8	82.31
247.033	76.31
247.266	89.31
247.5	85.31
247.733	85.31
247.966	73.31
248.2	76.31
248.433	79.31
248.666	86.31
248.899	76.31
249.133	80.31
249.366	85.31
249.599	98.31
249.832	87.31
250.066	91.31
250.299	66.31
250.532	90.31
250.765	76.31
250.998	70.31
251.231	71.31
251.465	70.31
251.698	73.31
251.931	67.31
252.164	68.31
252.397	89.31
252.63	68.31
252.863	86.31
253.096	71.31
253.329	76.31
253.562	69.31
253.795	65.31
254.028	80.31
254.261	85.31
254.494	73.31
254.727	72.31
254.96	86.31
255.193	80.31
255.426	84.31
255.659	79.31
255.892	78.31
256.124	79.31
256.357	89.31
256.59	75.31
256.823	80.31
257.056	70.31
257.289	84.31
257.521	73.31
257.754	80.31
257.987	79.31
258.22	88.31
258.452	71.31
258.685	81.31
258.918	69.31
259.151	82.31
259.383	84.31
259.616	72.31
259.849	62.31
260.081	76.31
260.314	82.31
260.547	81.31
260.779	75.31
261.012	64.31
261.244	93.31
261.477	88.31
261.71	98.31
261.942	82.31
262.175	106.31
262.407	72.31
262.64	84.31
262.872	85.31
263.105	81.31
263.337	86.31
263.57	82.31
263.802	88.31
264.035	83.31
264.267	76.31
264.499	85.31
264.732	96.31
264.964	77.31
265.197	87.31
265.429	67.31
265.661	86.31
265.894	80.31
266.126	91.31
266.358	75.31
266.591	89.31
266.823	75.31
267.055	91.31
267.287	88.31
267.52	110.31
267.752	76.31
267.984	92.31
268.216	83.31
268.448	94.31
268.681	74.31
268.913	82.31
269.145	74.31
269.377	83.31
269.609	82.31
269.841	86.31
270.073	88.31
270.306	90.31
270.538	87.31
270.77	91.31
271.002	89.31
271.234	93.31
271.466	91.31
271.698	80.31
271.93	74.31
272.162	91.31
272.394	95.31
272.626	94.31
272.858	83.31
273.09	84.31
273.322	86.31
273.553	80.31
273.785	84.31
274.017	82.31
274.249	85.31
274.481	74.31
274.713	87.31
274.945	87.31
275.176	78.31
275.408	84.31
275.64	92.31
275.872	74.31
276.104	88.31
276.335	89.31
276.567	89.31
276.799	93.31
277.031	87.31
277.262	76.31
277.494	79.31
277.726	73.31
277.957	86.31
278.189	73.31
278.421	84.31
278.652	86.31
278.884	73.31
279.115	80.31
279.347	69.31
279.579	80.31
279.81	85.31
280.042	89.31
280.273	74.31
280.505	93.31
280.736	83.31
280.968	95.31
281.199	84.31
281.431	75.31
281.662	87.31
281.894	78.31
282.125	92.31
282.356	97.31
282.588	108.31
282.819	97.31
283.051	76.31
283.282	82.31
283.513	71.31
283.745	79.31
283.976	86.31
284.207	79.31
284.439	92.31
284.67	75.31
284.901	80.31
285.132	86.31
285.364	79.31
285.595	98.31
285.826	74.31
286.057	81.31
286.288	84.31
286.52	76.31
286.751	64.31
286.982	84.31
287.213	80.31
287.444	80.31
287.675	80.31
287.906	88.31
288.138	93.31
288.369	82.31
288.6	75.31
288.831	88.31
289.062	90.31
289.293	91.31
289.524	88.31
289.755	82.31
289.986	91.31
290.217	88.31
290.448	95.31
290.679	88.31
290.91	98.31
291.141	87.31
291.371	84.31
291.602	82.31
291.833	73.31
292.064	92.31
292.295	96.31
292.526	87.31
292.757	87.31
292.987	91.31
293.218	93.31
293.449	76.31
293.68	74.31
293.91	91.31
294.141	92.31
294.372	73.31
294.603	77.31
294.833	69.31
295.064	89.31
295.295	89.31
295.525	90.31
295.756	91.31
295.987	103.31
296.217	113.31
296.448	102.31
296.679	86.31
296.909	86.31
297.14	76.31
297.37	80.31
297.601	84.31
297.831	92.31
298.062	76.31
298.292	73.31
298.523	88.31
298.753	97.31
298.984	85.31
299.214	82.31
299.445	76.31
299.675	85.31
299.905	91.31
300.136	80.31
300.366	77.31
300.597	87.31
300.827	76.31
301.057	104.31
301.288	99.31
301.518	91.31
301.748	84.31
301.979	90.31
302.209	84.31
302.439	89.31
302.669	89.31
302.9	63.31
303.13	91.31
303.36	94.31
303.59	82.31
303.82	100.31
304.051	95.31
304.281	84.31
304.511	66.31
304.741	112.31
304.971	82.31
305.201	90.31
305.431	81.31
305.661	85.31
305.891	88.31
306.121	97.31
306.352	95.31
306.582	104.31
306.812	106.31
307.042	80.31
307.272	85.31
307.502	92.31
307.731	89.31
307.961	79.31
308.191	87.31
308.421	79.31
308.651	82.31
308.881	80.31
309.111	81.31
309.341	94.31
309.571	102.31
309.8	77.31
310.03	95.31
310.26	104.31
310.49	93.31
310.72	94.31
310.949	84.31
311.179	84.31
311.409	73.31
311.639	86.31
311.868	97.31
312.098	98.31
312.328	87.31
312.557	103.31
312.787	93.31
313.017	88.31
313.246	89.31
313.476	90.31
313.706	108.31
313.935	76.31
314.165	94.31
314.394	97.31
314.624	91.31
314.853	113.31
315.083	96.31
315.312	70.31
315.542	91.31
315.771	75.31
316.001	95.31
316.23	96.31
316.46	81.31
316.689	102.31
316.919	81.31
317.148	85.31
317.377	92.31
317.607	79.31
317.836	96.31
318.065	92.31
318.295	83.31
318.524	90.31
318.753	89.31
318.983	90.31
319.212	101.31
319.441	105.31
319.67	111.31
319.9	76.31
320.129	83.31
320.358	84.31
320.587	80.31
320.816	93.31
321.046	119.31
321.275	78.31
321.504	94.31
321.733	90.31
321.962	91.31
322.191	90.31
322.42	82.31
322.649	91.31
322.878	110.31
323.108	113.31
323.337	116.31
323.566	102.31
323.795	135.31
324.024	170.31
324.253	329.31
324.482	659.31
324.71	1370.31
324.939	1778.31
325.168	683.31
325.397	198.31
325.626	132.31
325.855	122.31
326.084	109.31
326.313	121.31
326.542	136.31
326.77	193.31
326.999	399.31
327.228	778.31
327.457	1400.31
327.686	1127.31
327.914	308.31
328.143	151.31
328.372	122.31
328.6	125.31
328.829	98.31
329.058	119.31
329.287	107.31
329.515	103.31
329.744	92.31
329.972	92.31
330.201	96.31
330.43	102.31
330.658	116.31
330.887	135.31
331.115	94.31
331.344	72.31
331.572	86.31
331.801	101.31
332.03	111.31
332.258	104.31
332.486	83.31
332.715	74.31
332.943	77.31
333.172	74.31
333.4	96.31
333.629	99.31
333.857	100.31
334.085	105.31
334.314	97.31
334.542	104.31
334.771	95.31
334.999	88.31
335.227	88.31
335.455	97.31
335.684	105.31
335.912	93.31
336.14	85.31
336.369	114.31
336.597	96.31
336.825	89.31
337.053	107.31
337.281	96.31
337.51	87.31
337.738	87.31
337.966	93.31
338.194	91.31
338.422	77.31
338.65	86.31
338.878	84.31
339.106	93.31
339.334	78.31
339.562	87.31
339.79	84.31
340.018	95.31
340.246	86.31
340.474	86.31
340.702	82.31
340.93	86.31
341.158	84.31
341.386	97.31
341.614	100.31
341.842	110.31
342.07	81.31
342.298	73.31
342.526	90.31
342.754	87.31
342.981	81.31
343.209	84.31
343.437	96.31
343.665	97.31
343.893	89.31
344.12	90.31
344.348	83.31
344.576	108.31
344.804	86.31
345.031	81.31
345.259	84.31
345.487	97.31
345.714	89.31
345.942	87.31
346.17	87.31
346.397	83.31
346.625	85.31
346.853	81.31
347.08	88.31
347.308	90.31
347.535	86.31
347.763	102.31
347.99	91.31
348.218	101.31
348.445	105.31
348.673	86.31
348.9	88.31
349.128	95.31
349.355	92.31
349.583	88.31
349.81	89.31
350.037	98.31
350.265	87.31
350.492	91.31
350.72	97.31
350.947	84.31
351.174	91.31
351.402	118.31
351.629	116.31
351.856	97.31
352.083	96.31
352.311	93.31
352.538	97.31
352.765	92.31
352.992	102.31
353.22	117.31
353.447	110.31
353.674	103.31
353.901	90.31
354.128	90.31
354.355	87.31
354.583	95.31
354.81	85.31
355.037	104.31
355.264	95.31
355.491	96.31
355.718	86.31
355.945	92.31
356.172	80.31
356.399	89.31
356.626	93.31
356.853	92.31
357.08	91.31
357.307	82.31
357.534	82.31
357.761	103.31
357.988	100.31
358.215	100.31
358.441	85.31
358.668	93.31
358.895	82.31
359.122	89.31
359.349	85.31
359.576	94.31
359.802	110.31
360.029	97.31
360.256	97.31
360.483	92.31
360.709	72.31
360.936	90.31
361.163	93.31
361.39	94.31
361.616	90.31
361.843	89.31
362.07	93.31
362.296	90.31
362.523	105.31
362.749	80.31
362.976	89.31
363.203	85.31
363.429	80.31
363.656	90.31
363.882	90.31
364.109	75.31
364.335	92.31
364.562	81.31
364.788	86.31
365.015	95.31
365.241	95.31
365.468	100.31
365.694	93.31
365.92	102.31
366.147	97.31
366.373	95.31
366.599	96.31
366.826	93.31
367.052	95.31
367.278	100.31
367.505	99.31
367.731	92.31
367.957	76.31
368.184	88.31
368.41	84.31
368.636	107.31
368.862	98.31
369.089	94.31
369.315	95.31
369.541	80.31
369.767	77.31
369.993	71.31
370.219	90.31
370.445	82.31
370.672	78.31
370.898	81.31
371.124	77.31
371.35	92.31
371.576	101.31
371.802	96.31
372.028	85.31
372.254	94.31
372.48	82.31
372.706	85.31
372.932	88.31
373.158	87.31
373.384	91.31
373.61	89.31
373.835	84.31
374.061	87.31
374.287	81.31
374.513	80.31
374.739	93.31
374.965	90.31
375.191	91.31
375.416	88.31
375.642	97.31
375.868	84.31
376.094	82.31
376.319	98.31
376.545	81.31
376.771	87.31
376.997	71.31
377.222	101.31
377.448	84.31
377.674	90.31
377.899	88.31
378.125	84.31
378.35	80.31
378.576	95.31
378.802	76.31
379.027	89.31
379.253	81.31
379.478	94.31
379.704	105.31
379.929	101.31
380.155	95.31
380.38	101.31
380.606	79.31
380.831	98.31
381.057	96.31
381.282	91.31
381.507	102.31
381.733	95.31
381.958	95.31
382.184	91.31
382.409	104.31
382.634	102.31
382.86	86.31
383.085	92.31
383.31	96.31
383.535	89.31
383.761	99.31
383.986	96.31
384.211	94.31
384.436	98.31
384.662	81.31
384.887	92.31
385.112	101.31
385.337	97.31
385.562	95.31
385.787	86.31
386.013	109.31
386.238	110.31
386.463	111.31
386.688	113.31
386.913	93.31
387.138	101.31
387.363	93.31
387.588	96.31
387.813	97.31
388.038	90.31
388.263	97.31
388.488	119.31
388.713	92.31
388.938	83.31
389.163	81.31
389.387	96.31
389.612	87.31
389.837	91.31
390.062	95.31
390.287	91.31
390.512	86.31
390.736	85.31
390.961	91.31
391.186	90.31
391.411	83.31
391.636	86.31
391.86	80.31
392.085	101.31
392.31	90.31
392.534	102.31
392.759	84.31
392.984	94.31
393.208	102.31
393.433	90.31
393.658	85.31
393.882	76.31
394.107	97.31
394.331	85.31
394.556	88.31
394.78	102.31
395.005	102.31
395.229	82.31
395.454	98.31
395.678	78.31
395.903	80.31
396.127	84.31
396.352	80.31
396.576	71.31
396.801	98.31
397.025	85.31
397.249	85.31
397.474	93.31
397.698	80.31
397.922	89.31
398.147	87.31
398.371	85.31
398.595	87.31
398.82	95.31
399.044	77.31
399.268	74.31
399.492	89.31
399.717	97.31
399.941	79.31
400.165	87.31
400.389	89.31
400.613	95.31
400.837	99.31
401.062	102.31
401.286	72.31
401.51	95.31
401.734	81.31
401.958	101.31
402.182	105.31
402.406	130.31
402.63	100.31
402.854	87.31
403.078	101.31
403.302	81.31
403.526	90.31
403.75	73.31
403.974	84.31
404.198	100.31
404.422	82.31
404.645	95.31
404.869	89.31
405.093	107.31
405.317	96.31
405.541	74.31
405.765	94.31
405.988	106.31
406.212	133.31
406.436	186.31
406.66	111.31
406.883	98.31
407.107	90.31
407.331	93.31
407.555	96.31
407.778	101.31
408.002	99.31
408.226	86.31
408.449	90.31
408.673	83.31
408.896	92.31
409.12	86.31
409.344	95.31
409.567	96.31
409.791	79.31
410.014	78.31
410.238	104.31
410.461	81.31
410.685	83.31
410.908	100.31
411.132	97.31
411.355	98.31
411.578	88.31
411.802	93.31
412.025	85.31
412.249	81.31
412.472	89.31
412.695	93.31
412.919	97.31
413.142	83.31
413.365	92.31
413.589	86.31
413.812	81.31
414.035	94.31
414.258	75.31
414.482	94.31
414.705	87.31
414.928	86.31
415.151	91.31
415.374	93.31
415.597	78.31
415.821	90.31
416.044	84.31
416.267	91.31
416.49	96.31
416.713	81.31
416.936	77.31
417.159	74.31
417.382	76.31
417.605	68.31
417.828	90.31
418.051	104.31
418.274	89.31
418.497	81.31
418.72	103.31
418.943	88.31
419.166	92.31
419.389	94.31
419.611	84.31
419.834	97.31
420.057	86.31
420.28	78.31
420.503	84.31
420.726	92.31
420.948	72.31
421.171	99.31
421.394	94.31
421.617	76.31
421.839	100.31
422.062	105.31
422.285	92.31
422.507	92.31
422.73	104.31
422.953	87.31
423.175	102.31
423.398	86.31
423.621	100.31
423.843	84.31
424.066	89.31
424.288	89.31
424.511	96.31
424.733	91.31
424.956	94.31
425.178	100.31
425.401	100.31
425.623	94.31
425.846	90.31
426.068	93.31
426.291	97.31
426.513	86.31
426.735	85.31
426.958	95.31
427.18	88.31
427.402	116.31
427.625	143.31
427.847	118.31
428.069	95.31
428.292	90.31
428.514	75.31
428.736	80.31
428.958	98.31
429.181	85.31
429.403	91.31
429.625	86.31
429.847	89.31
430.069	96.31
430.292	96.31
430.514	79.31
430.736	83.31
430.958	84.31
431.18	76.31
431.402	85.31
431.624	90.31
431.846	86.31
432.068	90.31
432.29	92.31
432.512	90.31
432.734	110.31
432.956	97.31
433.178	103.31
433.4	96.31
433.622	108.31
433.844	97.31
434.066	83.31
434.287	95.31
434.509	86.31
434.731	89.31
434.953	88.31
435.175	99.31
435.397	83.31
435.618	87.31
435.84	106.31
436.062	97.31
436.284	111.31
436.505	112.31
436.727	88.31
436.949	88.31
437.17	84.31
437.392	95.31
437.614	74.31
437.835	88.31
438.057	98.31
438.278	109.31
438.5	86.31
438.721	113.31
438.943	98.31
439.165	109.31
439.386	92.31
439.608	89.31
439.829	96.31
440.05	114.31
440.272	129.31
440.493	103.31
440.715	91.31
440.936	90.31
441.158	74.31
441.379	92.31
441.6	97.31
441.822	85.31
442.043	87.31
442.264	88.31
442.486	84.31
442.707	89.31
442.928	93.31
443.149	125.31
443.371	102.31
443.592	90.31
443.813	102.31
444.034	106.31
444.255	96.31
444.476	102.31
444.698	87.31
444.919	95.31
445.14	120.31
445.361	116.31
445.582	99.31
445.803	117.31
446.024	114.31
446.245	119.31
446.466	124.31
446.687	86.31
446.908	80.31
447.129	102.31
447.35	101.31
447.571	89.31
447.792	91.31
448.013	97.31
448.234	98.31
448.455	79.31
448.675	101.31
448.896	88.31
449.117	100.31
449.338	109.31
449.559	105.31
449.779	125.31
450	80.31
450.221	90.31
450.442	85.31
450.662	80.31
450.883	88.31
451.104	106.31
451.324	100.31
451.545	83.31
451.766	103.31
451.986	100.31
452.207	78.31
452.428	96.31
452.648	81.31
452.869	109.31
453.089	109.31
453.31	113.31
453.53	94.31
453.751	94.31
453.971	94.31
454.192	92.31
454.412	101.31
454.633	80.31
454.853	91.31
455.073	82.31
455.294	72.31
455.514	75.31
455.734	93.31
455.955	93.31
456.175	88.31
456.395	83.31
456.616	86.31
456.836	80.31
457.056	76.31
457.276	86.31
457.497	94.31
457.717	80.31
457.937	91.31
458.157	75.31
458.377	93.31
458.598	97.31
458.818	102.31
459.038	136.31
459.258	108.31
459.478	72.31
459.698	71.31
459.918	104.31
460.138	90.31
460.358	91.31
460.578	79.31
460.798	94.31
461.018	82.31
461.238	78.31
461.458	86.31
461.678	68.31
461.898	82.31
462.118	89.31
462.338	84.31
462.558	71.31
462.777	88.31
462.997	79.31
463.217	94.31
463.437	73.31
463.657	94.31
463.876	84.31
464.096	88.31
464.316	94.31
464.536	87.31
464.755	105.31
464.975	96.31
465.195	137.31
465.414	142.31
465.634	97.31
465.854	93.31
466.073	89.31
466.293	87.31
466.512	84.31
466.732	84.31
466.951	83.31
467.171	95.31
467.391	89.31
467.61	100.31
467.829	88.31
468.049	90.31
468.268	93.31
468.488	96.31
468.707	94.31
468.927	74.31
469.146	94.31
469.365	87.31
469.585	98.31
469.804	86.31
470.023	92.31
470.243	91.31
470.462	95.31
470.681	114.31
470.901	94.31
471.12	77.31
471.339	84.31
471.558	72.31
471.777	85.31
471.997	78.31
472.216	92.31
472.435	90.31
472.654	83.31
472.873	78.31
473.092	77.31
473.311	94.31
473.53	79.31
473.749	97.31
473.968	98.31
474.187	94.31
474.406	98.31
474.625	93.31
474.844	82.31
475.063	82.31
475.282	98.31
475.501	76.31
475.72	84.31
475.939	72.31
476.158	98.31
476.377	96.31
476.596	101.31
476.814	94.31
477.033	88.31
477.252	87.31
477.471	91.31
477.69	95.31
477.908	105.31
478.127	83.31
478.346	69.31
478.564	102.31
478.783	112.31
479.002	92.31
479.22	94.31
479.439	91.31
479.658	94.31
479.876	98.31
480.095	96.31
480.313	99.31
480.532	88.31
480.751	91.31
480.969	92.31
481.188	90.31
481.406	76.31
481.624	96.31
481.843	90.31
482.061	88.31
482.28	85.31
482.498	64.31
482.717	94.31
482.935	85.31
483.153	88.31
483.372	89.31
483.59	78.31
483.808	84.31
484.027	85.31
484.245	92.31
484.463	72.31
484.681	77.31
484.9	79.31
485.118	103.31
485.336	93.31
485.554	94.31
485.772	87.31
485.99	99.31
486.209	101.31
486.427	103.31
486.645	97.31
486.863	107.31
487.081	92.31
487.299	114.31
487.517	101.31
487.735	89.31
487.953	94.31
488.171	94.31
488.389	90.31
488.607	78.31
488.825	86.31
489.043	97.31
489.261	76.31
489.479	84.31
489.696	89.31
489.914	76.31
490.132	92.31
490.35	88.31
490.568	85.31
490.786	91.31
491.003	76.31
491.221	91.31
491.439	73.31
491.657	84.31
491.874	79.31
492.092	85.31
492.31	82.31
492.527	90.31
492.745	86.31
492.963	89.31
493.18	89.31
493.398	91.31
493.615	92.31
493.833	100.31
494.05	93.31
494.268	106.31
494.485	93.31
494.703	90.31
494.92	94.31
495.138	81.31
495.355	85.31
495.573	93.31
495.79	99.31
496.008	98.31
496.225	78.31
496.442	94.31
496.66	85.31
496.877	82.31
497.094	93.31
497.312	91.31
497.529	103.31
497.746	97.31
497.963	77.31
498.181	85.31
498.398	79.31
498.615	97.31
498.832	92.31
499.049	96.31
499.267	86.31
499.484	87.31
499.701	70.31
499.918	92.31
500.135	87.31
500.352	80.31
500.569	84.31
500.786	86.31
501.003	80.31
501.22	101.31
501.437	79.31
501.654	88.31
501.871	97.31
502.088	85.31
502.305	96.31
502.522	88.31
502.739	92.31
502.956	97.31
503.172	102.31
503.389	90.31
503.606	97.31
503.823	96.31
504.04	93.31
504.256	88.31
504.473	98.31
504.69	92.31
504.907	88.31
505.123	81.31
505.34	88.31
505.557	84.31
505.773	93.31
505.99	96.31
506.207	87.31
506.423	88.31
506.64	86.31
506.856	93.31
507.073	95.31
507.289	98.31
507.506	92.31
507.722	96.31
507.939	96.31
508.155	97.31
508.372	104.31
508.588	97.31
508.805	89.31
509.021	95.31
509.238	98.31
509.454	97.31
509.67	88.31
509.887	102.31
510.103	117.31
510.319	190.31
510.536	623.31
510.752	1849.31
510.968	541.31
511.184	135.31
511.401	107.31
511.617	101.31
511.833	89.31
512.049	94.31
512.265	96.31
512.481	90.31
512.698	90.31
512.914	94.31
513.13	95.31
513.346	83.31
513.562	80.31
513.778	96.31
513.994	98.31
514.21	98.31
514.426	124.31
514.642	128.31
514.858	107.31
515.074	138.31
515.29	353.31
515.506	1102.31
515.721	436.31
515.937	135.31
516.153	102.31
516.369	106.31
516.585	92.31
516.801	77.31
517.016	88.31
