Data from Uncirc_1997_H10_HRD10591_00088.txt Node
Date: Wed Jan 03 11:28:48 EST 2024
User: Yrep
Spectrometer: HR+D1059
Trigger mode: 1
Integration Time (sec): 1.000000E-1
Scans to average: 1
Electric dark correction enabled: true
Nonlinearity correction enabled: false
Boxcar width: 0
XAxis mode: Wavelengths
Number of Pixels in Spectrum: 2048
>>>>>Begin Spectral Data<<<<<
223.165	-21.38
223.4	-21.38
223.635	-21.38
223.869	-15.38
224.104	-17.38
224.338	-6.38
224.573	-3.38
224.808	-5.38
225.042	-13.38
225.277	-9.38
225.511	-21.38
225.746	-1.38
225.98	-3.38
226.215	12.62
226.449	30.62
226.683	29.62
226.918	10.62
227.152	34.62
227.387	40.62
227.621	44.62
227.856	45.62
228.09	32.62
228.324	61.62
228.559	54.62
228.793	53.62
229.027	77.62
229.262	62.62
229.496	70.62
229.73	68.62
229.964	70.62
230.199	86.62
230.433	64.62
230.667	88.62
230.901	66.62
231.136	73.62
231.37	74.62
231.604	77.62
231.838	84.62
232.072	70.62
232.306	81.62
232.541	86.62
232.775	78.62
233.009	85.62
233.243	58.62
233.477	77.62
233.711	98.62
233.945	77.62
234.179	72.62
234.413	85.62
234.647	91.62
234.881	87.62
235.115	68.62
235.349	86.62
235.583	78.62
235.817	79.62
236.051	54.62
236.285	76.62
236.519	72.62
236.753	77.62
236.987	71.62
237.221	72.62
237.455	90.62
237.689	72.62
237.922	76.62
238.156	71.62
238.39	79.62
238.624	55.62
238.858	79.62
239.091	77.62
239.325	75.62
239.559	77.62
239.793	84.62
240.027	83.62
240.26	76.62
240.494	69.62
240.728	93.62
240.961	93.62
241.195	65.62
241.429	73.62
241.662	72.62
241.896	81.62
242.13	75.62
242.363	83.62
242.597	80.62
242.83	72.62
243.064	84.62
243.298	81.62
243.531	85.62
243.765	79.62
243.998	73.62
244.232	72.62
244.465	83.62
244.699	76.62
244.932	80.62
245.166	89.62
245.399	81.62
245.633	87.62
245.866	78.62
246.099	85.62
246.333	72.62
246.566	80.62
246.8	69.62
247.033	70.62
247.266	65.62
247.5	83.62
247.733	66.62
247.966	68.62
248.2	72.62
248.433	86.62
248.666	73.62
248.899	80.62
249.133	69.62
249.366	98.62
249.599	80.62
249.832	85.62
250.066	91.62
250.299	80.62
250.532	76.62
250.765	79.62
250.998	85.62
251.231	88.62
251.465	78.62
251.698	80.62
251.931	81.62
252.164	81.62
252.397	73.62
252.63	80.62
252.863	78.62
253.096	86.62
253.329	75.62
253.562	89.62
253.795	63.62
254.028	63.62
254.261	81.62
254.494	81.62
254.727	72.62
254.96	73.62
255.193	85.62
255.426	72.62
255.659	74.62
255.892	89.62
256.124	64.62
256.357	72.62
256.59	79.62
256.823	65.62
257.056	85.62
257.289	86.62
257.521	79.62
257.754	68.62
257.987	89.62
258.22	72.62
258.452	84.62
258.685	72.62
258.918	54.62
259.151	68.62
259.383	80.62
259.616	66.62
259.849	87.62
260.081	76.62
260.314	84.62
260.547	74.62
260.779	81.62
261.012	82.62
261.244	85.62
261.477	111.62
261.71	82.62
261.942	102.62
262.175	91.62
262.407	72.62
262.64	84.62
262.872	76.62
263.105	86.62
263.337	81.62
263.57	68.62
263.802	72.62
264.035	77.62
264.267	96.62
264.499	85.62
264.732	89.62
264.964	93.62
265.197	61.62
265.429	77.62
265.661	63.62
265.894	85.62
266.126	91.62
266.358	68.62
266.591	77.62
266.823	94.62
267.055	75.62
267.287	71.62
267.52	78.62
267.752	81.62
267.984	77.62
268.216	92.62
268.448	89.62
268.681	77.62
268.913	72.62
269.145	96.62
269.377	81.62
269.609	74.62
269.841	92.62
270.073	66.62
270.306	85.62
270.538	76.62
270.77	81.62
271.002	87.62
271.234	85.62
271.466	93.62
271.698	85.62
271.93	76.62
272.162	80.62
272.394	79.62
272.626	80.62
272.858	65.62
273.09	74.62
273.322	83.62
273.553	80.62
273.785	89.62
274.017	81.62
274.249	82.62
274.481	79.62
274.713	73.62
274.945	90.62
275.176	82.62
275.408	95.62
275.64	88.62
275.872	81.62
276.104	88.62
276.335	102.62
276.567	88.62
276.799	108.62
277.031	98.62
277.262	92.62
277.494	84.62
277.726	92.62
277.957	87.62
278.189	81.62
278.421	66.62
278.652	81.62
278.884	83.62
279.115	77.62
279.347	82.62
279.579	84.62
279.81	78.62
280.042	91.62
280.273	102.62
280.505	104.62
280.736	78.62
280.968	89.62
281.199	90.62
281.431	85.62
281.662	88.62
281.894	100.62
282.125	100.62
282.356	114.62
282.588	137.62
282.819	104.62
283.051	88.62
283.282	80.62
283.513	92.62
283.745	72.62
283.976	93.62
284.207	95.62
284.439	85.62
284.67	84.62
284.901	98.62
285.132	78.62
285.364	78.62
285.595	89.62
285.826	88.62
286.057	91.62
286.288	86.62
286.52	78.62
286.751	79.62
286.982	82.62
287.213	92.62
287.444	78.62
287.675	87.62
287.906	90.62
288.138	81.62
288.369	93.62
288.6	90.62
288.831	86.62
289.062	87.62
289.293	84.62
289.524	86.62
289.755	93.62
289.986	73.62
290.217	94.62
290.448	88.62
290.679	80.62
290.91	87.62
291.141	80.62
291.371	94.62
291.602	80.62
291.833	82.62
292.064	84.62
292.295	101.62
292.526	92.62
292.757	93.62
292.987	85.62
293.218	73.62
293.449	94.62
293.68	97.62
293.91	84.62
294.141	87.62
294.372	93.62
294.603	84.62
294.833	69.62
295.064	88.62
295.295	85.62
295.525	82.62
295.756	110.62
295.987	111.62
296.217	123.62
296.448	113.62
296.679	121.62
296.909	95.62
297.14	94.62
297.37	87.62
297.601	85.62
297.831	72.62
298.062	94.62
298.292	89.62
298.523	76.62
298.753	70.62
298.984	79.62
299.214	77.62
299.445	90.62
299.675	102.62
299.905	90.62
300.136	84.62
300.366	90.62
300.597	87.62
300.827	97.62
301.057	109.62
301.288	96.62
301.518	93.62
301.748	88.62
301.979	95.62
302.209	77.62
302.439	86.62
302.669	79.62
302.9	87.62
303.13	104.62
303.36	104.62
303.59	89.62
303.82	119.62
304.051	87.62
304.281	89.62
304.511	98.62
304.741	97.62
304.971	88.62
305.201	90.62
305.431	81.62
305.661	96.62
305.891	90.62
306.121	92.62
306.352	98.62
306.582	90.62
306.812	89.62
307.042	88.62
307.272	87.62
307.502	82.62
307.731	86.62
307.961	92.62
308.191	87.62
308.421	97.62
308.651	95.62
308.881	80.62
309.111	94.62
309.341	94.62
309.571	103.62
309.8	82.62
310.03	89.62
310.26	76.62
310.49	102.62
310.72	108.62
310.949	89.62
311.179	93.62
311.409	98.62
311.639	95.62
311.868	93.62
312.098	90.62
312.328	103.62
312.557	119.62
312.787	92.62
313.017	89.62
313.246	82.62
313.476	80.62
313.706	84.62
313.935	96.62
314.165	109.62
314.394	100.62
314.624	92.62
314.853	95.62
315.083	92.62
315.312	100.62
315.542	95.62
315.771	93.62
316.001	97.62
316.23	90.62
316.46	94.62
316.689	88.62
316.919	89.62
317.148	92.62
317.377	92.62
317.607	85.62
317.836	82.62
318.065	92.62
318.295	95.62
318.524	93.62
318.753	98.62
318.983	92.62
319.212	103.62
319.441	107.62
319.67	108.62
319.9	95.62
320.129	82.62
320.358	84.62
320.587	98.62
320.816	86.62
321.046	111.62
321.275	92.62
321.504	103.62
321.733	101.62
321.962	89.62
322.191	93.62
322.42	88.62
322.649	103.62
322.878	102.62
323.108	100.62
323.337	114.62
323.566	135.62
323.795	158.62
324.024	181.62
324.253	358.62
324.482	788.62
324.71	1576.62
324.939	2000.62
325.168	728.62
325.397	220.62
325.626	136.62
325.855	127.62
326.084	124.62
326.313	134.62
326.542	133.62
326.77	223.62
326.999	402.62
327.228	863.62
327.457	1568.62
327.686	1226.62
327.914	364.62
328.143	185.62
328.372	138.62
328.6	124.62
328.829	119.62
329.058	122.62
329.287	122.62
329.515	96.62
329.744	112.62
329.972	95.62
330.201	96.62
330.43	113.62
330.658	103.62
330.887	125.62
331.115	103.62
331.344	98.62
331.572	96.62
331.801	100.62
332.03	105.62
332.258	88.62
332.486	97.62
332.715	86.62
332.943	103.62
333.172	102.62
333.4	91.62
333.629	111.62
333.857	88.62
334.085	91.62
334.314	109.62
334.542	107.62
334.771	88.62
334.999	95.62
335.227	93.62
335.455	85.62
335.684	98.62
335.912	98.62
336.14	104.62
336.369	105.62
336.597	95.62
336.825	96.62
337.053	105.62
337.281	90.62
337.51	68.62
337.738	90.62
337.966	95.62
338.194	110.62
338.422	93.62
338.65	79.62
338.878	92.62
339.106	85.62
339.334	80.62
339.562	87.62
339.79	88.62
340.018	84.62
340.246	104.62
340.474	103.62
340.702	102.62
340.93	89.62
341.158	107.62
341.386	65.62
341.614	100.62
341.842	90.62
342.07	100.62
342.298	98.62
342.526	74.62
342.754	91.62
342.981	103.62
343.209	88.62
343.437	96.62
343.665	86.62
343.893	79.62
344.12	94.62
344.348	95.62
344.576	99.62
344.804	92.62
345.031	81.62
345.259	98.62
345.487	89.62
345.714	91.62
345.942	102.62
346.17	91.62
346.397	95.62
346.625	82.62
346.853	93.62
347.08	98.62
347.308	89.62
347.535	94.62
347.763	87.62
347.99	83.62
348.218	97.62
348.445	110.62
348.673	101.62
348.9	106.62
349.128	90.62
349.355	93.62
349.583	88.62
349.81	105.62
350.037	101.62
350.265	101.62
350.492	98.62
350.72	106.62
350.947	102.62
351.174	114.62
351.402	115.62
351.629	89.62
351.856	99.62
352.083	97.62
352.311	97.62
352.538	96.62
352.765	108.62
352.992	114.62
353.22	106.62
353.447	88.62
353.674	102.62
353.901	90.62
354.128	93.62
354.355	92.62
354.583	101.62
354.81	90.62
355.037	104.62
355.264	99.62
355.491	93.62
355.718	96.62
355.945	90.62
356.172	84.62
356.399	88.62
356.626	97.62
356.853	98.62
357.08	90.62
357.307	81.62
357.534	97.62
357.761	81.62
357.988	107.62
358.215	102.62
358.441	84.62
358.668	78.62
358.895	92.62
359.122	99.62
359.349	76.62
359.576	97.62
359.802	114.62
360.029	109.62
360.256	96.62
360.483	90.62
360.709	93.62
360.936	96.62
361.163	94.62
361.39	105.62
361.616	93.62
361.843	95.62
362.07	83.62
362.296	88.62
362.523	89.62
362.749	90.62
362.976	103.62
363.203	91.62
363.429	88.62
363.656	98.62
363.882	75.62
364.109	77.62
364.335	88.62
364.562	73.62
364.788	88.62
365.015	97.62
365.241	94.62
365.468	105.62
365.694	90.62
365.92	110.62
366.147	87.62
366.373	82.62
366.599	92.62
366.826	81.62
367.052	85.62
367.278	88.62
367.505	104.62
367.731	94.62
367.957	88.62
368.184	84.62
368.41	100.62
368.636	85.62
368.862	109.62
369.089	97.62
369.315	87.62
369.541	80.62
369.767	84.62
369.993	77.62
370.219	87.62
370.445	95.62
370.672	101.62
370.898	83.62
371.124	84.62
371.35	94.62
371.576	90.62
371.802	98.62
372.028	77.62
372.254	93.62
372.48	74.62
372.706	61.62
372.932	105.62
373.158	73.62
373.384	104.62
373.61	94.62
373.835	80.62
374.061	87.62
374.287	86.62
374.513	79.62
374.739	87.62
374.965	82.62
375.191	103.62
375.416	103.62
375.642	92.62
375.868	87.62
376.094	99.62
376.319	79.62
376.545	78.62
376.771	83.62
376.997	90.62
377.222	79.62
377.448	93.62
377.674	90.62
377.899	96.62
378.125	94.62
378.35	91.62
378.576	80.62
378.802	105.62
379.027	84.62
379.253	100.62
379.478	93.62
379.704	86.62
379.929	87.62
380.155	93.62
380.38	91.62
380.606	101.62
380.831	76.62
381.057	83.62
381.282	100.62
381.507	91.62
381.733	88.62
381.958	90.62
382.184	96.62
382.409	90.62
382.634	93.62
382.86	77.62
383.085	104.62
383.31	103.62
383.535	82.62
383.761	94.62
383.986	92.62
384.211	87.62
384.436	107.62
384.662	102.62
384.887	89.62
385.112	101.62
385.337	101.62
385.562	117.62
385.787	99.62
386.013	87.62
386.238	111.62
386.463	97.62
386.688	111.62
386.913	97.62
387.138	94.62
387.363	84.62
387.588	103.62
387.813	92.62
388.038	92.62
388.263	102.62
388.488	95.62
388.713	81.62
388.938	94.62
389.163	96.62
389.387	96.62
389.612	105.62
389.837	99.62
390.062	98.62
390.287	89.62
390.512	96.62
390.736	89.62
390.961	90.62
391.186	86.62
391.411	88.62
391.636	83.62
391.86	89.62
392.085	79.62
392.31	85.62
392.534	77.62
392.759	109.62
392.984	97.62
393.208	91.62
393.433	89.62
393.658	89.62
393.882	97.62
394.107	71.62
394.331	82.62
394.556	85.62
394.78	79.62
395.005	88.62
395.229	96.62
395.454	92.62
395.678	94.62
395.903	82.62
396.127	71.62
396.352	108.62
396.576	95.62
396.801	86.62
397.025	94.62
397.249	96.62
397.474	84.62
397.698	88.62
397.922	94.62
398.147	92.62
398.371	82.62
398.595	80.62
398.82	84.62
399.044	95.62
399.268	82.62
399.492	97.62
399.717	87.62
399.941	95.62
400.165	87.62
400.389	86.62
400.613	92.62
400.837	80.62
401.062	91.62
401.286	95.62
401.51	89.62
401.734	80.62
401.958	96.62
402.182	125.62
402.406	158.62
402.63	111.62
402.854	100.62
403.078	88.62
403.302	94.62
403.526	82.62
403.75	93.62
403.974	104.62
404.198	82.62
404.422	86.62
404.645	87.62
404.869	90.62
405.093	85.62
405.317	97.62
405.541	102.62
405.765	98.62
405.988	108.62
406.212	165.62
406.436	209.62
406.66	144.62
406.883	89.62
407.107	93.62
407.331	90.62
407.555	91.62
407.778	97.62
408.002	91.62
408.226	96.62
408.449	84.62
408.673	77.62
408.896	91.62
409.12	102.62
409.344	92.62
409.567	83.62
409.791	92.62
410.014	96.62
410.238	85.62
410.461	85.62
410.685	98.62
410.908	98.62
411.132	99.62
411.355	106.62
411.578	91.62
411.802	95.62
412.025	88.62
412.249	104.62
412.472	98.62
412.695	95.62
412.919	91.62
413.142	93.62
413.365	76.62
413.589	81.62
413.812	77.62
414.035	84.62
414.258	90.62
414.482	82.62
414.705	79.62
414.928	85.62
415.151	94.62
415.374	96.62
415.597	88.62
415.821	80.62
416.044	89.62
416.267	103.62
416.49	103.62
416.713	89.62
416.936	96.62
417.159	73.62
417.382	77.62
417.605	96.62
417.828	84.62
418.051	88.62
418.274	84.62
418.497	85.62
418.72	88.62
418.943	88.62
419.166	81.62
419.389	94.62
419.611	89.62
419.834	102.62
420.057	92.62
420.28	84.62
420.503	89.62
420.726	91.62
420.948	92.62
421.171	92.62
421.394	91.62
421.617	95.62
421.839	80.62
422.062	88.62
422.285	81.62
422.507	98.62
422.73	104.62
422.953	84.62
423.175	91.62
423.398	82.62
423.621	72.62
423.843	88.62
424.066	94.62
424.288	91.62
424.511	91.62
424.733	92.62
424.956	92.62
425.178	94.62
425.401	98.62
425.623	98.62
425.846	92.62
426.068	102.62
426.291	102.62
426.513	93.62
426.735	85.62
426.958	90.62
427.18	89.62
427.402	132.62
427.625	173.62
427.847	126.62
428.069	97.62
428.292	94.62
428.514	94.62
428.736	81.62
428.958	76.62
429.181	79.62
429.403	86.62
429.625	81.62
429.847	96.62
430.069	103.62
430.292	92.62
430.514	68.62
430.736	90.62
430.958	83.62
431.18	82.62
431.402	70.62
431.624	81.62
431.846	95.62
432.068	99.62
432.29	85.62
432.512	85.62
432.734	80.62
432.956	81.62
433.178	95.62
433.4	95.62
433.622	94.62
433.844	91.62
434.066	85.62
434.287	78.62
434.509	95.62
434.731	96.62
434.953	79.62
435.175	94.62
435.397	97.62
435.618	96.62
435.84	85.62
436.062	120.62
436.284	112.62
436.505	96.62
436.727	89.62
436.949	91.62
437.17	86.62
437.392	82.62
437.614	81.62
437.835	106.62
438.057	101.62
438.278	93.62
438.5	92.62
438.721	118.62
438.943	91.62
439.165	83.62
439.386	90.62
439.608	90.62
439.829	98.62
440.05	114.62
440.272	137.62
440.493	102.62
440.715	91.62
440.936	67.62
441.158	91.62
441.379	79.62
441.6	89.62
441.822	86.62
442.043	90.62
442.264	107.62
442.486	88.62
442.707	89.62
442.928	98.62
443.149	125.62
443.371	134.62
443.592	111.62
443.813	107.62
444.034	100.62
444.255	96.62
444.476	80.62
444.698	90.62
444.919	79.62
445.14	116.62
445.361	113.62
445.582	112.62
445.803	132.62
446.024	137.62
446.245	115.62
446.466	107.62
446.687	81.62
446.908	88.62
447.129	89.62
447.35	91.62
447.571	83.62
447.792	94.62
448.013	98.62
448.234	102.62
448.455	89.62
448.675	101.62
448.896	104.62
449.117	86.62
449.338	92.62
449.559	124.62
449.779	121.62
450	101.62
450.221	87.62
450.442	81.62
450.662	91.62
450.883	100.62
451.104	105.62
451.324	90.62
451.545	72.62
451.766	92.62
451.986	91.62
452.207	76.62
452.428	96.62
452.648	97.62
452.869	92.62
453.089	110.62
453.31	108.62
453.53	90.62
453.751	82.62
453.971	101.62
454.192	101.62
454.412	92.62
454.633	80.62
454.853	74.62
455.073	88.62
455.294	81.62
455.514	94.62
455.734	93.62
455.955	78.62
456.175	86.62
456.395	93.62
456.616	89.62
456.836	78.62
457.056	80.62
457.276	85.62
457.497	93.62
457.717	93.62
457.937	87.62
458.157	78.62
458.377	87.62
458.598	104.62
458.818	130.62
459.038	159.62
459.258	118.62
459.478	102.62
459.698	80.62
459.918	87.62
460.138	87.62
460.358	90.62
460.578	81.62
460.798	92.62
461.018	81.62
461.238	74.62
461.458	83.62
461.678	89.62
461.898	74.62
462.118	80.62
462.338	84.62
462.558	85.62
462.777	82.62
462.997	88.62
463.217	82.62
463.437	83.62
463.657	85.62
463.876	94.62
464.096	91.62
464.316	77.62
464.536	98.62
464.755	87.62
464.975	104.62
465.195	160.62
465.414	155.62
465.634	92.62
465.854	88.62
466.073	86.62
466.293	75.62
466.512	96.62
466.732	66.62
466.951	62.62
467.171	81.62
467.391	79.62
467.61	101.62
467.829	88.62
468.049	76.62
468.268	77.62
468.488	86.62
468.707	96.62
468.927	93.62
469.146	96.62
469.365	90.62
469.585	95.62
469.804	85.62
470.023	78.62
470.243	94.62
470.462	97.62
470.681	118.62
470.901	92.62
471.12	74.62
471.339	79.62
471.558	84.62
471.777	80.62
471.997	90.62
472.216	77.62
472.435	104.62
472.654	72.62
472.873	89.62
473.092	80.62
473.311	94.62
473.53	85.62
473.749	95.62
473.968	90.62
474.187	97.62
474.406	90.62
474.625	80.62
474.844	88.62
475.063	102.62
475.282	93.62
475.501	86.62
475.72	84.62
475.939	95.62
476.158	83.62
476.377	86.62
476.596	86.62
476.814	94.62
477.033	78.62
477.252	87.62
477.471	81.62
477.69	93.62
477.908	104.62
478.127	96.62
478.346	96.62
478.564	88.62
478.783	94.62
479.002	86.62
479.22	94.62
479.439	93.62
479.658	98.62
479.876	81.62
480.095	84.62
480.313	87.62
480.532	86.62
480.751	88.62
480.969	87.62
481.188	111.62
481.406	90.62
481.624	79.62
481.843	81.62
482.061	100.62
482.28	80.62
482.498	93.62
482.717	74.62
482.935	89.62
483.153	89.62
483.372	94.62
483.59	96.62
483.808	87.62
484.027	91.62
484.245	85.62
484.463	82.62
484.681	94.62
484.9	90.62
485.118	87.62
485.336	89.62
485.554	88.62
485.772	100.62
485.99	104.62
486.209	93.62
486.427	92.62
486.645	115.62
486.863	103.62
487.081	87.62
487.299	91.62
487.517	84.62
487.735	80.62
487.953	106.62
488.171	94.62
488.389	98.62
488.607	89.62
488.825	98.62
489.043	94.62
489.261	86.62
489.479	82.62
489.696	87.62
489.914	79.62
490.132	92.62
490.35	80.62
490.568	96.62
490.786	91.62
491.003	78.62
491.221	88.62
491.439	94.62
491.657	95.62
491.874	87.62
492.092	92.62
492.31	101.62
492.527	76.62
492.745	99.62
492.963	84.62
493.18	91.62
493.398	90.62
493.615	97.62
493.833	90.62
494.05	93.62
494.268	104.62
494.485	91.62
494.703	95.62
494.92	93.62
495.138	80.62
495.355	74.62
495.573	92.62
495.79	72.62
496.008	90.62
496.225	90.62
496.442	88.62
496.66	92.62
496.877	89.62
497.094	92.62
497.312	86.62
497.529	80.62
497.746	80.62
497.963	93.62
498.181	93.62
498.398	108.62
498.615	92.62
498.832	97.62
499.049	94.62
499.267	90.62
499.484	97.62
499.701	95.62
499.918	97.62
500.135	87.62
500.352	96.62
500.569	82.62
500.786	102.62
501.003	97.62
501.22	81.62
501.437	89.62
501.654	94.62
501.871	112.62
502.088	93.62
502.305	77.62
502.522	90.62
502.739	87.62
502.956	93.62
503.172	87.62
503.389	93.62
503.606	111.62
503.823	94.62
504.04	106.62
504.256	96.62
504.473	88.62
504.69	79.62
504.907	92.62
505.123	95.62
505.34	82.62
505.557	80.62
505.773	93.62
505.99	90.62
506.207	64.62
506.423	85.62
506.64	83.62
506.856	84.62
507.073	94.62
507.289	81.62
507.506	95.62
507.722	91.62
507.939	96.62
508.155	88.62
508.372	94.62
508.588	103.62
508.805	84.62
509.021	95.62
509.238	100.62
509.454	93.62
509.67	90.62
509.887	106.62
510.103	128.62
510.319	220.62
510.536	772.62
510.752	2328.62
510.968	658.62
511.184	154.62
511.401	111.62
511.617	93.62
511.833	94.62
512.049	93.62
512.265	88.62
512.481	79.62
512.698	104.62
512.914	93.62
513.13	90.62
513.346	106.62
513.562	93.62
513.778	97.62
513.994	88.62
514.21	104.62
514.426	121.62
514.642	147.62
514.858	115.62
515.074	157.62
515.29	442.62
515.506	1444.62
515.721	521.62
515.937	143.62
516.153	103.62
516.369	90.62
516.585	85.62
