Data from Uncirc_1997_H10_HRD10591_00015.txt Node
Date: Wed Jan 03 11:28:33 EST 2024
User: Yrep
Spectrometer: HR+D1059
Trigger mode: 1
Integration Time (sec): 1.000000E-1
Scans to average: 1
Electric dark correction enabled: true
Nonlinearity correction enabled: false
Boxcar width: 0
XAxis mode: Wavelengths
Number of Pixels in Spectrum: 2048
>>>>>Begin Spectral Data<<<<<
223.165	-14.81
223.4	-14.81
223.635	-14.81
223.869	-19.81
224.104	-14.81
224.338	-33.81
224.573	-10.81
224.808	-7.81
225.042	-10.81
225.277	-7.81
225.511	-3.81
225.746	1.19
225.98	5.19
226.215	15.19
226.449	27.19
226.683	23.19
226.918	22.19
227.152	30.19
227.387	43.19
227.621	42.19
227.856	52.19
228.09	36.19
228.324	53.19
228.559	44.19
228.793	60.19
229.027	69.19
229.262	56.19
229.496	80.19
229.73	77.19
229.964	79.19
230.199	65.19
230.433	80.19
230.667	88.19
230.901	74.19
231.136	82.19
231.37	76.19
231.604	91.19
231.838	73.19
232.072	82.19
232.306	77.19
232.541	73.19
232.775	91.19
233.009	79.19
233.243	76.19
233.477	80.19
233.711	81.19
233.945	86.19
234.179	76.19
234.413	80.19
234.647	80.19
234.881	81.19
235.115	82.19
235.349	88.19
235.583	86.19
235.817	84.19
236.051	92.19
236.285	90.19
236.519	91.19
236.753	71.19
236.987	82.19
237.221	87.19
237.455	92.19
237.689	86.19
237.922	78.19
238.156	77.19
238.39	77.19
238.624	75.19
238.858	73.19
239.091	79.19
239.325	78.19
239.559	81.19
239.793	76.19
240.027	91.19
240.26	81.19
240.494	81.19
240.728	75.19
240.961	88.19
241.195	84.19
241.429	90.19
241.662	69.19
241.896	93.19
242.13	64.19
242.363	72.19
242.597	67.19
242.83	85.19
243.064	74.19
243.298	76.19
243.531	63.19
243.765	63.19
243.998	81.19
244.232	94.19
244.465	83.19
244.699	85.19
244.932	80.19
245.166	64.19
245.399	82.19
245.633	77.19
245.866	76.19
246.099	80.19
246.333	80.19
246.566	78.19
246.8	98.19
247.033	86.19
247.266	95.19
247.5	75.19
247.733	73.19
247.966	77.19
248.2	82.19
248.433	74.19
248.666	70.19
248.899	76.19
249.133	88.19
249.366	88.19
249.599	101.19
249.832	96.19
250.066	93.19
250.299	68.19
250.532	78.19
250.765	84.19
250.998	65.19
251.231	84.19
251.465	64.19
251.698	83.19
251.931	85.19
252.164	86.19
252.397	78.19
252.63	68.19
252.863	72.19
253.096	80.19
253.329	79.19
253.562	88.19
253.795	79.19
254.028	84.19
254.261	81.19
254.494	63.19
254.727	77.19
254.96	74.19
255.193	64.19
255.426	80.19
255.659	73.19
255.892	89.19
256.124	80.19
256.357	82.19
256.59	76.19
256.823	73.19
257.056	80.19
257.289	80.19
257.521	95.19
257.754	77.19
257.987	92.19
258.22	93.19
258.452	90.19
258.685	69.19
258.918	76.19
259.151	76.19
259.383	89.19
259.616	86.19
259.849	77.19
260.081	83.19
260.314	83.19
260.547	97.19
260.779	85.19
261.012	98.19
261.244	93.19
261.477	89.19
261.71	89.19
261.942	106.19
262.175	116.19
262.407	78.19
262.64	80.19
262.872	80.19
263.105	84.19
263.337	85.19
263.57	99.19
263.802	86.19
264.035	85.19
264.267	85.19
264.499	79.19
264.732	85.19
264.964	99.19
265.197	81.19
265.429	83.19
265.661	78.19
265.894	87.19
266.126	93.19
266.358	86.19
266.591	79.19
266.823	83.19
267.055	82.19
267.287	69.19
267.52	94.19
267.752	84.19
267.984	78.19
268.216	83.19
268.448	93.19
268.681	88.19
268.913	91.19
269.145	83.19
269.377	95.19
269.609	83.19
269.841	95.19
270.073	92.19
270.306	83.19
270.538	79.19
270.77	90.19
271.002	99.19
271.234	94.19
271.466	84.19
271.698	80.19
271.93	85.19
272.162	84.19
272.394	92.19
272.626	84.19
272.858	87.19
273.09	84.19
273.322	98.19
273.553	89.19
273.785	86.19
274.017	83.19
274.249	82.19
274.481	90.19
274.713	93.19
274.945	78.19
275.176	97.19
275.408	71.19
275.64	86.19
275.872	96.19
276.104	78.19
276.335	95.19
276.567	91.19
276.799	99.19
277.031	97.19
277.262	99.19
277.494	74.19
277.726	93.19
277.957	91.19
278.189	88.19
278.421	84.19
278.652	89.19
278.884	99.19
279.115	96.19
279.347	89.19
279.579	84.19
279.81	76.19
280.042	95.19
280.273	97.19
280.505	100.19
280.736	83.19
280.968	97.19
281.199	84.19
281.431	97.19
281.662	82.19
281.894	94.19
282.125	90.19
282.356	98.19
282.588	118.19
282.819	102.19
283.051	72.19
283.282	91.19
283.513	92.19
283.745	82.19
283.976	82.19
284.207	79.19
284.439	94.19
284.67	91.19
284.901	90.19
285.132	86.19
285.364	90.19
285.595	68.19
285.826	92.19
286.057	93.19
286.288	88.19
286.52	92.19
286.751	106.19
286.982	79.19
287.213	89.19
287.444	85.19
287.675	102.19
287.906	109.19
288.138	83.19
288.369	85.19
288.6	90.19
288.831	86.19
289.062	84.19
289.293	85.19
289.524	102.19
289.755	94.19
289.986	90.19
290.217	81.19
290.448	82.19
290.679	85.19
290.91	78.19
291.141	86.19
291.371	90.19
291.602	85.19
291.833	88.19
292.064	90.19
292.295	98.19
292.526	99.19
292.757	83.19
292.987	93.19
293.218	80.19
293.449	80.19
293.68	89.19
293.91	92.19
294.141	101.19
294.372	91.19
294.603	91.19
294.833	87.19
295.064	85.19
295.295	94.19
295.525	89.19
295.756	98.19
295.987	103.19
296.217	130.19
296.448	130.19
296.679	89.19
296.909	93.19
297.14	91.19
297.37	89.19
297.601	96.19
297.831	85.19
298.062	79.19
298.292	91.19
298.523	82.19
298.753	90.19
298.984	89.19
299.214	92.19
299.445	92.19
299.675	94.19
299.905	102.19
300.136	86.19
300.366	71.19
300.597	84.19
300.827	103.19
301.057	82.19
301.288	112.19
301.518	97.19
301.748	89.19
301.979	99.19
302.209	100.19
302.439	103.19
302.669	78.19
302.9	89.19
303.13	96.19
303.36	93.19
303.59	99.19
303.82	99.19
304.051	90.19
304.281	98.19
304.511	108.19
304.741	94.19
304.971	84.19
305.201	94.19
305.431	98.19
305.661	87.19
305.891	86.19
306.121	90.19
306.352	106.19
306.582	98.19
306.812	101.19
307.042	92.19
307.272	91.19
307.502	92.19
307.731	111.19
307.961	94.19
308.191	85.19
308.421	97.19
308.651	96.19
308.881	88.19
309.111	82.19
309.341	85.19
309.571	99.19
309.8	100.19
310.03	100.19
310.26	100.19
310.49	86.19
310.72	99.19
310.949	95.19
311.179	109.19
311.409	84.19
311.639	100.19
311.868	104.19
312.098	96.19
312.328	89.19
312.557	96.19
312.787	109.19
313.017	88.19
313.246	96.19
313.476	82.19
313.706	94.19
313.935	89.19
314.165	99.19
314.394	104.19
314.624	94.19
314.853	97.19
315.083	100.19
315.312	96.19
315.542	99.19
315.771	87.19
316.001	88.19
316.23	102.19
316.46	93.19
316.689	81.19
316.919	101.19
317.148	98.19
317.377	90.19
317.607	96.19
317.836	105.19
318.065	78.19
318.295	92.19
318.524	90.19
318.753	85.19
318.983	90.19
319.212	95.19
319.441	101.19
319.67	108.19
319.9	99.19
320.129	95.19
320.358	102.19
320.587	101.19
320.816	99.19
321.046	104.19
321.275	105.19
321.504	92.19
321.733	93.19
321.962	102.19
322.191	81.19
322.42	94.19
322.649	101.19
322.878	113.19
323.108	116.19
323.337	130.19
323.566	122.19
323.795	151.19
324.024	193.19
324.253	352.19
324.482	728.19
324.71	1462.19
324.939	1912.19
325.168	707.19
325.397	226.19
325.626	142.19
325.855	144.19
326.084	115.19
326.313	138.19
326.542	151.19
326.77	209.19
326.999	407.19
327.228	829.19
327.457	1482.19
327.686	1147.19
327.914	320.19
328.143	188.19
328.372	127.19
328.6	109.19
328.829	118.19
329.058	139.19
329.287	124.19
329.515	106.19
329.744	100.19
329.972	93.19
330.201	109.19
330.43	128.19
330.658	120.19
330.887	122.19
331.115	123.19
331.344	93.19
331.572	88.19
331.801	109.19
332.03	91.19
332.258	97.19
332.486	98.19
332.715	96.19
332.943	96.19
333.172	93.19
333.4	90.19
333.629	94.19
333.857	113.19
334.085	90.19
334.314	89.19
334.542	92.19
334.771	89.19
334.999	100.19
335.227	105.19
335.455	101.19
335.684	107.19
335.912	92.19
336.14	95.19
336.369	86.19
336.597	94.19
336.825	99.19
337.053	92.19
337.281	81.19
337.51	98.19
337.738	88.19
337.966	114.19
338.194	99.19
338.422	90.19
338.65	97.19
338.878	99.19
339.106	94.19
339.334	98.19
339.562	99.19
339.79	92.19
340.018	92.19
340.246	104.19
340.474	84.19
340.702	97.19
340.93	92.19
341.158	103.19
341.386	90.19
341.614	97.19
341.842	94.19
342.07	95.19
342.298	90.19
342.526	90.19
342.754	89.19
342.981	96.19
343.209	92.19
343.437	86.19
343.665	83.19
343.893	83.19
344.12	95.19
344.348	96.19
344.576	96.19
344.804	93.19
345.031	91.19
345.259	94.19
345.487	95.19
345.714	110.19
345.942	88.19
346.17	83.19
346.397	81.19
346.625	92.19
346.853	76.19
347.08	74.19
347.308	99.19
347.535	98.19
347.763	100.19
347.99	100.19
348.218	105.19
348.445	99.19
348.673	108.19
348.9	101.19
349.128	98.19
349.355	93.19
349.583	95.19
349.81	100.19
350.037	77.19
350.265	92.19
350.492	94.19
350.72	99.19
350.947	89.19
351.174	112.19
351.402	101.19
351.629	96.19
351.856	91.19
352.083	100.19
352.311	98.19
352.538	84.19
352.765	106.19
352.992	115.19
353.22	104.19
353.447	95.19
353.674	102.19
353.901	104.19
354.128	106.19
354.355	114.19
354.583	94.19
354.81	97.19
355.037	98.19
355.264	94.19
355.491	84.19
355.718	93.19
355.945	96.19
356.172	90.19
356.399	99.19
356.626	98.19
356.853	93.19
357.08	107.19
357.307	92.19
357.534	90.19
357.761	96.19
357.988	92.19
358.215	95.19
358.441	93.19
358.668	91.19
358.895	98.19
359.122	100.19
359.349	80.19
359.576	85.19
359.802	102.19
360.029	121.19
360.256	106.19
360.483	91.19
360.709	87.19
360.936	94.19
361.163	89.19
361.39	100.19
361.616	102.19
361.843	86.19
362.07	103.19
362.296	100.19
362.523	90.19
362.749	89.19
362.976	89.19
363.203	77.19
363.429	86.19
363.656	94.19
363.882	92.19
364.109	99.19
364.335	92.19
364.562	87.19
364.788	108.19
365.015	100.19
365.241	91.19
365.468	102.19
365.694	84.19
365.92	90.19
366.147	106.19
366.373	96.19
366.599	106.19
366.826	104.19
367.052	96.19
367.278	103.19
367.505	94.19
367.731	98.19
367.957	85.19
368.184	89.19
368.41	95.19
368.636	94.19
368.862	102.19
369.089	89.19
369.315	96.19
369.541	86.19
369.767	86.19
369.993	93.19
370.219	105.19
370.445	89.19
370.672	92.19
370.898	87.19
371.124	85.19
371.35	74.19
371.576	85.19
371.802	87.19
372.028	88.19
372.254	87.19
372.48	94.19
372.706	100.19
372.932	88.19
373.158	91.19
373.384	102.19
373.61	97.19
373.835	79.19
374.061	84.19
374.287	100.19
374.513	87.19
374.739	91.19
374.965	86.19
375.191	87.19
375.416	91.19
375.642	90.19
375.868	90.19
376.094	94.19
376.319	95.19
376.545	102.19
376.771	89.19
376.997	101.19
377.222	91.19
377.448	93.19
377.674	74.19
377.899	96.19
378.125	90.19
378.35	96.19
378.576	92.19
378.802	81.19
379.027	88.19
379.253	86.19
379.478	95.19
379.704	96.19
379.929	99.19
380.155	94.19
380.38	87.19
380.606	84.19
380.831	91.19
381.057	113.19
381.282	104.19
381.507	107.19
381.733	100.19
381.958	96.19
382.184	92.19
382.409	99.19
382.634	91.19
382.86	93.19
383.085	114.19
383.31	107.19
383.535	86.19
383.761	103.19
383.986	109.19
384.211	106.19
384.436	95.19
384.662	90.19
384.887	108.19
385.112	104.19
385.337	93.19
385.562	108.19
385.787	110.19
386.013	106.19
386.238	93.19
386.463	89.19
386.688	102.19
386.913	100.19
387.138	87.19
387.363	99.19
387.588	101.19
387.813	86.19
388.038	114.19
388.263	112.19
388.488	98.19
388.713	96.19
388.938	94.19
389.163	91.19
389.387	97.19
389.612	87.19
389.837	96.19
390.062	99.19
390.287	99.19
390.512	105.19
390.736	100.19
390.961	101.19
391.186	85.19
391.411	92.19
391.636	93.19
391.86	82.19
392.085	86.19
392.31	93.19
392.534	98.19
392.759	90.19
392.984	87.19
393.208	90.19
393.433	93.19
393.658	98.19
393.882	95.19
394.107	84.19
394.331	93.19
394.556	97.19
394.78	84.19
395.005	85.19
395.229	92.19
395.454	87.19
395.678	91.19
395.903	95.19
396.127	100.19
396.352	88.19
396.576	102.19
396.801	91.19
397.025	89.19
397.249	98.19
397.474	89.19
397.698	80.19
397.922	99.19
398.147	100.19
398.371	88.19
398.595	73.19
398.82	84.19
399.044	98.19
399.268	88.19
399.492	92.19
399.717	98.19
399.941	86.19
400.165	86.19
400.389	101.19
400.613	73.19
400.837	81.19
401.062	95.19
401.286	90.19
401.51	100.19
401.734	92.19
401.958	111.19
402.182	110.19
402.406	140.19
402.63	100.19
402.854	106.19
403.078	91.19
403.302	90.19
403.526	95.19
403.75	89.19
403.974	99.19
404.198	84.19
404.422	97.19
404.645	88.19
404.869	93.19
405.093	106.19
405.317	102.19
405.541	101.19
405.765	99.19
405.988	109.19
406.212	148.19
406.436	205.19
406.66	132.19
406.883	94.19
407.107	101.19
407.331	102.19
407.555	88.19
407.778	92.19
408.002	91.19
408.226	75.19
408.449	83.19
408.673	98.19
408.896	90.19
409.12	78.19
409.344	95.19
409.567	89.19
409.791	86.19
410.014	94.19
410.238	87.19
410.461	92.19
410.685	96.19
410.908	85.19
411.132	104.19
411.355	99.19
411.578	109.19
411.802	92.19
412.025	72.19
412.249	94.19
412.472	95.19
412.695	92.19
412.919	92.19
413.142	86.19
413.365	100.19
413.589	82.19
413.812	102.19
414.035	102.19
414.258	89.19
414.482	93.19
414.705	101.19
414.928	102.19
415.151	103.19
415.374	90.19
415.597	91.19
415.821	109.19
416.044	84.19
416.267	88.19
416.49	98.19
416.713	94.19
416.936	86.19
417.159	84.19
417.382	96.19
417.605	97.19
417.828	94.19
418.051	92.19
418.274	74.19
418.497	92.19
418.72	80.19
418.943	97.19
419.166	82.19
419.389	100.19
419.611	90.19
419.834	92.19
420.057	91.19
420.28	90.19
420.503	98.19
420.726	102.19
420.948	90.19
421.171	98.19
421.394	84.19
421.617	94.19
421.839	98.19
422.062	92.19
422.285	86.19
422.507	106.19
422.73	88.19
422.953	94.19
423.175	112.19
423.398	97.19
423.621	87.19
423.843	77.19
424.066	74.19
424.288	93.19
424.511	81.19
424.733	102.19
424.956	92.19
425.178	99.19
425.401	109.19
425.623	79.19
425.846	86.19
426.068	109.19
426.291	87.19
426.513	95.19
426.735	115.19
426.958	103.19
427.18	92.19
427.402	108.19
427.625	153.19
427.847	108.19
428.069	107.19
428.292	84.19
428.514	93.19
428.736	86.19
428.958	90.19
429.181	94.19
429.403	104.19
429.625	81.19
429.847	84.19
430.069	99.19
430.292	78.19
430.514	86.19
430.736	82.19
430.958	92.19
431.18	86.19
431.402	95.19
431.624	89.19
431.846	77.19
432.068	83.19
432.29	90.19
432.512	81.19
432.734	90.19
432.956	84.19
433.178	91.19
433.4	97.19
433.622	82.19
433.844	79.19
434.066	98.19
434.287	91.19
434.509	95.19
434.731	107.19
434.953	101.19
435.175	88.19
435.397	97.19
435.618	97.19
435.84	102.19
436.062	120.19
436.284	121.19
436.505	97.19
436.727	100.19
436.949	89.19
437.17	93.19
437.392	98.19
437.614	93.19
437.835	88.19
438.057	110.19
438.278	106.19
438.5	110.19
438.721	113.19
438.943	97.19
439.165	82.19
439.386	82.19
439.608	89.19
439.829	94.19
440.05	109.19
440.272	132.19
440.493	110.19
440.715	86.19
440.936	96.19
441.158	92.19
441.379	82.19
441.6	91.19
441.822	94.19
442.043	95.19
442.264	84.19
442.486	90.19
442.707	95.19
442.928	105.19
443.149	115.19
443.371	123.19
443.592	93.19
443.813	106.19
444.034	104.19
444.255	93.19
444.476	94.19
444.698	82.19
444.919	98.19
445.14	133.19
445.361	122.19
445.582	107.19
445.803	117.19
446.024	112.19
446.245	123.19
446.466	115.19
446.687	86.19
446.908	88.19
447.129	80.19
447.35	80.19
447.571	87.19
447.792	100.19
448.013	100.19
448.234	102.19
448.455	106.19
448.675	107.19
448.896	101.19
449.117	106.19
449.338	93.19
449.559	122.19
449.779	124.19
450	100.19
450.221	91.19
450.442	90.19
450.662	99.19
450.883	95.19
451.104	109.19
451.324	84.19
451.545	86.19
451.766	101.19
451.986	92.19
452.207	86.19
452.428	95.19
452.648	110.19
452.869	94.19
453.089	124.19
453.31	107.19
453.53	88.19
453.751	84.19
453.971	103.19
454.192	114.19
454.412	98.19
454.633	90.19
454.853	95.19
455.073	88.19
455.294	85.19
455.514	107.19
455.734	85.19
455.955	88.19
456.175	86.19
456.395	90.19
456.616	84.19
456.836	79.19
457.056	84.19
457.276	98.19
457.497	84.19
457.717	91.19
457.937	78.19
458.157	95.19
458.377	94.19
458.598	109.19
458.818	124.19
459.038	132.19
459.258	106.19
459.478	97.19
459.698	92.19
459.918	93.19
460.138	80.19
460.358	80.19
460.578	99.19
460.798	76.19
461.018	86.19
461.238	96.19
461.458	80.19
461.678	86.19
461.898	99.19
462.118	91.19
462.338	89.19
462.558	97.19
462.777	86.19
462.997	84.19
463.217	82.19
463.437	98.19
463.657	106.19
463.876	91.19
464.096	104.19
464.316	90.19
464.536	93.19
464.755	97.19
464.975	98.19
465.195	158.19
465.414	129.19
465.634	99.19
465.854	92.19
466.073	81.19
466.293	81.19
466.512	91.19
466.732	89.19
466.951	89.19
467.171	89.19
467.391	94.19
467.61	112.19
467.829	82.19
468.049	97.19
468.268	80.19
468.488	88.19
468.707	90.19
468.927	100.19
469.146	86.19
469.365	98.19
469.585	97.19
469.804	82.19
470.023	91.19
470.243	94.19
470.462	96.19
470.681	99.19
470.901	88.19
471.12	79.19
471.339	97.19
471.558	97.19
471.777	97.19
471.997	98.19
472.216	89.19
472.435	106.19
472.654	96.19
472.873	88.19
473.092	86.19
473.311	79.19
473.53	92.19
473.749	98.19
473.968	92.19
474.187	97.19
474.406	94.19
474.625	99.19
474.844	84.19
475.063	83.19
475.282	93.19
475.501	72.19
475.72	100.19
475.939	96.19
476.158	102.19
476.377	100.19
476.596	80.19
476.814	89.19
477.033	98.19
477.252	90.19
477.471	86.19
477.69	95.19
477.908	101.19
478.127	95.19
478.346	91.19
478.564	97.19
478.783	99.19
479.002	100.19
479.22	96.19
479.439	94.19
479.658	113.19
479.876	90.19
480.095	93.19
480.313	89.19
480.532	101.19
480.751	91.19
480.969	110.19
481.188	121.19
481.406	110.19
481.624	86.19
481.843	90.19
482.061	85.19
482.28	95.19
482.498	89.19
482.717	87.19
482.935	91.19
483.153	93.19
483.372	100.19
483.59	98.19
483.808	95.19
484.027	84.19
484.245	84.19
484.463	99.19
484.681	98.19
484.9	100.19
485.118	97.19
485.336	100.19
485.554	92.19
485.772	102.19
485.99	102.19
486.209	108.19
486.427	111.19
486.645	105.19
486.863	100.19
487.081	93.19
487.299	83.19
487.517	97.19
487.735	102.19
487.953	110.19
488.171	90.19
488.389	88.19
488.607	95.19
488.825	104.19
489.043	84.19
489.261	107.19
489.479	96.19
489.696	71.19
489.914	93.19
490.132	94.19
490.35	91.19
490.568	95.19
490.786	103.19
491.003	88.19
491.221	99.19
491.439	80.19
491.657	91.19
491.874	100.19
492.092	82.19
492.31	92.19
492.527	108.19
492.745	92.19
492.963	88.19
493.18	100.19
493.398	89.19
493.615	82.19
493.833	98.19
494.05	96.19
494.268	98.19
494.485	96.19
494.703	86.19
494.92	89.19
495.138	103.19
495.355	96.19
495.573	94.19
495.79	90.19
496.008	69.19
496.225	93.19
496.442	85.19
496.66	97.19
496.877	92.19
497.094	108.19
497.312	97.19
497.529	92.19
497.746	92.19
497.963	105.19
498.181	84.19
498.398	99.19
498.615	99.19
498.832	105.19
499.049	96.19
499.267	98.19
499.484	105.19
499.701	91.19
499.918	88.19
500.135	66.19
500.352	89.19
500.569	88.19
500.786	97.19
501.003	95.19
501.22	86.19
501.437	80.19
501.654	104.19
501.871	122.19
502.088	89.19
502.305	88.19
502.522	96.19
502.739	90.19
502.956	93.19
503.172	88.19
503.389	106.19
503.606	99.19
503.823	101.19
504.04	91.19
504.256	101.19
504.473	84.19
504.69	104.19
504.907	91.19
505.123	79.19
505.34	92.19
505.557	90.19
505.773	90.19
505.99	83.19
506.207	84.19
506.423	101.19
506.64	82.19
506.856	110.19
507.073	91.19
507.289	96.19
507.506	100.19
507.722	108.19
507.939	113.19
508.155	104.19
508.372	96.19
508.588	82.19
508.805	97.19
509.021	90.19
509.238	97.19
509.454	104.19
509.67	87.19
509.887	112.19
510.103	124.19
510.319	210.19
510.536	681.19
510.752	1969.19
510.968	558.19
511.184	156.19
511.401	106.19
511.617	111.19
511.833	87.19
512.049	90.19
512.265	96.19
512.481	85.19
512.698	90.19
512.914	90.19
513.13	90.19
513.346	81.19
513.562	109.19
513.778	89.19
513.994	100.19
514.21	104.19
514.426	106.19
514.642	124.19
514.858	120.19
515.074	157.19
515.29	385.19
515.506	1205.19
515.721	445.19
