Data from Uncirc_1997_H10_HRD10591_00051.txt Node
Date: Wed Jan 03 11:28:40 EST 2024
User: Yrep
Spectrometer: HR+D1059
Trigger mode: 1
Integration Time (sec): 1.000000E-1
Scans to average: 1
Electric dark correction enabled: true
Nonlinearity correction enabled: false
Boxcar width: 0
XAxis mode: Wavelengths
Number of Pixels in Spectrum: 2048
>>>>>Begin Spectral Data<<<<<
223.165	-23.19
223.4	-23.19
223.635	-23.19
223.869	-13.19
224.104	-25.19
224.338	-9.19
224.573	-11.19
224.808	-3.19
225.042	-11.19
225.277	-5.19
225.511	-19.19
225.746	-4.19
225.98	15.81
226.215	6.81
226.449	21.81
226.683	28.81
226.918	30.81
227.152	20.81
227.387	30.81
227.621	44.81
227.856	36.81
228.09	66.81
228.324	49.81
228.559	51.81
228.793	59.81
229.027	73.81
229.262	67.81
229.496	82.81
229.73	84.81
229.964	86.81
230.199	72.81
230.433	58.81
230.667	85.81
230.901	72.81
231.136	73.81
231.37	71.81
231.604	76.81
231.838	83.81
232.072	73.81
232.306	87.81
232.541	86.81
232.775	89.81
233.009	97.81
233.243	81.81
233.477	62.81
233.711	70.81
233.945	78.81
234.179	82.81
234.413	91.81
234.647	80.81
234.881	83.81
235.115	75.81
235.349	80.81
235.583	84.81
235.817	73.81
236.051	67.81
236.285	74.81
236.519	68.81
236.753	83.81
236.987	87.81
237.221	83.81
237.455	98.81
237.689	79.81
237.922	74.81
238.156	78.81
238.39	73.81
238.624	87.81
238.858	87.81
239.091	75.81
239.325	83.81
239.559	79.81
239.793	74.81
240.027	70.81
240.26	90.81
240.494	87.81
240.728	85.81
240.961	89.81
241.195	72.81
241.429	75.81
241.662	74.81
241.896	74.81
242.13	82.81
242.363	81.81
242.597	60.81
242.83	78.81
243.064	76.81
243.298	83.81
243.531	70.81
243.765	90.81
243.998	84.81
244.232	77.81
244.465	89.81
244.699	89.81
244.932	74.81
245.166	86.81
245.399	76.81
245.633	82.81
245.866	65.81
246.099	78.81
246.333	75.81
246.566	81.81
246.8	84.81
247.033	88.81
247.266	84.81
247.5	79.81
247.733	71.81
247.966	72.81
248.2	74.81
248.433	71.81
248.666	78.81
248.899	78.81
249.133	84.81
249.366	110.81
249.599	92.81
249.832	76.81
250.066	83.81
250.299	78.81
250.532	68.81
250.765	82.81
250.998	72.81
251.231	93.81
251.465	71.81
251.698	86.81
251.931	74.81
252.164	60.81
252.397	75.81
252.63	78.81
252.863	82.81
253.096	83.81
253.329	89.81
253.562	78.81
253.795	74.81
254.028	91.81
254.261	76.81
254.494	77.81
254.727	77.81
254.96	75.81
255.193	88.81
255.426	99.81
255.659	73.81
255.892	89.81
256.124	79.81
256.357	72.81
256.59	85.81
256.823	70.81
257.056	86.81
257.289	80.81
257.521	81.81
257.754	85.81
257.987	80.81
258.22	86.81
258.452	88.81
258.685	78.81
258.918	93.81
259.151	79.81
259.383	89.81
259.616	90.81
259.849	74.81
260.081	76.81
260.314	70.81
260.547	85.81
260.779	96.81
261.012	86.81
261.244	85.81
261.477	98.81
261.71	95.81
261.942	109.81
262.175	127.81
262.407	93.81
262.64	88.81
262.872	81.81
263.105	89.81
263.337	92.81
263.57	87.81
263.802	78.81
264.035	80.81
264.267	87.81
264.499	85.81
264.732	84.81
264.964	82.81
265.197	79.81
265.429	82.81
265.661	74.81
265.894	87.81
266.126	87.81
266.358	82.81
266.591	83.81
266.823	76.81
267.055	83.81
267.287	86.81
267.52	81.81
267.752	96.81
267.984	100.81
268.216	94.81
268.448	87.81
268.681	80.81
268.913	86.81
269.145	82.81
269.377	100.81
269.609	88.81
269.841	103.81
270.073	88.81
270.306	90.81
270.538	81.81
270.77	86.81
271.002	97.81
271.234	84.81
271.466	89.81
271.698	91.81
271.93	85.81
272.162	94.81
272.394	71.81
272.626	74.81
272.858	86.81
273.09	80.81
273.322	78.81
273.553	92.81
273.785	83.81
274.017	89.81
274.249	99.81
274.481	86.81
274.713	61.81
274.945	83.81
275.176	80.81
275.408	75.81
275.64	73.81
275.872	90.81
276.104	76.81
276.335	91.81
276.567	94.81
276.799	104.81
277.031	113.81
277.262	104.81
277.494	87.81
277.726	78.81
277.957	96.81
278.189	83.81
278.421	77.81
278.652	71.81
278.884	99.81
279.115	87.81
279.347	99.81
279.579	83.81
279.81	98.81
280.042	97.81
280.273	80.81
280.505	94.81
280.736	109.81
280.968	93.81
281.199	82.81
281.431	92.81
281.662	96.81
281.894	87.81
282.125	99.81
282.356	93.81
282.588	119.81
282.819	98.81
283.051	86.81
283.282	97.81
283.513	88.81
283.745	86.81
283.976	78.81
284.207	96.81
284.439	84.81
284.67	83.81
284.901	88.81
285.132	83.81
285.364	96.81
285.595	112.81
285.826	94.81
286.057	89.81
286.288	86.81
286.52	87.81
286.751	74.81
286.982	94.81
287.213	85.81
287.444	91.81
287.675	87.81
287.906	95.81
288.138	94.81
288.369	95.81
288.6	86.81
288.831	79.81
289.062	84.81
289.293	91.81
289.524	82.81
289.755	100.81
289.986	90.81
290.217	83.81
290.448	84.81
290.679	85.81
290.91	89.81
291.141	92.81
291.371	80.81
291.602	76.81
291.833	88.81
292.064	87.81
292.295	88.81
292.526	86.81
292.757	95.81
292.987	89.81
293.218	87.81
293.449	92.81
293.68	106.81
293.91	103.81
294.141	98.81
294.372	84.81
294.603	81.81
294.833	101.81
295.064	85.81
295.295	81.81
295.525	106.81
295.756	97.81
295.987	97.81
296.217	123.81
296.448	120.81
296.679	87.81
296.909	92.81
297.14	92.81
297.37	90.81
297.601	83.81
297.831	85.81
298.062	88.81
298.292	92.81
298.523	92.81
298.753	88.81
298.984	78.81
299.214	86.81
299.445	88.81
299.675	92.81
299.905	98.81
300.136	81.81
300.366	91.81
300.597	96.81
300.827	85.81
301.057	92.81
301.288	97.81
301.518	109.81
301.748	99.81
301.979	92.81
302.209	82.81
302.439	86.81
302.669	89.81
302.9	79.81
303.13	83.81
303.36	79.81
303.59	100.81
303.82	99.81
304.051	106.81
304.281	96.81
304.511	106.81
304.741	97.81
304.971	98.81
305.201	84.81
305.431	89.81
305.661	92.81
305.891	89.81
306.121	92.81
306.352	92.81
306.582	96.81
306.812	86.81
307.042	87.81
307.272	104.81
307.502	79.81
307.731	107.81
307.961	95.81
308.191	95.81
308.421	76.81
308.651	102.81
308.881	88.81
309.111	99.81
309.341	105.81
309.571	92.81
309.8	86.81
310.03	88.81
310.26	103.81
310.49	110.81
310.72	99.81
310.949	98.81
311.179	91.81
311.409	100.81
311.639	93.81
311.868	111.81
312.098	97.81
312.328	91.81
312.557	87.81
312.787	98.81
313.017	107.81
313.246	87.81
313.476	89.81
313.706	98.81
313.935	90.81
314.165	95.81
314.394	103.81
314.624	106.81
314.853	97.81
315.083	94.81
315.312	89.81
315.542	103.81
315.771	104.81
316.001	92.81
316.23	100.81
316.46	99.81
316.689	91.81
316.919	87.81
317.148	102.81
317.377	98.81
317.607	88.81
317.836	92.81
318.065	103.81
318.295	79.81
318.524	82.81
318.753	85.81
318.983	91.81
319.212	106.81
319.441	95.81
319.67	100.81
319.9	90.81
320.129	97.81
320.358	96.81
320.587	97.81
320.816	104.81
321.046	83.81
321.275	98.81
321.504	86.81
321.733	88.81
321.962	93.81
322.191	100.81
322.42	91.81
322.649	107.81
322.878	110.81
323.108	105.81
323.337	109.81
323.566	118.81
323.795	142.81
324.024	171.81
324.253	313.81
324.482	654.81
324.71	1276.81
324.939	1699.81
325.168	649.81
325.397	212.81
325.626	139.81
325.855	123.81
326.084	119.81
326.313	132.81
326.542	133.81
326.77	195.81
326.999	389.81
327.228	765.81
327.457	1336.81
327.686	1044.81
327.914	292.81
328.143	166.81
328.372	109.81
328.6	125.81
328.829	115.81
329.058	109.81
329.287	113.81
329.515	106.81
329.744	108.81
329.972	79.81
330.201	108.81
330.43	115.81
330.658	112.81
330.887	117.81
331.115	110.81
331.344	87.81
331.572	106.81
331.801	96.81
332.03	100.81
332.258	106.81
332.486	107.81
332.715	86.81
332.943	98.81
333.172	90.81
333.4	103.81
333.629	87.81
333.857	109.81
334.085	102.81
334.314	95.81
334.542	101.81
334.771	102.81
334.999	78.81
335.227	92.81
335.455	106.81
335.684	95.81
335.912	102.81
336.14	92.81
336.369	97.81
336.597	107.81
336.825	89.81
337.053	105.81
337.281	83.81
337.51	96.81
337.738	90.81
337.966	88.81
338.194	90.81
338.422	104.81
338.65	87.81
338.878	111.81
339.106	94.81
339.334	103.81
339.562	100.81
339.79	87.81
340.018	98.81
340.246	100.81
340.474	91.81
340.702	94.81
340.93	108.81
341.158	99.81
341.386	88.81
341.614	105.81
341.842	110.81
342.07	81.81
342.298	90.81
342.526	91.81
342.754	82.81
342.981	84.81
343.209	99.81
343.437	102.81
343.665	90.81
343.893	88.81
344.12	95.81
344.348	91.81
344.576	80.81
344.804	94.81
345.031	91.81
345.259	106.81
345.487	91.81
345.714	110.81
345.942	82.81
346.17	81.81
346.397	91.81
346.625	93.81
346.853	96.81
347.08	89.81
347.308	91.81
347.535	95.81
347.763	107.81
347.99	108.81
348.218	92.81
348.445	100.81
348.673	95.81
348.9	77.81
349.128	102.81
349.355	95.81
349.583	88.81
349.81	109.81
350.037	86.81
350.265	88.81
350.492	92.81
350.72	95.81
350.947	102.81
351.174	107.81
351.402	112.81
351.629	98.81
351.856	107.81
352.083	112.81
352.311	104.81
352.538	110.81
352.765	103.81
352.992	96.81
353.22	103.81
353.447	102.81
353.674	105.81
353.901	97.81
354.128	94.81
354.355	104.81
354.583	108.81
354.81	88.81
355.037	100.81
355.264	90.81
355.491	92.81
355.718	81.81
355.945	91.81
356.172	87.81
356.399	93.81
356.626	97.81
356.853	99.81
357.08	98.81
357.307	104.81
357.534	87.81
357.761	94.81
357.988	105.81
358.215	86.81
358.441	95.81
358.668	90.81
358.895	100.81
359.122	95.81
359.349	86.81
359.576	71.81
359.802	94.81
360.029	111.81
360.256	104.81
360.483	95.81
360.709	87.81
360.936	95.81
361.163	84.81
361.39	110.81
361.616	87.81
361.843	97.81
362.07	108.81
362.296	94.81
362.523	77.81
362.749	91.81
362.976	81.81
363.203	88.81
363.429	88.81
363.656	90.81
363.882	92.81
364.109	93.81
364.335	91.81
364.562	104.81
364.788	89.81
365.015	86.81
365.241	110.81
365.468	90.81
365.694	91.81
365.92	100.81
366.147	93.81
366.373	91.81
366.599	83.81
366.826	76.81
367.052	82.81
367.278	77.81
367.505	92.81
367.731	89.81
367.957	115.81
368.184	95.81
368.41	90.81
368.636	101.81
368.862	95.81
369.089	101.81
369.315	80.81
369.541	74.81
369.767	86.81
369.993	89.81
370.219	89.81
370.445	80.81
370.672	83.81
370.898	86.81
371.124	93.81
371.35	89.81
371.576	79.81
371.802	70.81
372.028	86.81
372.254	84.81
372.48	87.81
372.706	86.81
372.932	89.81
373.158	86.81
373.384	94.81
373.61	87.81
373.835	105.81
374.061	87.81
374.287	92.81
374.513	81.81
374.739	83.81
374.965	84.81
375.191	89.81
375.416	89.81
375.642	83.81
375.868	95.81
376.094	95.81
376.319	81.81
376.545	96.81
376.771	94.81
376.997	88.81
377.222	107.81
377.448	102.81
377.674	83.81
377.899	98.81
378.125	86.81
378.35	89.81
378.576	84.81
378.802	90.81
379.027	94.81
379.253	92.81
379.478	92.81
379.704	86.81
379.929	91.81
380.155	88.81
380.38	90.81
380.606	75.81
380.831	87.81
381.057	87.81
381.282	96.81
381.507	97.81
381.733	88.81
381.958	74.81
382.184	77.81
382.409	104.81
382.634	91.81
382.86	98.81
383.085	101.81
383.31	98.81
383.535	115.81
383.761	108.81
383.986	73.81
384.211	95.81
384.436	92.81
384.662	92.81
384.887	100.81
385.112	101.81
385.337	106.81
385.562	96.81
385.787	99.81
386.013	99.81
386.238	108.81
386.463	90.81
386.688	113.81
386.913	84.81
387.138	93.81
387.363	102.81
387.588	100.81
387.813	106.81
388.038	89.81
388.263	104.81
388.488	106.81
388.713	103.81
388.938	99.81
389.163	88.81
389.387	98.81
389.612	93.81
389.837	99.81
390.062	96.81
390.287	95.81
390.512	97.81
390.736	86.81
390.961	93.81
391.186	98.81
391.411	96.81
391.636	94.81
391.86	87.81
392.085	97.81
392.31	92.81
392.534	80.81
392.759	97.81
392.984	90.81
393.208	98.81
393.433	90.81
393.658	89.81
393.882	89.81
394.107	79.81
394.331	97.81
394.556	78.81
394.78	88.81
395.005	87.81
395.229	90.81
395.454	79.81
395.678	89.81
395.903	84.81
396.127	102.81
396.352	92.81
396.576	91.81
396.801	97.81
397.025	82.81
397.249	92.81
397.474	90.81
397.698	87.81
397.922	80.81
398.147	92.81
398.371	83.81
398.595	88.81
398.82	89.81
399.044	89.81
399.268	68.81
399.492	89.81
399.717	81.81
399.941	105.81
400.165	86.81
400.389	84.81
400.613	75.81
400.837	72.81
401.062	86.81
401.286	92.81
401.51	78.81
401.734	97.81
401.958	98.81
402.182	111.81
402.406	136.81
402.63	89.81
402.854	74.81
403.078	88.81
403.302	96.81
403.526	84.81
403.75	81.81
403.974	99.81
404.198	74.81
404.422	84.81
404.645	82.81
404.869	76.81
405.093	85.81
405.317	95.81
405.541	92.81
405.765	87.81
405.988	106.81
406.212	144.81
406.436	176.81
406.66	131.81
406.883	100.81
407.107	94.81
407.331	105.81
407.555	91.81
407.778	86.81
408.002	103.81
408.226	93.81
408.449	82.81
408.673	91.81
408.896	90.81
409.12	93.81
409.344	81.81
409.567	87.81
409.791	100.81
410.014	89.81
410.238	91.81
410.461	94.81
410.685	90.81
410.908	78.81
411.132	101.81
411.355	92.81
411.578	91.81
411.802	89.81
412.025	54.81
412.249	92.81
412.472	80.81
412.695	85.81
412.919	83.81
413.142	75.81
413.365	88.81
413.589	79.81
413.812	93.81
414.035	96.81
414.258	87.81
414.482	96.81
414.705	92.81
414.928	92.81
415.151	92.81
415.374	96.81
415.597	74.81
415.821	106.81
416.044	82.81
416.267	81.81
416.49	88.81
416.713	85.81
416.936	81.81
417.159	102.81
417.382	84.81
417.605	95.81
417.828	99.81
418.051	86.81
418.274	89.81
418.497	96.81
418.72	92.81
418.943	88.81
419.166	85.81
419.389	89.81
419.611	86.81
419.834	86.81
420.057	101.81
420.28	91.81
420.503	87.81
420.726	82.81
420.948	92.81
421.171	88.81
421.394	78.81
421.617	82.81
421.839	80.81
422.062	100.81
422.285	87.81
422.507	83.81
422.73	106.81
422.953	90.81
423.175	87.81
423.398	88.81
423.621	79.81
423.843	98.81
424.066	88.81
424.288	98.81
424.511	79.81
424.733	76.81
424.956	108.81
425.178	97.81
425.401	92.81
425.623	93.81
425.846	106.81
426.068	89.81
426.291	95.81
426.513	98.81
426.735	87.81
426.958	81.81
427.18	100.81
427.402	124.81
427.625	145.81
427.847	123.81
428.069	100.81
428.292	107.81
428.514	81.81
428.736	85.81
428.958	88.81
429.181	84.81
429.403	81.81
429.625	76.81
429.847	83.81
430.069	91.81
430.292	83.81
430.514	94.81
430.736	88.81
430.958	89.81
431.18	99.81
431.402	76.81
431.624	79.81
431.846	84.81
432.068	101.81
432.29	82.81
432.512	78.81
432.734	100.81
432.956	95.81
433.178	94.81
433.4	90.81
433.622	89.81
433.844	78.81
434.066	83.81
434.287	84.81
434.509	86.81
434.731	94.81
434.953	77.81
435.175	75.81
435.397	95.81
435.618	92.81
435.84	89.81
436.062	115.81
436.284	108.81
436.505	87.81
436.727	102.81
436.949	89.81
437.17	84.81
437.392	82.81
437.614	85.81
437.835	110.81
438.057	113.81
438.278	90.81
438.5	93.81
438.721	117.81
438.943	88.81
439.165	92.81
439.386	97.81
439.608	95.81
439.829	90.81
440.05	108.81
440.272	117.81
440.493	96.81
440.715	81.81
440.936	75.81
441.158	82.81
441.379	93.81
441.6	115.81
441.822	87.81
442.043	85.81
442.264	104.81
442.486	104.81
442.707	83.81
442.928	92.81
443.149	107.81
443.371	117.81
443.592	94.81
443.813	102.81
444.034	97.81
444.255	84.81
444.476	92.81
444.698	83.81
444.919	72.81
445.14	126.81
445.361	119.81
445.582	104.81
445.803	107.81
446.024	129.81
446.245	111.81
446.466	112.81
446.687	84.81
446.908	92.81
447.129	81.81
447.35	99.81
447.571	77.81
447.792	94.81
448.013	97.81
448.234	109.81
448.455	98.81
448.675	100.81
448.896	106.81
449.117	86.81
449.338	99.81
449.559	97.81
449.779	114.81
450	94.81
450.221	96.81
450.442	82.81
450.662	87.81
450.883	110.81
451.104	90.81
451.324	99.81
451.545	90.81
451.766	89.81
451.986	81.81
452.207	81.81
452.428	92.81
452.648	92.81
452.869	87.81
453.089	98.81
453.31	113.81
453.53	93.81
453.751	99.81
453.971	87.81
454.192	102.81
454.412	98.81
454.633	80.81
454.853	93.81
455.073	79.81
455.294	84.81
455.514	103.81
455.734	81.81
455.955	80.81
456.175	94.81
456.395	85.81
456.616	86.81
456.836	86.81
457.056	88.81
457.276	80.81
457.497	78.81
457.717	81.81
457.937	73.81
458.157	88.81
458.377	86.81
458.598	101.81
458.818	120.81
459.038	148.81
459.258	102.81
459.478	98.81
459.698	76.81
459.918	88.81
460.138	89.81
460.358	91.81
460.578	83.81
460.798	79.81
461.018	89.81
461.238	92.81
461.458	94.81
461.678	89.81
461.898	91.81
462.118	90.81
462.338	97.81
462.558	86.81
462.777	101.81
462.997	91.81
463.217	84.81
463.437	85.81
463.657	78.81
463.876	82.81
464.096	81.81
464.316	79.81
464.536	90.81
464.755	98.81
464.975	99.81
465.195	148.81
465.414	125.81
465.634	102.81
465.854	97.81
466.073	66.81
466.293	96.81
466.512	90.81
466.732	86.81
466.951	79.81
467.171	88.81
467.391	88.81
467.61	86.81
467.829	71.81
468.049	93.81
468.268	86.81
468.488	98.81
468.707	79.81
468.927	85.81
469.146	84.81
469.365	79.81
469.585	84.81
469.804	90.81
470.023	79.81
470.243	93.81
470.462	93.81
470.681	107.81
470.901	89.81
471.12	85.81
471.339	92.81
471.558	84.81
471.777	91.81
471.997	75.81
472.216	81.81
472.435	92.81
472.654	91.81
472.873	80.81
473.092	104.81
473.311	94.81
473.53	78.81
473.749	86.81
473.968	88.81
474.187	98.81
474.406	92.81
474.625	103.81
474.844	85.81
475.063	74.81
475.282	83.81
475.501	81.81
475.72	83.81
475.939	94.81
476.158	81.81
476.377	82.81
476.596	86.81
476.814	92.81
477.033	80.81
477.252	83.81
477.471	95.81
477.69	77.81
477.908	85.81
478.127	86.81
478.346	87.81
478.564	90.81
478.783	105.81
479.002	100.81
479.22	83.81
479.439	90.81
479.658	107.81
479.876	96.81
480.095	92.81
480.313	88.81
480.532	102.81
480.751	90.81
480.969	95.81
481.188	102.81
481.406	102.81
481.624	101.81
481.843	84.81
482.061	92.81
482.28	103.81
482.498	74.81
482.717	93.81
482.935	88.81
483.153	90.81
483.372	74.81
483.59	103.81
483.808	87.81
484.027	74.81
484.245	81.81
484.463	94.81
484.681	90.81
484.9	85.81
485.118	97.81
485.336	103.81
485.554	93.81
485.772	94.81
485.99	113.81
486.209	108.81
486.427	102.81
486.645	104.81
486.863	90.81
487.081	105.81
487.299	102.81
487.517	103.81
487.735	94.81
487.953	78.81
488.171	83.81
488.389	89.81
488.607	86.81
488.825	87.81
489.043	89.81
489.261	90.81
489.479	94.81
489.696	90.81
489.914	94.81
490.132	81.81
490.35	92.81
490.568	83.81
490.786	84.81
491.003	105.81
491.221	94.81
491.439	102.81
491.657	96.81
491.874	100.81
492.092	75.81
492.31	95.81
492.527	85.81
492.745	94.81
492.963	97.81
493.18	100.81
493.398	90.81
493.615	87.81
493.833	90.81
494.05	87.81
494.268	93.81
494.485	93.81
494.703	76.81
494.92	81.81
495.138	94.81
495.355	86.81
495.573	82.81
495.79	80.81
496.008	98.81
496.225	92.81
496.442	82.81
496.66	84.81
496.877	101.81
497.094	108.81
497.312	107.81
497.529	100.81
497.746	93.81
497.963	92.81
498.181	102.81
498.398	105.81
498.615	103.81
498.832	100.81
499.049	73.81
499.267	89.81
499.484	81.81
499.701	99.81
499.918	109.81
500.135	91.81
500.352	93.81
500.569	91.81
500.786	97.81
501.003	87.81
501.22	96.81
501.437	87.81
501.654	77.81
501.871	82.81
502.088	88.81
502.305	105.81
502.522	91.81
502.739	90.81
502.956	103.81
503.172	97.81
503.389	90.81
503.606	109.81
503.823	87.81
504.04	92.81
504.256	87.81
504.473	92.81
504.69	88.81
504.907	89.81
505.123	108.81
505.34	93.81
505.557	83.81
505.773	84.81
505.99	76.81
506.207	88.81
506.423	82.81
506.64	85.81
506.856	86.81
507.073	88.81
507.289	106.81
507.506	91.81
507.722	99.81
507.939	100.81
508.155	96.81
508.372	89.81
508.588	79.81
508.805	95.81
509.021	87.81
509.238	106.81
509.454	96.81
509.67	97.81
509.887	86.81
510.103	127.81
510.319	193.81
510.536	612.81
510.752	1848.81
510.968	509.81
511.184	144.81
511.401	112.81
511.617	95.81
511.833	101.81
512.049	97.81
512.265	96.81
512.481	90.81
512.698	94.81
512.914	97.81
513.13	86.81
513.346	83.81
513.562	100.81
513.778	100.81
513.994	97.81
514.21	98.81
514.426	122.81
514.642	117.81
514.858	119.81
515.074	141.81
515.29	366.81
515.506	1116.81
515.721	448.81
515.937	144.81
516.153	101.81
