Data from Uncirc_1997_H10_HRD10591_00046.txt Node
Date: Wed Jan 03 11:28:39 EST 2024
User: Yrep
Spectrometer: HR+D1059
Trigger mode: 1
Integration Time (sec): 1.000000E-1
Scans to average: 1
Electric dark correction enabled: true
Nonlinearity correction enabled: false
Boxcar width: 0
XAxis mode: Wavelengths
Number of Pixels in Spectrum: 2048
>>>>>Begin Spectral Data<<<<<
223.165	-21.88
223.4	-21.88
223.635	-21.88
223.869	-16.88
224.104	-30.88
224.338	-6.88
224.573	-14.88
224.808	-9.88
225.042	-2.88
225.277	-10.88
225.511	-5.88
225.746	3.12
225.98	15.12
226.215	6.12
226.449	10.12
226.683	33.12
226.918	30.12
227.152	23.12
227.387	47.12
227.621	35.12
227.856	41.12
228.09	41.12
228.324	50.12
228.559	44.12
228.793	54.12
229.027	58.12
229.262	77.12
229.496	73.12
229.73	62.12
229.964	93.12
230.199	78.12
230.433	82.12
230.667	80.12
230.901	79.12
231.136	78.12
231.37	65.12
231.604	73.12
231.838	78.12
232.072	75.12
232.306	70.12
232.541	70.12
232.775	75.12
233.009	65.12
233.243	77.12
233.477	90.12
233.711	67.12
233.945	72.12
234.179	74.12
234.413	74.12
234.647	92.12
234.881	61.12
235.115	73.12
235.349	79.12
235.583	86.12
235.817	79.12
236.051	73.12
236.285	97.12
236.519	86.12
236.753	93.12
236.987	65.12
237.221	73.12
237.455	71.12
237.689	73.12
237.922	83.12
238.156	74.12
238.39	71.12
238.624	71.12
238.858	69.12
239.091	77.12
239.325	73.12
239.559	74.12
239.793	91.12
240.027	80.12
240.26	83.12
240.494	89.12
240.728	74.12
240.961	57.12
241.195	77.12
241.429	65.12
241.662	77.12
241.896	81.12
242.13	79.12
242.363	56.12
242.597	65.12
242.83	75.12
243.064	87.12
243.298	82.12
243.531	81.12
243.765	82.12
243.998	84.12
244.232	74.12
244.465	79.12
244.699	71.12
244.932	61.12
245.166	71.12
245.399	69.12
245.633	83.12
245.866	78.12
246.099	63.12
246.333	81.12
246.566	74.12
246.8	79.12
247.033	82.12
247.266	80.12
247.5	69.12
247.733	89.12
247.966	72.12
248.2	74.12
248.433	85.12
248.666	65.12
248.899	71.12
249.133	80.12
249.366	83.12
249.599	98.12
249.832	81.12
250.066	78.12
250.299	82.12
250.532	80.12
250.765	70.12
250.998	70.12
251.231	98.12
251.465	83.12
251.698	70.12
251.931	83.12
252.164	82.12
252.397	74.12
252.63	93.12
252.863	66.12
253.096	66.12
253.329	75.12
253.562	90.12
253.795	70.12
254.028	81.12
254.261	87.12
254.494	71.12
254.727	81.12
254.96	79.12
255.193	62.12
255.426	71.12
255.659	79.12
255.892	93.12
256.124	81.12
256.357	90.12
256.59	77.12
256.823	82.12
257.056	75.12
257.289	78.12
257.521	81.12
257.754	82.12
257.987	75.12
258.22	83.12
258.452	95.12
258.685	87.12
258.918	81.12
259.151	89.12
259.383	74.12
259.616	76.12
259.849	77.12
260.081	89.12
260.314	81.12
260.547	93.12
260.779	70.12
261.012	86.12
261.244	82.12
261.477	97.12
261.71	94.12
261.942	98.12
262.175	108.12
262.407	90.12
262.64	98.12
262.872	84.12
263.105	90.12
263.337	89.12
263.57	85.12
263.802	81.12
264.035	93.12
264.267	94.12
264.499	76.12
264.732	82.12
264.964	79.12
265.197	83.12
265.429	81.12
265.661	75.12
265.894	88.12
266.126	96.12
266.358	85.12
266.591	79.12
266.823	85.12
267.055	81.12
267.287	82.12
267.52	80.12
267.752	77.12
267.984	79.12
268.216	90.12
268.448	87.12
268.681	66.12
268.913	77.12
269.145	79.12
269.377	71.12
269.609	94.12
269.841	84.12
270.073	103.12
270.306	84.12
270.538	97.12
270.77	73.12
271.002	73.12
271.234	96.12
271.466	67.12
271.698	86.12
271.93	93.12
272.162	85.12
272.394	73.12
272.626	96.12
272.858	87.12
273.09	97.12
273.322	83.12
273.553	83.12
273.785	99.12
274.017	84.12
274.249	83.12
274.481	81.12
274.713	83.12
274.945	72.12
275.176	88.12
275.408	81.12
275.64	88.12
275.872	83.12
276.104	91.12
276.335	94.12
276.567	96.12
276.799	98.12
277.031	97.12
277.262	83.12
277.494	89.12
277.726	80.12
277.957	84.12
278.189	94.12
278.421	84.12
278.652	94.12
278.884	85.12
279.115	67.12
279.347	79.12
279.579	84.12
279.81	85.12
280.042	73.12
280.273	92.12
280.505	89.12
280.736	96.12
280.968	90.12
281.199	91.12
281.431	86.12
281.662	84.12
281.894	91.12
282.125	95.12
282.356	114.12
282.588	130.12
282.819	101.12
283.051	88.12
283.282	85.12
283.513	80.12
283.745	65.12
283.976	74.12
284.207	82.12
284.439	81.12
284.67	87.12
284.901	76.12
285.132	92.12
285.364	79.12
285.595	92.12
285.826	77.12
286.057	90.12
286.288	81.12
286.52	84.12
286.751	88.12
286.982	85.12
287.213	98.12
287.444	90.12
287.675	73.12
287.906	93.12
288.138	76.12
288.369	91.12
288.6	82.12
288.831	80.12
289.062	84.12
289.293	91.12
289.524	83.12
289.755	85.12
289.986	81.12
290.217	89.12
290.448	85.12
290.679	84.12
290.91	80.12
291.141	86.12
291.371	97.12
291.602	94.12
291.833	89.12
292.064	75.12
292.295	90.12
292.526	88.12
292.757	83.12
292.987	83.12
293.218	91.12
293.449	83.12
293.68	76.12
293.91	92.12
294.141	82.12
294.372	92.12
294.603	86.12
294.833	94.12
295.064	104.12
295.295	89.12
295.525	88.12
295.756	82.12
295.987	101.12
296.217	108.12
296.448	118.12
296.679	90.12
296.909	76.12
297.14	93.12
297.37	107.12
297.601	78.12
297.831	88.12
298.062	93.12
298.292	87.12
298.523	99.12
298.753	81.12
298.984	78.12
299.214	94.12
299.445	81.12
299.675	85.12
299.905	102.12
300.136	108.12
300.366	80.12
300.597	91.12
300.827	93.12
301.057	103.12
301.288	107.12
301.518	90.12
301.748	76.12
301.979	89.12
302.209	70.12
302.439	81.12
302.669	81.12
302.9	82.12
303.13	85.12
303.36	94.12
303.59	99.12
303.82	83.12
304.051	79.12
304.281	87.12
304.511	91.12
304.741	96.12
304.971	94.12
305.201	79.12
305.431	82.12
305.661	85.12
305.891	81.12
306.121	91.12
306.352	83.12
306.582	82.12
306.812	86.12
307.042	98.12
307.272	96.12
307.502	98.12
307.731	95.12
307.961	95.12
308.191	102.12
308.421	93.12
308.651	93.12
308.881	85.12
309.111	94.12
309.341	110.12
309.571	111.12
309.8	82.12
310.03	89.12
310.26	97.12
310.49	81.12
310.72	82.12
310.949	94.12
311.179	96.12
311.409	86.12
311.639	81.12
311.868	90.12
312.098	90.12
312.328	88.12
312.557	102.12
312.787	101.12
313.017	98.12
313.246	97.12
313.476	78.12
313.706	94.12
313.935	90.12
314.165	93.12
314.394	93.12
314.624	103.12
314.853	96.12
315.083	81.12
315.312	86.12
315.542	96.12
315.771	98.12
316.001	94.12
316.23	75.12
316.46	80.12
316.689	88.12
316.919	89.12
317.148	91.12
317.377	92.12
317.607	77.12
317.836	85.12
318.065	95.12
318.295	97.12
318.524	97.12
318.753	84.12
318.983	97.12
319.212	92.12
319.441	99.12
319.67	105.12
319.9	99.12
320.129	95.12
320.358	99.12
320.587	110.12
320.816	101.12
321.046	98.12
321.275	89.12
321.504	85.12
321.733	94.12
321.962	98.12
322.191	100.12
322.42	109.12
322.649	114.12
322.878	95.12
323.108	99.12
323.337	122.12
323.566	122.12
323.795	141.12
324.024	169.12
324.253	322.12
324.482	702.12
324.71	1349.12
324.939	1739.12
325.168	662.12
325.397	209.12
325.626	149.12
325.855	119.12
326.084	119.12
326.313	108.12
326.542	144.12
326.77	204.12
326.999	382.12
327.228	786.12
327.457	1385.12
327.686	1044.12
327.914	288.12
328.143	169.12
328.372	139.12
328.6	118.12
328.829	96.12
329.058	115.12
329.287	117.12
329.515	125.12
329.744	106.12
329.972	82.12
330.201	99.12
330.43	120.12
330.658	108.12
330.887	106.12
331.115	104.12
331.344	103.12
331.572	102.12
331.801	88.12
332.03	105.12
332.258	98.12
332.486	94.12
332.715	81.12
332.943	99.12
333.172	98.12
333.4	97.12
333.629	102.12
333.857	86.12
334.085	109.12
334.314	86.12
334.542	94.12
334.771	101.12
334.999	80.12
335.227	98.12
335.455	90.12
335.684	84.12
335.912	91.12
336.14	97.12
336.369	91.12
336.597	97.12
336.825	84.12
337.053	94.12
337.281	82.12
337.51	104.12
337.738	97.12
337.966	93.12
338.194	74.12
338.422	79.12
338.65	85.12
338.878	93.12
339.106	86.12
339.334	77.12
339.562	91.12
339.79	78.12
340.018	90.12
340.246	94.12
340.474	89.12
340.702	90.12
340.93	89.12
341.158	84.12
341.386	85.12
341.614	100.12
341.842	98.12
342.07	77.12
342.298	94.12
342.526	82.12
342.754	91.12
342.981	86.12
343.209	86.12
343.437	93.12
343.665	89.12
343.893	86.12
344.12	85.12
344.348	92.12
344.576	79.12
344.804	97.12
345.031	100.12
345.259	105.12
345.487	101.12
345.714	95.12
345.942	88.12
346.17	93.12
346.397	107.12
346.625	94.12
346.853	99.12
347.08	90.12
347.308	104.12
347.535	86.12
347.763	93.12
347.99	96.12
348.218	100.12
348.445	95.12
348.673	101.12
348.9	75.12
349.128	94.12
349.355	105.12
349.583	95.12
349.81	90.12
350.037	100.12
350.265	96.12
350.492	92.12
350.72	104.12
350.947	103.12
351.174	104.12
351.402	103.12
351.629	104.12
351.856	103.12
352.083	96.12
352.311	100.12
352.538	104.12
352.765	106.12
352.992	114.12
353.22	110.12
353.447	108.12
353.674	96.12
353.901	103.12
354.128	88.12
354.355	97.12
354.583	95.12
354.81	95.12
355.037	89.12
355.264	84.12
355.491	95.12
355.718	90.12
355.945	88.12
356.172	89.12
356.399	99.12
356.626	89.12
356.853	80.12
357.08	90.12
357.307	89.12
357.534	103.12
357.761	86.12
357.988	96.12
358.215	102.12
358.441	84.12
358.668	83.12
358.895	80.12
359.122	90.12
359.349	98.12
359.576	91.12
359.802	91.12
360.029	108.12
360.256	113.12
360.483	110.12
360.709	82.12
360.936	95.12
361.163	103.12
361.39	92.12
361.616	83.12
361.843	86.12
362.07	83.12
362.296	100.12
362.523	95.12
362.749	89.12
362.976	89.12
363.203	95.12
363.429	97.12
363.656	100.12
363.882	83.12
364.109	91.12
364.335	96.12
364.562	91.12
364.788	91.12
365.015	90.12
365.241	84.12
365.468	112.12
365.694	96.12
365.92	99.12
366.147	91.12
366.373	95.12
366.599	89.12
366.826	105.12
367.052	89.12
367.278	97.12
367.505	91.12
367.731	77.12
367.957	92.12
368.184	96.12
368.41	81.12
368.636	103.12
368.862	99.12
369.089	106.12
369.315	94.12
369.541	92.12
369.767	87.12
369.993	96.12
370.219	93.12
370.445	81.12
370.672	83.12
370.898	92.12
371.124	91.12
371.35	71.12
371.576	82.12
371.802	83.12
372.028	79.12
372.254	99.12
372.48	95.12
372.706	82.12
372.932	92.12
373.158	90.12
373.384	90.12
373.61	100.12
373.835	86.12
374.061	93.12
374.287	94.12
374.513	85.12
374.739	78.12
374.965	86.12
375.191	90.12
375.416	112.12
375.642	97.12
375.868	91.12
376.094	88.12
376.319	82.12
376.545	90.12
376.771	86.12
376.997	87.12
377.222	96.12
377.448	85.12
377.674	88.12
377.899	87.12
378.125	93.12
378.35	97.12
378.576	97.12
378.802	75.12
379.027	79.12
379.253	80.12
379.478	95.12
379.704	95.12
379.929	90.12
380.155	95.12
380.38	96.12
380.606	89.12
380.831	86.12
381.057	87.12
381.282	94.12
381.507	98.12
381.733	89.12
381.958	84.12
382.184	90.12
382.409	94.12
382.634	107.12
382.86	112.12
383.085	98.12
383.31	92.12
383.535	99.12
383.761	76.12
383.986	100.12
384.211	94.12
384.436	96.12
384.662	83.12
384.887	79.12
385.112	97.12
385.337	110.12
385.562	93.12
385.787	94.12
386.013	102.12
386.238	105.12
386.463	113.12
386.688	98.12
386.913	96.12
387.138	93.12
387.363	106.12
387.588	101.12
387.813	93.12
388.038	96.12
388.263	105.12
388.488	102.12
388.713	96.12
388.938	93.12
389.163	80.12
389.387	89.12
389.612	107.12
389.837	103.12
390.062	99.12
390.287	99.12
390.512	82.12
390.736	97.12
390.961	101.12
391.186	92.12
391.411	97.12
391.636	92.12
391.86	74.12
392.085	75.12
392.31	102.12
392.534	90.12
392.759	88.12
392.984	97.12
393.208	78.12
393.433	95.12
393.658	78.12
393.882	74.12
394.107	99.12
394.331	87.12
394.556	69.12
394.78	98.12
395.005	89.12
395.229	86.12
395.454	86.12
395.678	91.12
395.903	87.12
396.127	80.12
396.352	92.12
396.576	97.12
396.801	82.12
397.025	88.12
397.249	74.12
397.474	80.12
397.698	87.12
397.922	91.12
398.147	89.12
398.371	83.12
398.595	70.12
398.82	81.12
399.044	84.12
399.268	70.12
399.492	89.12
399.717	90.12
399.941	70.12
400.165	93.12
400.389	96.12
400.613	82.12
400.837	84.12
401.062	86.12
401.286	89.12
401.51	94.12
401.734	95.12
401.958	89.12
402.182	121.12
402.406	151.12
402.63	109.12
402.854	90.12
403.078	76.12
403.302	88.12
403.526	90.12
403.75	89.12
403.974	82.12
404.198	86.12
404.422	82.12
404.645	83.12
404.869	88.12
405.093	97.12
405.317	88.12
405.541	92.12
405.765	92.12
405.988	116.12
406.212	146.12
406.436	189.12
406.66	117.12
406.883	90.12
407.107	95.12
407.331	80.12
407.555	87.12
407.778	96.12
408.002	93.12
408.226	80.12
408.449	86.12
408.673	90.12
408.896	96.12
409.12	102.12
409.344	94.12
409.567	91.12
409.791	84.12
410.014	93.12
410.238	83.12
410.461	102.12
410.685	85.12
410.908	97.12
411.132	107.12
411.355	106.12
411.578	78.12
411.802	82.12
412.025	85.12
412.249	90.12
412.472	93.12
412.695	93.12
412.919	84.12
413.142	85.12
413.365	89.12
413.589	91.12
413.812	79.12
414.035	97.12
414.258	74.12
414.482	95.12
414.705	85.12
414.928	82.12
415.151	86.12
415.374	76.12
415.597	85.12
415.821	93.12
416.044	95.12
416.267	88.12
416.49	96.12
416.713	88.12
416.936	74.12
417.159	79.12
417.382	76.12
417.605	82.12
417.828	89.12
418.051	94.12
418.274	104.12
418.497	75.12
418.72	80.12
418.943	85.12
419.166	69.12
419.389	94.12
419.611	73.12
419.834	99.12
420.057	98.12
420.28	78.12
420.503	65.12
420.726	82.12
420.948	94.12
421.171	86.12
421.394	92.12
421.617	88.12
421.839	93.12
422.062	97.12
422.285	86.12
422.507	93.12
422.73	92.12
422.953	103.12
423.175	85.12
423.398	88.12
423.621	99.12
423.843	95.12
424.066	84.12
424.288	88.12
424.511	76.12
424.733	79.12
424.956	101.12
425.178	101.12
425.401	88.12
425.623	109.12
425.846	93.12
426.068	80.12
426.291	81.12
426.513	81.12
426.735	87.12
426.958	81.12
427.18	94.12
427.402	118.12
427.625	143.12
427.847	112.12
428.069	90.12
428.292	83.12
428.514	91.12
428.736	82.12
428.958	71.12
429.181	76.12
429.403	85.12
429.625	88.12
429.847	88.12
430.069	81.12
430.292	88.12
430.514	96.12
430.736	85.12
430.958	74.12
431.18	78.12
431.402	76.12
431.624	91.12
431.846	87.12
432.068	85.12
432.29	88.12
432.512	87.12
432.734	92.12
432.956	101.12
433.178	81.12
433.4	86.12
433.622	104.12
433.844	93.12
434.066	79.12
434.287	90.12
434.509	83.12
434.731	90.12
434.953	81.12
435.175	92.12
435.397	102.12
435.618	96.12
435.84	96.12
436.062	102.12
436.284	94.12
436.505	94.12
436.727	97.12
436.949	83.12
437.17	87.12
437.392	100.12
437.614	95.12
437.835	89.12
438.057	107.12
438.278	101.12
438.5	98.12
438.721	115.12
438.943	87.12
439.165	90.12
439.386	73.12
439.608	95.12
439.829	85.12
440.05	113.12
440.272	118.12
440.493	97.12
440.715	83.12
440.936	87.12
441.158	78.12
441.379	79.12
441.6	87.12
441.822	79.12
442.043	92.12
442.264	91.12
442.486	81.12
442.707	91.12
442.928	98.12
443.149	117.12
443.371	121.12
443.592	84.12
443.813	95.12
444.034	102.12
444.255	77.12
444.476	92.12
444.698	96.12
444.919	85.12
445.14	114.12
445.361	121.12
445.582	103.12
445.803	106.12
446.024	115.12
446.245	119.12
446.466	111.12
446.687	95.12
446.908	92.12
447.129	89.12
447.35	87.12
447.571	85.12
447.792	96.12
448.013	92.12
448.234	105.12
448.455	93.12
448.675	99.12
448.896	109.12
449.117	91.12
449.338	93.12
449.559	118.12
449.779	119.12
450	85.12
450.221	74.12
450.442	85.12
450.662	100.12
450.883	105.12
451.104	106.12
451.324	86.12
451.545	78.12
451.766	74.12
451.986	84.12
452.207	98.12
452.428	73.12
452.648	93.12
452.869	97.12
453.089	101.12
453.31	112.12
453.53	76.12
453.751	89.12
453.971	95.12
454.192	99.12
454.412	91.12
454.633	95.12
454.853	72.12
455.073	67.12
455.294	92.12
455.514	89.12
455.734	88.12
455.955	85.12
456.175	90.12
456.395	82.12
456.616	89.12
456.836	85.12
457.056	80.12
457.276	81.12
457.497	93.12
457.717	89.12
457.937	86.12
458.157	74.12
458.377	89.12
458.598	93.12
458.818	125.12
459.038	131.12
459.258	95.12
459.478	86.12
459.698	84.12
459.918	106.12
460.138	82.12
460.358	82.12
460.578	90.12
460.798	86.12
461.018	75.12
461.238	87.12
461.458	69.12
461.678	93.12
461.898	86.12
462.118	84.12
462.338	82.12
462.558	102.12
462.777	79.12
462.997	74.12
463.217	86.12
463.437	91.12
463.657	96.12
463.876	70.12
464.096	79.12
464.316	96.12
464.536	94.12
464.755	92.12
464.975	85.12
465.195	137.12
465.414	143.12
465.634	90.12
465.854	94.12
466.073	83.12
466.293	77.12
466.512	79.12
466.732	79.12
466.951	78.12
467.171	94.12
467.391	93.12
467.61	97.12
467.829	98.12
468.049	98.12
468.268	78.12
468.488	80.12
468.707	83.12
468.927	79.12
469.146	92.12
469.365	90.12
469.585	85.12
469.804	88.12
470.023	102.12
470.243	78.12
470.462	91.12
470.681	103.12
470.901	99.12
471.12	83.12
471.339	79.12
471.558	77.12
471.777	86.12
471.997	86.12
472.216	105.12
472.435	97.12
472.654	86.12
472.873	89.12
473.092	77.12
473.311	91.12
473.53	87.12
473.749	83.12
473.968	91.12
474.187	95.12
474.406	84.12
474.625	81.12
474.844	75.12
475.063	91.12
475.282	95.12
475.501	95.12
475.72	82.12
475.939	85.12
476.158	89.12
476.377	99.12
476.596	88.12
476.814	96.12
477.033	88.12
477.252	96.12
477.471	95.12
477.69	98.12
477.908	94.12
478.127	90.12
478.346	65.12
478.564	77.12
478.783	97.12
479.002	83.12
479.22	94.12
479.439	90.12
479.658	107.12
479.876	97.12
480.095	92.12
480.313	85.12
480.532	95.12
480.751	98.12
480.969	98.12
481.188	109.12
481.406	109.12
481.624	94.12
481.843	86.12
482.061	97.12
482.28	78.12
482.498	73.12
482.717	82.12
482.935	89.12
483.153	81.12
483.372	90.12
483.59	85.12
483.808	89.12
484.027	98.12
484.245	86.12
484.463	91.12
484.681	93.12
484.9	90.12
485.118	92.12
485.336	90.12
485.554	97.12
485.772	104.12
485.99	102.12
486.209	98.12
486.427	96.12
486.645	99.12
486.863	94.12
487.081	95.12
487.299	98.12
487.517	89.12
487.735	91.12
487.953	73.12
488.171	91.12
488.389	83.12
488.607	92.12
488.825	106.12
489.043	85.12
489.261	102.12
489.479	101.12
489.696	86.12
489.914	79.12
490.132	91.12
490.35	88.12
490.568	81.12
490.786	103.12
491.003	84.12
491.221	80.12
491.439	99.12
491.657	89.12
491.874	90.12
492.092	87.12
492.31	86.12
492.527	91.12
492.745	87.12
492.963	90.12
493.18	101.12
493.398	85.12
493.615	84.12
493.833	78.12
494.05	92.12
494.268	91.12
494.485	89.12
494.703	97.12
494.92	91.12
495.138	89.12
495.355	95.12
495.573	81.12
495.79	95.12
496.008	92.12
496.225	97.12
496.442	91.12
496.66	104.12
496.877	91.12
497.094	90.12
497.312	90.12
497.529	97.12
497.746	86.12
497.963	85.12
498.181	99.12
498.398	87.12
498.615	104.12
498.832	104.12
499.049	80.12
499.267	80.12
499.484	90.12
499.701	85.12
499.918	73.12
500.135	81.12
500.352	90.12
500.569	93.12
500.786	87.12
501.003	94.12
501.22	83.12
501.437	107.12
501.654	93.12
501.871	90.12
502.088	93.12
502.305	81.12
502.522	92.12
502.739	99.12
502.956	86.12
503.172	102.12
503.389	90.12
503.606	91.12
503.823	93.12
504.04	94.12
504.256	75.12
504.473	91.12
504.69	86.12
504.907	91.12
505.123	81.12
505.34	99.12
505.557	94.12
505.773	74.12
505.99	82.12
506.207	84.12
506.423	93.12
506.64	103.12
506.856	95.12
507.073	74.12
507.289	75.12
507.506	94.12
507.722	102.12
507.939	85.12
508.155	83.12
508.372	85.12
508.588	87.12
508.805	98.12
509.021	87.12
509.238	106.12
509.454	90.12
509.67	96.12
509.887	98.12
510.103	116.12
510.319	201.12
510.536	644.12
510.752	1932.12
510.968	563.12
511.184	133.12
511.401	94.12
511.617	91.12
511.833	98.12
512.049	95.12
512.265	92.12
512.481	77.12
512.698	88.12
512.914	88.12
513.13	89.12
513.346	95.12
513.562	94.12
513.778	91.12
513.994	91.12
514.21	105.12
514.426	116.12
514.642	123.12
514.858	109.12
515.074	155.12
515.29	373.12
515.506	1173.12
515.721	440.12
515.937	126.12
516.153	103.12
516.369	109.12
516.585	83.12
516.801	99.12
517.016	92.12
