Data from Uncirc_1997_H10_HRD10591_00076.txt Node
Date: Wed Jan 03 11:28:45 EST 2024
User: Yrep
Spectrometer: HR+D1059
Trigger mode: 1
Integration Time (sec): 1.000000E-1
Scans to average: 1
Electric dark correction enabled: true
Nonlinearity correction enabled: false
Boxcar width: 0
XAxis mode: Wavelengths
Number of Pixels in Spectrum: 2048
>>>>>Begin Spectral Data<<<<<
223.165	-28.69
223.4	-28.69
223.635	-28.69
223.869	-32.69
224.104	-29.69
224.338	-15.69
224.573	-15.69
224.808	3.31
225.042	-16.69
225.277	-20.69
225.511	7.31
225.746	11.31
225.98	12.31
226.215	18.31
226.449	18.31
226.683	23.31
226.918	22.31
227.152	43.31
227.387	31.31
227.621	37.31
227.856	54.31
228.09	44.31
228.324	52.31
228.559	73.31
228.793	66.31
229.027	50.31
229.262	58.31
229.496	62.31
229.73	88.31
229.964	67.31
230.199	92.31
230.433	93.31
230.667	84.31
230.901	86.31
231.136	78.31
231.37	76.31
231.604	84.31
231.838	67.31
232.072	75.31
232.306	85.31
232.541	87.31
232.775	83.31
233.009	95.31
233.243	93.31
233.477	82.31
233.711	84.31
233.945	83.31
234.179	99.31
234.413	83.31
234.647	94.31
234.881	80.31
235.115	89.31
235.349	74.31
235.583	81.31
235.817	85.31
236.051	86.31
236.285	85.31
236.519	88.31
236.753	89.31
236.987	81.31
237.221	85.31
237.455	91.31
237.689	74.31
237.922	76.31
238.156	78.31
238.39	80.31
238.624	87.31
238.858	84.31
239.091	69.31
239.325	94.31
239.559	87.31
239.793	81.31
240.027	87.31
240.26	87.31
240.494	85.31
240.728	76.31
240.961	72.31
241.195	75.31
241.429	87.31
241.662	78.31
241.896	80.31
242.13	99.31
242.363	79.31
242.597	76.31
242.83	91.31
243.064	80.31
243.298	66.31
243.531	77.31
243.765	75.31
243.998	92.31
244.232	87.31
244.465	85.31
244.699	83.31
244.932	73.31
245.166	83.31
245.399	71.31
245.633	72.31
245.866	89.31
246.099	91.31
246.333	83.31
246.566	78.31
246.8	68.31
247.033	72.31
247.266	79.31
247.5	87.31
247.733	87.31
247.966	87.31
248.2	66.31
248.433	79.31
248.666	91.31
248.899	92.31
249.133	88.31
249.366	95.31
249.599	103.31
249.832	99.31
250.066	92.31
250.299	77.31
250.532	77.31
250.765	80.31
250.998	71.31
251.231	96.31
251.465	82.31
251.698	77.31
251.931	67.31
252.164	77.31
252.397	84.31
252.63	78.31
252.863	76.31
253.096	91.31
253.329	69.31
253.562	75.31
253.795	82.31
254.028	77.31
254.261	91.31
254.494	74.31
254.727	81.31
254.96	71.31
255.193	81.31
255.426	73.31
255.659	98.31
255.892	88.31
256.124	92.31
256.357	77.31
256.59	88.31
256.823	79.31
257.056	83.31
257.289	85.31
257.521	81.31
257.754	90.31
257.987	79.31
258.22	82.31
258.452	82.31
258.685	83.31
258.918	84.31
259.151	81.31
259.383	82.31
259.616	84.31
259.849	73.31
260.081	92.31
260.314	79.31
260.547	73.31
260.779	93.31
261.012	90.31
261.244	74.31
261.477	90.31
261.71	93.31
261.942	106.31
262.175	115.31
262.407	99.31
262.64	93.31
262.872	97.31
263.105	85.31
263.337	81.31
263.57	80.31
263.802	96.31
264.035	80.31
264.267	79.31
264.499	97.31
264.732	97.31
264.964	90.31
265.197	78.31
265.429	75.31
265.661	73.31
265.894	85.31
266.126	93.31
266.358	83.31
266.591	86.31
266.823	87.31
267.055	86.31
267.287	82.31
267.52	81.31
267.752	82.31
267.984	93.31
268.216	68.31
268.448	91.31
268.681	97.31
268.913	86.31
269.145	81.31
269.377	94.31
269.609	80.31
269.841	88.31
270.073	94.31
270.306	92.31
270.538	97.31
270.77	85.31
271.002	77.31
271.234	96.31
271.466	95.31
271.698	99.31
271.93	89.31
272.162	94.31
272.394	93.31
272.626	87.31
272.858	80.31
273.09	80.31
273.322	79.31
273.553	77.31
273.785	101.31
274.017	96.31
274.249	89.31
274.481	92.31
274.713	103.31
274.945	82.31
275.176	76.31
275.408	73.31
275.64	103.31
275.872	80.31
276.104	97.31
276.335	87.31
276.567	96.31
276.799	111.31
277.031	106.31
277.262	96.31
277.494	91.31
277.726	98.31
277.957	77.31
278.189	89.31
278.421	91.31
278.652	90.31
278.884	96.31
279.115	85.31
279.347	78.31
279.579	81.31
279.81	89.31
280.042	92.31
280.273	82.31
280.505	95.31
280.736	95.31
280.968	96.31
281.199	81.31
281.431	82.31
281.662	80.31
281.894	99.31
282.125	100.31
282.356	116.31
282.588	125.31
282.819	108.31
283.051	76.31
283.282	94.31
283.513	91.31
283.745	93.31
283.976	93.31
284.207	73.31
284.439	97.31
284.67	95.31
284.901	87.31
285.132	99.31
285.364	99.31
285.595	71.31
285.826	88.31
286.057	100.31
286.288	81.31
286.52	98.31
286.751	69.31
286.982	80.31
287.213	87.31
287.444	93.31
287.675	93.31
287.906	96.31
288.138	91.31
288.369	107.31
288.6	82.31
288.831	90.31
289.062	82.31
289.293	94.31
289.524	89.31
289.755	83.31
289.986	87.31
290.217	100.31
290.448	85.31
290.679	90.31
290.91	92.31
291.141	105.31
291.371	85.31
291.602	82.31
291.833	97.31
292.064	97.31
292.295	92.31
292.526	104.31
292.757	92.31
292.987	85.31
293.218	91.31
293.449	82.31
293.68	78.31
293.91	80.31
294.141	101.31
294.372	87.31
294.603	106.31
294.833	88.31
295.064	77.31
295.295	86.31
295.525	89.31
295.756	107.31
295.987	116.31
296.217	140.31
296.448	122.31
296.679	85.31
296.909	83.31
297.14	100.31
297.37	95.31
297.601	89.31
297.831	90.31
298.062	98.31
298.292	88.31
298.523	79.31
298.753	87.31
298.984	83.31
299.214	101.31
299.445	88.31
299.675	107.31
299.905	83.31
300.136	93.31
300.366	84.31
300.597	87.31
300.827	101.31
301.057	101.31
301.288	96.31
301.518	106.31
301.748	94.31
301.979	99.31
302.209	98.31
302.439	89.31
302.669	77.31
302.9	91.31
303.13	96.31
303.36	103.31
303.59	101.31
303.82	111.31
304.051	98.31
304.281	92.31
304.511	98.31
304.741	79.31
304.971	78.31
305.201	98.31
305.431	88.31
305.661	82.31
305.891	72.31
306.121	105.31
306.352	106.31
306.582	115.31
306.812	94.31
307.042	82.31
307.272	92.31
307.502	92.31
307.731	97.31
307.961	86.31
308.191	105.31
308.421	90.31
308.651	92.31
308.881	89.31
309.111	94.31
309.341	102.31
309.571	92.31
309.8	112.31
310.03	93.31
310.26	100.31
310.49	114.31
310.72	98.31
310.949	93.31
311.179	101.31
311.409	81.31
311.639	83.31
311.868	111.31
312.098	101.31
312.328	96.31
312.557	100.31
312.787	104.31
313.017	99.31
313.246	89.31
313.476	101.31
313.706	100.31
313.935	95.31
314.165	98.31
314.394	96.31
314.624	88.31
314.853	101.31
315.083	84.31
315.312	90.31
315.542	99.31
315.771	96.31
316.001	97.31
316.23	84.31
316.46	89.31
316.689	90.31
316.919	85.31
317.148	98.31
317.377	89.31
317.607	98.31
317.836	102.31
318.065	90.31
318.295	94.31
318.524	94.31
318.753	89.31
318.983	94.31
319.212	98.31
319.441	97.31
319.67	103.31
319.9	87.31
320.129	93.31
320.358	91.31
320.587	99.31
320.816	96.31
321.046	102.31
321.275	91.31
321.504	80.31
321.733	96.31
321.962	99.31
322.191	101.31
322.42	101.31
322.649	96.31
322.878	107.31
323.108	113.31
323.337	121.31
323.566	124.31
323.795	139.31
324.024	200.31
324.253	348.31
324.482	729.31
324.71	1485.31
324.939	1891.31
325.168	716.31
325.397	225.31
325.626	125.31
325.855	123.31
326.084	112.31
326.313	124.31
326.542	138.31
326.77	206.31
326.999	416.31
327.228	827.31
327.457	1503.31
327.686	1179.31
327.914	331.31
328.143	176.31
328.372	130.31
328.6	119.31
328.829	109.31
329.058	116.31
329.287	109.31
329.515	110.31
329.744	105.31
329.972	100.31
330.201	98.31
330.43	114.31
330.658	109.31
330.887	127.31
331.115	122.31
331.344	93.31
331.572	100.31
331.801	101.31
332.03	98.31
332.258	86.31
332.486	95.31
332.715	96.31
332.943	92.31
333.172	105.31
333.4	103.31
333.629	114.31
333.857	110.31
334.085	115.31
334.314	101.31
334.542	108.31
334.771	100.31
334.999	107.31
335.227	100.31
335.455	90.31
335.684	82.31
335.912	89.31
336.14	90.31
336.369	97.31
336.597	90.31
336.825	95.31
337.053	107.31
337.281	95.31
337.51	78.31
337.738	109.31
337.966	84.31
338.194	88.31
338.422	96.31
338.65	95.31
338.878	89.31
339.106	99.31
339.334	92.31
339.562	94.31
339.79	84.31
340.018	105.31
340.246	96.31
340.474	100.31
340.702	102.31
340.93	100.31
341.158	87.31
341.386	81.31
341.614	100.31
341.842	102.31
342.07	96.31
342.298	81.31
342.526	92.31
342.754	93.31
342.981	82.31
343.209	83.31
343.437	100.31
343.665	96.31
343.893	100.31
344.12	108.31
344.348	81.31
344.576	98.31
344.804	104.31
345.031	100.31
345.259	101.31
345.487	98.31
345.714	100.31
345.942	89.31
346.17	90.31
346.397	94.31
346.625	86.31
346.853	95.31
347.08	95.31
347.308	96.31
347.535	104.31
347.763	105.31
347.99	103.31
348.218	100.31
348.445	111.31
348.673	116.31
348.9	91.31
349.128	87.31
349.355	93.31
349.583	104.31
349.81	86.31
350.037	96.31
350.265	92.31
350.492	97.31
350.72	88.31
350.947	106.31
351.174	105.31
351.402	117.31
351.629	112.31
351.856	95.31
352.083	82.31
352.311	95.31
352.538	120.31
352.765	101.31
352.992	117.31
353.22	112.31
353.447	110.31
353.674	91.31
353.901	92.31
354.128	108.31
354.355	99.31
354.583	90.31
354.81	95.31
355.037	94.31
355.264	86.31
355.491	95.31
355.718	87.31
355.945	90.31
356.172	98.31
356.399	101.31
356.626	88.31
356.853	71.31
357.08	82.31
357.307	83.31
357.534	92.31
357.761	81.31
357.988	97.31
358.215	97.31
358.441	100.31
358.668	92.31
358.895	89.31
359.122	91.31
359.349	90.31
359.576	87.31
359.802	93.31
360.029	118.31
360.256	113.31
360.483	92.31
360.709	75.31
360.936	97.31
361.163	80.31
361.39	75.31
361.616	94.31
361.843	91.31
362.07	91.31
362.296	91.31
362.523	102.31
362.749	87.31
362.976	87.31
363.203	98.31
363.429	86.31
363.656	108.31
363.882	104.31
364.109	91.31
364.335	99.31
364.562	98.31
364.788	85.31
365.015	84.31
365.241	94.31
365.468	107.31
365.694	106.31
365.92	90.31
366.147	77.31
366.373	88.31
366.599	81.31
366.826	85.31
367.052	96.31
367.278	88.31
367.505	103.31
367.731	87.31
367.957	81.31
368.184	81.31
368.41	96.31
368.636	93.31
368.862	111.31
369.089	104.31
369.315	109.31
369.541	99.31
369.767	95.31
369.993	83.31
370.219	96.31
370.445	81.31
370.672	98.31
370.898	87.31
371.124	82.31
371.35	89.31
371.576	98.31
371.802	97.31
372.028	86.31
372.254	102.31
372.48	101.31
372.706	77.31
372.932	102.31
373.158	99.31
373.384	93.31
373.61	91.31
373.835	87.31
374.061	90.31
374.287	95.31
374.513	97.31
374.739	72.31
374.965	79.31
375.191	72.31
375.416	93.31
375.642	95.31
375.868	94.31
376.094	92.31
376.319	88.31
376.545	92.31
376.771	82.31
376.997	82.31
377.222	87.31
377.448	89.31
377.674	92.31
377.899	85.31
378.125	83.31
378.35	98.31
378.576	87.31
378.802	96.31
379.027	92.31
379.253	108.31
379.478	91.31
379.704	97.31
379.929	94.31
380.155	83.31
380.38	90.31
380.606	81.31
380.831	97.31
381.057	93.31
381.282	88.31
381.507	95.31
381.733	79.31
381.958	99.31
382.184	87.31
382.409	96.31
382.634	98.31
382.86	82.31
383.085	89.31
383.31	96.31
383.535	100.31
383.761	103.31
383.986	106.31
384.211	99.31
384.436	90.31
384.662	108.31
384.887	111.31
385.112	92.31
385.337	77.31
385.562	102.31
385.787	99.31
386.013	96.31
386.238	88.31
386.463	107.31
386.688	106.31
386.913	92.31
387.138	100.31
387.363	101.31
387.588	115.31
387.813	109.31
388.038	93.31
388.263	109.31
388.488	101.31
388.713	73.31
388.938	96.31
389.163	91.31
389.387	87.31
389.612	96.31
389.837	95.31
390.062	98.31
390.287	99.31
390.512	105.31
390.736	88.31
390.961	96.31
391.186	100.31
391.411	88.31
391.636	86.31
391.86	87.31
392.085	71.31
392.31	82.31
392.534	88.31
392.759	79.31
392.984	87.31
393.208	83.31
393.433	87.31
393.658	87.31
393.882	86.31
394.107	99.31
394.331	97.31
394.556	81.31
394.78	101.31
395.005	90.31
395.229	66.31
395.454	87.31
395.678	92.31
395.903	83.31
396.127	90.31
396.352	92.31
396.576	90.31
396.801	97.31
397.025	93.31
397.249	80.31
397.474	91.31
397.698	101.31
397.922	90.31
398.147	93.31
398.371	83.31
398.595	80.31
398.82	93.31
399.044	101.31
399.268	94.31
399.492	82.31
399.717	96.31
399.941	106.31
400.165	97.31
400.389	73.31
400.613	92.31
400.837	91.31
401.062	92.31
401.286	86.31
401.51	98.31
401.734	88.31
401.958	91.31
402.182	119.31
402.406	131.31
402.63	110.31
402.854	83.31
403.078	92.31
403.302	78.31
403.526	90.31
403.75	89.31
403.974	84.31
404.198	86.31
404.422	88.31
404.645	101.31
404.869	96.31
405.093	81.31
405.317	91.31
405.541	105.31
405.765	106.31
405.988	113.31
406.212	161.31
406.436	207.31
406.66	141.31
406.883	99.31
407.107	98.31
407.331	100.31
407.555	90.31
407.778	85.31
408.002	79.31
408.226	92.31
408.449	90.31
408.673	78.31
408.896	90.31
409.12	92.31
409.344	100.31
409.567	85.31
409.791	100.31
410.014	84.31
410.238	99.31
410.461	80.31
410.685	98.31
410.908	92.31
411.132	107.31
411.355	99.31
411.578	99.31
411.802	84.31
412.025	76.31
412.249	90.31
412.472	87.31
412.695	99.31
412.919	87.31
413.142	78.31
413.365	74.31
413.589	95.31
413.812	99.31
414.035	92.31
414.258	88.31
414.482	100.31
414.705	77.31
414.928	89.31
415.151	90.31
415.374	90.31
415.597	87.31
415.821	92.31
416.044	92.31
416.267	105.31
416.49	77.31
416.713	95.31
416.936	92.31
417.159	95.31
417.382	79.31
417.605	97.31
417.828	101.31
418.051	88.31
418.274	77.31
418.497	80.31
418.72	88.31
418.943	94.31
419.166	87.31
419.389	93.31
419.611	91.31
419.834	89.31
420.057	78.31
420.28	78.31
420.503	75.31
420.726	97.31
420.948	78.31
421.171	94.31
421.394	93.31
421.617	79.31
421.839	85.31
422.062	95.31
422.285	84.31
422.507	98.31
422.73	95.31
422.953	93.31
423.175	102.31
423.398	88.31
423.621	84.31
423.843	79.31
424.066	94.31
424.288	89.31
424.511	95.31
424.733	93.31
424.956	91.31
425.178	93.31
425.401	96.31
425.623	99.31
425.846	94.31
426.068	97.31
426.291	90.31
426.513	90.31
426.735	88.31
426.958	92.31
427.18	103.31
427.402	107.31
427.625	141.31
427.847	113.31
428.069	91.31
428.292	91.31
428.514	80.31
428.736	94.31
428.958	89.31
429.181	93.31
429.403	81.31
429.625	96.31
429.847	85.31
430.069	95.31
430.292	96.31
430.514	91.31
430.736	92.31
430.958	87.31
431.18	88.31
431.402	83.31
431.624	74.31
431.846	83.31
432.068	93.31
432.29	92.31
432.512	86.31
432.734	87.31
432.956	86.31
433.178	95.31
433.4	97.31
433.622	85.31
433.844	81.31
434.066	82.31
434.287	92.31
434.509	85.31
434.731	88.31
434.953	72.31
435.175	80.31
435.397	88.31
435.618	89.31
435.84	90.31
436.062	106.31
436.284	114.31
436.505	106.31
436.727	101.31
436.949	95.31
437.17	95.31
437.392	86.31
437.614	68.31
437.835	101.31
438.057	115.31
438.278	110.31
438.5	110.31
438.721	108.31
438.943	76.31
439.165	69.31
439.386	89.31
439.608	93.31
439.829	103.31
440.05	106.31
440.272	123.31
440.493	80.31
440.715	80.31
440.936	89.31
441.158	91.31
441.379	91.31
441.6	94.31
441.822	103.31
442.043	93.31
442.264	94.31
442.486	91.31
442.707	105.31
442.928	101.31
443.149	123.31
443.371	113.31
443.592	111.31
443.813	96.31
444.034	105.31
444.255	103.31
444.476	80.31
444.698	97.31
444.919	89.31
445.14	131.31
445.361	106.31
445.582	103.31
445.803	128.31
446.024	122.31
446.245	116.31
446.466	98.31
446.687	99.31
446.908	79.31
447.129	82.31
447.35	90.31
447.571	93.31
447.792	87.31
448.013	91.31
448.234	107.31
448.455	99.31
448.675	113.31
448.896	120.31
449.117	89.31
449.338	97.31
449.559	119.31
449.779	121.31
450	92.31
450.221	91.31
450.442	85.31
450.662	89.31
450.883	95.31
451.104	90.31
451.324	98.31
451.545	91.31
451.766	80.31
451.986	90.31
452.207	95.31
452.428	98.31
452.648	92.31
452.869	108.31
453.089	89.31
453.31	104.31
453.53	72.31
453.751	94.31
453.971	108.31
454.192	105.31
454.412	99.31
454.633	95.31
454.853	85.31
455.073	94.31
455.294	82.31
455.514	84.31
455.734	96.31
455.955	85.31
456.175	83.31
456.395	68.31
456.616	79.31
456.836	81.31
457.056	75.31
457.276	96.31
457.497	95.31
457.717	96.31
457.937	86.31
458.157	87.31
458.377	98.31
458.598	103.31
458.818	145.31
459.038	147.31
459.258	110.31
459.478	98.31
459.698	89.31
459.918	99.31
460.138	84.31
460.358	92.31
460.578	88.31
460.798	92.31
461.018	82.31
461.238	95.31
461.458	97.31
461.678	83.31
461.898	92.31
462.118	99.31
462.338	81.31
462.558	89.31
462.777	92.31
462.997	84.31
463.217	92.31
463.437	93.31
463.657	105.31
463.876	107.31
464.096	90.31
464.316	84.31
464.536	85.31
464.755	86.31
464.975	97.31
465.195	152.31
465.414	153.31
465.634	96.31
465.854	89.31
466.073	88.31
466.293	78.31
466.512	87.31
466.732	86.31
466.951	98.31
467.171	97.31
467.391	95.31
467.61	98.31
467.829	97.31
468.049	97.31
468.268	88.31
468.488	88.31
468.707	66.31
468.927	73.31
469.146	88.31
469.365	99.31
469.585	95.31
469.804	107.31
470.023	81.31
470.243	96.31
470.462	101.31
470.681	110.31
470.901	84.31
471.12	88.31
471.339	83.31
471.558	89.31
471.777	92.31
471.997	75.31
472.216	88.31
472.435	105.31
472.654	75.31
472.873	92.31
473.092	84.31
473.311	87.31
473.53	87.31
473.749	100.31
473.968	89.31
474.187	111.31
474.406	98.31
474.625	89.31
474.844	95.31
475.063	91.31
475.282	87.31
475.501	92.31
475.72	79.31
475.939	74.31
476.158	96.31
476.377	77.31
476.596	85.31
476.814	84.31
477.033	88.31
477.252	93.31
477.471	94.31
477.69	103.31
477.908	81.31
478.127	113.31
478.346	94.31
478.564	91.31
478.783	81.31
479.002	100.31
479.22	89.31
479.439	101.31
479.658	90.31
479.876	90.31
480.095	88.31
480.313	93.31
480.532	85.31
480.751	96.31
480.969	87.31
481.188	116.31
481.406	105.31
481.624	86.31
481.843	71.31
482.061	93.31
482.28	94.31
482.498	89.31
482.717	91.31
482.935	99.31
483.153	87.31
483.372	93.31
483.59	102.31
483.808	93.31
484.027	92.31
484.245	101.31
484.463	102.31
484.681	107.31
484.9	92.31
485.118	95.31
485.336	97.31
485.554	89.31
485.772	82.31
485.99	84.31
486.209	103.31
486.427	100.31
486.645	105.31
486.863	98.31
487.081	98.31
487.299	99.31
487.517	92.31
487.735	98.31
487.953	87.31
488.171	85.31
488.389	79.31
488.607	99.31
488.825	97.31
489.043	83.31
489.261	100.31
489.479	85.31
489.696	98.31
489.914	100.31
490.132	111.31
490.35	105.31
490.568	92.31
490.786	93.31
491.003	79.31
491.221	79.31
491.439	91.31
491.657	92.31
491.874	94.31
492.092	89.31
492.31	98.31
492.527	86.31
492.745	88.31
492.963	91.31
493.18	85.31
493.398	104.31
493.615	100.31
493.833	98.31
494.05	95.31
494.268	101.31
494.485	89.31
494.703	97.31
494.92	84.31
495.138	80.31
495.355	100.31
495.573	95.31
495.79	98.31
496.008	82.31
496.225	101.31
496.442	84.31
496.66	92.31
496.877	78.31
497.094	105.31
497.312	94.31
497.529	95.31
497.746	93.31
497.963	94.31
498.181	97.31
498.398	96.31
498.615	93.31
498.832	99.31
499.049	84.31
499.267	94.31
499.484	87.31
499.701	93.31
499.918	95.31
500.135	108.31
500.352	100.31
500.569	96.31
500.786	88.31
501.003	95.31
501.22	85.31
501.437	92.31
501.654	90.31
501.871	98.31
502.088	83.31
502.305	95.31
502.522	84.31
502.739	89.31
502.956	88.31
503.172	92.31
503.389	87.31
503.606	111.31
503.823	106.31
504.04	97.31
504.256	82.31
504.473	80.31
504.69	86.31
504.907	87.31
505.123	105.31
505.34	89.31
505.557	84.31
505.773	98.31
505.99	82.31
506.207	94.31
506.423	93.31
506.64	94.31
506.856	100.31
507.073	84.31
507.289	87.31
507.506	95.31
507.722	100.31
507.939	97.31
508.155	99.31
508.372	81.31
508.588	95.31
508.805	106.31
509.021	89.31
509.238	99.31
509.454	112.31
509.67	109.31
509.887	104.31
510.103	135.31
510.319	204.31
510.536	682.31
510.752	2128.31
510.968	585.31
511.184	140.31
511.401	109.31
511.617	107.31
511.833	96.31
512.049	96.31
512.265	92.31
512.481	92.31
512.698	104.31
512.914	90.31
513.13	92.31
513.346	87.31
513.562	109.31
513.778	96.31
513.994	94.31
514.21	103.31
514.426	115.31
514.642	123.31
514.858	122.31
515.074	166.31
515.29	418.31
515.506	1243.31
515.721	457.31
515.937	163.31
