Data from Uncirc_1997_H10_HRD10591_00027.txt Node
Date: Wed Jan 03 11:28:36 EST 2024
User: Yrep
Spectrometer: HR+D1059
Trigger mode: 1
Integration Time (sec): 1.000000E-1
Scans to average: 1
Electric dark correction enabled: true
Nonlinearity correction enabled: false
Boxcar width: 0
XAxis mode: Wavelengths
Number of Pixels in Spectrum: 2048
>>>>>Begin Spectral Data<<<<<
223.165	3.88
223.4	3.88
223.635	3.88
223.869	-20.12
224.104	-22.12
224.338	-33.12
224.573	-9.12
224.808	-15.12
225.042	-9.12
225.277	-4.12
225.511	-12.12
225.746	-3.12
225.98	8.88
226.215	9.88
226.449	14.88
226.683	25.88
226.918	24.88
227.152	39.88
227.387	42.88
227.621	30.88
227.856	39.88
228.09	37.88
228.324	37.88
228.559	55.88
228.793	63.88
229.027	60.88
229.262	69.88
229.496	77.88
229.73	76.88
229.964	81.88
230.199	84.88
230.433	89.88
230.667	74.88
230.901	93.88
231.136	85.88
231.37	90.88
231.604	72.88
231.838	72.88
232.072	82.88
232.306	65.88
232.541	92.88
232.775	73.88
233.009	87.88
233.243	87.88
233.477	87.88
233.711	81.88
233.945	84.88
234.179	78.88
234.413	69.88
234.647	72.88
234.881	81.88
235.115	77.88
235.349	76.88
235.583	76.88
235.817	84.88
236.051	73.88
236.285	85.88
236.519	71.88
236.753	85.88
236.987	60.88
237.221	75.88
237.455	87.88
237.689	64.88
237.922	61.88
238.156	82.88
238.39	71.88
238.624	75.88
238.858	76.88
239.091	76.88
239.325	80.88
239.559	79.88
239.793	59.88
240.027	79.88
240.26	72.88
240.494	96.88
240.728	75.88
240.961	72.88
241.195	71.88
241.429	78.88
241.662	62.88
241.896	63.88
242.13	62.88
242.363	80.88
242.597	88.88
242.83	68.88
243.064	69.88
243.298	71.88
243.531	80.88
243.765	83.88
243.998	73.88
244.232	76.88
244.465	71.88
244.699	79.88
244.932	78.88
245.166	81.88
245.399	79.88
245.633	81.88
245.866	65.88
246.099	76.88
246.333	81.88
246.566	75.88
246.8	78.88
247.033	83.88
247.266	78.88
247.5	77.88
247.733	72.88
247.966	87.88
248.2	66.88
248.433	75.88
248.666	75.88
248.899	71.88
249.133	77.88
249.366	102.88
249.599	77.88
249.832	77.88
250.066	84.88
250.299	82.88
250.532	89.88
250.765	64.88
250.998	83.88
251.231	80.88
251.465	71.88
251.698	77.88
251.931	88.88
252.164	84.88
252.397	70.88
252.63	72.88
252.863	83.88
253.096	75.88
253.329	76.88
253.562	90.88
253.795	86.88
254.028	76.88
254.261	79.88
254.494	82.88
254.727	69.88
254.96	64.88
255.193	71.88
255.426	69.88
255.659	81.88
255.892	78.88
256.124	70.88
256.357	85.88
256.59	69.88
256.823	72.88
257.056	78.88
257.289	86.88
257.521	69.88
257.754	85.88
257.987	75.88
258.22	93.88
258.452	67.88
258.685	86.88
258.918	72.88
259.151	102.88
259.383	72.88
259.616	83.88
259.849	83.88
260.081	93.88
260.314	81.88
260.547	83.88
260.779	79.88
261.012	77.88
261.244	89.88
261.477	76.88
261.71	95.88
261.942	110.88
262.175	106.88
262.407	80.88
262.64	91.88
262.872	77.88
263.105	80.88
263.337	85.88
263.57	74.88
263.802	87.88
264.035	79.88
264.267	75.88
264.499	83.88
264.732	88.88
264.964	75.88
265.197	78.88
265.429	81.88
265.661	89.88
265.894	88.88
266.126	94.88
266.358	85.88
266.591	89.88
266.823	87.88
267.055	87.88
267.287	88.88
267.52	80.88
267.752	73.88
267.984	87.88
268.216	80.88
268.448	87.88
268.681	62.88
268.913	80.88
269.145	81.88
269.377	76.88
269.609	95.88
269.841	76.88
270.073	92.88
270.306	84.88
270.538	89.88
270.77	72.88
271.002	76.88
271.234	67.88
271.466	90.88
271.698	91.88
271.93	73.88
272.162	86.88
272.394	93.88
272.626	79.88
272.858	89.88
273.09	78.88
273.322	87.88
273.553	100.88
273.785	70.88
274.017	84.88
274.249	80.88
274.481	86.88
274.713	73.88
274.945	90.88
275.176	88.88
275.408	65.88
275.64	88.88
275.872	96.88
276.104	87.88
276.335	87.88
276.567	88.88
276.799	93.88
277.031	73.88
277.262	80.88
277.494	93.88
277.726	79.88
277.957	91.88
278.189	89.88
278.421	98.88
278.652	96.88
278.884	89.88
279.115	85.88
279.347	64.88
279.579	79.88
279.81	85.88
280.042	76.88
280.273	84.88
280.505	90.88
280.736	87.88
280.968	94.88
281.199	76.88
281.431	82.88
281.662	91.88
281.894	100.88
282.125	91.88
282.356	103.88
282.588	109.88
282.819	107.88
283.051	73.88
283.282	75.88
283.513	90.88
283.745	80.88
283.976	92.88
284.207	93.88
284.439	84.88
284.67	73.88
284.901	72.88
285.132	97.88
285.364	84.88
285.595	81.88
285.826	75.88
286.057	79.88
286.288	86.88
286.52	86.88
286.751	80.88
286.982	78.88
287.213	73.88
287.444	79.88
287.675	89.88
287.906	90.88
288.138	94.88
288.369	94.88
288.6	86.88
288.831	86.88
289.062	85.88
289.293	84.88
289.524	86.88
289.755	94.88
289.986	68.88
290.217	89.88
290.448	102.88
290.679	77.88
290.91	72.88
291.141	64.88
291.371	96.88
291.602	93.88
291.833	86.88
292.064	93.88
292.295	88.88
292.526	96.88
292.757	94.88
292.987	91.88
293.218	80.88
293.449	85.88
293.68	87.88
293.91	88.88
294.141	100.88
294.372	87.88
294.603	94.88
294.833	76.88
295.064	84.88
295.295	84.88
295.525	83.88
295.756	89.88
295.987	111.88
296.217	119.88
296.448	125.88
296.679	88.88
296.909	89.88
297.14	85.88
297.37	87.88
297.601	68.88
297.831	80.88
298.062	95.88
298.292	82.88
298.523	86.88
298.753	74.88
298.984	93.88
299.214	88.88
299.445	98.88
299.675	100.88
299.905	99.88
300.136	89.88
300.366	76.88
300.597	97.88
300.827	83.88
301.057	85.88
301.288	105.88
301.518	91.88
301.748	88.88
301.979	95.88
302.209	80.88
302.439	77.88
302.669	94.88
302.9	91.88
303.13	75.88
303.36	77.88
303.59	91.88
303.82	89.88
304.051	97.88
304.281	76.88
304.511	93.88
304.741	91.88
304.971	93.88
305.201	94.88
305.431	87.88
305.661	87.88
305.891	77.88
306.121	102.88
306.352	90.88
306.582	94.88
306.812	85.88
307.042	84.88
307.272	95.88
307.502	89.88
307.731	70.88
307.961	87.88
308.191	72.88
308.421	81.88
308.651	83.88
308.881	101.88
309.111	81.88
309.341	88.88
309.571	81.88
309.8	95.88
310.03	89.88
310.26	77.88
310.49	81.88
310.72	86.88
310.949	84.88
311.179	84.88
311.409	95.88
311.639	97.88
311.868	94.88
312.098	95.88
312.328	86.88
312.557	96.88
312.787	107.88
313.017	76.88
313.246	82.88
313.476	99.88
313.706	79.88
313.935	86.88
314.165	96.88
314.394	91.88
314.624	104.88
314.853	87.88
315.083	83.88
315.312	95.88
315.542	82.88
315.771	70.88
316.001	91.88
316.23	86.88
316.46	77.88
316.689	91.88
316.919	85.88
317.148	84.88
317.377	84.88
317.607	95.88
317.836	90.88
318.065	98.88
318.295	102.88
318.524	92.88
318.753	85.88
318.983	101.88
319.212	92.88
319.441	102.88
319.67	96.88
319.9	86.88
320.129	84.88
320.358	88.88
320.587	75.88
320.816	101.88
321.046	94.88
321.275	85.88
321.504	86.88
321.733	95.88
321.962	95.88
322.191	89.88
322.42	106.88
322.649	99.88
322.878	100.88
323.108	101.88
323.337	105.88
323.566	118.88
323.795	134.88
324.024	190.88
324.253	350.88
324.482	732.88
324.71	1475.88
324.939	1973.88
325.168	715.88
325.397	217.88
325.626	126.88
325.855	120.88
326.084	120.88
326.313	120.88
326.542	140.88
326.77	227.88
326.999	427.88
327.228	880.88
327.457	1560.88
327.686	1228.88
327.914	311.88
328.143	179.88
328.372	136.88
328.6	122.88
328.829	101.88
329.058	107.88
329.287	121.88
329.515	102.88
329.744	87.88
329.972	102.88
330.201	97.88
330.43	96.88
330.658	114.88
330.887	131.88
331.115	101.88
331.344	86.88
331.572	94.88
331.801	105.88
332.03	85.88
332.258	95.88
332.486	80.88
332.715	100.88
332.943	77.88
333.172	73.88
333.4	95.88
333.629	92.88
333.857	119.88
334.085	97.88
334.314	80.88
334.542	111.88
334.771	103.88
334.999	96.88
335.227	86.88
335.455	85.88
335.684	92.88
335.912	85.88
336.14	84.88
336.369	91.88
336.597	79.88
336.825	108.88
337.053	88.88
337.281	67.88
337.51	84.88
337.738	93.88
337.966	78.88
338.194	85.88
338.422	89.88
338.65	92.88
338.878	97.88
339.106	79.88
339.334	77.88
339.562	84.88
339.79	93.88
340.018	98.88
340.246	84.88
340.474	92.88
340.702	89.88
340.93	87.88
341.158	104.88
341.386	87.88
341.614	100.88
341.842	89.88
342.07	96.88
342.298	87.88
342.526	85.88
342.754	97.88
342.981	79.88
343.209	89.88
343.437	102.88
343.665	92.88
343.893	78.88
344.12	98.88
344.348	88.88
344.576	91.88
344.804	83.88
345.031	91.88
345.259	89.88
345.487	84.88
345.714	104.88
345.942	100.88
346.17	89.88
346.397	91.88
346.625	93.88
346.853	84.88
347.08	85.88
347.308	74.88
347.535	99.88
347.763	95.88
347.99	94.88
348.218	100.88
348.445	83.88
348.673	95.88
348.9	95.88
349.128	102.88
349.355	91.88
349.583	96.88
349.81	88.88
350.037	86.88
350.265	87.88
350.492	86.88
350.72	90.88
350.947	91.88
351.174	101.88
351.402	95.88
351.629	91.88
351.856	91.88
352.083	116.88
352.311	88.88
352.538	98.88
352.765	108.88
352.992	106.88
353.22	100.88
353.447	106.88
353.674	109.88
353.901	88.88
354.128	90.88
354.355	99.88
354.583	85.88
354.81	97.88
355.037	92.88
355.264	103.88
355.491	82.88
355.718	89.88
355.945	87.88
356.172	89.88
356.399	93.88
356.626	96.88
356.853	93.88
357.08	75.88
357.307	91.88
357.534	100.88
357.761	79.88
357.988	94.88
358.215	90.88
358.441	93.88
358.668	88.88
358.895	74.88
359.122	101.88
359.349	92.88
359.576	85.88
359.802	100.88
360.029	109.88
360.256	102.88
360.483	87.88
360.709	99.88
360.936	85.88
361.163	87.88
361.39	83.88
361.616	90.88
361.843	83.88
362.07	84.88
362.296	91.88
362.523	91.88
362.749	84.88
362.976	79.88
363.203	88.88
363.429	92.88
363.656	78.88
363.882	88.88
364.109	87.88
364.335	85.88
364.562	78.88
364.788	87.88
365.015	85.88
365.241	97.88
365.468	89.88
365.694	97.88
365.92	88.88
366.147	90.88
366.373	86.88
366.599	98.88
366.826	86.88
367.052	78.88
367.278	78.88
367.505	81.88
367.731	85.88
367.957	88.88
368.184	94.88
368.41	81.88
368.636	92.88
368.862	110.88
369.089	105.88
369.315	84.88
369.541	83.88
369.767	87.88
369.993	86.88
370.219	101.88
370.445	77.88
370.672	85.88
370.898	90.88
371.124	68.88
371.35	83.88
371.576	96.88
371.802	88.88
372.028	74.88
372.254	101.88
372.48	92.88
372.706	83.88
372.932	77.88
373.158	77.88
373.384	96.88
373.61	93.88
373.835	90.88
374.061	87.88
374.287	83.88
374.513	93.88
374.739	77.88
374.965	78.88
375.191	95.88
375.416	86.88
375.642	88.88
375.868	96.88
376.094	90.88
376.319	87.88
376.545	96.88
376.771	91.88
376.997	87.88
377.222	105.88
377.448	91.88
377.674	81.88
377.899	85.88
378.125	90.88
378.35	83.88
378.576	93.88
378.802	84.88
379.027	85.88
379.253	87.88
379.478	85.88
379.704	86.88
379.929	87.88
380.155	77.88
380.38	90.88
380.606	89.88
380.831	83.88
381.057	92.88
381.282	100.88
381.507	95.88
381.733	93.88
381.958	90.88
382.184	109.88
382.409	92.88
382.634	102.88
382.86	91.88
383.085	93.88
383.31	100.88
383.535	97.88
383.761	99.88
383.986	88.88
384.211	89.88
384.436	89.88
384.662	95.88
384.887	89.88
385.112	87.88
385.337	97.88
385.562	100.88
385.787	107.88
386.013	105.88
386.238	108.88
386.463	102.88
386.688	92.88
386.913	93.88
387.138	108.88
387.363	99.88
387.588	107.88
387.813	94.88
388.038	104.88
388.263	101.88
388.488	95.88
388.713	102.88
388.938	91.88
389.163	91.88
389.387	107.88
389.612	97.88
389.837	90.88
390.062	92.88
390.287	71.88
390.512	93.88
390.736	96.88
390.961	108.88
391.186	91.88
391.411	101.88
391.636	95.88
391.86	94.88
392.085	92.88
392.31	81.88
392.534	73.88
392.759	92.88
392.984	73.88
393.208	102.88
393.433	87.88
393.658	96.88
393.882	90.88
394.107	81.88
394.331	79.88
394.556	77.88
394.78	81.88
395.005	79.88
395.229	73.88
395.454	89.88
395.678	83.88
395.903	87.88
396.127	89.88
396.352	78.88
396.576	81.88
396.801	76.88
397.025	91.88
397.249	82.88
397.474	92.88
397.698	92.88
397.922	86.88
398.147	76.88
398.371	78.88
398.595	93.88
398.82	89.88
399.044	88.88
399.268	74.88
399.492	83.88
399.717	87.88
399.941	100.88
400.165	91.88
400.389	96.88
400.613	92.88
400.837	70.88
401.062	90.88
401.286	103.88
401.51	91.88
401.734	89.88
401.958	94.88
402.182	99.88
402.406	126.88
402.63	101.88
402.854	91.88
403.078	80.88
403.302	77.88
403.526	67.88
403.75	80.88
403.974	88.88
404.198	74.88
404.422	72.88
404.645	102.88
404.869	82.88
405.093	96.88
405.317	85.88
405.541	95.88
405.765	91.88
405.988	105.88
406.212	138.88
406.436	195.88
406.66	118.88
406.883	98.88
407.107	96.88
407.331	82.88
407.555	103.88
407.778	85.88
408.002	86.88
408.226	81.88
408.449	104.88
408.673	94.88
408.896	87.88
409.12	86.88
409.344	80.88
409.567	86.88
409.791	96.88
410.014	91.88
410.238	78.88
410.461	87.88
410.685	85.88
410.908	97.88
411.132	110.88
411.355	107.88
411.578	87.88
411.802	83.88
412.025	77.88
412.249	94.88
412.472	89.88
412.695	101.88
412.919	97.88
413.142	78.88
413.365	88.88
413.589	89.88
413.812	75.88
414.035	85.88
414.258	94.88
414.482	80.88
414.705	89.88
414.928	91.88
415.151	89.88
415.374	96.88
415.597	85.88
415.821	72.88
416.044	69.88
416.267	68.88
416.49	80.88
416.713	80.88
416.936	90.88
417.159	86.88
417.382	78.88
417.605	74.88
417.828	80.88
418.051	84.88
418.274	74.88
418.497	94.88
418.72	71.88
418.943	83.88
419.166	81.88
419.389	87.88
419.611	87.88
419.834	87.88
420.057	88.88
420.28	76.88
420.503	83.88
420.726	89.88
420.948	89.88
421.171	85.88
421.394	93.88
421.617	92.88
421.839	96.88
422.062	93.88
422.285	106.88
422.507	102.88
422.73	92.88
422.953	113.88
423.175	79.88
423.398	88.88
423.621	92.88
423.843	85.88
424.066	72.88
424.288	84.88
424.511	85.88
424.733	89.88
424.956	95.88
425.178	87.88
425.401	89.88
425.623	92.88
425.846	81.88
426.068	103.88
426.291	84.88
426.513	96.88
426.735	94.88
426.958	92.88
427.18	108.88
427.402	121.88
427.625	138.88
427.847	100.88
428.069	96.88
428.292	77.88
428.514	68.88
428.736	93.88
428.958	86.88
429.181	90.88
429.403	79.88
429.625	94.88
429.847	90.88
430.069	91.88
430.292	97.88
430.514	81.88
430.736	76.88
430.958	81.88
431.18	86.88
431.402	83.88
431.624	90.88
431.846	79.88
432.068	83.88
432.29	83.88
432.512	91.88
432.734	91.88
432.956	85.88
433.178	83.88
433.4	96.88
433.622	91.88
433.844	89.88
434.066	89.88
434.287	92.88
434.509	79.88
434.731	97.88
434.953	92.88
435.175	86.88
435.397	94.88
435.618	87.88
435.84	94.88
436.062	109.88
436.284	101.88
436.505	95.88
436.727	89.88
436.949	81.88
437.17	77.88
437.392	85.88
437.614	83.88
437.835	100.88
438.057	113.88
438.278	91.88
438.5	105.88
438.721	95.88
438.943	87.88
439.165	73.88
439.386	93.88
439.608	85.88
439.829	117.88
440.05	112.88
440.272	128.88
440.493	95.88
440.715	87.88
440.936	79.88
441.158	78.88
441.379	81.88
441.6	77.88
441.822	86.88
442.043	81.88
442.264	105.88
442.486	103.88
442.707	79.88
442.928	90.88
443.149	118.88
443.371	123.88
443.592	85.88
443.813	98.88
444.034	111.88
444.255	89.88
444.476	81.88
444.698	95.88
444.919	89.88
445.14	117.88
445.361	117.88
445.582	115.88
445.803	132.88
446.024	125.88
446.245	120.88
446.466	100.88
446.687	87.88
446.908	68.88
447.129	86.88
447.35	98.88
447.571	87.88
447.792	97.88
448.013	105.88
448.234	87.88
448.455	90.88
448.675	100.88
448.896	107.88
449.117	94.88
449.338	91.88
449.559	125.88
449.779	126.88
450	95.88
450.221	78.88
450.442	87.88
450.662	89.88
450.883	97.88
451.104	98.88
451.324	85.88
451.545	80.88
451.766	95.88
451.986	87.88
452.207	92.88
452.428	95.88
452.648	94.88
452.869	96.88
453.089	87.88
453.31	101.88
453.53	77.88
453.751	87.88
453.971	91.88
454.192	109.88
454.412	88.88
454.633	81.88
454.853	84.88
455.073	86.88
455.294	93.88
455.514	92.88
455.734	72.88
455.955	88.88
456.175	77.88
456.395	81.88
456.616	75.88
456.836	78.88
457.056	72.88
457.276	87.88
457.497	83.88
457.717	84.88
457.937	72.88
458.157	64.88
458.377	93.88
458.598	112.88
458.818	126.88
459.038	127.88
459.258	104.88
459.478	101.88
459.698	76.88
459.918	78.88
460.138	91.88
460.358	88.88
460.578	99.88
460.798	89.88
461.018	84.88
461.238	92.88
461.458	86.88
461.678	71.88
461.898	89.88
462.118	97.88
462.338	75.88
462.558	79.88
462.777	72.88
462.997	83.88
463.217	79.88
463.437	75.88
463.657	90.88
463.876	89.88
464.096	86.88
464.316	74.88
464.536	79.88
464.755	93.88
464.975	103.88
465.195	134.88
465.414	143.88
465.634	83.88
465.854	81.88
466.073	80.88
466.293	78.88
466.512	89.88
466.732	76.88
466.951	92.88
467.171	90.88
467.391	93.88
467.61	92.88
467.829	87.88
468.049	79.88
468.268	85.88
468.488	84.88
468.707	71.88
468.927	90.88
469.146	95.88
469.365	94.88
469.585	75.88
469.804	101.88
470.023	82.88
470.243	96.88
470.462	88.88
470.681	102.88
470.901	79.88
471.12	103.88
471.339	86.88
471.558	84.88
471.777	86.88
471.997	93.88
472.216	88.88
472.435	103.88
472.654	90.88
472.873	94.88
473.092	85.88
473.311	90.88
473.53	76.88
473.749	81.88
473.968	86.88
474.187	94.88
474.406	107.88
474.625	89.88
474.844	87.88
475.063	74.88
475.282	79.88
475.501	89.88
475.72	79.88
475.939	75.88
476.158	84.88
476.377	84.88
476.596	95.88
476.814	79.88
477.033	83.88
477.252	90.88
477.471	77.88
477.69	83.88
477.908	93.88
478.127	93.88
478.346	79.88
478.564	102.88
478.783	94.88
479.002	95.88
479.22	90.88
479.439	95.88
479.658	104.88
479.876	96.88
480.095	84.88
480.313	94.88
480.532	89.88
480.751	99.88
480.969	79.88
481.188	99.88
481.406	96.88
481.624	89.88
481.843	68.88
482.061	85.88
482.28	89.88
482.498	78.88
482.717	91.88
482.935	83.88
483.153	76.88
483.372	95.88
483.59	86.88
483.808	96.88
484.027	98.88
484.245	93.88
484.463	85.88
484.681	83.88
484.9	96.88
485.118	93.88
485.336	75.88
485.554	87.88
485.772	102.88
485.99	109.88
486.209	97.88
486.427	112.88
486.645	105.88
486.863	108.88
487.081	85.88
487.299	85.88
487.517	79.88
487.735	88.88
487.953	88.88
488.171	102.88
488.389	98.88
488.607	103.88
488.825	79.88
489.043	91.88
489.261	88.88
489.479	87.88
489.696	93.88
489.914	80.88
490.132	94.88
490.35	79.88
490.568	91.88
490.786	80.88
491.003	73.88
491.221	94.88
491.439	71.88
491.657	81.88
491.874	91.88
492.092	84.88
492.31	83.88
492.527	90.88
492.745	88.88
492.963	86.88
493.18	86.88
493.398	88.88
493.615	95.88
493.833	87.88
494.05	86.88
494.268	79.88
494.485	85.88
494.703	87.88
494.92	88.88
495.138	105.88
495.355	76.88
495.573	99.88
495.79	89.88
496.008	93.88
496.225	88.88
496.442	83.88
496.66	104.88
496.877	94.88
497.094	91.88
497.312	80.88
497.529	81.88
497.746	86.88
497.963	89.88
498.181	97.88
498.398	78.88
498.615	97.88
498.832	104.88
499.049	90.88
499.267	91.88
499.484	93.88
499.701	82.88
499.918	90.88
500.135	77.88
500.352	107.88
500.569	88.88
500.786	101.88
501.003	86.88
501.22	107.88
501.437	87.88
501.654	89.88
501.871	87.88
502.088	84.88
502.305	81.88
502.522	101.88
502.739	91.88
502.956	90.88
503.172	93.88
503.389	103.88
503.606	89.88
503.823	97.88
504.04	94.88
504.256	74.88
504.473	105.88
504.69	76.88
504.907	89.88
505.123	82.88
505.34	105.88
505.557	96.88
505.773	88.88
505.99	72.88
506.207	85.88
506.423	90.88
506.64	74.88
506.856	96.88
507.073	96.88
507.289	82.88
507.506	97.88
507.722	105.88
507.939	100.88
508.155	92.88
508.372	93.88
508.588	101.88
508.805	90.88
509.021	95.88
509.238	91.88
509.454	91.88
509.67	104.88
509.887	115.88
510.103	119.88
510.319	185.88
510.536	625.88
510.752	1876.88
510.968	537.88
511.184	155.88
511.401	95.88
511.617	86.88
511.833	94.88
512.049	90.88
512.265	87.88
512.481	85.88
512.698	95.88
512.914	92.88
513.13	91.88
513.346	81.88
513.562	75.88
513.778	88.88
513.994	97.88
514.21	106.88
514.426	105.88
514.642	108.88
514.858	119.88
515.074	149.88
515.29	382.88
515.506	1177.88
515.721	434.88
515.937	145.88
516.153	96.88
516.369	85.88
516.585	95.88
516.801	83.88
517.016	106.88
517.232	90.88
