Data from Uncirc_1997_H10_HRD10591_00036.txt Node
Date: Wed Jan 03 11:28:37 EST 2024
User: Yrep
Spectrometer: HR+D1059
Trigger mode: 1
Integration Time (sec): 1.000000E-1
Scans to average: 1
Electric dark correction enabled: true
Nonlinearity correction enabled: false
Boxcar width: 0
XAxis mode: Wavelengths
Number of Pixels in Spectrum: 2048
>>>>>Begin Spectral Data<<<<<
223.165	-39.44
223.4	-39.44
223.635	-39.44
223.869	-21.44
224.104	-21.44
224.338	2.56
224.573	-0.44
224.808	-10.44
225.042	-9.44
225.277	-7.44
225.511	1.56
225.746	8.56
225.98	0.56
226.215	1.56
226.449	18.56
226.683	15.56
226.918	27.56
227.152	33.56
227.387	27.56
227.621	27.56
227.856	55.56
228.09	46.56
228.324	42.56
228.559	50.56
228.793	78.56
229.027	44.56
229.262	47.56
229.496	60.56
229.73	72.56
229.964	70.56
230.199	76.56
230.433	72.56
230.667	84.56
230.901	85.56
231.136	78.56
231.37	74.56
231.604	87.56
231.838	76.56
232.072	80.56
232.306	81.56
232.541	81.56
232.775	86.56
233.009	87.56
233.243	71.56
233.477	68.56
233.711	94.56
233.945	78.56
234.179	87.56
234.413	75.56
234.647	76.56
234.881	80.56
235.115	79.56
235.349	71.56
235.583	86.56
235.817	91.56
236.051	75.56
236.285	72.56
236.519	72.56
236.753	70.56
236.987	81.56
237.221	59.56
237.455	80.56
237.689	62.56
237.922	64.56
238.156	75.56
238.39	85.56
238.624	66.56
238.858	75.56
239.091	70.56
239.325	82.56
239.559	75.56
239.793	69.56
240.027	74.56
240.26	70.56
240.494	78.56
240.728	66.56
240.961	61.56
241.195	74.56
241.429	70.56
241.662	79.56
241.896	70.56
242.13	66.56
242.363	66.56
242.597	82.56
242.83	89.56
243.064	77.56
243.298	75.56
243.531	89.56
243.765	61.56
243.998	74.56
244.232	82.56
244.465	66.56
244.699	94.56
244.932	76.56
245.166	76.56
245.399	72.56
245.633	75.56
245.866	78.56
246.099	67.56
246.333	74.56
246.566	82.56
246.8	79.56
247.033	90.56
247.266	86.56
247.5	76.56
247.733	75.56
247.966	72.56
248.2	96.56
248.433	92.56
248.666	67.56
248.899	84.56
249.133	82.56
249.366	93.56
249.599	102.56
249.832	81.56
250.066	83.56
250.299	87.56
250.532	78.56
250.765	79.56
250.998	77.56
251.231	71.56
251.465	71.56
251.698	67.56
251.931	72.56
252.164	74.56
252.397	88.56
252.63	80.56
252.863	86.56
253.096	82.56
253.329	86.56
253.562	78.56
253.795	80.56
254.028	91.56
254.261	83.56
254.494	78.56
254.727	72.56
254.96	74.56
255.193	87.56
255.426	90.56
255.659	81.56
255.892	86.56
256.124	86.56
256.357	95.56
256.59	80.56
256.823	83.56
257.056	86.56
257.289	81.56
257.521	82.56
257.754	78.56
257.987	69.56
258.22	67.56
258.452	76.56
258.685	82.56
258.918	63.56
259.151	71.56
259.383	87.56
259.616	86.56
259.849	88.56
260.081	75.56
260.314	90.56
260.547	90.56
260.779	77.56
261.012	86.56
261.244	71.56
261.477	87.56
261.71	81.56
261.942	96.56
262.175	111.56
262.407	82.56
262.64	90.56
262.872	92.56
263.105	79.56
263.337	84.56
263.57	91.56
263.802	78.56
264.035	71.56
264.267	73.56
264.499	87.56
264.732	89.56
264.964	83.56
265.197	86.56
265.429	86.56
265.661	88.56
265.894	83.56
266.126	74.56
266.358	84.56
266.591	79.56
266.823	85.56
267.055	87.56
267.287	89.56
267.52	87.56
267.752	81.56
267.984	92.56
268.216	82.56
268.448	75.56
268.681	86.56
268.913	83.56
269.145	78.56
269.377	87.56
269.609	94.56
269.841	77.56
270.073	71.56
270.306	86.56
270.538	72.56
270.77	72.56
271.002	87.56
271.234	73.56
271.466	86.56
271.698	85.56
271.93	81.56
272.162	75.56
272.394	75.56
272.626	89.56
272.858	74.56
273.09	75.56
273.322	86.56
273.553	94.56
273.785	91.56
274.017	93.56
274.249	81.56
274.481	83.56
274.713	85.56
274.945	83.56
275.176	96.56
275.408	84.56
275.64	91.56
275.872	90.56
276.104	86.56
276.335	92.56
276.567	99.56
276.799	87.56
277.031	93.56
277.262	91.56
277.494	96.56
277.726	75.56
277.957	71.56
278.189	94.56
278.421	80.56
278.652	84.56
278.884	80.56
279.115	98.56
279.347	91.56
279.579	84.56
279.81	93.56
280.042	86.56
280.273	75.56
280.505	83.56
280.736	78.56
280.968	80.56
281.199	100.56
281.431	75.56
281.662	87.56
281.894	98.56
282.125	97.56
282.356	120.56
282.588	116.56
282.819	90.56
283.051	74.56
283.282	87.56
283.513	82.56
283.745	78.56
283.976	87.56
284.207	78.56
284.439	74.56
284.67	92.56
284.901	88.56
285.132	89.56
285.364	86.56
285.595	98.56
285.826	99.56
286.057	93.56
286.288	97.56
286.52	92.56
286.751	86.56
286.982	94.56
287.213	102.56
287.444	90.56
287.675	90.56
287.906	98.56
288.138	89.56
288.369	88.56
288.6	90.56
288.831	75.56
289.062	90.56
289.293	89.56
289.524	102.56
289.755	79.56
289.986	81.56
290.217	91.56
290.448	85.56
290.679	98.56
290.91	106.56
291.141	87.56
291.371	90.56
291.602	90.56
291.833	87.56
292.064	82.56
292.295	84.56
292.526	84.56
292.757	79.56
292.987	86.56
293.218	87.56
293.449	93.56
293.68	90.56
293.91	73.56
294.141	90.56
294.372	85.56
294.603	82.56
294.833	80.56
295.064	92.56
295.295	83.56
295.525	93.56
295.756	105.56
295.987	118.56
296.217	123.56
296.448	106.56
296.679	95.56
296.909	86.56
297.14	86.56
297.37	86.56
297.601	95.56
297.831	92.56
298.062	82.56
298.292	91.56
298.523	86.56
298.753	81.56
298.984	80.56
299.214	96.56
299.445	99.56
299.675	89.56
299.905	95.56
300.136	81.56
300.366	82.56
300.597	91.56
300.827	92.56
301.057	92.56
301.288	106.56
301.518	90.56
301.748	91.56
301.979	108.56
302.209	82.56
302.439	99.56
302.669	94.56
302.9	88.56
303.13	91.56
303.36	96.56
303.59	107.56
303.82	104.56
304.051	80.56
304.281	98.56
304.511	76.56
304.741	85.56
304.971	106.56
305.201	89.56
305.431	96.56
305.661	90.56
305.891	95.56
306.121	87.56
306.352	98.56
306.582	99.56
306.812	99.56
307.042	97.56
307.272	97.56
307.502	90.56
307.731	93.56
307.961	79.56
308.191	95.56
308.421	82.56
308.651	97.56
308.881	98.56
309.111	105.56
309.341	91.56
309.571	93.56
309.8	99.56
310.03	95.56
310.26	86.56
310.49	90.56
310.72	97.56
310.949	102.56
311.179	104.56
311.409	108.56
311.639	96.56
311.868	95.56
312.098	100.56
312.328	91.56
312.557	97.56
312.787	87.56
313.017	93.56
313.246	95.56
313.476	94.56
313.706	84.56
313.935	88.56
314.165	99.56
314.394	110.56
314.624	103.56
314.853	105.56
315.083	95.56
315.312	88.56
315.542	91.56
315.771	90.56
316.001	100.56
316.23	88.56
316.46	90.56
316.689	87.56
316.919	94.56
317.148	102.56
317.377	95.56
317.607	90.56
317.836	89.56
318.065	85.56
318.295	78.56
318.524	96.56
318.753	107.56
318.983	100.56
319.212	97.56
319.441	119.56
319.67	110.56
319.9	89.56
320.129	90.56
320.358	91.56
320.587	97.56
320.816	107.56
321.046	99.56
321.275	105.56
321.504	95.56
321.733	101.56
321.962	99.56
322.191	104.56
322.42	105.56
322.649	92.56
322.878	91.56
323.108	118.56
323.337	106.56
323.566	113.56
323.795	141.56
324.024	180.56
324.253	322.56
324.482	657.56
324.71	1362.56
324.939	1763.56
325.168	637.56
325.397	224.56
325.626	140.56
325.855	124.56
326.084	119.56
326.313	121.56
326.542	122.56
326.77	192.56
326.999	391.56
327.228	752.56
327.457	1374.56
327.686	1066.56
327.914	304.56
328.143	183.56
328.372	126.56
328.6	112.56
328.829	120.56
329.058	118.56
329.287	100.56
329.515	104.56
329.744	96.56
329.972	96.56
330.201	90.56
330.43	91.56
330.658	110.56
330.887	129.56
331.115	106.56
331.344	94.56
331.572	112.56
331.801	114.56
332.03	100.56
332.258	96.56
332.486	85.56
332.715	95.56
332.943	102.56
333.172	92.56
333.4	98.56
333.629	105.56
333.857	97.56
334.085	96.56
334.314	109.56
334.542	102.56
334.771	96.56
334.999	87.56
335.227	85.56
335.455	86.56
335.684	93.56
335.912	103.56
336.14	104.56
336.369	99.56
336.597	99.56
336.825	103.56
337.053	100.56
337.281	93.56
337.51	85.56
337.738	103.56
337.966	95.56
338.194	106.56
338.422	91.56
338.65	87.56
338.878	88.56
339.106	95.56
339.334	93.56
339.562	99.56
339.79	98.56
340.018	104.56
340.246	101.56
340.474	80.56
340.702	92.56
340.93	88.56
341.158	93.56
341.386	99.56
341.614	78.56
341.842	73.56
342.07	95.56
342.298	86.56
342.526	93.56
342.754	98.56
342.981	86.56
343.209	83.56
343.437	70.56
343.665	92.56
343.893	73.56
344.12	79.56
344.348	78.56
344.576	84.56
344.804	89.56
345.031	103.56
345.259	91.56
345.487	95.56
345.714	84.56
345.942	84.56
346.17	95.56
346.397	89.56
346.625	90.56
346.853	77.56
347.08	94.56
347.308	122.56
347.535	90.56
347.763	95.56
347.99	98.56
348.218	92.56
348.445	98.56
348.673	101.56
348.9	91.56
349.128	86.56
349.355	89.56
349.583	95.56
349.81	100.56
350.037	94.56
350.265	87.56
350.492	93.56
350.72	112.56
350.947	100.56
351.174	111.56
351.402	105.56
351.629	95.56
351.856	101.56
352.083	89.56
352.311	80.56
352.538	121.56
352.765	117.56
352.992	105.56
353.22	105.56
353.447	88.56
353.674	98.56
353.901	106.56
354.128	88.56
354.355	81.56
354.583	97.56
354.81	99.56
355.037	106.56
355.264	87.56
355.491	90.56
355.718	78.56
355.945	92.56
356.172	87.56
356.399	82.56
356.626	94.56
356.853	92.56
357.08	82.56
357.307	88.56
357.534	91.56
357.761	100.56
357.988	94.56
358.215	94.56
358.441	113.56
358.668	95.56
358.895	78.56
359.122	87.56
359.349	104.56
359.576	114.56
359.802	104.56
360.029	112.56
360.256	111.56
360.483	99.56
360.709	90.56
360.936	100.56
361.163	81.56
361.39	105.56
361.616	94.56
361.843	83.56
362.07	89.56
362.296	82.56
362.523	80.56
362.749	82.56
362.976	82.56
363.203	94.56
363.429	92.56
363.656	86.56
363.882	69.56
364.109	84.56
364.335	82.56
364.562	95.56
364.788	92.56
365.015	107.56
365.241	99.56
365.468	100.56
365.694	103.56
365.92	99.56
366.147	93.56
366.373	106.56
366.599	86.56
366.826	95.56
367.052	114.56
367.278	87.56
367.505	82.56
367.731	96.56
367.957	88.56
368.184	87.56
368.41	100.56
368.636	100.56
368.862	112.56
369.089	113.56
369.315	82.56
369.541	94.56
369.767	90.56
369.993	90.56
370.219	79.56
370.445	98.56
370.672	92.56
370.898	67.56
371.124	89.56
371.35	75.56
371.576	95.56
371.802	85.56
372.028	75.56
372.254	64.56
372.48	80.56
372.706	101.56
372.932	94.56
373.158	95.56
373.384	92.56
373.61	87.56
373.835	99.56
374.061	86.56
374.287	88.56
374.513	92.56
374.739	93.56
374.965	83.56
375.191	103.56
375.416	103.56
375.642	96.56
375.868	98.56
376.094	91.56
376.319	87.56
376.545	87.56
376.771	89.56
376.997	94.56
377.222	91.56
377.448	97.56
377.674	76.56
377.899	78.56
378.125	87.56
378.35	90.56
378.576	76.56
378.802	103.56
379.027	91.56
379.253	85.56
379.478	100.56
379.704	99.56
379.929	83.56
380.155	93.56
380.38	87.56
380.606	99.56
380.831	99.56
381.057	90.56
381.282	91.56
381.507	87.56
381.733	94.56
381.958	89.56
382.184	85.56
382.409	94.56
382.634	112.56
382.86	94.56
383.085	98.56
383.31	90.56
383.535	95.56
383.761	94.56
383.986	89.56
384.211	88.56
384.436	110.56
384.662	108.56
384.887	97.56
385.112	97.56
385.337	98.56
385.562	86.56
385.787	82.56
386.013	99.56
386.238	105.56
386.463	111.56
386.688	106.56
386.913	91.56
387.138	110.56
387.363	113.56
387.588	88.56
387.813	113.56
388.038	97.56
388.263	94.56
388.488	110.56
388.713	95.56
388.938	104.56
389.163	81.56
389.387	94.56
389.612	114.56
389.837	94.56
390.062	92.56
390.287	97.56
390.512	89.56
390.736	94.56
390.961	95.56
391.186	95.56
391.411	85.56
391.636	95.56
391.86	86.56
392.085	91.56
392.31	88.56
392.534	80.56
392.759	86.56
392.984	99.56
393.208	88.56
393.433	87.56
393.658	98.56
393.882	87.56
394.107	89.56
394.331	95.56
394.556	100.56
394.78	76.56
395.005	81.56
395.229	82.56
395.454	95.56
395.678	94.56
395.903	96.56
396.127	87.56
396.352	80.56
396.576	76.56
396.801	82.56
397.025	76.56
397.249	86.56
397.474	69.56
397.698	88.56
397.922	99.56
398.147	91.56
398.371	84.56
398.595	81.56
398.82	86.56
399.044	97.56
399.268	97.56
399.492	91.56
399.717	79.56
399.941	85.56
400.165	104.56
400.389	94.56
400.613	72.56
400.837	97.56
401.062	80.56
401.286	88.56
401.51	88.56
401.734	83.56
401.958	95.56
402.182	107.56
402.406	135.56
402.63	92.56
402.854	80.56
403.078	80.56
403.302	81.56
403.526	91.56
403.75	87.56
403.974	79.56
404.198	75.56
404.422	89.56
404.645	77.56
404.869	87.56
405.093	83.56
405.317	101.56
405.541	99.56
405.765	95.56
405.988	99.56
406.212	149.56
406.436	174.56
406.66	113.56
406.883	114.56
407.107	103.56
407.331	87.56
407.555	93.56
407.778	84.56
408.002	99.56
408.226	90.56
408.449	85.56
408.673	91.56
408.896	91.56
409.12	87.56
409.344	88.56
409.567	73.56
409.791	102.56
410.014	100.56
410.238	90.56
410.461	84.56
410.685	100.56
410.908	86.56
411.132	109.56
411.355	102.56
411.578	94.56
411.802	82.56
412.025	104.56
412.249	94.56
412.472	81.56
412.695	86.56
412.919	103.56
413.142	86.56
413.365	74.56
413.589	88.56
413.812	84.56
414.035	81.56
414.258	90.56
414.482	94.56
414.705	83.56
414.928	82.56
415.151	95.56
415.374	99.56
415.597	88.56
415.821	94.56
416.044	83.56
416.267	93.56
416.49	96.56
416.713	86.56
416.936	89.56
417.159	81.56
417.382	100.56
417.605	87.56
417.828	96.56
418.051	92.56
418.274	95.56
418.497	90.56
418.72	83.56
418.943	95.56
419.166	103.56
419.389	93.56
419.611	100.56
419.834	100.56
420.057	96.56
420.28	73.56
420.503	87.56
420.726	91.56
420.948	91.56
421.171	95.56
421.394	92.56
421.617	91.56
421.839	82.56
422.062	89.56
422.285	101.56
422.507	102.56
422.73	106.56
422.953	98.56
423.175	89.56
423.398	82.56
423.621	85.56
423.843	96.56
424.066	103.56
424.288	84.56
424.511	89.56
424.733	98.56
424.956	97.56
425.178	99.56
425.401	98.56
425.623	92.56
425.846	110.56
426.068	105.56
426.291	95.56
426.513	94.56
426.735	81.56
426.958	91.56
427.18	81.56
427.402	115.56
427.625	143.56
427.847	111.56
428.069	112.56
428.292	82.56
428.514	90.56
428.736	83.56
428.958	74.56
429.181	82.56
429.403	87.56
429.625	96.56
429.847	86.56
430.069	82.56
430.292	80.56
430.514	84.56
430.736	88.56
430.958	95.56
431.18	85.56
431.402	88.56
431.624	85.56
431.846	85.56
432.068	88.56
432.29	92.56
432.512	78.56
432.734	80.56
432.956	83.56
433.178	82.56
433.4	80.56
433.622	83.56
433.844	90.56
434.066	99.56
434.287	83.56
434.509	102.56
434.731	90.56
434.953	93.56
435.175	87.56
435.397	94.56
435.618	83.56
435.84	87.56
436.062	108.56
436.284	107.56
436.505	99.56
436.727	99.56
436.949	89.56
437.17	82.56
437.392	92.56
437.614	97.56
437.835	93.56
438.057	123.56
438.278	104.56
438.5	96.56
438.721	102.56
438.943	81.56
439.165	88.56
439.386	80.56
439.608	79.56
439.829	80.56
440.05	105.56
440.272	116.56
440.493	100.56
440.715	96.56
440.936	88.56
441.158	102.56
441.379	76.56
441.6	91.56
441.822	76.56
442.043	86.56
442.264	92.56
442.486	87.56
442.707	93.56
442.928	109.56
443.149	115.56
443.371	114.56
443.592	111.56
443.813	103.56
444.034	119.56
444.255	83.56
444.476	65.56
444.698	95.56
444.919	88.56
445.14	122.56
445.361	123.56
445.582	104.56
445.803	126.56
446.024	126.56
446.245	118.56
446.466	101.56
446.687	75.56
446.908	89.56
447.129	80.56
447.35	89.56
447.571	92.56
447.792	78.56
448.013	104.56
448.234	101.56
448.455	92.56
448.675	122.56
448.896	114.56
449.117	100.56
449.338	107.56
449.559	123.56
449.779	113.56
450	91.56
450.221	92.56
450.442	82.56
450.662	89.56
450.883	105.56
451.104	77.56
451.324	82.56
451.545	93.56
451.766	84.56
451.986	83.56
452.207	100.56
452.428	82.56
452.648	94.56
452.869	109.56
453.089	111.56
453.31	120.56
453.53	86.56
453.751	81.56
453.971	92.56
454.192	94.56
454.412	93.56
454.633	90.56
454.853	108.56
455.073	94.56
455.294	76.56
455.514	104.56
455.734	91.56
455.955	85.56
456.175	83.56
456.395	84.56
456.616	87.56
456.836	82.56
457.056	79.56
457.276	88.56
457.497	78.56
457.717	80.56
457.937	72.56
458.157	70.56
458.377	97.56
458.598	100.56
458.818	124.56
459.038	133.56
459.258	102.56
459.478	82.56
459.698	88.56
459.918	84.56
460.138	100.56
460.358	86.56
460.578	74.56
460.798	78.56
461.018	93.56
461.238	79.56
461.458	82.56
461.678	82.56
461.898	95.56
462.118	92.56
462.338	86.56
462.558	100.56
462.777	76.56
462.997	90.56
463.217	78.56
463.437	84.56
463.657	70.56
463.876	96.56
464.096	78.56
464.316	98.56
464.536	93.56
464.755	88.56
464.975	104.56
465.195	138.56
465.414	133.56
465.634	107.56
465.854	84.56
466.073	80.56
466.293	83.56
466.512	89.56
466.732	81.56
466.951	89.56
467.171	90.56
467.391	98.56
467.61	96.56
467.829	78.56
468.049	79.56
468.268	98.56
468.488	84.56
468.707	95.56
468.927	92.56
469.146	93.56
469.365	84.56
469.585	99.56
469.804	94.56
470.023	98.56
470.243	84.56
470.462	90.56
470.681	87.56
470.901	78.56
471.12	74.56
471.339	96.56
471.558	73.56
471.777	66.56
471.997	86.56
472.216	92.56
472.435	85.56
472.654	76.56
472.873	84.56
473.092	95.56
473.311	91.56
473.53	89.56
473.749	83.56
473.968	91.56
474.187	74.56
474.406	91.56
474.625	81.56
474.844	84.56
475.063	89.56
475.282	78.56
475.501	78.56
475.72	92.56
475.939	92.56
476.158	96.56
476.377	86.56
476.596	95.56
476.814	78.56
477.033	76.56
477.252	86.56
477.471	93.56
477.69	83.56
477.908	90.56
478.127	76.56
478.346	76.56
478.564	79.56
478.783	89.56
479.002	104.56
479.22	89.56
479.439	97.56
479.658	94.56
479.876	74.56
480.095	78.56
480.313	96.56
480.532	79.56
480.751	86.56
480.969	93.56
481.188	90.56
481.406	77.56
481.624	96.56
481.843	90.56
482.061	86.56
482.28	88.56
482.498	84.56
482.717	95.56
482.935	96.56
483.153	80.56
483.372	66.56
483.59	93.56
483.808	84.56
484.027	91.56
484.245	102.56
484.463	78.56
484.681	86.56
484.9	89.56
485.118	95.56
485.336	82.56
485.554	79.56
485.772	102.56
485.99	93.56
486.209	98.56
486.427	83.56
486.645	104.56
486.863	104.56
487.081	95.56
487.299	79.56
487.517	93.56
487.735	86.56
487.953	97.56
488.171	102.56
488.389	83.56
488.607	83.56
488.825	95.56
489.043	96.56
489.261	97.56
489.479	91.56
489.696	88.56
489.914	83.56
490.132	86.56
490.35	84.56
490.568	81.56
490.786	84.56
491.003	91.56
491.221	90.56
491.439	84.56
491.657	95.56
491.874	101.56
492.092	93.56
492.31	101.56
492.527	92.56
492.745	86.56
492.963	80.56
493.18	76.56
493.398	97.56
493.615	96.56
493.833	104.56
494.05	86.56
494.268	85.56
494.485	95.56
494.703	90.56
494.92	74.56
495.138	98.56
495.355	107.56
495.573	104.56
495.79	93.56
496.008	78.56
496.225	98.56
496.442	96.56
496.66	87.56
496.877	83.56
497.094	92.56
497.312	100.56
497.529	66.56
497.746	90.56
497.963	83.56
498.181	98.56
498.398	108.56
498.615	102.56
498.832	103.56
499.049	95.56
499.267	91.56
499.484	82.56
499.701	88.56
499.918	83.56
500.135	91.56
500.352	96.56
500.569	86.56
500.786	88.56
501.003	102.56
501.22	88.56
501.437	98.56
501.654	99.56
501.871	98.56
502.088	85.56
502.305	94.56
502.522	94.56
502.739	89.56
502.956	98.56
503.172	88.56
503.389	104.56
503.606	110.56
503.823	92.56
504.04	88.56
504.256	98.56
504.473	83.56
504.69	106.56
504.907	77.56
505.123	82.56
505.34	81.56
505.557	89.56
505.773	91.56
505.99	86.56
506.207	80.56
506.423	92.56
506.64	78.56
506.856	102.56
507.073	67.56
507.289	78.56
507.506	81.56
507.722	102.56
507.939	90.56
508.155	97.56
508.372	82.56
508.588	88.56
508.805	86.56
509.021	91.56
509.238	98.56
509.454	86.56
509.67	97.56
509.887	94.56
510.103	124.56
510.319	198.56
510.536	607.56
510.752	1809.56
510.968	508.56
511.184	144.56
511.401	105.56
511.617	100.56
511.833	94.56
512.049	103.56
512.265	95.56
512.481	103.56
512.698	84.56
512.914	78.56
513.13	91.56
513.346	96.56
513.562	94.56
513.778	80.56
513.994	99.56
514.21	94.56
514.426	94.56
514.642	126.56
514.858	108.56
515.074	145.56
515.29	368.56
515.506	1098.56
515.721	412.56
515.937	146.56
516.153	97.56
516.369	99.56
516.585	76.56
