Data from Uncirc_1997_H10_HRD10591_00011.txt Node
Date: Wed Jan 03 11:28:32 EST 2024
User: Yrep
Spectrometer: HR+D1059
Trigger mode: 1
Integration Time (sec): 1.000000E-1
Scans to average: 1
Electric dark correction enabled: true
Nonlinearity correction enabled: false
Boxcar width: 0
XAxis mode: Wavelengths
Number of Pixels in Spectrum: 2048
>>>>>Begin Spectral Data<<<<<
223.165	-18.5
223.4	-18.5
223.635	-18.5
223.869	-21.5
224.104	7.5
224.338	-9.5
224.573	-6.5
224.808	-2.5
225.042	-6.5
225.277	-2.5
225.511	-2.5
225.746	2.5
225.98	2.5
226.215	-0.5
226.449	4.5
226.683	22.5
226.918	7.5
227.152	23.5
227.387	32.5
227.621	33.5
227.856	48.5
228.09	38.5
228.324	58.5
228.559	54.5
228.793	56.5
229.027	54.5
229.262	74.5
229.496	48.5
229.73	75.5
229.964	75.5
230.199	67.5
230.433	62.5
230.667	76.5
230.901	74.5
231.136	89.5
231.37	85.5
231.604	82.5
231.838	90.5
232.072	85.5
232.306	60.5
232.541	68.5
232.775	82.5
233.009	76.5
233.243	88.5
233.477	64.5
233.711	87.5
233.945	82.5
234.179	82.5
234.413	74.5
234.647	68.5
234.881	86.5
235.115	72.5
235.349	77.5
235.583	76.5
235.817	74.5
236.051	48.5
236.285	71.5
236.519	71.5
236.753	81.5
236.987	76.5
237.221	97.5
237.455	85.5
237.689	67.5
237.922	69.5
238.156	94.5
238.39	66.5
238.624	77.5
238.858	72.5
239.091	73.5
239.325	80.5
239.559	73.5
239.793	86.5
240.027	74.5
240.26	66.5
240.494	80.5
240.728	67.5
240.961	79.5
241.195	78.5
241.429	71.5
241.662	52.5
241.896	76.5
242.13	79.5
242.363	64.5
242.597	72.5
242.83	70.5
243.064	84.5
243.298	76.5
243.531	92.5
243.765	71.5
243.998	74.5
244.232	76.5
244.465	72.5
244.699	76.5
244.932	73.5
245.166	72.5
245.399	85.5
245.633	76.5
245.866	91.5
246.099	80.5
246.333	76.5
246.566	76.5
246.8	69.5
247.033	95.5
247.266	88.5
247.5	73.5
247.733	89.5
247.966	87.5
248.2	82.5
248.433	88.5
248.666	75.5
248.899	82.5
249.133	77.5
249.366	96.5
249.599	74.5
249.832	82.5
250.066	77.5
250.299	68.5
250.532	67.5
250.765	70.5
250.998	84.5
251.231	81.5
251.465	79.5
251.698	92.5
251.931	82.5
252.164	72.5
252.397	68.5
252.63	77.5
252.863	76.5
253.096	79.5
253.329	79.5
253.562	80.5
253.795	69.5
254.028	79.5
254.261	81.5
254.494	86.5
254.727	73.5
254.96	84.5
255.193	89.5
255.426	81.5
255.659	79.5
255.892	67.5
256.124	86.5
256.357	75.5
256.59	83.5
256.823	72.5
257.056	94.5
257.289	78.5
257.521	65.5
257.754	63.5
257.987	74.5
258.22	89.5
258.452	68.5
258.685	77.5
258.918	96.5
259.151	74.5
259.383	76.5
259.616	77.5
259.849	64.5
260.081	74.5
260.314	74.5
260.547	79.5
260.779	74.5
261.012	68.5
261.244	89.5
261.477	81.5
261.71	87.5
261.942	108.5
262.175	98.5
262.407	77.5
262.64	76.5
262.872	94.5
263.105	71.5
263.337	80.5
263.57	93.5
263.802	79.5
264.035	77.5
264.267	68.5
264.499	83.5
264.732	84.5
264.964	81.5
265.197	90.5
265.429	76.5
265.661	89.5
265.894	65.5
266.126	81.5
266.358	92.5
266.591	75.5
266.823	70.5
267.055	75.5
267.287	75.5
267.52	81.5
267.752	86.5
267.984	91.5
268.216	80.5
268.448	65.5
268.681	78.5
268.913	81.5
269.145	76.5
269.377	87.5
269.609	84.5
269.841	82.5
270.073	96.5
270.306	78.5
270.538	85.5
270.77	80.5
271.002	74.5
271.234	80.5
271.466	80.5
271.698	88.5
271.93	73.5
272.162	74.5
272.394	87.5
272.626	84.5
272.858	82.5
273.09	74.5
273.322	80.5
273.553	75.5
273.785	87.5
274.017	76.5
274.249	78.5
274.481	92.5
274.713	83.5
274.945	76.5
275.176	81.5
275.408	86.5
275.64	74.5
275.872	86.5
276.104	95.5
276.335	76.5
276.567	94.5
276.799	97.5
277.031	75.5
277.262	89.5
277.494	89.5
277.726	77.5
277.957	78.5
278.189	96.5
278.421	87.5
278.652	79.5
278.884	82.5
279.115	82.5
279.347	85.5
279.579	100.5
279.81	71.5
280.042	75.5
280.273	86.5
280.505	68.5
280.736	81.5
280.968	69.5
281.199	76.5
281.431	92.5
281.662	81.5
281.894	93.5
282.125	101.5
282.356	96.5
282.588	123.5
282.819	106.5
283.051	83.5
283.282	76.5
283.513	84.5
283.745	76.5
283.976	82.5
284.207	81.5
284.439	84.5
284.67	89.5
284.901	89.5
285.132	89.5
285.364	73.5
285.595	84.5
285.826	95.5
286.057	87.5
286.288	91.5
286.52	92.5
286.751	85.5
286.982	78.5
287.213	86.5
287.444	88.5
287.675	91.5
287.906	95.5
288.138	90.5
288.369	88.5
288.6	91.5
288.831	70.5
289.062	86.5
289.293	99.5
289.524	87.5
289.755	77.5
289.986	78.5
290.217	75.5
290.448	88.5
290.679	66.5
290.91	76.5
291.141	62.5
291.371	81.5
291.602	84.5
291.833	93.5
292.064	80.5
292.295	87.5
292.526	79.5
292.757	88.5
292.987	90.5
293.218	78.5
293.449	69.5
293.68	82.5
293.91	80.5
294.141	91.5
294.372	93.5
294.603	88.5
294.833	82.5
295.064	82.5
295.295	86.5
295.525	96.5
295.756	87.5
295.987	105.5
296.217	95.5
296.448	102.5
296.679	91.5
296.909	78.5
297.14	87.5
297.37	82.5
297.601	83.5
297.831	70.5
298.062	87.5
298.292	93.5
298.523	82.5
298.753	90.5
298.984	87.5
299.214	80.5
299.445	81.5
299.675	92.5
299.905	82.5
300.136	81.5
300.366	89.5
300.597	88.5
300.827	82.5
301.057	83.5
301.288	100.5
301.518	97.5
301.748	86.5
301.979	90.5
302.209	81.5
302.439	79.5
302.669	90.5
302.9	87.5
303.13	76.5
303.36	86.5
303.59	93.5
303.82	95.5
304.051	90.5
304.281	95.5
304.511	96.5
304.741	80.5
304.971	102.5
305.201	98.5
305.431	92.5
305.661	76.5
305.891	74.5
306.121	92.5
306.352	85.5
306.582	97.5
306.812	90.5
307.042	86.5
307.272	78.5
307.502	80.5
307.731	75.5
307.961	81.5
308.191	81.5
308.421	89.5
308.651	96.5
308.881	86.5
309.111	91.5
309.341	94.5
309.571	84.5
309.8	88.5
310.03	94.5
310.26	101.5
310.49	84.5
310.72	93.5
310.949	86.5
311.179	82.5
311.409	84.5
311.639	92.5
311.868	95.5
312.098	84.5
312.328	81.5
312.557	102.5
312.787	93.5
313.017	100.5
313.246	91.5
313.476	97.5
313.706	93.5
313.935	76.5
314.165	97.5
314.394	95.5
314.624	87.5
314.853	106.5
315.083	74.5
315.312	100.5
315.542	88.5
315.771	82.5
316.001	93.5
316.23	96.5
316.46	70.5
316.689	89.5
316.919	84.5
317.148	99.5
317.377	92.5
317.607	90.5
317.836	80.5
318.065	95.5
318.295	84.5
318.524	84.5
318.753	97.5
318.983	82.5
319.212	97.5
319.441	101.5
319.67	85.5
319.9	94.5
320.129	94.5
320.358	96.5
320.587	94.5
320.816	90.5
321.046	105.5
321.275	99.5
321.504	86.5
321.733	89.5
321.962	88.5
322.191	88.5
322.42	102.5
322.649	97.5
322.878	101.5
323.108	115.5
323.337	105.5
323.566	96.5
323.795	140.5
324.024	186.5
324.253	318.5
324.482	628.5
324.71	1298.5
324.939	1679.5
325.168	618.5
325.397	214.5
325.626	140.5
325.855	123.5
326.084	118.5
326.313	122.5
326.542	145.5
326.77	188.5
326.999	378.5
327.228	742.5
327.457	1314.5
327.686	1065.5
327.914	293.5
328.143	152.5
328.372	131.5
328.6	105.5
328.829	116.5
329.058	108.5
329.287	100.5
329.515	95.5
329.744	92.5
329.972	75.5
330.201	82.5
330.43	92.5
330.658	95.5
330.887	104.5
331.115	122.5
331.344	90.5
331.572	82.5
331.801	92.5
332.03	99.5
332.258	94.5
332.486	104.5
332.715	91.5
332.943	90.5
333.172	90.5
333.4	97.5
333.629	79.5
333.857	105.5
334.085	67.5
334.314	94.5
334.542	78.5
334.771	104.5
334.999	102.5
335.227	79.5
335.455	94.5
335.684	95.5
335.912	88.5
336.14	100.5
336.369	105.5
336.597	75.5
336.825	89.5
337.053	90.5
337.281	78.5
337.51	90.5
337.738	88.5
337.966	95.5
338.194	91.5
338.422	88.5
338.65	75.5
338.878	93.5
339.106	78.5
339.334	95.5
339.562	88.5
339.79	83.5
340.018	94.5
340.246	93.5
340.474	89.5
340.702	80.5
340.93	96.5
341.158	79.5
341.386	92.5
341.614	95.5
341.842	80.5
342.07	76.5
342.298	85.5
342.526	79.5
342.754	104.5
342.981	81.5
343.209	101.5
343.437	105.5
343.665	95.5
343.893	97.5
344.12	94.5
344.348	98.5
344.576	99.5
344.804	85.5
345.031	66.5
345.259	93.5
345.487	76.5
345.714	98.5
345.942	87.5
346.17	85.5
346.397	97.5
346.625	96.5
346.853	83.5
347.08	92.5
347.308	95.5
347.535	87.5
347.763	81.5
347.99	89.5
348.218	101.5
348.445	98.5
348.673	99.5
348.9	86.5
349.128	95.5
349.355	100.5
349.583	80.5
349.81	85.5
350.037	88.5
350.265	84.5
350.492	92.5
350.72	99.5
350.947	88.5
351.174	85.5
351.402	90.5
351.629	87.5
351.856	88.5
352.083	113.5
352.311	99.5
352.538	86.5
352.765	83.5
352.992	93.5
353.22	85.5
353.447	95.5
353.674	85.5
353.901	97.5
354.128	108.5
354.355	100.5
354.583	90.5
354.81	90.5
355.037	85.5
355.264	86.5
355.491	94.5
355.718	103.5
355.945	92.5
356.172	88.5
356.399	89.5
356.626	82.5
356.853	102.5
357.08	90.5
357.307	84.5
357.534	76.5
357.761	87.5
357.988	98.5
358.215	104.5
358.441	95.5
358.668	91.5
358.895	76.5
359.122	89.5
359.349	88.5
359.576	98.5
359.802	84.5
360.029	100.5
360.256	97.5
360.483	93.5
360.709	101.5
360.936	103.5
361.163	86.5
361.39	95.5
361.616	93.5
361.843	91.5
362.07	87.5
362.296	81.5
362.523	98.5
362.749	93.5
362.976	93.5
363.203	100.5
363.429	81.5
363.656	93.5
363.882	87.5
364.109	82.5
364.335	92.5
364.562	88.5
364.788	91.5
365.015	96.5
365.241	91.5
365.468	107.5
365.694	86.5
365.92	91.5
366.147	77.5
366.373	93.5
366.599	81.5
366.826	82.5
367.052	86.5
367.278	87.5
367.505	79.5
367.731	84.5
367.957	88.5
368.184	83.5
368.41	100.5
368.636	94.5
368.862	103.5
369.089	97.5
369.315	90.5
369.541	97.5
369.767	84.5
369.993	107.5
370.219	78.5
370.445	78.5
370.672	84.5
370.898	96.5
371.124	83.5
371.35	92.5
371.576	95.5
371.802	90.5
372.028	79.5
372.254	85.5
372.48	90.5
372.706	79.5
372.932	102.5
373.158	92.5
373.384	89.5
373.61	84.5
373.835	97.5
374.061	79.5
374.287	92.5
374.513	96.5
374.739	73.5
374.965	84.5
375.191	85.5
375.416	94.5
375.642	85.5
375.868	84.5
376.094	75.5
376.319	92.5
376.545	81.5
376.771	74.5
376.997	81.5
377.222	71.5
377.448	94.5
377.674	90.5
377.899	83.5
378.125	90.5
378.35	88.5
378.576	81.5
378.802	90.5
379.027	94.5
379.253	80.5
379.478	101.5
379.704	94.5
379.929	103.5
380.155	80.5
380.38	76.5
380.606	80.5
380.831	87.5
381.057	78.5
381.282	85.5
381.507	91.5
381.733	81.5
381.958	87.5
382.184	91.5
382.409	82.5
382.634	93.5
382.86	72.5
383.085	102.5
383.31	96.5
383.535	108.5
383.761	103.5
383.986	89.5
384.211	88.5
384.436	84.5
384.662	113.5
384.887	103.5
385.112	105.5
385.337	98.5
385.562	106.5
385.787	104.5
386.013	101.5
386.238	93.5
386.463	108.5
386.688	97.5
386.913	105.5
387.138	94.5
387.363	102.5
387.588	100.5
387.813	88.5
388.038	102.5
388.263	84.5
388.488	95.5
388.713	102.5
388.938	86.5
389.163	102.5
389.387	88.5
389.612	77.5
389.837	84.5
390.062	104.5
390.287	100.5
390.512	96.5
390.736	93.5
390.961	92.5
391.186	94.5
391.411	101.5
391.636	100.5
391.86	84.5
392.085	96.5
392.31	92.5
392.534	87.5
392.759	84.5
392.984	84.5
393.208	85.5
393.433	94.5
393.658	83.5
393.882	81.5
394.107	97.5
394.331	87.5
394.556	92.5
394.78	78.5
395.005	88.5
395.229	82.5
395.454	87.5
395.678	84.5
395.903	88.5
396.127	85.5
396.352	80.5
396.576	91.5
396.801	90.5
397.025	80.5
397.249	74.5
397.474	93.5
397.698	93.5
397.922	85.5
398.147	82.5
398.371	87.5
398.595	88.5
398.82	91.5
399.044	100.5
399.268	78.5
399.492	81.5
399.717	97.5
399.941	80.5
400.165	71.5
400.389	91.5
400.613	84.5
400.837	88.5
401.062	76.5
401.286	105.5
401.51	90.5
401.734	80.5
401.958	96.5
402.182	92.5
402.406	135.5
402.63	88.5
402.854	89.5
403.078	90.5
403.302	93.5
403.526	79.5
403.75	89.5
403.974	88.5
404.198	83.5
404.422	84.5
404.645	81.5
404.869	93.5
405.093	102.5
405.317	92.5
405.541	96.5
405.765	101.5
405.988	102.5
406.212	128.5
406.436	154.5
406.66	123.5
406.883	99.5
407.107	89.5
407.331	84.5
407.555	92.5
407.778	101.5
408.002	94.5
408.226	88.5
408.449	91.5
408.673	93.5
408.896	89.5
409.12	97.5
409.344	99.5
409.567	85.5
409.791	98.5
410.014	96.5
410.238	92.5
410.461	97.5
410.685	94.5
410.908	100.5
411.132	105.5
411.355	101.5
411.578	100.5
411.802	91.5
412.025	85.5
412.249	81.5
412.472	83.5
412.695	88.5
412.919	85.5
413.142	96.5
413.365	94.5
413.589	86.5
413.812	88.5
414.035	86.5
414.258	78.5
414.482	81.5
414.705	75.5
414.928	84.5
415.151	94.5
415.374	93.5
415.597	84.5
415.821	78.5
416.044	84.5
416.267	86.5
416.49	82.5
416.713	83.5
416.936	74.5
417.159	76.5
417.382	96.5
417.605	89.5
417.828	95.5
418.051	87.5
418.274	97.5
418.497	71.5
418.72	73.5
418.943	95.5
419.166	81.5
419.389	93.5
419.611	78.5
419.834	91.5
420.057	84.5
420.28	76.5
420.503	84.5
420.726	87.5
420.948	93.5
421.171	97.5
421.394	86.5
421.617	106.5
421.839	95.5
422.062	90.5
422.285	105.5
422.507	89.5
422.73	97.5
422.953	93.5
423.175	79.5
423.398	72.5
423.621	76.5
423.843	76.5
424.066	80.5
424.288	80.5
424.511	91.5
424.733	98.5
424.956	103.5
425.178	104.5
425.401	91.5
425.623	103.5
425.846	82.5
426.068	92.5
426.291	88.5
426.513	94.5
426.735	83.5
426.958	84.5
427.18	97.5
427.402	133.5
427.625	137.5
427.847	103.5
428.069	100.5
428.292	90.5
428.514	89.5
428.736	87.5
428.958	93.5
429.181	82.5
429.403	93.5
429.625	88.5
429.847	77.5
430.069	85.5
430.292	104.5
430.514	75.5
430.736	76.5
430.958	80.5
431.18	90.5
431.402	75.5
431.624	82.5
431.846	81.5
432.068	74.5
432.29	75.5
432.512	78.5
432.734	81.5
432.956	86.5
433.178	86.5
433.4	102.5
433.622	96.5
433.844	94.5
434.066	86.5
434.287	98.5
434.509	72.5
434.731	80.5
434.953	75.5
435.175	77.5
435.397	88.5
435.618	88.5
435.84	87.5
436.062	102.5
436.284	118.5
436.505	92.5
436.727	88.5
436.949	92.5
437.17	72.5
437.392	92.5
437.614	96.5
437.835	88.5
438.057	98.5
438.278	103.5
438.5	94.5
438.721	109.5
438.943	104.5
439.165	73.5
439.386	74.5
439.608	80.5
439.829	103.5
440.05	103.5
440.272	115.5
440.493	85.5
440.715	92.5
440.936	91.5
441.158	76.5
441.379	58.5
441.6	89.5
441.822	86.5
442.043	93.5
442.264	105.5
442.486	78.5
442.707	74.5
442.928	92.5
443.149	115.5
443.371	113.5
443.592	105.5
443.813	95.5
444.034	102.5
444.255	92.5
444.476	82.5
444.698	84.5
444.919	68.5
445.14	124.5
445.361	102.5
445.582	113.5
445.803	113.5
446.024	116.5
446.245	115.5
446.466	111.5
446.687	77.5
446.908	79.5
447.129	85.5
447.35	79.5
447.571	69.5
447.792	86.5
448.013	103.5
448.234	99.5
448.455	84.5
448.675	101.5
448.896	102.5
449.117	104.5
449.338	94.5
449.559	107.5
449.779	108.5
450	105.5
450.221	95.5
450.442	84.5
450.662	70.5
450.883	89.5
451.104	87.5
451.324	94.5
451.545	97.5
451.766	79.5
451.986	90.5
452.207	86.5
452.428	90.5
452.648	89.5
452.869	82.5
453.089	100.5
453.31	108.5
453.53	91.5
453.751	86.5
453.971	77.5
454.192	95.5
454.412	94.5
454.633	90.5
454.853	73.5
455.073	86.5
455.294	75.5
455.514	86.5
455.734	97.5
455.955	85.5
456.175	95.5
456.395	87.5
456.616	80.5
456.836	88.5
457.056	86.5
457.276	84.5
457.497	84.5
457.717	77.5
457.937	76.5
458.157	93.5
458.377	93.5
458.598	113.5
458.818	125.5
459.038	135.5
459.258	111.5
459.478	77.5
459.698	83.5
459.918	71.5
460.138	81.5
460.358	62.5
460.578	88.5
460.798	77.5
461.018	80.5
461.238	90.5
461.458	65.5
461.678	89.5
461.898	77.5
462.118	82.5
462.338	81.5
462.558	89.5
462.777	94.5
462.997	84.5
463.217	98.5
463.437	86.5
463.657	79.5
463.876	61.5
464.096	88.5
464.316	82.5
464.536	90.5
464.755	81.5
464.975	92.5
465.195	128.5
465.414	118.5
465.634	99.5
465.854	82.5
466.073	92.5
466.293	93.5
466.512	79.5
466.732	87.5
466.951	89.5
467.171	89.5
467.391	88.5
467.61	105.5
467.829	93.5
468.049	86.5
468.268	70.5
468.488	75.5
468.707	88.5
468.927	86.5
469.146	86.5
469.365	90.5
469.585	98.5
469.804	72.5
470.023	86.5
470.243	94.5
470.462	92.5
470.681	101.5
470.901	93.5
471.12	85.5
471.339	75.5
471.558	82.5
471.777	86.5
471.997	90.5
472.216	87.5
472.435	82.5
472.654	72.5
472.873	97.5
473.092	93.5
473.311	80.5
473.53	74.5
473.749	92.5
473.968	75.5
474.187	80.5
474.406	78.5
474.625	85.5
474.844	87.5
475.063	90.5
475.282	80.5
475.501	81.5
475.72	90.5
475.939	76.5
476.158	83.5
476.377	80.5
476.596	89.5
476.814	81.5
477.033	86.5
477.252	89.5
477.471	96.5
477.69	84.5
477.908	77.5
478.127	98.5
478.346	93.5
478.564	90.5
478.783	110.5
479.002	89.5
479.22	87.5
479.439	104.5
479.658	86.5
479.876	95.5
480.095	78.5
480.313	102.5
480.532	98.5
480.751	89.5
480.969	97.5
481.188	109.5
481.406	89.5
481.624	88.5
481.843	85.5
482.061	81.5
482.28	72.5
482.498	80.5
482.717	95.5
482.935	82.5
483.153	77.5
483.372	83.5
483.59	85.5
483.808	86.5
484.027	96.5
484.245	81.5
484.463	93.5
484.681	82.5
484.9	92.5
485.118	78.5
485.336	82.5
485.554	80.5
485.772	90.5
485.99	98.5
486.209	91.5
486.427	95.5
486.645	103.5
486.863	110.5
487.081	100.5
487.299	83.5
487.517	83.5
487.735	75.5
487.953	84.5
488.171	86.5
488.389	98.5
488.607	89.5
488.825	89.5
489.043	89.5
489.261	83.5
489.479	81.5
489.696	90.5
489.914	89.5
490.132	74.5
490.35	89.5
490.568	82.5
490.786	75.5
491.003	97.5
491.221	77.5
491.439	88.5
491.657	81.5
491.874	96.5
492.092	80.5
492.31	88.5
492.527	104.5
492.745	103.5
492.963	74.5
493.18	88.5
493.398	87.5
493.615	98.5
493.833	86.5
494.05	88.5
494.268	92.5
494.485	82.5
494.703	83.5
494.92	92.5
495.138	78.5
495.355	88.5
495.573	101.5
495.79	79.5
496.008	95.5
496.225	87.5
496.442	87.5
496.66	89.5
496.877	86.5
497.094	104.5
497.312	77.5
497.529	93.5
497.746	82.5
497.963	111.5
498.181	83.5
498.398	96.5
498.615	99.5
498.832	92.5
499.049	77.5
499.267	86.5
499.484	83.5
499.701	91.5
499.918	100.5
500.135	88.5
500.352	100.5
500.569	80.5
500.786	85.5
501.003	92.5
501.22	85.5
501.437	81.5
501.654	79.5
501.871	101.5
502.088	85.5
502.305	89.5
502.522	88.5
502.739	89.5
502.956	89.5
503.172	78.5
503.389	91.5
503.606	83.5
503.823	101.5
504.04	88.5
504.256	85.5
504.473	91.5
504.69	80.5
504.907	88.5
505.123	94.5
505.34	87.5
505.557	72.5
505.773	90.5
505.99	81.5
506.207	64.5
506.423	87.5
506.64	78.5
506.856	76.5
507.073	81.5
507.289	93.5
507.506	99.5
507.722	115.5
507.939	102.5
508.155	75.5
508.372	88.5
508.588	95.5
508.805	87.5
509.021	85.5
509.238	97.5
509.454	93.5
509.67	97.5
509.887	94.5
510.103	127.5
510.319	187.5
510.536	554.5
510.752	1680.5
510.968	500.5
511.184	132.5
511.401	93.5
511.617	88.5
511.833	86.5
512.049	72.5
512.265	77.5
512.481	90.5
512.698	86.5
512.914	76.5
513.13	93.5
513.346	83.5
513.562	92.5
513.778	100.5
513.994	91.5
514.21	99.5
514.426	98.5
514.642	123.5
514.858	106.5
515.074	154.5
515.29	360.5
515.506	1020.5
515.721	380.5
515.937	125.5
516.153	104.5
516.369	100.5
516.585	94.5
516.801	95.5
517.016	94.5
517.232	88.5
517.448	69.5
517.664	88.5
517.879	74.5
518.095	93.5
518.311	81.5
518.527	93.5
518.742	81.5
518.958	88.5
519.173	88.5
519.389	89.5
519.605	90.5
519.82	85.5
520.036	91.5
520.251	113.5
520.467	104.5
520.682	102.5
520.898	90.5
521.113	90.5
521.329	117.5
521.544	162.5
521.76	409.5
521.975	1697.5
522.19	1021.5
522.406	232.5
522.621	108.5
522.836	85.5
523.052	89.5
523.267	93.5
523.482	85.5
523.698	90.5
523.913	106.5
524.128	102.5
524.343	91.5
524.559	90.5
524.774	82.5
524.989	84.5
525.204	79.5
525.419	73.5
525.634	85.5
525.849	84.5
526.064	80.5
526.28	95.5
526.495	76.5
526.71	74.5
526.925	99.5
527.14	83.5
527.355	93.5
527.57	73.5
527.785	95.5
527.999	89.5
528.214	78.5
528.429	88.5
528.644	89.5
528.859	84.5
529.074	78.5
529.289	100.5
529.503	140.5
529.718	115.5
529.933	104.5
530.148	91.5
530.363	72.5
530.577	85.5
530.792	89.5
531.007	86.5
531.221	82.5
531.436	94.5
531.651	101.5
531.865	95.5
532.08	105.5
532.295	92.5
532.509	91.5
532.724	96.5
532.938	91.5
533.153	92.5
533.367	86.5
533.582	90.5
533.796	87.5
534.011	87.5
534.225	85.5
534.44	90.5
534.654	100.5
534.868	89.5
535.083	96.5
535.297	95.5
535.511	99.5
535.726	101.5
535.94	99.5
536.154	103.5
536.369	70.5
536.583	95.5
536.797	106.5
537.011	88.5
537.225	88.5
