Data from Uncirc_1997_H10_HRD10591_00047.txt Node
Date: Wed Jan 03 11:28:40 EST 2024
User: Yrep
Spectrometer: HR+D1059
Trigger mode: 1
Integration Time (sec): 1.000000E-1
Scans to average: 1
Electric dark correction enabled: true
Nonlinearity correction enabled: false
Boxcar width: 0
XAxis mode: Wavelengths
Number of Pixels in Spectrum: 2048
>>>>>Begin Spectral Data<<<<<
223.165	-13.31
223.4	-13.31
223.635	-13.31
223.869	-20.31
224.104	-15.31
224.338	-23.31
224.573	-22.31
224.808	-11.31
225.042	-11.31
225.277	-1.31
225.511	-4.31
225.746	13.69
225.98	18.69
226.215	8.69
226.449	15.69
226.683	18.69
226.918	14.69
227.152	32.69
227.387	38.69
227.621	27.69
227.856	48.69
228.09	38.69
228.324	46.69
228.559	66.69
228.793	60.69
229.027	66.69
229.262	76.69
229.496	66.69
229.73	81.69
229.964	74.69
230.199	58.69
230.433	73.69
230.667	60.69
230.901	85.69
231.136	82.69
231.37	80.69
231.604	76.69
231.838	84.69
232.072	92.69
232.306	78.69
232.541	80.69
232.775	82.69
233.009	76.69
233.243	74.69
233.477	91.69
233.711	79.69
233.945	76.69
234.179	80.69
234.413	77.69
234.647	71.69
234.881	80.69
235.115	93.69
235.349	88.69
235.583	88.69
235.817	91.69
236.051	63.69
236.285	86.69
236.519	80.69
236.753	92.69
236.987	66.69
237.221	83.69
237.455	70.69
237.689	76.69
237.922	87.69
238.156	79.69
238.39	62.69
238.624	76.69
238.858	67.69
239.091	76.69
239.325	84.69
239.559	81.69
239.793	75.69
240.027	79.69
240.26	56.69
240.494	82.69
240.728	69.69
240.961	66.69
241.195	77.69
241.429	80.69
241.662	79.69
241.896	82.69
242.13	74.69
242.363	78.69
242.597	71.69
242.83	74.69
243.064	75.69
243.298	76.69
243.531	84.69
243.765	67.69
243.998	76.69
244.232	89.69
244.465	76.69
244.699	75.69
244.932	67.69
245.166	83.69
245.399	82.69
245.633	74.69
245.866	72.69
246.099	83.69
246.333	89.69
246.566	84.69
246.8	71.69
247.033	79.69
247.266	64.69
247.5	74.69
247.733	89.69
247.966	82.69
248.2	92.69
248.433	79.69
248.666	79.69
248.899	89.69
249.133	84.69
249.366	95.69
249.599	90.69
249.832	87.69
250.066	89.69
250.299	91.69
250.532	74.69
250.765	70.69
250.998	88.69
251.231	91.69
251.465	69.69
251.698	71.69
251.931	75.69
252.164	77.69
252.397	83.69
252.63	83.69
252.863	76.69
253.096	63.69
253.329	74.69
253.562	74.69
253.795	82.69
254.028	78.69
254.261	81.69
254.494	74.69
254.727	77.69
254.96	85.69
255.193	79.69
255.426	73.69
255.659	82.69
255.892	60.69
256.124	87.69
256.357	81.69
256.59	87.69
256.823	76.69
257.056	87.69
257.289	83.69
257.521	82.69
257.754	62.69
257.987	82.69
258.22	76.69
258.452	88.69
258.685	98.69
258.918	74.69
259.151	78.69
259.383	71.69
259.616	86.69
259.849	83.69
260.081	80.69
260.314	82.69
260.547	74.69
260.779	62.69
261.012	88.69
261.244	79.69
261.477	86.69
261.71	104.69
261.942	113.69
262.175	114.69
262.407	87.69
262.64	79.69
262.872	80.69
263.105	85.69
263.337	81.69
263.57	90.69
263.802	99.69
264.035	97.69
264.267	95.69
264.499	82.69
264.732	69.69
264.964	84.69
265.197	89.69
265.429	78.69
265.661	67.69
265.894	92.69
266.126	79.69
266.358	89.69
266.591	80.69
266.823	83.69
267.055	82.69
267.287	83.69
267.52	72.69
267.752	77.69
267.984	93.69
268.216	72.69
268.448	81.69
268.681	88.69
268.913	84.69
269.145	74.69
269.377	68.69
269.609	65.69
269.841	75.69
270.073	79.69
270.306	85.69
270.538	69.69
270.77	90.69
271.002	86.69
271.234	80.69
271.466	78.69
271.698	87.69
271.93	74.69
272.162	86.69
272.394	103.69
272.626	82.69
272.858	89.69
273.09	79.69
273.322	86.69
273.553	71.69
273.785	73.69
274.017	91.69
274.249	76.69
274.481	91.69
274.713	75.69
274.945	80.69
275.176	74.69
275.408	89.69
275.64	89.69
275.872	74.69
276.104	84.69
276.335	96.69
276.567	82.69
276.799	115.69
277.031	89.69
277.262	87.69
277.494	78.69
277.726	78.69
277.957	87.69
278.189	92.69
278.421	84.69
278.652	82.69
278.884	94.69
279.115	90.69
279.347	81.69
279.579	84.69
279.81	96.69
280.042	81.69
280.273	78.69
280.505	74.69
280.736	98.69
280.968	79.69
281.199	85.69
281.431	84.69
281.662	89.69
281.894	84.69
282.125	95.69
282.356	110.69
282.588	127.69
282.819	113.69
283.051	93.69
283.282	83.69
283.513	96.69
283.745	91.69
283.976	83.69
284.207	83.69
284.439	93.69
284.67	86.69
284.901	87.69
285.132	90.69
285.364	90.69
285.595	81.69
285.826	80.69
286.057	91.69
286.288	87.69
286.52	88.69
286.751	82.69
286.982	86.69
287.213	82.69
287.444	87.69
287.675	81.69
287.906	102.69
288.138	84.69
288.369	88.69
288.6	81.69
288.831	86.69
289.062	84.69
289.293	80.69
289.524	80.69
289.755	90.69
289.986	86.69
290.217	79.69
290.448	93.69
290.679	88.69
290.91	92.69
291.141	91.69
291.371	87.69
291.602	107.69
291.833	80.69
292.064	87.69
292.295	83.69
292.526	75.69
292.757	87.69
292.987	87.69
293.218	102.69
293.449	91.69
293.68	99.69
293.91	83.69
294.141	89.69
294.372	93.69
294.603	75.69
294.833	90.69
295.064	100.69
295.295	90.69
295.525	100.69
295.756	86.69
295.987	112.69
296.217	127.69
296.448	121.69
296.679	95.69
296.909	95.69
297.14	85.69
297.37	97.69
297.601	95.69
297.831	86.69
298.062	88.69
298.292	90.69
298.523	92.69
298.753	92.69
298.984	75.69
299.214	89.69
299.445	102.69
299.675	86.69
299.905	74.69
300.136	87.69
300.366	99.69
300.597	96.69
300.827	97.69
301.057	90.69
301.288	90.69
301.518	82.69
301.748	86.69
301.979	92.69
302.209	108.69
302.439	91.69
302.669	89.69
302.9	84.69
303.13	89.69
303.36	86.69
303.59	95.69
303.82	98.69
304.051	83.69
304.281	80.69
304.511	101.69
304.741	87.69
304.971	79.69
305.201	79.69
305.431	87.69
305.661	96.69
305.891	82.69
306.121	102.69
306.352	97.69
306.582	104.69
306.812	96.69
307.042	87.69
307.272	87.69
307.502	80.69
307.731	84.69
307.961	88.69
308.191	87.69
308.421	99.69
308.651	95.69
308.881	96.69
309.111	91.69
309.341	87.69
309.571	100.69
309.8	104.69
310.03	63.69
310.26	82.69
310.49	98.69
310.72	113.69
310.949	99.69
311.179	100.69
311.409	96.69
311.639	100.69
311.868	100.69
312.098	100.69
312.328	94.69
312.557	102.69
312.787	86.69
313.017	103.69
313.246	92.69
313.476	86.69
313.706	81.69
313.935	103.69
314.165	91.69
314.394	88.69
314.624	95.69
314.853	99.69
315.083	94.69
315.312	97.69
315.542	93.69
315.771	90.69
316.001	97.69
316.23	89.69
316.46	86.69
316.689	91.69
316.919	94.69
317.148	96.69
317.377	100.69
317.607	84.69
317.836	89.69
318.065	86.69
318.295	74.69
318.524	86.69
318.753	91.69
318.983	80.69
319.212	94.69
319.441	108.69
319.67	103.69
319.9	76.69
320.129	100.69
320.358	91.69
320.587	89.69
320.816	92.69
321.046	98.69
321.275	103.69
321.504	92.69
321.733	96.69
321.962	105.69
322.191	103.69
322.42	111.69
322.649	113.69
322.878	113.69
323.108	104.69
323.337	118.69
323.566	123.69
323.795	135.69
324.024	185.69
324.253	338.69
324.482	710.69
324.71	1450.69
324.939	1864.69
325.168	690.69
325.397	205.69
325.626	140.69
325.855	131.69
326.084	126.69
326.313	131.69
326.542	143.69
326.77	222.69
326.999	389.69
327.228	828.69
327.457	1456.69
327.686	1131.69
327.914	315.69
328.143	186.69
328.372	131.69
328.6	108.69
328.829	116.69
329.058	134.69
329.287	110.69
329.515	111.69
329.744	95.69
329.972	86.69
330.201	86.69
330.43	115.69
330.658	105.69
330.887	131.69
331.115	131.69
331.344	117.69
331.572	108.69
331.801	102.69
332.03	103.69
332.258	104.69
332.486	84.69
332.715	101.69
332.943	95.69
333.172	82.69
333.4	81.69
333.629	105.69
333.857	103.69
334.085	100.69
334.314	94.69
334.542	93.69
334.771	113.69
334.999	86.69
335.227	100.69
335.455	98.69
335.684	94.69
335.912	90.69
336.14	98.69
336.369	104.69
336.597	104.69
336.825	74.69
337.053	94.69
337.281	99.69
337.51	87.69
337.738	98.69
337.966	87.69
338.194	81.69
338.422	86.69
338.65	91.69
338.878	84.69
339.106	94.69
339.334	88.69
339.562	87.69
339.79	89.69
340.018	84.69
340.246	90.69
340.474	106.69
340.702	89.69
340.93	91.69
341.158	93.69
341.386	93.69
341.614	91.69
341.842	100.69
342.07	96.69
342.298	99.69
342.526	92.69
342.754	100.69
342.981	70.69
343.209	92.69
343.437	114.69
343.665	87.69
343.893	91.69
344.12	93.69
344.348	90.69
344.576	91.69
344.804	88.69
345.031	88.69
345.259	104.69
345.487	87.69
345.714	84.69
345.942	80.69
346.17	86.69
346.397	87.69
346.625	103.69
346.853	90.69
347.08	89.69
347.308	87.69
347.535	87.69
347.763	95.69
347.99	96.69
348.218	110.69
348.445	106.69
348.673	93.69
348.9	105.69
349.128	90.69
349.355	82.69
349.583	90.69
349.81	77.69
350.037	91.69
350.265	87.69
350.492	86.69
350.72	103.69
350.947	101.69
351.174	93.69
351.402	90.69
351.629	103.69
351.856	109.69
352.083	96.69
352.311	109.69
352.538	116.69
352.765	96.69
352.992	102.69
353.22	104.69
353.447	105.69
353.674	90.69
353.901	91.69
354.128	84.69
354.355	98.69
354.583	99.69
354.81	95.69
355.037	103.69
355.264	101.69
355.491	101.69
355.718	94.69
355.945	93.69
356.172	98.69
356.399	90.69
356.626	89.69
356.853	92.69
357.08	96.69
357.307	102.69
357.534	89.69
357.761	115.69
357.988	103.69
358.215	97.69
358.441	97.69
358.668	103.69
358.895	90.69
359.122	92.69
359.349	87.69
359.576	88.69
359.802	101.69
360.029	94.69
360.256	96.69
360.483	92.69
360.709	83.69
360.936	90.69
361.163	94.69
361.39	96.69
361.616	81.69
361.843	87.69
362.07	93.69
362.296	90.69
362.523	75.69
362.749	89.69
362.976	97.69
363.203	78.69
363.429	99.69
363.656	78.69
363.882	87.69
364.109	77.69
364.335	90.69
364.562	92.69
364.788	95.69
365.015	85.69
365.241	92.69
365.468	96.69
365.694	89.69
365.92	91.69
366.147	86.69
366.373	96.69
366.599	87.69
366.826	91.69
367.052	92.69
367.278	86.69
367.505	95.69
367.731	88.69
367.957	89.69
368.184	92.69
368.41	84.69
368.636	97.69
368.862	103.69
369.089	103.69
369.315	106.69
369.541	88.69
369.767	99.69
369.993	94.69
370.219	63.69
370.445	109.69
370.672	105.69
370.898	100.69
371.124	98.69
371.35	78.69
371.576	91.69
371.802	84.69
372.028	86.69
372.254	98.69
372.48	92.69
372.706	92.69
372.932	83.69
373.158	84.69
373.384	75.69
373.61	95.69
373.835	80.69
374.061	87.69
374.287	91.69
374.513	75.69
374.739	91.69
374.965	81.69
375.191	99.69
375.416	88.69
375.642	88.69
375.868	87.69
376.094	90.69
376.319	100.69
376.545	85.69
376.771	94.69
376.997	96.69
377.222	93.69
377.448	63.69
377.674	91.69
377.899	93.69
378.125	87.69
378.35	90.69
378.576	109.69
378.802	94.69
379.027	93.69
379.253	94.69
379.478	101.69
379.704	95.69
379.929	105.69
380.155	83.69
380.38	95.69
380.606	87.69
380.831	81.69
381.057	94.69
381.282	90.69
381.507	89.69
381.733	90.69
381.958	105.69
382.184	74.69
382.409	87.69
382.634	92.69
382.86	88.69
383.085	88.69
383.31	111.69
383.535	96.69
383.761	94.69
383.986	87.69
384.211	86.69
384.436	107.69
384.662	108.69
384.887	106.69
385.112	106.69
385.337	105.69
385.562	94.69
385.787	110.69
386.013	106.69
386.238	113.69
386.463	110.69
386.688	100.69
386.913	95.69
387.138	100.69
387.363	103.69
387.588	89.69
387.813	98.69
388.038	95.69
388.263	100.69
388.488	104.69
388.713	79.69
388.938	92.69
389.163	93.69
389.387	97.69
389.612	82.69
389.837	106.69
390.062	96.69
390.287	114.69
390.512	94.69
390.736	91.69
390.961	80.69
391.186	80.69
391.411	105.69
391.636	94.69
391.86	91.69
392.085	82.69
392.31	98.69
392.534	72.69
392.759	87.69
392.984	80.69
393.208	90.69
393.433	88.69
393.658	100.69
393.882	85.69
394.107	98.69
394.331	92.69
394.556	88.69
394.78	99.69
395.005	89.69
395.229	91.69
395.454	87.69
395.678	91.69
395.903	75.69
396.127	83.69
396.352	88.69
396.576	90.69
396.801	95.69
397.025	83.69
397.249	87.69
397.474	89.69
397.698	95.69
397.922	98.69
398.147	96.69
398.371	85.69
398.595	74.69
398.82	88.69
399.044	78.69
399.268	89.69
399.492	79.69
399.717	88.69
399.941	96.69
400.165	88.69
400.389	80.69
400.613	86.69
400.837	76.69
401.062	75.69
401.286	73.69
401.51	87.69
401.734	88.69
401.958	93.69
402.182	121.69
402.406	135.69
402.63	115.69
402.854	94.69
403.078	101.69
403.302	79.69
403.526	87.69
403.75	81.69
403.974	95.69
404.198	78.69
404.422	80.69
404.645	88.69
404.869	81.69
405.093	81.69
405.317	105.69
405.541	102.69
405.765	104.69
405.988	109.69
406.212	150.69
406.436	189.69
406.66	135.69
406.883	86.69
407.107	93.69
407.331	94.69
407.555	93.69
407.778	88.69
408.002	91.69
408.226	96.69
408.449	95.69
408.673	87.69
408.896	93.69
409.12	99.69
409.344	90.69
409.567	95.69
409.791	86.69
410.014	83.69
410.238	86.69
410.461	90.69
410.685	101.69
410.908	79.69
411.132	97.69
411.355	100.69
411.578	96.69
411.802	68.69
412.025	95.69
412.249	86.69
412.472	81.69
412.695	87.69
412.919	88.69
413.142	99.69
413.365	82.69
413.589	91.69
413.812	91.69
414.035	89.69
414.258	93.69
414.482	85.69
414.705	88.69
414.928	99.69
415.151	71.69
415.374	96.69
415.597	85.69
415.821	80.69
416.044	92.69
416.267	84.69
416.49	65.69
416.713	86.69
416.936	88.69
417.159	88.69
417.382	101.69
417.605	86.69
417.828	95.69
418.051	101.69
418.274	83.69
418.497	74.69
418.72	83.69
418.943	78.69
419.166	83.69
419.389	93.69
419.611	91.69
419.834	87.69
420.057	97.69
420.28	86.69
420.503	96.69
420.726	74.69
420.948	98.69
421.171	94.69
421.394	87.69
421.617	95.69
421.839	102.69
422.062	92.69
422.285	100.69
422.507	79.69
422.73	97.69
422.953	75.69
423.175	90.69
423.398	97.69
423.621	100.69
423.843	106.69
424.066	87.69
424.288	91.69
424.511	97.69
424.733	86.69
424.956	97.69
425.178	87.69
425.401	100.69
425.623	103.69
425.846	86.69
426.068	110.69
426.291	83.69
426.513	91.69
426.735	88.69
426.958	94.69
427.18	103.69
427.402	127.69
427.625	137.69
427.847	129.69
428.069	93.69
428.292	83.69
428.514	89.69
428.736	88.69
428.958	81.69
429.181	89.69
429.403	90.69
429.625	83.69
429.847	87.69
430.069	99.69
430.292	93.69
430.514	84.69
430.736	103.69
430.958	100.69
431.18	97.69
431.402	87.69
431.624	97.69
431.846	87.69
432.068	80.69
432.29	95.69
432.512	72.69
432.734	102.69
432.956	100.69
433.178	106.69
433.4	99.69
433.622	95.69
433.844	91.69
434.066	90.69
434.287	98.69
434.509	90.69
434.731	81.69
434.953	82.69
435.175	82.69
435.397	92.69
435.618	86.69
435.84	92.69
436.062	112.69
436.284	110.69
436.505	99.69
436.727	101.69
436.949	84.69
437.17	80.69
437.392	85.69
437.614	100.69
437.835	106.69
438.057	92.69
438.278	82.69
438.5	96.69
438.721	122.69
438.943	89.69
439.165	75.69
439.386	105.69
439.608	91.69
439.829	86.69
440.05	114.69
440.272	139.69
440.493	103.69
440.715	84.69
440.936	80.69
441.158	88.69
441.379	76.69
441.6	90.69
441.822	106.69
442.043	100.69
442.264	104.69
442.486	86.69
442.707	92.69
442.928	95.69
443.149	119.69
443.371	136.69
443.592	91.69
443.813	107.69
444.034	98.69
444.255	96.69
444.476	93.69
444.698	82.69
444.919	81.69
445.14	135.69
445.361	105.69
445.582	102.69
445.803	124.69
446.024	134.69
446.245	122.69
446.466	104.69
446.687	100.69
446.908	74.69
447.129	91.69
447.35	99.69
447.571	80.69
447.792	91.69
448.013	105.69
448.234	111.69
448.455	107.69
448.675	114.69
448.896	106.69
449.117	93.69
449.338	102.69
449.559	112.69
449.779	118.69
450	84.69
450.221	79.69
450.442	96.69
450.662	84.69
450.883	111.69
451.104	112.69
451.324	106.69
451.545	85.69
451.766	88.69
451.986	84.69
452.207	81.69
452.428	90.69
452.648	100.69
452.869	105.69
453.089	100.69
453.31	120.69
453.53	91.69
453.751	83.69
453.971	110.69
454.192	96.69
454.412	96.69
454.633	87.69
454.853	88.69
455.073	85.69
455.294	90.69
455.514	91.69
455.734	88.69
455.955	100.69
456.175	91.69
456.395	81.69
456.616	87.69
456.836	91.69
457.056	94.69
457.276	88.69
457.497	64.69
457.717	81.69
457.937	83.69
458.157	81.69
458.377	94.69
458.598	96.69
458.818	123.69
459.038	144.69
459.258	107.69
459.478	76.69
459.698	87.69
459.918	83.69
460.138	95.69
460.358	80.69
460.578	83.69
460.798	86.69
461.018	99.69
461.238	89.69
461.458	81.69
461.678	81.69
461.898	90.69
462.118	97.69
462.338	93.69
462.558	94.69
462.777	97.69
462.997	79.69
463.217	90.69
463.437	95.69
463.657	90.69
463.876	90.69
464.096	87.69
464.316	93.69
464.536	100.69
464.755	90.69
464.975	94.69
465.195	151.69
465.414	146.69
465.634	81.69
465.854	81.69
466.073	79.69
466.293	94.69
466.512	102.69
466.732	88.69
466.951	83.69
467.171	77.69
467.391	100.69
467.61	114.69
467.829	96.69
468.049	98.69
468.268	92.69
468.488	90.69
468.707	79.69
468.927	86.69
469.146	78.69
469.365	95.69
469.585	96.69
469.804	85.69
470.023	91.69
470.243	97.69
470.462	87.69
470.681	111.69
470.901	93.69
471.12	75.69
471.339	80.69
471.558	74.69
471.777	84.69
471.997	98.69
472.216	95.69
472.435	91.69
472.654	93.69
472.873	97.69
473.092	93.69
473.311	83.69
473.53	85.69
473.749	88.69
473.968	106.69
474.187	81.69
474.406	81.69
474.625	90.69
474.844	99.69
475.063	90.69
475.282	94.69
475.501	84.69
475.72	91.69
475.939	104.69
476.158	83.69
476.377	94.69
476.596	86.69
476.814	96.69
477.033	75.69
477.252	93.69
477.471	90.69
477.69	86.69
477.908	94.69
478.127	81.69
478.346	80.69
478.564	93.69
478.783	92.69
479.002	92.69
479.22	99.69
479.439	100.69
479.658	97.69
479.876	101.69
480.095	95.69
480.313	74.69
480.532	87.69
480.751	76.69
480.969	115.69
481.188	96.69
481.406	104.69
481.624	95.69
481.843	87.69
482.061	86.69
482.28	83.69
482.498	86.69
482.717	78.69
482.935	89.69
483.153	90.69
483.372	95.69
483.59	93.69
483.808	82.69
484.027	106.69
484.245	96.69
484.463	92.69
484.681	87.69
484.9	82.69
485.118	98.69
485.336	106.69
485.554	90.69
485.772	94.69
485.99	103.69
486.209	106.69
486.427	90.69
486.645	103.69
486.863	102.69
487.081	100.69
487.299	101.69
487.517	101.69
487.735	83.69
487.953	84.69
488.171	92.69
488.389	90.69
488.607	84.69
488.825	97.69
489.043	96.69
489.261	86.69
489.479	84.69
489.696	98.69
489.914	99.69
490.132	95.69
490.35	100.69
490.568	96.69
490.786	91.69
491.003	84.69
491.221	88.69
491.439	81.69
491.657	85.69
491.874	83.69
492.092	88.69
492.31	89.69
492.527	94.69
492.745	110.69
492.963	81.69
493.18	74.69
493.398	90.69
493.615	81.69
493.833	89.69
494.05	82.69
494.268	81.69
494.485	89.69
494.703	88.69
494.92	78.69
495.138	87.69
495.355	98.69
495.573	90.69
495.79	88.69
496.008	107.69
496.225	85.69
496.442	80.69
496.66	82.69
496.877	91.69
497.094	108.69
497.312	86.69
497.529	96.69
497.746	91.69
497.963	86.69
498.181	98.69
498.398	106.69
498.615	105.69
498.832	101.69
499.049	89.69
499.267	86.69
499.484	93.69
499.701	98.69
499.918	75.69
500.135	97.69
500.352	86.69
500.569	87.69
500.786	114.69
501.003	83.69
501.22	94.69
501.437	95.69
501.654	96.69
501.871	109.69
502.088	94.69
502.305	97.69
502.522	102.69
502.739	94.69
502.956	84.69
503.172	103.69
503.389	89.69
503.606	93.69
503.823	97.69
504.04	98.69
504.256	94.69
504.473	89.69
504.69	86.69
504.907	97.69
505.123	90.69
505.34	83.69
505.557	83.69
505.773	92.69
505.99	90.69
506.207	99.69
506.423	92.69
506.64	91.69
506.856	99.69
507.073	91.69
507.289	83.69
507.506	106.69
507.722	95.69
507.939	116.69
508.155	92.69
508.372	86.69
508.588	100.69
508.805	84.69
509.021	93.69
509.238	93.69
509.454	87.69
509.67	95.69
509.887	107.69
510.103	113.69
510.319	180.69
510.536	653.69
510.752	1979.69
510.968	554.69
511.184	158.69
511.401	115.69
511.617	93.69
511.833	99.69
512.049	91.69
512.265	77.69
512.481	103.69
512.698	82.69
512.914	93.69
513.13	94.69
513.346	93.69
513.562	97.69
513.778	89.69
513.994	91.69
514.21	92.69
514.426	107.69
514.642	121.69
514.858	128.69
515.074	142.69
515.29	391.69
515.506	1206.69
515.721	474.69
515.937	137.69
516.153	89.69
