Data from Uncirc_1997_H10_HRD10591_00055.txt Node
Date: Wed Jan 03 11:28:41 EST 2024
User: Yrep
Spectrometer: HR+D1059
Trigger mode: 1
Integration Time (sec): 1.000000E-1
Scans to average: 1
Electric dark correction enabled: true
Nonlinearity correction enabled: false
Boxcar width: 0
XAxis mode: Wavelengths
Number of Pixels in Spectrum: 2048
>>>>>Begin Spectral Data<<<<<
223.165	-13.25
223.4	-13.25
223.635	-13.25
223.869	10.75
224.104	-16.25
224.338	-12.25
224.573	-19.25
224.808	-21.25
225.042	-17.25
225.277	-3.25
225.511	2.75
225.746	-3.25
225.98	-11.25
226.215	14.75
226.449	21.75
226.683	1.75
226.918	14.75
227.152	50.75
227.387	47.75
227.621	43.75
227.856	43.75
228.09	51.75
228.324	42.75
228.559	59.75
228.793	61.75
229.027	66.75
229.262	66.75
229.496	61.75
229.73	71.75
229.964	79.75
230.199	75.75
230.433	72.75
230.667	77.75
230.901	83.75
231.136	74.75
231.37	77.75
231.604	72.75
231.838	93.75
232.072	89.75
232.306	80.75
232.541	91.75
232.775	86.75
233.009	88.75
233.243	78.75
233.477	87.75
233.711	73.75
233.945	73.75
234.179	101.75
234.413	80.75
234.647	78.75
234.881	85.75
235.115	69.75
235.349	84.75
235.583	87.75
235.817	85.75
236.051	75.75
236.285	71.75
236.519	83.75
236.753	59.75
236.987	81.75
237.221	88.75
237.455	73.75
237.689	77.75
237.922	72.75
238.156	67.75
238.39	79.75
238.624	89.75
238.858	79.75
239.091	83.75
239.325	82.75
239.559	75.75
239.793	80.75
240.027	97.75
240.26	87.75
240.494	98.75
240.728	73.75
240.961	91.75
241.195	92.75
241.429	77.75
241.662	67.75
241.896	77.75
242.13	84.75
242.363	80.75
242.597	91.75
242.83	87.75
243.064	71.75
243.298	63.75
243.531	73.75
243.765	78.75
243.998	87.75
244.232	84.75
244.465	71.75
244.699	87.75
244.932	83.75
245.166	87.75
245.399	80.75
245.633	101.75
245.866	63.75
246.099	83.75
246.333	82.75
246.566	78.75
246.8	77.75
247.033	77.75
247.266	83.75
247.5	77.75
247.733	83.75
247.966	82.75
248.2	72.75
248.433	90.75
248.666	69.75
248.899	83.75
249.133	83.75
249.366	85.75
249.599	100.75
249.832	75.75
250.066	99.75
250.299	97.75
250.532	79.75
250.765	81.75
250.998	90.75
251.231	73.75
251.465	76.75
251.698	59.75
251.931	84.75
252.164	90.75
252.397	80.75
252.63	76.75
252.863	80.75
253.096	67.75
253.329	91.75
253.562	85.75
253.795	81.75
254.028	86.75
254.261	94.75
254.494	85.75
254.727	89.75
254.96	81.75
255.193	68.75
255.426	88.75
255.659	83.75
255.892	80.75
256.124	73.75
256.357	94.75
256.59	74.75
256.823	78.75
257.056	90.75
257.289	81.75
257.521	99.75
257.754	81.75
257.987	68.75
258.22	84.75
258.452	75.75
258.685	83.75
258.918	87.75
259.151	94.75
259.383	78.75
259.616	72.75
259.849	88.75
260.081	82.75
260.314	68.75
260.547	86.75
260.779	86.75
261.012	93.75
261.244	75.75
261.477	90.75
261.71	92.75
261.942	95.75
262.175	113.75
262.407	92.75
262.64	87.75
262.872	84.75
263.105	84.75
263.337	82.75
263.57	88.75
263.802	79.75
264.035	81.75
264.267	79.75
264.499	76.75
264.732	81.75
264.964	89.75
265.197	84.75
265.429	95.75
265.661	82.75
265.894	81.75
266.126	81.75
266.358	85.75
266.591	89.75
266.823	86.75
267.055	80.75
267.287	81.75
267.52	78.75
267.752	87.75
267.984	80.75
268.216	81.75
268.448	79.75
268.681	81.75
268.913	72.75
269.145	75.75
269.377	84.75
269.609	85.75
269.841	94.75
270.073	86.75
270.306	85.75
270.538	82.75
270.77	75.75
271.002	88.75
271.234	79.75
271.466	87.75
271.698	98.75
271.93	97.75
272.162	96.75
272.394	106.75
272.626	80.75
272.858	87.75
273.09	98.75
273.322	89.75
273.553	75.75
273.785	87.75
274.017	85.75
274.249	80.75
274.481	90.75
274.713	87.75
274.945	98.75
275.176	93.75
275.408	86.75
275.64	92.75
275.872	94.75
276.104	94.75
276.335	87.75
276.567	91.75
276.799	96.75
277.031	89.75
277.262	87.75
277.494	87.75
277.726	84.75
277.957	88.75
278.189	95.75
278.421	98.75
278.652	85.75
278.884	82.75
279.115	80.75
279.347	91.75
279.579	92.75
279.81	92.75
280.042	83.75
280.273	91.75
280.505	81.75
280.736	82.75
280.968	88.75
281.199	82.75
281.431	79.75
281.662	84.75
281.894	93.75
282.125	95.75
282.356	114.75
282.588	127.75
282.819	108.75
283.051	112.75
283.282	89.75
283.513	96.75
283.745	70.75
283.976	99.75
284.207	100.75
284.439	92.75
284.67	83.75
284.901	85.75
285.132	93.75
285.364	88.75
285.595	87.75
285.826	83.75
286.057	96.75
286.288	92.75
286.52	80.75
286.751	81.75
286.982	97.75
287.213	88.75
287.444	81.75
287.675	88.75
287.906	98.75
288.138	85.75
288.369	98.75
288.6	90.75
288.831	90.75
289.062	85.75
289.293	89.75
289.524	85.75
289.755	96.75
289.986	85.75
290.217	81.75
290.448	77.75
290.679	88.75
290.91	85.75
291.141	92.75
291.371	81.75
291.602	89.75
291.833	93.75
292.064	97.75
292.295	84.75
292.526	103.75
292.757	88.75
292.987	100.75
293.218	87.75
293.449	93.75
293.68	91.75
293.91	82.75
294.141	104.75
294.372	95.75
294.603	77.75
294.833	83.75
295.064	94.75
295.295	87.75
295.525	96.75
295.756	95.75
295.987	107.75
296.217	125.75
296.448	117.75
296.679	100.75
296.909	100.75
297.14	83.75
297.37	86.75
297.601	85.75
297.831	97.75
298.062	83.75
298.292	77.75
298.523	71.75
298.753	87.75
298.984	90.75
299.214	97.75
299.445	95.75
299.675	103.75
299.905	103.75
300.136	90.75
300.366	98.75
300.597	93.75
300.827	104.75
301.057	98.75
301.288	97.75
301.518	80.75
301.748	88.75
301.979	104.75
302.209	89.75
302.439	103.75
302.669	97.75
302.9	90.75
303.13	100.75
303.36	109.75
303.59	104.75
303.82	104.75
304.051	105.75
304.281	94.75
304.511	98.75
304.741	77.75
304.971	96.75
305.201	94.75
305.431	95.75
305.661	90.75
305.891	101.75
306.121	94.75
306.352	100.75
306.582	107.75
306.812	96.75
307.042	101.75
307.272	81.75
307.502	93.75
307.731	87.75
307.961	92.75
308.191	101.75
308.421	91.75
308.651	96.75
308.881	95.75
309.111	89.75
309.341	90.75
309.571	93.75
309.8	96.75
310.03	100.75
310.26	95.75
310.49	98.75
310.72	95.75
310.949	88.75
311.179	114.75
311.409	103.75
311.639	116.75
311.868	104.75
312.098	88.75
312.328	93.75
312.557	92.75
312.787	97.75
313.017	95.75
313.246	102.75
313.476	101.75
313.706	82.75
313.935	94.75
314.165	94.75
314.394	83.75
314.624	98.75
314.853	115.75
315.083	94.75
315.312	99.75
315.542	89.75
315.771	91.75
316.001	107.75
316.23	83.75
316.46	89.75
316.689	98.75
316.919	95.75
317.148	86.75
317.377	78.75
317.607	91.75
317.836	87.75
318.065	100.75
318.295	95.75
318.524	96.75
318.753	90.75
318.983	105.75
319.212	99.75
319.441	99.75
319.67	105.75
319.9	92.75
320.129	95.75
320.358	93.75
320.587	84.75
320.816	99.75
321.046	105.75
321.275	101.75
321.504	100.75
321.733	89.75
321.962	79.75
322.191	112.75
322.42	104.75
322.649	97.75
322.878	105.75
323.108	115.75
323.337	105.75
323.566	125.75
323.795	166.75
324.024	207.75
324.253	333.75
324.482	701.75
324.71	1403.75
324.939	1867.75
325.168	690.75
325.397	219.75
325.626	129.75
325.855	101.75
326.084	113.75
326.313	122.75
326.542	143.75
326.77	215.75
326.999	389.75
327.228	801.75
327.457	1469.75
327.686	1114.75
327.914	325.75
328.143	177.75
328.372	138.75
328.6	131.75
328.829	117.75
329.058	117.75
329.287	127.75
329.515	101.75
329.744	98.75
329.972	99.75
330.201	94.75
330.43	111.75
330.658	123.75
330.887	139.75
331.115	127.75
331.344	85.75
331.572	97.75
331.801	102.75
332.03	83.75
332.258	97.75
332.486	94.75
332.715	91.75
332.943	97.75
333.172	101.75
333.4	98.75
333.629	102.75
333.857	95.75
334.085	105.75
334.314	95.75
334.542	108.75
334.771	106.75
334.999	109.75
335.227	87.75
335.455	92.75
335.684	115.75
335.912	90.75
336.14	105.75
336.369	99.75
336.597	81.75
336.825	105.75
337.053	92.75
337.281	92.75
337.51	108.75
337.738	98.75
337.966	79.75
338.194	88.75
338.422	95.75
338.65	95.75
338.878	90.75
339.106	87.75
339.334	95.75
339.562	79.75
339.79	92.75
340.018	87.75
340.246	102.75
340.474	101.75
340.702	92.75
340.93	79.75
341.158	100.75
341.386	102.75
341.614	92.75
341.842	99.75
342.07	95.75
342.298	96.75
342.526	94.75
342.754	107.75
342.981	101.75
343.209	92.75
343.437	106.75
343.665	105.75
343.893	96.75
344.12	100.75
344.348	95.75
344.576	89.75
344.804	91.75
345.031	103.75
345.259	88.75
345.487	95.75
345.714	89.75
345.942	102.75
346.17	100.75
346.397	107.75
346.625	98.75
346.853	101.75
347.08	108.75
347.308	107.75
347.535	90.75
347.763	108.75
347.99	96.75
348.218	114.75
348.445	99.75
348.673	103.75
348.9	90.75
349.128	93.75
349.355	81.75
349.583	84.75
349.81	95.75
350.037	83.75
350.265	74.75
350.492	93.75
350.72	98.75
350.947	107.75
351.174	109.75
351.402	104.75
351.629	115.75
351.856	83.75
352.083	98.75
352.311	97.75
352.538	109.75
352.765	115.75
352.992	112.75
353.22	101.75
353.447	105.75
353.674	89.75
353.901	98.75
354.128	91.75
354.355	97.75
354.583	100.75
354.81	90.75
355.037	92.75
355.264	97.75
355.491	100.75
355.718	99.75
355.945	101.75
356.172	100.75
356.399	116.75
356.626	86.75
356.853	81.75
357.08	91.75
357.307	88.75
357.534	90.75
357.761	87.75
357.988	86.75
358.215	83.75
358.441	103.75
358.668	101.75
358.895	95.75
359.122	90.75
359.349	98.75
359.576	88.75
359.802	95.75
360.029	121.75
360.256	94.75
360.483	87.75
360.709	100.75
360.936	86.75
361.163	94.75
361.39	81.75
361.616	91.75
361.843	106.75
362.07	89.75
362.296	93.75
362.523	87.75
362.749	86.75
362.976	91.75
363.203	98.75
363.429	89.75
363.656	84.75
363.882	76.75
364.109	101.75
364.335	90.75
364.562	100.75
364.788	80.75
365.015	87.75
365.241	101.75
365.468	108.75
365.694	102.75
365.92	82.75
366.147	96.75
366.373	72.75
366.599	93.75
366.826	89.75
367.052	79.75
367.278	88.75
367.505	87.75
367.731	95.75
367.957	89.75
368.184	85.75
368.41	90.75
368.636	104.75
368.862	121.75
369.089	98.75
369.315	96.75
369.541	86.75
369.767	102.75
369.993	101.75
370.219	84.75
370.445	84.75
370.672	95.75
370.898	92.75
371.124	89.75
371.35	87.75
371.576	101.75
371.802	90.75
372.028	90.75
372.254	100.75
372.48	93.75
372.706	81.75
372.932	95.75
373.158	92.75
373.384	96.75
373.61	75.75
373.835	83.75
374.061	88.75
374.287	87.75
374.513	85.75
374.739	92.75
374.965	100.75
375.191	88.75
375.416	71.75
375.642	75.75
375.868	93.75
376.094	104.75
376.319	111.75
376.545	86.75
376.771	85.75
376.997	85.75
377.222	84.75
377.448	65.75
377.674	109.75
377.899	91.75
378.125	83.75
378.35	81.75
378.576	99.75
378.802	102.75
379.027	98.75
379.253	83.75
379.478	83.75
379.704	94.75
379.929	99.75
380.155	96.75
380.38	95.75
380.606	91.75
380.831	97.75
381.057	100.75
381.282	99.75
381.507	95.75
381.733	83.75
381.958	98.75
382.184	98.75
382.409	94.75
382.634	97.75
382.86	104.75
383.085	111.75
383.31	105.75
383.535	121.75
383.761	108.75
383.986	99.75
384.211	111.75
384.436	93.75
384.662	89.75
384.887	105.75
385.112	83.75
385.337	89.75
385.562	84.75
385.787	99.75
386.013	105.75
386.238	120.75
386.463	104.75
386.688	110.75
386.913	80.75
387.138	108.75
387.363	112.75
387.588	95.75
387.813	87.75
388.038	96.75
388.263	108.75
388.488	103.75
388.713	98.75
388.938	95.75
389.163	92.75
389.387	97.75
389.612	92.75
389.837	88.75
390.062	98.75
390.287	99.75
390.512	99.75
390.736	101.75
390.961	84.75
391.186	96.75
391.411	85.75
391.636	84.75
391.86	90.75
392.085	72.75
392.31	88.75
392.534	84.75
392.759	76.75
392.984	91.75
393.208	82.75
393.433	87.75
393.658	73.75
393.882	89.75
394.107	92.75
394.331	88.75
394.556	73.75
394.78	91.75
395.005	108.75
395.229	92.75
395.454	87.75
395.678	86.75
395.903	93.75
396.127	94.75
396.352	95.75
396.576	88.75
396.801	91.75
397.025	101.75
397.249	85.75
397.474	101.75
397.698	82.75
397.922	93.75
398.147	77.75
398.371	80.75
398.595	86.75
398.82	87.75
399.044	78.75
399.268	88.75
399.492	87.75
399.717	99.75
399.941	92.75
400.165	87.75
400.389	71.75
400.613	84.75
400.837	97.75
401.062	100.75
401.286	83.75
401.51	87.75
401.734	88.75
401.958	97.75
402.182	110.75
402.406	126.75
402.63	127.75
402.854	80.75
403.078	80.75
403.302	84.75
403.526	89.75
403.75	87.75
403.974	85.75
404.198	99.75
404.422	113.75
404.645	107.75
404.869	92.75
405.093	95.75
405.317	112.75
405.541	94.75
405.765	91.75
405.988	116.75
406.212	154.75
406.436	203.75
406.66	142.75
406.883	73.75
407.107	92.75
407.331	96.75
407.555	99.75
407.778	103.75
408.002	96.75
408.226	82.75
408.449	87.75
408.673	95.75
408.896	109.75
409.12	92.75
409.344	90.75
409.567	83.75
409.791	88.75
410.014	98.75
410.238	100.75
410.461	84.75
410.685	97.75
410.908	101.75
411.132	105.75
411.355	97.75
411.578	98.75
411.802	96.75
412.025	95.75
412.249	89.75
412.472	86.75
412.695	80.75
412.919	83.75
413.142	86.75
413.365	89.75
413.589	96.75
413.812	86.75
414.035	91.75
414.258	82.75
414.482	86.75
414.705	80.75
414.928	90.75
415.151	91.75
415.374	101.75
415.597	93.75
415.821	87.75
416.044	92.75
416.267	98.75
416.49	96.75
416.713	91.75
416.936	94.75
417.159	91.75
417.382	95.75
417.605	90.75
417.828	101.75
418.051	101.75
418.274	79.75
418.497	79.75
418.72	75.75
418.943	93.75
419.166	109.75
419.389	82.75
419.611	82.75
419.834	92.75
420.057	77.75
420.28	80.75
420.503	81.75
420.726	92.75
420.948	83.75
421.171	93.75
421.394	100.75
421.617	101.75
421.839	92.75
422.062	84.75
422.285	101.75
422.507	92.75
422.73	97.75
422.953	99.75
423.175	99.75
423.398	92.75
423.621	84.75
423.843	87.75
424.066	81.75
424.288	88.75
424.511	84.75
424.733	83.75
424.956	93.75
425.178	102.75
425.401	88.75
425.623	100.75
425.846	88.75
426.068	89.75
426.291	90.75
426.513	100.75
426.735	100.75
426.958	100.75
427.18	83.75
427.402	130.75
427.625	159.75
427.847	124.75
428.069	110.75
428.292	103.75
428.514	86.75
428.736	97.75
428.958	88.75
429.181	95.75
429.403	84.75
429.625	82.75
429.847	98.75
430.069	92.75
430.292	96.75
430.514	90.75
430.736	88.75
430.958	93.75
431.18	81.75
431.402	87.75
431.624	79.75
431.846	93.75
432.068	82.75
432.29	81.75
432.512	87.75
432.734	85.75
432.956	108.75
433.178	115.75
433.4	98.75
433.622	92.75
433.844	92.75
434.066	73.75
434.287	102.75
434.509	90.75
434.731	97.75
434.953	81.75
435.175	91.75
435.397	90.75
435.618	85.75
435.84	107.75
436.062	118.75
436.284	101.75
436.505	101.75
436.727	99.75
436.949	91.75
437.17	79.75
437.392	84.75
437.614	91.75
437.835	100.75
438.057	110.75
438.278	90.75
438.5	97.75
438.721	108.75
438.943	98.75
439.165	88.75
439.386	83.75
439.608	96.75
439.829	85.75
440.05	114.75
440.272	136.75
440.493	113.75
440.715	92.75
440.936	92.75
441.158	90.75
441.379	90.75
441.6	102.75
441.822	97.75
442.043	93.75
442.264	105.75
442.486	96.75
442.707	92.75
442.928	99.75
443.149	132.75
443.371	115.75
443.592	95.75
443.813	102.75
444.034	91.75
444.255	93.75
444.476	92.75
444.698	97.75
444.919	87.75
445.14	132.75
445.361	123.75
445.582	100.75
445.803	116.75
446.024	111.75
446.245	111.75
446.466	100.75
446.687	94.75
446.908	79.75
447.129	93.75
447.35	91.75
447.571	79.75
447.792	92.75
448.013	84.75
448.234	104.75
448.455	90.75
448.675	122.75
448.896	107.75
449.117	89.75
449.338	110.75
449.559	120.75
449.779	111.75
450	84.75
450.221	98.75
450.442	89.75
450.662	111.75
450.883	93.75
451.104	82.75
451.324	102.75
451.545	94.75
451.766	89.75
451.986	93.75
452.207	96.75
452.428	88.75
452.648	98.75
452.869	94.75
453.089	105.75
453.31	108.75
453.53	101.75
453.751	82.75
453.971	115.75
454.192	103.75
454.412	86.75
454.633	90.75
454.853	82.75
455.073	75.75
455.294	101.75
455.514	110.75
455.734	95.75
455.955	93.75
456.175	83.75
456.395	88.75
456.616	80.75
456.836	92.75
457.056	93.75
457.276	87.75
457.497	72.75
457.717	78.75
457.937	89.75
458.157	83.75
458.377	86.75
458.598	101.75
458.818	136.75
459.038	145.75
459.258	123.75
459.478	101.75
459.698	110.75
459.918	94.75
460.138	87.75
460.358	95.75
460.578	85.75
460.798	89.75
461.018	83.75
461.238	90.75
461.458	79.75
461.678	91.75
461.898	88.75
462.118	105.75
462.338	89.75
462.558	80.75
462.777	74.75
462.997	92.75
463.217	80.75
463.437	87.75
463.657	80.75
463.876	88.75
464.096	82.75
464.316	88.75
464.536	92.75
464.755	89.75
464.975	80.75
465.195	157.75
465.414	151.75
465.634	96.75
465.854	84.75
466.073	99.75
466.293	82.75
466.512	88.75
466.732	73.75
466.951	73.75
467.171	101.75
467.391	96.75
467.61	99.75
467.829	80.75
468.049	94.75
468.268	85.75
468.488	101.75
468.707	80.75
468.927	85.75
469.146	94.75
469.365	80.75
469.585	89.75
469.804	95.75
470.023	95.75
470.243	100.75
470.462	89.75
470.681	105.75
470.901	107.75
471.12	79.75
471.339	82.75
471.558	100.75
471.777	100.75
471.997	99.75
472.216	99.75
472.435	92.75
472.654	91.75
472.873	91.75
473.092	81.75
473.311	89.75
473.53	90.75
473.749	102.75
473.968	89.75
474.187	116.75
474.406	90.75
474.625	82.75
474.844	69.75
475.063	79.75
475.282	89.75
475.501	87.75
475.72	100.75
475.939	83.75
476.158	89.75
476.377	85.75
476.596	89.75
476.814	91.75
477.033	99.75
477.252	83.75
477.471	96.75
477.69	76.75
477.908	96.75
478.127	90.75
478.346	84.75
478.564	86.75
478.783	87.75
479.002	100.75
479.22	74.75
479.439	92.75
479.658	85.75
479.876	99.75
480.095	86.75
480.313	86.75
480.532	100.75
480.751	91.75
480.969	97.75
481.188	124.75
481.406	89.75
481.624	85.75
481.843	85.75
482.061	93.75
482.28	95.75
482.498	81.75
482.717	102.75
482.935	94.75
483.153	95.75
483.372	85.75
483.59	82.75
483.808	85.75
484.027	99.75
484.245	97.75
484.463	103.75
484.681	101.75
484.9	94.75
485.118	89.75
485.336	92.75
485.554	104.75
485.772	91.75
485.99	102.75
486.209	104.75
486.427	95.75
486.645	112.75
486.863	112.75
487.081	100.75
487.299	101.75
487.517	98.75
487.735	99.75
487.953	89.75
488.171	79.75
488.389	78.75
488.607	95.75
488.825	87.75
489.043	85.75
489.261	87.75
489.479	85.75
489.696	89.75
489.914	82.75
490.132	81.75
490.35	88.75
490.568	84.75
490.786	80.75
491.003	83.75
491.221	94.75
491.439	101.75
491.657	77.75
491.874	99.75
492.092	89.75
492.31	92.75
492.527	94.75
492.745	98.75
492.963	97.75
493.18	90.75
493.398	93.75
493.615	107.75
493.833	99.75
494.05	89.75
494.268	81.75
494.485	75.75
494.703	82.75
494.92	90.75
495.138	95.75
495.355	102.75
495.573	94.75
495.79	92.75
496.008	96.75
496.225	82.75
496.442	90.75
496.66	74.75
496.877	82.75
497.094	97.75
497.312	85.75
497.529	87.75
497.746	81.75
497.963	83.75
498.181	89.75
498.398	83.75
498.615	107.75
498.832	99.75
499.049	96.75
499.267	99.75
499.484	80.75
499.701	92.75
499.918	83.75
500.135	91.75
500.352	95.75
500.569	94.75
500.786	87.75
501.003	88.75
501.22	90.75
501.437	85.75
501.654	86.75
501.871	122.75
502.088	111.75
502.305	91.75
502.522	81.75
502.739	85.75
502.956	88.75
503.172	98.75
503.389	103.75
503.606	94.75
503.823	81.75
504.04	93.75
504.256	95.75
504.473	92.75
504.69	93.75
504.907	89.75
505.123	87.75
505.34	99.75
505.557	94.75
505.773	90.75
505.99	107.75
506.207	79.75
506.423	83.75
506.64	104.75
506.856	84.75
507.073	80.75
507.289	80.75
507.506	86.75
507.722	102.75
507.939	96.75
508.155	95.75
508.372	91.75
508.588	104.75
508.805	91.75
509.021	87.75
509.238	85.75
509.454	104.75
509.67	94.75
509.887	121.75
510.103	130.75
510.319	209.75
510.536	631.75
510.752	1953.75
510.968	561.75
511.184	160.75
511.401	110.75
511.617	110.75
511.833	89.75
512.049	88.75
512.265	96.75
512.481	89.75
512.698	98.75
512.914	94.75
513.13	111.75
513.346	101.75
513.562	89.75
513.778	98.75
513.994	97.75
514.21	95.75
514.426	111.75
514.642	123.75
514.858	117.75
515.074	147.75
515.29	368.75
515.506	1245.75
515.721	456.75
