Data from Uncirc_1997_H10_HRD10591_00070.txt Node
Date: Wed Jan 03 11:28:44 EST 2024
User: Yrep
Spectrometer: HR+D1059
Trigger mode: 1
Integration Time (sec): 1.000000E-1
Scans to average: 1
Electric dark correction enabled: true
Nonlinearity correction enabled: false
Boxcar width: 0
XAxis mode: Wavelengths
Number of Pixels in Spectrum: 2048
>>>>>Begin Spectral Data<<<<<
223.165	-8.31
223.4	-8.31
223.635	-8.31
223.869	-26.31
224.104	-10.31
224.338	-16.31
224.573	-9.31
224.808	-7.31
225.042	-15.31
225.277	-8.31
225.511	-1.31
225.746	6.69
225.98	8.69
226.215	8.69
226.449	16.69
226.683	15.69
226.918	16.69
227.152	29.69
227.387	37.69
227.621	56.69
227.856	51.69
228.09	55.69
228.324	44.69
228.559	54.69
228.793	56.69
229.027	54.69
229.262	69.69
229.496	62.69
229.73	76.69
229.964	76.69
230.199	77.69
230.433	73.69
230.667	77.69
230.901	77.69
231.136	70.69
231.37	91.69
231.604	76.69
231.838	72.69
232.072	94.69
232.306	73.69
232.541	72.69
232.775	67.69
233.009	86.69
233.243	88.69
233.477	102.69
233.711	84.69
233.945	80.69
234.179	80.69
234.413	76.69
234.647	79.69
234.881	67.69
235.115	68.69
235.349	73.69
235.583	88.69
235.817	64.69
236.051	71.69
236.285	77.69
236.519	88.69
236.753	73.69
236.987	79.69
237.221	83.69
237.455	90.69
237.689	85.69
237.922	77.69
238.156	76.69
238.39	63.69
238.624	78.69
238.858	82.69
239.091	75.69
239.325	72.69
239.559	81.69
239.793	72.69
240.027	86.69
240.26	88.69
240.494	77.69
240.728	70.69
240.961	80.69
241.195	85.69
241.429	80.69
241.662	62.69
241.896	60.69
242.13	68.69
242.363	78.69
242.597	64.69
242.83	77.69
243.064	77.69
243.298	65.69
243.531	74.69
243.765	77.69
243.998	76.69
244.232	74.69
244.465	84.69
244.699	85.69
244.932	67.69
245.166	56.69
245.399	82.69
245.633	79.69
245.866	85.69
246.099	87.69
246.333	75.69
246.566	64.69
246.8	85.69
247.033	68.69
247.266	76.69
247.5	64.69
247.733	92.69
247.966	71.69
248.2	87.69
248.433	76.69
248.666	85.69
248.899	78.69
249.133	86.69
249.366	88.69
249.599	103.69
249.832	89.69
250.066	76.69
250.299	81.69
250.532	83.69
250.765	82.69
250.998	83.69
251.231	93.69
251.465	71.69
251.698	80.69
251.931	83.69
252.164	69.69
252.397	69.69
252.63	75.69
252.863	87.69
253.096	76.69
253.329	74.69
253.562	76.69
253.795	86.69
254.028	82.69
254.261	75.69
254.494	88.69
254.727	68.69
254.96	81.69
255.193	88.69
255.426	90.69
255.659	69.69
255.892	77.69
256.124	86.69
256.357	91.69
256.59	80.69
256.823	80.69
257.056	86.69
257.289	82.69
257.521	80.69
257.754	84.69
257.987	78.69
258.22	65.69
258.452	76.69
258.685	74.69
258.918	82.69
259.151	80.69
259.383	88.69
259.616	77.69
259.849	78.69
260.081	87.69
260.314	68.69
260.547	80.69
260.779	65.69
261.012	76.69
261.244	80.69
261.477	78.69
261.71	91.69
261.942	87.69
262.175	98.69
262.407	82.69
262.64	88.69
262.872	78.69
263.105	68.69
263.337	81.69
263.57	74.69
263.802	72.69
264.035	65.69
264.267	90.69
264.499	95.69
264.732	85.69
264.964	81.69
265.197	83.69
265.429	80.69
265.661	70.69
265.894	77.69
266.126	83.69
266.358	80.69
266.591	76.69
266.823	92.69
267.055	92.69
267.287	85.69
267.52	72.69
267.752	78.69
267.984	94.69
268.216	90.69
268.448	77.69
268.681	96.69
268.913	83.69
269.145	75.69
269.377	88.69
269.609	80.69
269.841	82.69
270.073	82.69
270.306	82.69
270.538	81.69
270.77	80.69
271.002	73.69
271.234	76.69
271.466	70.69
271.698	76.69
271.93	74.69
272.162	76.69
272.394	79.69
272.626	89.69
272.858	95.69
273.09	84.69
273.322	83.69
273.553	68.69
273.785	73.69
274.017	74.69
274.249	76.69
274.481	71.69
274.713	74.69
274.945	75.69
275.176	86.69
275.408	79.69
275.64	74.69
275.872	81.69
276.104	86.69
276.335	92.69
276.567	95.69
276.799	105.69
277.031	95.69
277.262	95.69
277.494	89.69
277.726	85.69
277.957	79.69
278.189	77.69
278.421	73.69
278.652	87.69
278.884	84.69
279.115	79.69
279.347	79.69
279.579	81.69
279.81	81.69
280.042	105.69
280.273	87.69
280.505	74.69
280.736	82.69
280.968	90.69
281.199	85.69
281.431	82.69
281.662	78.69
281.894	82.69
282.125	84.69
282.356	117.69
282.588	133.69
282.819	100.69
283.051	88.69
283.282	91.69
283.513	93.69
283.745	81.69
283.976	88.69
284.207	83.69
284.439	85.69
284.67	91.69
284.901	78.69
285.132	109.69
285.364	84.69
285.595	65.69
285.826	86.69
286.057	104.69
286.288	92.69
286.52	78.69
286.751	72.69
286.982	75.69
287.213	93.69
287.444	88.69
287.675	79.69
287.906	91.69
288.138	94.69
288.369	81.69
288.6	77.69
288.831	87.69
289.062	80.69
289.293	89.69
289.524	89.69
289.755	85.69
289.986	95.69
290.217	84.69
290.448	92.69
290.679	76.69
290.91	89.69
291.141	95.69
291.371	92.69
291.602	73.69
291.833	83.69
292.064	85.69
292.295	89.69
292.526	91.69
292.757	96.69
292.987	84.69
293.218	84.69
293.449	87.69
293.68	86.69
293.91	84.69
294.141	90.69
294.372	80.69
294.603	78.69
294.833	87.69
295.064	80.69
295.295	86.69
295.525	92.69
295.756	99.69
295.987	108.69
296.217	125.69
296.448	96.69
296.679	90.69
296.909	77.69
297.14	82.69
297.37	81.69
297.601	89.69
297.831	84.69
298.062	89.69
298.292	102.69
298.523	95.69
298.753	97.69
298.984	69.69
299.214	81.69
299.445	102.69
299.675	89.69
299.905	90.69
300.136	75.69
300.366	80.69
300.597	63.69
300.827	90.69
301.057	92.69
301.288	105.69
301.518	94.69
301.748	86.69
301.979	95.69
302.209	79.69
302.439	89.69
302.669	96.69
302.9	96.69
303.13	103.69
303.36	93.69
303.59	96.69
303.82	103.69
304.051	82.69
304.281	97.69
304.511	84.69
304.741	100.69
304.971	88.69
305.201	87.69
305.431	88.69
305.661	90.69
305.891	90.69
306.121	98.69
306.352	99.69
306.582	96.69
306.812	93.69
307.042	95.69
307.272	92.69
307.502	99.69
307.731	86.69
307.961	85.69
308.191	94.69
308.421	79.69
308.651	100.69
308.881	92.69
309.111	81.69
309.341	77.69
309.571	91.69
309.8	88.69
310.03	80.69
310.26	90.69
310.49	87.69
310.72	100.69
310.949	88.69
311.179	102.69
311.409	92.69
311.639	94.69
311.868	95.69
312.098	69.69
312.328	92.69
312.557	97.69
312.787	95.69
313.017	80.69
313.246	90.69
313.476	96.69
313.706	85.69
313.935	90.69
314.165	90.69
314.394	80.69
314.624	93.69
314.853	99.69
315.083	81.69
315.312	83.69
315.542	85.69
315.771	97.69
316.001	94.69
316.23	99.69
316.46	91.69
316.689	77.69
316.919	90.69
317.148	104.69
317.377	97.69
317.607	93.69
317.836	77.69
318.065	89.69
318.295	86.69
318.524	91.69
318.753	91.69
318.983	96.69
319.212	97.69
319.441	106.69
319.67	95.69
319.9	98.69
320.129	84.69
320.358	94.69
320.587	90.69
320.816	102.69
321.046	95.69
321.275	90.69
321.504	101.69
321.733	97.69
321.962	98.69
322.191	96.69
322.42	82.69
322.649	100.69
322.878	108.69
323.108	104.69
323.337	121.69
323.566	120.69
323.795	140.69
324.024	172.69
324.253	350.69
324.482	772.69
324.71	1523.69
324.939	1948.69
325.168	740.69
325.397	236.69
325.626	136.69
325.855	118.69
326.084	116.69
326.313	115.69
326.542	154.69
326.77	220.69
326.999	425.69
327.228	846.69
327.457	1561.69
327.686	1222.69
327.914	342.69
328.143	182.69
328.372	135.69
328.6	116.69
328.829	121.69
329.058	114.69
329.287	121.69
329.515	98.69
329.744	113.69
329.972	98.69
330.201	92.69
330.43	95.69
330.658	99.69
330.887	115.69
331.115	108.69
331.344	103.69
331.572	92.69
331.801	82.69
332.03	92.69
332.258	103.69
332.486	85.69
332.715	93.69
332.943	94.69
333.172	74.69
333.4	92.69
333.629	104.69
333.857	94.69
334.085	102.69
334.314	107.69
334.542	104.69
334.771	92.69
334.999	100.69
335.227	98.69
335.455	86.69
335.684	95.69
335.912	104.69
336.14	93.69
336.369	88.69
336.597	89.69
336.825	95.69
337.053	94.69
337.281	94.69
337.51	90.69
337.738	87.69
337.966	81.69
338.194	105.69
338.422	104.69
338.65	84.69
338.878	85.69
339.106	93.69
339.334	94.69
339.562	80.69
339.79	78.69
340.018	78.69
340.246	86.69
340.474	95.69
340.702	93.69
340.93	93.69
341.158	76.69
341.386	97.69
341.614	93.69
341.842	107.69
342.07	75.69
342.298	95.69
342.526	88.69
342.754	98.69
342.981	95.69
343.209	88.69
343.437	95.69
343.665	89.69
343.893	83.69
344.12	81.69
344.348	79.69
344.576	89.69
344.804	85.69
345.031	71.69
345.259	106.69
345.487	87.69
345.714	87.69
345.942	90.69
346.17	95.69
346.397	95.69
346.625	93.69
346.853	107.69
347.08	87.69
347.308	102.69
347.535	96.69
347.763	94.69
347.99	99.69
348.218	102.69
348.445	103.69
348.673	88.69
348.9	82.69
349.128	86.69
349.355	80.69
349.583	98.69
349.81	92.69
350.037	96.69
350.265	101.69
350.492	84.69
350.72	110.69
350.947	98.69
351.174	114.69
351.402	105.69
351.629	97.69
351.856	94.69
352.083	95.69
352.311	109.69
352.538	95.69
352.765	114.69
352.992	110.69
353.22	107.69
353.447	104.69
353.674	95.69
353.901	95.69
354.128	95.69
354.355	73.69
354.583	104.69
354.81	86.69
355.037	96.69
355.264	105.69
355.491	92.69
355.718	96.69
355.945	84.69
356.172	96.69
356.399	98.69
356.626	97.69
356.853	79.69
357.08	88.69
357.307	82.69
357.534	82.69
357.761	103.69
357.988	90.69
358.215	82.69
358.441	83.69
358.668	88.69
358.895	95.69
359.122	105.69
359.349	92.69
359.576	72.69
359.802	87.69
360.029	110.69
360.256	104.69
360.483	93.69
360.709	89.69
360.936	95.69
361.163	97.69
361.39	103.69
361.616	79.69
361.843	87.69
362.07	93.69
362.296	108.69
362.523	88.69
362.749	90.69
362.976	91.69
363.203	90.69
363.429	89.69
363.656	89.69
363.882	88.69
364.109	95.69
364.335	85.69
364.562	98.69
364.788	100.69
365.015	97.69
365.241	97.69
365.468	102.69
365.694	91.69
365.92	87.69
366.147	98.69
366.373	77.69
366.599	82.69
366.826	81.69
367.052	79.69
367.278	85.69
367.505	88.69
367.731	91.69
367.957	80.69
368.184	85.69
368.41	89.69
368.636	106.69
368.862	107.69
369.089	100.69
369.315	96.69
369.541	79.69
369.767	77.69
369.993	86.69
370.219	82.69
370.445	78.69
370.672	84.69
370.898	78.69
371.124	85.69
371.35	85.69
371.576	90.69
371.802	80.69
372.028	85.69
372.254	86.69
372.48	84.69
372.706	86.69
372.932	90.69
373.158	80.69
373.384	81.69
373.61	87.69
373.835	80.69
374.061	82.69
374.287	76.69
374.513	74.69
374.739	90.69
374.965	98.69
375.191	84.69
375.416	85.69
375.642	80.69
375.868	100.69
376.094	101.69
376.319	89.69
376.545	79.69
376.771	85.69
376.997	105.69
377.222	89.69
377.448	91.69
377.674	77.69
377.899	81.69
378.125	89.69
378.35	87.69
378.576	82.69
378.802	84.69
379.027	92.69
379.253	102.69
379.478	85.69
379.704	74.69
379.929	88.69
380.155	92.69
380.38	94.69
380.606	89.69
380.831	85.69
381.057	98.69
381.282	91.69
381.507	78.69
381.733	100.69
381.958	85.69
382.184	84.69
382.409	87.69
382.634	102.69
382.86	101.69
383.085	97.69
383.31	100.69
383.535	77.69
383.761	100.69
383.986	71.69
384.211	85.69
384.436	95.69
384.662	96.69
384.887	94.69
385.112	86.69
385.337	86.69
385.562	96.69
385.787	79.69
386.013	102.69
386.238	105.69
386.463	95.69
386.688	88.69
386.913	87.69
387.138	88.69
387.363	75.69
387.588	90.69
387.813	109.69
388.038	110.69
388.263	96.69
388.488	109.69
388.713	90.69
388.938	99.69
389.163	90.69
389.387	96.69
389.612	83.69
389.837	85.69
390.062	96.69
390.287	76.69
390.512	81.69
390.736	91.69
390.961	81.69
391.186	88.69
391.411	96.69
391.636	102.69
391.86	87.69
392.085	77.69
392.31	88.69
392.534	81.69
392.759	83.69
392.984	93.69
393.208	91.69
393.433	81.69
393.658	89.69
393.882	85.69
394.107	86.69
394.331	87.69
394.556	95.69
394.78	84.69
395.005	97.69
395.229	85.69
395.454	94.69
395.678	98.69
395.903	70.69
396.127	84.69
396.352	72.69
396.576	85.69
396.801	82.69
397.025	76.69
397.249	78.69
397.474	82.69
397.698	88.69
397.922	88.69
398.147	87.69
398.371	95.69
398.595	73.69
398.82	82.69
399.044	79.69
399.268	76.69
399.492	68.69
399.717	88.69
399.941	80.69
400.165	81.69
400.389	96.69
400.613	97.69
400.837	93.69
401.062	92.69
401.286	74.69
401.51	87.69
401.734	94.69
401.958	101.69
402.182	119.69
402.406	155.69
402.63	103.69
402.854	78.69
403.078	76.69
403.302	85.69
403.526	82.69
403.75	100.69
403.974	97.69
404.198	85.69
404.422	90.69
404.645	90.69
404.869	80.69
405.093	97.69
405.317	95.69
405.541	91.69
405.765	90.69
405.988	122.69
406.212	165.69
406.436	188.69
406.66	110.69
406.883	87.69
407.107	93.69
407.331	83.69
407.555	96.69
407.778	111.69
408.002	97.69
408.226	89.69
408.449	83.69
408.673	90.69
408.896	92.69
409.12	105.69
409.344	92.69
409.567	84.69
409.791	89.69
410.014	95.69
410.238	93.69
410.461	86.69
410.685	98.69
410.908	93.69
411.132	102.69
411.355	95.69
411.578	103.69
411.802	83.69
412.025	82.69
412.249	94.69
412.472	89.69
412.695	87.69
412.919	77.69
413.142	86.69
413.365	79.69
413.589	68.69
413.812	73.69
414.035	82.69
414.258	102.69
414.482	93.69
414.705	92.69
414.928	72.69
415.151	87.69
415.374	82.69
415.597	87.69
415.821	90.69
416.044	83.69
416.267	73.69
416.49	93.69
416.713	102.69
416.936	88.69
417.159	80.69
417.382	90.69
417.605	96.69
417.828	114.69
418.051	95.69
418.274	91.69
418.497	97.69
418.72	87.69
418.943	85.69
419.166	98.69
419.389	102.69
419.611	81.69
419.834	91.69
420.057	104.69
420.28	75.69
420.503	91.69
420.726	93.69
420.948	77.69
421.171	91.69
421.394	91.69
421.617	96.69
421.839	82.69
422.062	81.69
422.285	97.69
422.507	91.69
422.73	92.69
422.953	87.69
423.175	96.69
423.398	92.69
423.621	91.69
423.843	87.69
424.066	93.69
424.288	81.69
424.511	78.69
424.733	83.69
424.956	93.69
425.178	87.69
425.401	99.69
425.623	86.69
425.846	88.69
426.068	93.69
426.291	77.69
426.513	89.69
426.735	102.69
426.958	98.69
427.18	93.69
427.402	134.69
427.625	148.69
427.847	113.69
428.069	100.69
428.292	92.69
428.514	79.69
428.736	100.69
428.958	68.69
429.181	86.69
429.403	93.69
429.625	95.69
429.847	96.69
430.069	108.69
430.292	86.69
430.514	68.69
430.736	93.69
430.958	91.69
431.18	77.69
431.402	80.69
431.624	91.69
431.846	102.69
432.068	92.69
432.29	93.69
432.512	91.69
432.734	86.69
432.956	94.69
433.178	97.69
433.4	97.69
433.622	86.69
433.844	86.69
434.066	87.69
434.287	85.69
434.509	96.69
434.731	79.69
434.953	80.69
435.175	83.69
435.397	77.69
435.618	102.69
435.84	104.69
436.062	113.69
436.284	112.69
436.505	100.69
436.727	106.69
436.949	94.69
437.17	99.69
437.392	89.69
437.614	91.69
437.835	98.69
438.057	121.69
438.278	108.69
438.5	104.69
438.721	113.69
438.943	84.69
439.165	98.69
439.386	84.69
439.608	96.69
439.829	93.69
440.05	111.69
440.272	118.69
440.493	87.69
440.715	87.69
440.936	83.69
441.158	82.69
441.379	97.69
441.6	94.69
441.822	92.69
442.043	87.69
442.264	104.69
442.486	96.69
442.707	97.69
442.928	95.69
443.149	104.69
443.371	110.69
443.592	93.69
443.813	109.69
444.034	87.69
444.255	103.69
444.476	91.69
444.698	96.69
444.919	89.69
445.14	112.69
445.361	105.69
445.582	110.69
445.803	125.69
446.024	109.69
446.245	111.69
446.466	109.69
446.687	91.69
446.908	88.69
447.129	88.69
447.35	84.69
447.571	80.69
447.792	91.69
448.013	96.69
448.234	103.69
448.455	105.69
448.675	94.69
448.896	104.69
449.117	90.69
449.338	103.69
449.559	124.69
449.779	124.69
450	96.69
450.221	82.69
450.442	85.69
450.662	86.69
450.883	111.69
451.104	101.69
451.324	81.69
451.545	88.69
451.766	86.69
451.986	85.69
452.207	82.69
452.428	84.69
452.648	93.69
452.869	98.69
453.089	119.69
453.31	107.69
453.53	89.69
453.751	74.69
453.971	84.69
454.192	109.69
454.412	87.69
454.633	83.69
454.853	88.69
455.073	82.69
455.294	87.69
455.514	90.69
455.734	86.69
455.955	82.69
456.175	95.69
456.395	84.69
456.616	83.69
456.836	72.69
457.056	94.69
457.276	88.69
457.497	78.69
457.717	81.69
457.937	102.69
458.157	82.69
458.377	99.69
458.598	89.69
458.818	141.69
459.038	130.69
459.258	95.69
459.478	90.69
459.698	95.69
459.918	99.69
460.138	97.69
460.358	88.69
460.578	89.69
460.798	98.69
461.018	88.69
461.238	82.69
461.458	76.69
461.678	82.69
461.898	92.69
462.118	77.69
462.338	84.69
462.558	89.69
462.777	65.69
462.997	91.69
463.217	78.69
463.437	77.69
463.657	75.69
463.876	99.69
464.096	107.69
464.316	95.69
464.536	85.69
464.755	97.69
464.975	92.69
465.195	135.69
465.414	140.69
465.634	95.69
465.854	86.69
466.073	90.69
466.293	85.69
466.512	94.69
466.732	93.69
466.951	87.69
467.171	93.69
467.391	89.69
467.61	99.69
467.829	102.69
468.049	102.69
468.268	95.69
468.488	86.69
468.707	83.69
468.927	101.69
469.146	95.69
469.365	88.69
469.585	84.69
469.804	87.69
470.023	88.69
470.243	90.69
470.462	92.69
470.681	105.69
470.901	80.69
471.12	70.69
471.339	82.69
471.558	88.69
471.777	84.69
471.997	89.69
472.216	95.69
472.435	93.69
472.654	82.69
472.873	89.69
473.092	104.69
473.311	78.69
473.53	81.69
473.749	79.69
473.968	90.69
474.187	89.69
474.406	97.69
474.625	94.69
474.844	82.69
475.063	76.69
475.282	89.69
475.501	88.69
475.72	102.69
475.939	88.69
476.158	99.69
476.377	79.69
476.596	80.69
476.814	86.69
477.033	99.69
477.252	84.69
477.471	99.69
477.69	94.69
477.908	96.69
478.127	92.69
478.346	93.69
478.564	80.69
478.783	86.69
479.002	100.69
479.22	93.69
479.439	90.69
479.658	85.69
479.876	92.69
480.095	90.69
480.313	97.69
480.532	81.69
480.751	92.69
480.969	92.69
481.188	106.69
481.406	93.69
481.624	84.69
481.843	92.69
482.061	85.69
482.28	79.69
482.498	93.69
482.717	81.69
482.935	90.69
483.153	89.69
483.372	79.69
483.59	80.69
483.808	96.69
484.027	76.69
484.245	77.69
484.463	80.69
484.681	90.69
484.9	86.69
485.118	87.69
485.336	92.69
485.554	91.69
485.772	102.69
485.99	105.69
486.209	101.69
486.427	100.69
486.645	109.69
486.863	104.69
487.081	85.69
487.299	88.69
487.517	80.69
487.735	96.69
487.953	96.69
488.171	100.69
488.389	95.69
488.607	91.69
488.825	88.69
489.043	80.69
489.261	88.69
489.479	82.69
489.696	93.69
489.914	94.69
490.132	75.69
490.35	81.69
490.568	82.69
490.786	88.69
491.003	100.69
491.221	78.69
491.439	76.69
491.657	89.69
491.874	95.69
492.092	100.69
492.31	98.69
492.527	92.69
492.745	87.69
492.963	96.69
493.18	100.69
493.398	97.69
493.615	100.69
493.833	102.69
494.05	87.69
494.268	97.69
494.485	80.69
494.703	85.69
494.92	88.69
495.138	83.69
495.355	89.69
495.573	84.69
495.79	88.69
496.008	91.69
496.225	90.69
496.442	90.69
496.66	91.69
496.877	88.69
497.094	96.69
497.312	92.69
497.529	97.69
497.746	86.69
497.963	85.69
498.181	100.69
498.398	98.69
498.615	104.69
498.832	96.69
499.049	90.69
499.267	92.69
499.484	78.69
499.701	91.69
499.918	90.69
500.135	90.69
500.352	114.69
500.569	97.69
500.786	82.69
501.003	76.69
501.22	89.69
501.437	85.69
501.654	97.69
501.871	111.69
502.088	104.69
502.305	91.69
502.522	85.69
502.739	86.69
502.956	105.69
503.172	72.69
503.389	96.69
503.606	108.69
503.823	91.69
504.04	84.69
504.256	92.69
504.473	85.69
504.69	85.69
504.907	93.69
505.123	94.69
505.34	100.69
505.557	102.69
505.773	104.69
505.99	75.69
506.207	91.69
506.423	94.69
506.64	80.69
506.856	96.69
507.073	93.69
507.289	89.69
507.506	79.69
507.722	96.69
507.939	102.69
508.155	103.69
508.372	95.69
508.588	84.69
508.805	90.69
509.021	88.69
509.238	96.69
509.454	103.69
509.67	92.69
509.887	104.69
510.103	129.69
510.319	191.69
510.536	660.69
510.752	1953.69
510.968	542.69
511.184	135.69
511.401	108.69
511.617	94.69
511.833	95.69
512.049	98.69
512.265	85.69
512.481	93.69
512.698	95.69
512.914	90.69
513.13	102.69
513.346	95.69
513.562	97.69
513.778	96.69
513.994	93.69
514.21	102.69
514.426	116.69
514.642	113.69
514.858	119.69
515.074	144.69
515.29	393.69
515.506	1221.69
515.721	447.69
515.937	132.69
516.153	90.69
516.369	103.69
516.585	82.69
516.801	84.69
