Data from Uncirc_1997_H10_HRD10591_00053.txt Node
Date: Wed Jan 03 11:28:41 EST 2024
User: Yrep
Spectrometer: HR+D1059
Trigger mode: 1
Integration Time (sec): 1.000000E-1
Scans to average: 1
Electric dark correction enabled: true
Nonlinearity correction enabled: false
Boxcar width: 0
XAxis mode: Wavelengths
Number of Pixels in Spectrum: 2048
>>>>>Begin Spectral Data<<<<<
223.165	-14.75
223.4	-14.75
223.635	-14.75
223.869	-17.75
224.104	-19.75
224.338	-10.75
224.573	-19.75
224.808	-3.75
225.042	-7.75
225.277	-10.75
225.511	0.25
225.746	-8.75
225.98	8.25
226.215	19.25
226.449	16.25
226.683	16.25
226.918	30.25
227.152	23.25
227.387	25.25
227.621	45.25
227.856	36.25
228.09	43.25
228.324	43.25
228.559	52.25
228.793	51.25
229.027	65.25
229.262	64.25
229.496	75.25
229.73	72.25
229.964	76.25
230.199	81.25
230.433	67.25
230.667	92.25
230.901	75.25
231.136	75.25
231.37	64.25
231.604	73.25
231.838	67.25
232.072	88.25
232.306	68.25
232.541	75.25
232.775	76.25
233.009	88.25
233.243	85.25
233.477	79.25
233.711	85.25
233.945	103.25
234.179	93.25
234.413	81.25
234.647	75.25
234.881	83.25
235.115	80.25
235.349	64.25
235.583	61.25
235.817	77.25
236.051	82.25
236.285	95.25
236.519	75.25
236.753	74.25
236.987	70.25
237.221	87.25
237.455	89.25
237.689	75.25
237.922	78.25
238.156	78.25
238.39	89.25
238.624	83.25
238.858	72.25
239.091	70.25
239.325	77.25
239.559	83.25
239.793	83.25
240.027	73.25
240.26	89.25
240.494	80.25
240.728	63.25
240.961	75.25
241.195	81.25
241.429	79.25
241.662	90.25
241.896	81.25
242.13	64.25
242.363	68.25
242.597	93.25
242.83	85.25
243.064	76.25
243.298	92.25
243.531	80.25
243.765	85.25
243.998	57.25
244.232	89.25
244.465	90.25
244.699	88.25
244.932	63.25
245.166	82.25
245.399	75.25
245.633	79.25
245.866	65.25
246.099	81.25
246.333	81.25
246.566	80.25
246.8	75.25
247.033	88.25
247.266	81.25
247.5	94.25
247.733	87.25
247.966	92.25
248.2	75.25
248.433	85.25
248.666	85.25
248.899	71.25
249.133	83.25
249.366	105.25
249.599	98.25
249.832	71.25
250.066	101.25
250.299	82.25
250.532	76.25
250.765	81.25
250.998	79.25
251.231	76.25
251.465	82.25
251.698	83.25
251.931	73.25
252.164	86.25
252.397	73.25
252.63	70.25
252.863	86.25
253.096	76.25
253.329	85.25
253.562	85.25
253.795	75.25
254.028	89.25
254.261	87.25
254.494	81.25
254.727	84.25
254.96	80.25
255.193	84.25
255.426	97.25
255.659	78.25
255.892	86.25
256.124	73.25
256.357	105.25
256.59	80.25
256.823	80.25
257.056	95.25
257.289	84.25
257.521	64.25
257.754	80.25
257.987	85.25
258.22	78.25
258.452	90.25
258.685	85.25
258.918	90.25
259.151	88.25
259.383	82.25
259.616	92.25
259.849	84.25
260.081	86.25
260.314	78.25
260.547	94.25
260.779	88.25
261.012	81.25
261.244	79.25
261.477	96.25
261.71	89.25
261.942	109.25
262.175	105.25
262.407	87.25
262.64	77.25
262.872	116.25
263.105	85.25
263.337	65.25
263.57	101.25
263.802	67.25
264.035	88.25
264.267	74.25
264.499	95.25
264.732	91.25
264.964	73.25
265.197	80.25
265.429	82.25
265.661	88.25
265.894	86.25
266.126	83.25
266.358	71.25
266.591	70.25
266.823	87.25
267.055	83.25
267.287	90.25
267.52	84.25
267.752	79.25
267.984	81.25
268.216	81.25
268.448	83.25
268.681	79.25
268.913	95.25
269.145	99.25
269.377	84.25
269.609	92.25
269.841	69.25
270.073	78.25
270.306	92.25
270.538	91.25
270.77	91.25
271.002	94.25
271.234	98.25
271.466	78.25
271.698	76.25
271.93	85.25
272.162	92.25
272.394	97.25
272.626	85.25
272.858	93.25
273.09	85.25
273.322	82.25
273.553	83.25
273.785	85.25
274.017	96.25
274.249	75.25
274.481	78.25
274.713	81.25
274.945	89.25
275.176	82.25
275.408	96.25
275.64	98.25
275.872	85.25
276.104	91.25
276.335	98.25
276.567	96.25
276.799	92.25
277.031	91.25
277.262	89.25
277.494	94.25
277.726	84.25
277.957	84.25
278.189	81.25
278.421	74.25
278.652	85.25
278.884	82.25
279.115	75.25
279.347	94.25
279.579	95.25
279.81	91.25
280.042	85.25
280.273	69.25
280.505	86.25
280.736	85.25
280.968	74.25
281.199	93.25
281.431	93.25
281.662	93.25
281.894	83.25
282.125	101.25
282.356	109.25
282.588	121.25
282.819	100.25
283.051	88.25
283.282	81.25
283.513	101.25
283.745	92.25
283.976	74.25
284.207	81.25
284.439	93.25
284.67	90.25
284.901	90.25
285.132	90.25
285.364	77.25
285.595	104.25
285.826	81.25
286.057	96.25
286.288	80.25
286.52	83.25
286.751	97.25
286.982	81.25
287.213	89.25
287.444	80.25
287.675	92.25
287.906	83.25
288.138	88.25
288.369	87.25
288.6	82.25
288.831	93.25
289.062	93.25
289.293	85.25
289.524	95.25
289.755	99.25
289.986	84.25
290.217	66.25
290.448	84.25
290.679	79.25
290.91	80.25
291.141	84.25
291.371	86.25
291.602	92.25
291.833	81.25
292.064	87.25
292.295	85.25
292.526	84.25
292.757	82.25
292.987	84.25
293.218	87.25
293.449	77.25
293.68	84.25
293.91	80.25
294.141	90.25
294.372	81.25
294.603	75.25
294.833	91.25
295.064	93.25
295.295	89.25
295.525	98.25
295.756	97.25
295.987	114.25
296.217	114.25
296.448	116.25
296.679	93.25
296.909	79.25
297.14	96.25
297.37	95.25
297.601	85.25
297.831	85.25
298.062	87.25
298.292	102.25
298.523	87.25
298.753	95.25
298.984	68.25
299.214	90.25
299.445	91.25
299.675	100.25
299.905	100.25
300.136	92.25
300.366	86.25
300.597	86.25
300.827	88.25
301.057	101.25
301.288	111.25
301.518	88.25
301.748	87.25
301.979	99.25
302.209	95.25
302.439	86.25
302.669	86.25
302.9	79.25
303.13	95.25
303.36	86.25
303.59	101.25
303.82	98.25
304.051	91.25
304.281	99.25
304.511	89.25
304.741	84.25
304.971	93.25
305.201	96.25
305.431	90.25
305.661	86.25
305.891	88.25
306.121	83.25
306.352	101.25
306.582	95.25
306.812	97.25
307.042	98.25
307.272	97.25
307.502	89.25
307.731	79.25
307.961	96.25
308.191	95.25
308.421	95.25
308.651	97.25
308.881	89.25
309.111	74.25
309.341	107.25
309.571	89.25
309.8	94.25
310.03	100.25
310.26	101.25
310.49	75.25
310.72	95.25
310.949	98.25
311.179	93.25
311.409	88.25
311.639	83.25
311.868	92.25
312.098	92.25
312.328	90.25
312.557	107.25
312.787	98.25
313.017	94.25
313.246	102.25
313.476	98.25
313.706	108.25
313.935	91.25
314.165	97.25
314.394	95.25
314.624	96.25
314.853	87.25
315.083	96.25
315.312	95.25
315.542	92.25
315.771	84.25
316.001	91.25
316.23	88.25
316.46	84.25
316.689	96.25
316.919	95.25
317.148	94.25
317.377	104.25
317.607	97.25
317.836	92.25
318.065	80.25
318.295	98.25
318.524	78.25
318.753	92.25
318.983	92.25
319.212	97.25
319.441	112.25
319.67	98.25
319.9	83.25
320.129	84.25
320.358	100.25
320.587	103.25
320.816	104.25
321.046	103.25
321.275	89.25
321.504	97.25
321.733	98.25
321.962	90.25
322.191	104.25
322.42	106.25
322.649	95.25
322.878	116.25
323.108	111.25
323.337	131.25
323.566	110.25
323.795	132.25
324.024	186.25
324.253	337.25
324.482	705.25
324.71	1364.25
324.939	1816.25
325.168	675.25
325.397	207.25
325.626	129.25
325.855	119.25
326.084	123.25
326.313	121.25
326.542	154.25
326.77	216.25
326.999	410.25
327.228	805.25
327.457	1397.25
327.686	1126.25
327.914	323.25
328.143	168.25
328.372	141.25
328.6	106.25
328.829	111.25
329.058	119.25
329.287	106.25
329.515	100.25
329.744	103.25
329.972	80.25
330.201	91.25
330.43	111.25
330.658	108.25
330.887	124.25
331.115	113.25
331.344	111.25
331.572	104.25
331.801	101.25
332.03	99.25
332.258	100.25
332.486	105.25
332.715	98.25
332.943	93.25
333.172	104.25
333.4	88.25
333.629	94.25
333.857	110.25
334.085	98.25
334.314	89.25
334.542	89.25
334.771	102.25
334.999	94.25
335.227	104.25
335.455	98.25
335.684	105.25
335.912	96.25
336.14	90.25
336.369	110.25
336.597	94.25
336.825	106.25
337.053	100.25
337.281	99.25
337.51	87.25
337.738	93.25
337.966	103.25
338.194	94.25
338.422	81.25
338.65	91.25
338.878	100.25
339.106	104.25
339.334	106.25
339.562	99.25
339.79	98.25
340.018	81.25
340.246	91.25
340.474	90.25
340.702	96.25
340.93	85.25
341.158	96.25
341.386	97.25
341.614	90.25
341.842	94.25
342.07	84.25
342.298	87.25
342.526	86.25
342.754	98.25
342.981	91.25
343.209	83.25
343.437	94.25
343.665	100.25
343.893	80.25
344.12	84.25
344.348	87.25
344.576	95.25
344.804	95.25
345.031	89.25
345.259	102.25
345.487	89.25
345.714	95.25
345.942	85.25
346.17	95.25
346.397	80.25
346.625	98.25
346.853	103.25
347.08	90.25
347.308	89.25
347.535	106.25
347.763	92.25
347.99	91.25
348.218	97.25
348.445	97.25
348.673	99.25
348.9	100.25
349.128	107.25
349.355	104.25
349.583	89.25
349.81	96.25
350.037	102.25
350.265	99.25
350.492	104.25
350.72	100.25
350.947	87.25
351.174	99.25
351.402	99.25
351.629	87.25
351.856	100.25
352.083	97.25
352.311	113.25
352.538	99.25
352.765	114.25
352.992	106.25
353.22	115.25
353.447	103.25
353.674	108.25
353.901	89.25
354.128	90.25
354.355	98.25
354.583	104.25
354.81	102.25
355.037	105.25
355.264	100.25
355.491	87.25
355.718	85.25
355.945	89.25
356.172	96.25
356.399	75.25
356.626	100.25
356.853	101.25
357.08	85.25
357.307	95.25
357.534	83.25
357.761	92.25
357.988	104.25
358.215	95.25
358.441	103.25
358.668	91.25
358.895	87.25
359.122	81.25
359.349	92.25
359.576	93.25
359.802	93.25
360.029	100.25
360.256	105.25
360.483	92.25
360.709	102.25
360.936	84.25
361.163	95.25
361.39	87.25
361.616	89.25
361.843	101.25
362.07	83.25
362.296	89.25
362.523	86.25
362.749	84.25
362.976	94.25
363.203	93.25
363.429	83.25
363.656	91.25
363.882	81.25
364.109	87.25
364.335	98.25
364.562	91.25
364.788	100.25
365.015	90.25
365.241	92.25
365.468	103.25
365.694	97.25
365.92	84.25
366.147	101.25
366.373	90.25
366.599	91.25
366.826	98.25
367.052	93.25
367.278	90.25
367.505	100.25
367.731	105.25
367.957	75.25
368.184	79.25
368.41	92.25
368.636	107.25
368.862	116.25
369.089	109.25
369.315	101.25
369.541	93.25
369.767	82.25
369.993	89.25
370.219	85.25
370.445	88.25
370.672	98.25
370.898	87.25
371.124	91.25
371.35	103.25
371.576	87.25
371.802	76.25
372.028	94.25
372.254	73.25
372.48	75.25
372.706	87.25
372.932	88.25
373.158	86.25
373.384	104.25
373.61	92.25
373.835	88.25
374.061	97.25
374.287	102.25
374.513	97.25
374.739	87.25
374.965	82.25
375.191	104.25
375.416	91.25
375.642	93.25
375.868	97.25
376.094	84.25
376.319	85.25
376.545	101.25
376.771	88.25
376.997	90.25
377.222	79.25
377.448	96.25
377.674	92.25
377.899	84.25
378.125	87.25
378.35	85.25
378.576	95.25
378.802	97.25
379.027	115.25
379.253	89.25
379.478	86.25
379.704	87.25
379.929	84.25
380.155	87.25
380.38	102.25
380.606	89.25
380.831	101.25
381.057	97.25
381.282	90.25
381.507	78.25
381.733	90.25
381.958	97.25
382.184	85.25
382.409	94.25
382.634	101.25
382.86	94.25
383.085	93.25
383.31	103.25
383.535	99.25
383.761	120.25
383.986	101.25
384.211	95.25
384.436	83.25
384.662	97.25
384.887	99.25
385.112	93.25
385.337	91.25
385.562	83.25
385.787	86.25
386.013	100.25
386.238	108.25
386.463	115.25
386.688	94.25
386.913	111.25
387.138	104.25
387.363	114.25
387.588	109.25
387.813	104.25
388.038	95.25
388.263	104.25
388.488	91.25
388.713	121.25
388.938	100.25
389.163	93.25
389.387	90.25
389.612	116.25
389.837	90.25
390.062	86.25
390.287	92.25
390.512	80.25
390.736	87.25
390.961	94.25
391.186	94.25
391.411	92.25
391.636	97.25
391.86	77.25
392.085	79.25
392.31	89.25
392.534	89.25
392.759	85.25
392.984	98.25
393.208	71.25
393.433	79.25
393.658	91.25
393.882	69.25
394.107	84.25
394.331	101.25
394.556	113.25
394.78	100.25
395.005	103.25
395.229	88.25
395.454	92.25
395.678	96.25
395.903	89.25
396.127	95.25
396.352	100.25
396.576	90.25
396.801	94.25
397.025	83.25
397.249	95.25
397.474	83.25
397.698	97.25
397.922	87.25
398.147	87.25
398.371	96.25
398.595	90.25
398.82	84.25
399.044	83.25
399.268	90.25
399.492	85.25
399.717	98.25
399.941	84.25
400.165	95.25
400.389	81.25
400.613	84.25
400.837	92.25
401.062	94.25
401.286	91.25
401.51	79.25
401.734	98.25
401.958	103.25
402.182	113.25
402.406	128.25
402.63	112.25
402.854	89.25
403.078	76.25
403.302	85.25
403.526	89.25
403.75	95.25
403.974	78.25
404.198	80.25
404.422	81.25
404.645	76.25
404.869	92.25
405.093	101.25
405.317	103.25
405.541	101.25
405.765	93.25
405.988	114.25
406.212	173.25
406.436	188.25
406.66	148.25
406.883	91.25
407.107	100.25
407.331	87.25
407.555	91.25
407.778	95.25
408.002	95.25
408.226	95.25
408.449	105.25
408.673	96.25
408.896	96.25
409.12	110.25
409.344	98.25
409.567	92.25
409.791	90.25
410.014	106.25
410.238	93.25
410.461	88.25
410.685	98.25
410.908	91.25
411.132	83.25
411.355	91.25
411.578	91.25
411.802	85.25
412.025	84.25
412.249	101.25
412.472	90.25
412.695	84.25
412.919	88.25
413.142	82.25
413.365	85.25
413.589	94.25
413.812	103.25
414.035	100.25
414.258	85.25
414.482	93.25
414.705	96.25
414.928	93.25
415.151	95.25
415.374	100.25
415.597	76.25
415.821	84.25
416.044	94.25
416.267	101.25
416.49	89.25
416.713	95.25
416.936	79.25
417.159	86.25
417.382	87.25
417.605	87.25
417.828	89.25
418.051	87.25
418.274	92.25
418.497	83.25
418.72	85.25
418.943	87.25
419.166	100.25
419.389	95.25
419.611	89.25
419.834	86.25
420.057	104.25
420.28	93.25
420.503	80.25
420.726	95.25
420.948	89.25
421.171	91.25
421.394	96.25
421.617	78.25
421.839	96.25
422.062	100.25
422.285	94.25
422.507	83.25
422.73	103.25
422.953	100.25
423.175	93.25
423.398	77.25
423.621	93.25
423.843	83.25
424.066	97.25
424.288	103.25
424.511	87.25
424.733	86.25
424.956	95.25
425.178	91.25
425.401	103.25
425.623	91.25
425.846	107.25
426.068	82.25
426.291	94.25
426.513	93.25
426.735	95.25
426.958	87.25
427.18	92.25
427.402	139.25
427.625	130.25
427.847	127.25
428.069	111.25
428.292	92.25
428.514	84.25
428.736	97.25
428.958	89.25
429.181	88.25
429.403	96.25
429.625	87.25
429.847	90.25
430.069	92.25
430.292	91.25
430.514	100.25
430.736	100.25
430.958	92.25
431.18	80.25
431.402	81.25
431.624	79.25
431.846	90.25
432.068	83.25
432.29	93.25
432.512	93.25
432.734	96.25
432.956	92.25
433.178	99.25
433.4	107.25
433.622	96.25
433.844	107.25
434.066	88.25
434.287	84.25
434.509	92.25
434.731	95.25
434.953	85.25
435.175	90.25
435.397	90.25
435.618	95.25
435.84	110.25
436.062	112.25
436.284	114.25
436.505	96.25
436.727	103.25
436.949	84.25
437.17	95.25
437.392	78.25
437.614	96.25
437.835	95.25
438.057	103.25
438.278	105.25
438.5	94.25
438.721	111.25
438.943	104.25
439.165	85.25
439.386	83.25
439.608	95.25
439.829	105.25
440.05	108.25
440.272	138.25
440.493	92.25
440.715	95.25
440.936	84.25
441.158	89.25
441.379	85.25
441.6	75.25
441.822	97.25
442.043	87.25
442.264	91.25
442.486	100.25
442.707	103.25
442.928	105.25
443.149	120.25
443.371	114.25
443.592	108.25
443.813	105.25
444.034	111.25
444.255	90.25
444.476	63.25
444.698	87.25
444.919	101.25
445.14	115.25
445.361	119.25
445.582	107.25
445.803	118.25
446.024	138.25
446.245	129.25
446.466	105.25
446.687	81.25
446.908	84.25
447.129	83.25
447.35	95.25
447.571	90.25
447.792	80.25
448.013	101.25
448.234	93.25
448.455	100.25
448.675	112.25
448.896	112.25
449.117	91.25
449.338	98.25
449.559	120.25
449.779	112.25
450	107.25
450.221	83.25
450.442	76.25
450.662	89.25
450.883	95.25
451.104	107.25
451.324	93.25
451.545	79.25
451.766	91.25
451.986	88.25
452.207	83.25
452.428	96.25
452.648	94.25
452.869	105.25
453.089	123.25
453.31	114.25
453.53	95.25
453.751	108.25
453.971	105.25
454.192	104.25
454.412	94.25
454.633	95.25
454.853	82.25
455.073	91.25
455.294	89.25
455.514	101.25
455.734	81.25
455.955	93.25
456.175	91.25
456.395	85.25
456.616	82.25
456.836	95.25
457.056	77.25
457.276	79.25
457.497	78.25
457.717	95.25
457.937	99.25
458.157	86.25
458.377	95.25
458.598	96.25
458.818	148.25
459.038	146.25
459.258	121.25
459.478	91.25
459.698	80.25
459.918	82.25
460.138	89.25
460.358	85.25
460.578	90.25
460.798	87.25
461.018	91.25
461.238	78.25
461.458	75.25
461.678	75.25
461.898	99.25
462.118	82.25
462.338	79.25
462.558	91.25
462.777	91.25
462.997	88.25
463.217	89.25
463.437	91.25
463.657	99.25
463.876	103.25
464.096	92.25
464.316	93.25
464.536	98.25
464.755	113.25
464.975	102.25
465.195	141.25
465.414	147.25
465.634	93.25
465.854	91.25
466.073	98.25
466.293	101.25
466.512	90.25
466.732	72.25
466.951	85.25
467.171	83.25
467.391	88.25
467.61	103.25
467.829	91.25
468.049	92.25
468.268	96.25
468.488	91.25
468.707	92.25
468.927	96.25
469.146	72.25
469.365	82.25
469.585	77.25
469.804	102.25
470.023	92.25
470.243	104.25
470.462	96.25
470.681	108.25
470.901	82.25
471.12	76.25
471.339	86.25
471.558	97.25
471.777	87.25
471.997	76.25
472.216	98.25
472.435	90.25
472.654	81.25
472.873	73.25
473.092	83.25
473.311	89.25
473.53	88.25
473.749	98.25
473.968	100.25
474.187	110.25
474.406	105.25
474.625	98.25
474.844	97.25
475.063	84.25
475.282	93.25
475.501	88.25
475.72	92.25
475.939	75.25
476.158	75.25
476.377	87.25
476.596	79.25
476.814	91.25
477.033	97.25
477.252	79.25
477.471	98.25
477.69	110.25
477.908	90.25
478.127	88.25
478.346	87.25
478.564	73.25
478.783	91.25
479.002	84.25
479.22	101.25
479.439	103.25
479.658	104.25
479.876	92.25
480.095	87.25
480.313	84.25
480.532	88.25
480.751	91.25
480.969	99.25
481.188	108.25
481.406	103.25
481.624	89.25
481.843	83.25
482.061	95.25
482.28	98.25
482.498	96.25
482.717	97.25
482.935	89.25
483.153	91.25
483.372	100.25
483.59	98.25
483.808	88.25
484.027	97.25
484.245	87.25
484.463	86.25
484.681	98.25
484.9	91.25
485.118	89.25
485.336	91.25
485.554	93.25
485.772	99.25
485.99	106.25
486.209	109.25
486.427	97.25
486.645	115.25
486.863	109.25
487.081	117.25
487.299	107.25
487.517	99.25
487.735	91.25
487.953	100.25
488.171	114.25
488.389	81.25
488.607	92.25
488.825	99.25
489.043	77.25
489.261	91.25
489.479	90.25
489.696	98.25
489.914	81.25
490.132	93.25
490.35	82.25
490.568	93.25
490.786	91.25
491.003	87.25
491.221	81.25
491.439	96.25
491.657	81.25
491.874	95.25
492.092	87.25
492.31	90.25
492.527	96.25
492.745	99.25
492.963	96.25
493.18	87.25
493.398	93.25
493.615	96.25
493.833	97.25
494.05	99.25
494.268	92.25
494.485	79.25
494.703	91.25
494.92	100.25
495.138	82.25
495.355	97.25
495.573	95.25
495.79	88.25
496.008	101.25
496.225	95.25
496.442	96.25
496.66	100.25
496.877	94.25
497.094	84.25
497.312	86.25
497.529	88.25
497.746	85.25
497.963	101.25
498.181	103.25
498.398	108.25
498.615	108.25
498.832	103.25
499.049	91.25
499.267	96.25
499.484	91.25
499.701	99.25
499.918	72.25
500.135	106.25
500.352	89.25
500.569	112.25
500.786	79.25
501.003	85.25
501.22	98.25
501.437	82.25
501.654	96.25
501.871	105.25
502.088	98.25
502.305	95.25
502.522	84.25
502.739	84.25
502.956	75.25
503.172	87.25
503.389	91.25
503.606	92.25
503.823	92.25
504.04	92.25
504.256	101.25
504.473	93.25
504.69	86.25
504.907	92.25
505.123	89.25
505.34	91.25
505.557	86.25
505.773	95.25
505.99	92.25
506.207	99.25
506.423	78.25
506.64	94.25
506.856	82.25
507.073	98.25
507.289	84.25
507.506	80.25
507.722	114.25
507.939	112.25
508.155	98.25
508.372	107.25
508.588	97.25
508.805	95.25
509.021	84.25
509.238	99.25
509.454	101.25
509.67	98.25
509.887	98.25
510.103	132.25
510.319	190.25
510.536	643.25
510.752	1927.25
510.968	539.25
511.184	157.25
511.401	108.25
511.617	103.25
511.833	93.25
512.049	105.25
512.265	101.25
512.481	101.25
512.698	95.25
512.914	79.25
513.13	95.25
513.346	97.25
513.562	95.25
513.778	101.25
513.994	109.25
514.21	105.25
514.426	110.25
514.642	109.25
514.858	119.25
515.074	137.25
515.29	375.25
515.506	1209.25
515.721	456.25
