Data from Uncirc_1997_H10_HRD10591_00077.txt Node
Date: Wed Jan 03 11:28:46 EST 2024
User: Yrep
Spectrometer: HR+D1059
Trigger mode: 1
Integration Time (sec): 1.000000E-1
Scans to average: 1
Electric dark correction enabled: true
Nonlinearity correction enabled: false
Boxcar width: 0
XAxis mode: Wavelengths
Number of Pixels in Spectrum: 2048
>>>>>Begin Spectral Data<<<<<
223.165	-14.06
223.4	-14.06
223.635	-14.06
223.869	-21.06
224.104	-19.06
224.338	-4.06
224.573	-24.06
224.808	-13.06
225.042	-2.06
225.277	-15.06
225.511	-6.06
225.746	0.94
225.98	13.94
226.215	16.94
226.449	23.94
226.683	18.94
226.918	23.94
227.152	19.94
227.387	20.94
227.621	36.94
227.856	54.94
228.09	53.94
228.324	49.94
228.559	54.94
228.793	61.94
229.027	56.94
229.262	68.94
229.496	75.94
229.73	81.94
229.964	79.94
230.199	74.94
230.433	76.94
230.667	89.94
230.901	65.94
231.136	96.94
231.37	78.94
231.604	73.94
231.838	83.94
232.072	79.94
232.306	84.94
232.541	81.94
232.775	82.94
233.009	84.94
233.243	76.94
233.477	76.94
233.711	83.94
233.945	78.94
234.179	88.94
234.413	79.94
234.647	84.94
234.881	76.94
235.115	87.94
235.349	75.94
235.583	90.94
235.817	76.94
236.051	84.94
236.285	78.94
236.519	80.94
236.753	72.94
236.987	66.94
237.221	75.94
237.455	86.94
237.689	82.94
237.922	90.94
238.156	79.94
238.39	71.94
238.624	67.94
238.858	65.94
239.091	66.94
239.325	77.94
239.559	71.94
239.793	84.94
240.027	96.94
240.26	85.94
240.494	76.94
240.728	67.94
240.961	64.94
241.195	82.94
241.429	77.94
241.662	72.94
241.896	84.94
242.13	88.94
242.363	73.94
242.597	84.94
242.83	81.94
243.064	71.94
243.298	85.94
243.531	76.94
243.765	91.94
243.998	87.94
244.232	76.94
244.465	87.94
244.699	81.94
244.932	86.94
245.166	73.94
245.399	82.94
245.633	69.94
245.866	79.94
246.099	82.94
246.333	84.94
246.566	86.94
246.8	77.94
247.033	85.94
247.266	79.94
247.5	81.94
247.733	79.94
247.966	76.94
248.2	73.94
248.433	82.94
248.666	98.94
248.899	79.94
249.133	77.94
249.366	85.94
249.599	107.94
249.832	97.94
250.066	87.94
250.299	83.94
250.532	74.94
250.765	83.94
250.998	79.94
251.231	75.94
251.465	74.94
251.698	91.94
251.931	72.94
252.164	83.94
252.397	79.94
252.63	77.94
252.863	93.94
253.096	73.94
253.329	64.94
253.562	88.94
253.795	76.94
254.028	84.94
254.261	92.94
254.494	82.94
254.727	75.94
254.96	76.94
255.193	75.94
255.426	84.94
255.659	79.94
255.892	88.94
256.124	92.94
256.357	84.94
256.59	77.94
256.823	82.94
257.056	82.94
257.289	82.94
257.521	94.94
257.754	88.94
257.987	76.94
258.22	82.94
258.452	81.94
258.685	80.94
258.918	85.94
259.151	81.94
259.383	79.94
259.616	74.94
259.849	66.94
260.081	91.94
260.314	91.94
260.547	73.94
260.779	92.94
261.012	89.94
261.244	74.94
261.477	97.94
261.71	105.94
261.942	110.94
262.175	110.94
262.407	87.94
262.64	78.94
262.872	77.94
263.105	99.94
263.337	97.94
263.57	93.94
263.802	78.94
264.035	73.94
264.267	89.94
264.499	83.94
264.732	87.94
264.964	98.94
265.197	81.94
265.429	90.94
265.661	80.94
265.894	83.94
266.126	85.94
266.358	85.94
266.591	86.94
266.823	83.94
267.055	84.94
267.287	91.94
267.52	85.94
267.752	87.94
267.984	86.94
268.216	98.94
268.448	90.94
268.681	84.94
268.913	86.94
269.145	99.94
269.377	88.94
269.609	58.94
269.841	86.94
270.073	76.94
270.306	81.94
270.538	92.94
270.77	91.94
271.002	92.94
271.234	83.94
271.466	82.94
271.698	90.94
271.93	90.94
272.162	88.94
272.394	98.94
272.626	86.94
272.858	87.94
273.09	96.94
273.322	86.94
273.553	91.94
273.785	80.94
274.017	83.94
274.249	76.94
274.481	85.94
274.713	90.94
274.945	93.94
275.176	93.94
275.408	97.94
275.64	84.94
275.872	73.94
276.104	98.94
276.335	93.94
276.567	98.94
276.799	111.94
277.031	103.94
277.262	87.94
277.494	99.94
277.726	83.94
277.957	89.94
278.189	95.94
278.421	93.94
278.652	96.94
278.884	93.94
279.115	85.94
279.347	90.94
279.579	86.94
279.81	83.94
280.042	83.94
280.273	87.94
280.505	80.94
280.736	81.94
280.968	88.94
281.199	88.94
281.431	82.94
281.662	94.94
281.894	91.94
282.125	100.94
282.356	106.94
282.588	123.94
282.819	100.94
283.051	84.94
283.282	85.94
283.513	91.94
283.745	84.94
283.976	89.94
284.207	87.94
284.439	79.94
284.67	89.94
284.901	93.94
285.132	91.94
285.364	95.94
285.595	87.94
285.826	92.94
286.057	91.94
286.288	92.94
286.52	94.94
286.751	88.94
286.982	99.94
287.213	85.94
287.444	82.94
287.675	93.94
287.906	84.94
288.138	99.94
288.369	89.94
288.6	97.94
288.831	88.94
289.062	95.94
289.293	86.94
289.524	77.94
289.755	87.94
289.986	92.94
290.217	100.94
290.448	91.94
290.679	87.94
290.91	91.94
291.141	84.94
291.371	93.94
291.602	89.94
291.833	91.94
292.064	91.94
292.295	97.94
292.526	77.94
292.757	88.94
292.987	94.94
293.218	87.94
293.449	88.94
293.68	81.94
293.91	87.94
294.141	89.94
294.372	95.94
294.603	92.94
294.833	76.94
295.064	93.94
295.295	88.94
295.525	96.94
295.756	82.94
295.987	109.94
296.217	128.94
296.448	129.94
296.679	98.94
296.909	97.94
297.14	77.94
297.37	91.94
297.601	76.94
297.831	87.94
298.062	96.94
298.292	85.94
298.523	85.94
298.753	90.94
298.984	85.94
299.214	88.94
299.445	91.94
299.675	95.94
299.905	92.94
300.136	96.94
300.366	92.94
300.597	91.94
300.827	96.94
301.057	92.94
301.288	92.94
301.518	88.94
301.748	98.94
301.979	111.94
302.209	85.94
302.439	86.94
302.669	89.94
302.9	98.94
303.13	87.94
303.36	95.94
303.59	98.94
303.82	95.94
304.051	83.94
304.281	98.94
304.511	87.94
304.741	100.94
304.971	80.94
305.201	111.94
305.431	85.94
305.661	82.94
305.891	102.94
306.121	95.94
306.352	101.94
306.582	99.94
306.812	91.94
307.042	87.94
307.272	101.94
307.502	91.94
307.731	88.94
307.961	106.94
308.191	96.94
308.421	78.94
308.651	85.94
308.881	85.94
309.111	89.94
309.341	84.94
309.571	92.94
309.8	89.94
310.03	95.94
310.26	98.94
310.49	87.94
310.72	89.94
310.949	100.94
311.179	108.94
311.409	83.94
311.639	95.94
311.868	103.94
312.098	89.94
312.328	84.94
312.557	87.94
312.787	83.94
313.017	103.94
313.246	92.94
313.476	91.94
313.706	75.94
313.935	92.94
314.165	98.94
314.394	96.94
314.624	90.94
314.853	93.94
315.083	101.94
315.312	104.94
315.542	91.94
315.771	102.94
316.001	82.94
316.23	86.94
316.46	83.94
316.689	91.94
316.919	96.94
317.148	89.94
317.377	91.94
317.607	85.94
317.836	100.94
318.065	85.94
318.295	91.94
318.524	96.94
318.753	116.94
318.983	92.94
319.212	90.94
319.441	96.94
319.67	95.94
319.9	94.94
320.129	92.94
320.358	96.94
320.587	96.94
320.816	108.94
321.046	98.94
321.275	106.94
321.504	93.94
321.733	101.94
321.962	103.94
322.191	89.94
322.42	107.94
322.649	122.94
322.878	93.94
323.108	123.94
323.337	109.94
323.566	137.94
323.795	138.94
324.024	196.94
324.253	348.94
324.482	722.94
324.71	1436.94
324.939	1856.94
325.168	696.94
325.397	213.94
325.626	141.94
325.855	138.94
326.084	119.94
326.313	121.94
326.542	137.94
326.77	209.94
326.999	399.94
327.228	787.94
327.457	1424.94
327.686	1123.94
327.914	311.94
328.143	169.94
328.372	130.94
328.6	107.94
328.829	113.94
329.058	114.94
329.287	118.94
329.515	105.94
329.744	114.94
329.972	99.94
330.201	108.94
330.43	112.94
330.658	106.94
330.887	120.94
331.115	133.94
331.344	95.94
331.572	103.94
331.801	92.94
332.03	103.94
332.258	100.94
332.486	106.94
332.715	99.94
332.943	97.94
333.172	101.94
333.4	100.94
333.629	98.94
333.857	109.94
334.085	100.94
334.314	104.94
334.542	111.94
334.771	105.94
334.999	80.94
335.227	80.94
335.455	91.94
335.684	100.94
335.912	105.94
336.14	101.94
336.369	89.94
336.597	95.94
336.825	113.94
337.053	86.94
337.281	93.94
337.51	104.94
337.738	91.94
337.966	82.94
338.194	94.94
338.422	97.94
338.65	91.94
338.878	99.94
339.106	80.94
339.334	91.94
339.562	88.94
339.79	81.94
340.018	78.94
340.246	96.94
340.474	84.94
340.702	98.94
340.93	85.94
341.158	83.94
341.386	93.94
341.614	101.94
341.842	100.94
342.07	97.94
342.298	82.94
342.526	95.94
342.754	97.94
342.981	85.94
343.209	92.94
343.437	100.94
343.665	104.94
343.893	72.94
344.12	94.94
344.348	95.94
344.576	89.94
344.804	83.94
345.031	93.94
345.259	93.94
345.487	103.94
345.714	91.94
345.942	91.94
346.17	98.94
346.397	83.94
346.625	102.94
346.853	91.94
347.08	95.94
347.308	97.94
347.535	89.94
347.763	106.94
347.99	77.94
348.218	98.94
348.445	114.94
348.673	96.94
348.9	89.94
349.128	106.94
349.355	103.94
349.583	78.94
349.81	99.94
350.037	100.94
350.265	95.94
350.492	94.94
350.72	92.94
350.947	94.94
351.174	114.94
351.402	100.94
351.629	99.94
351.856	91.94
352.083	112.94
352.311	112.94
352.538	97.94
352.765	108.94
352.992	117.94
353.22	118.94
353.447	107.94
353.674	104.94
353.901	97.94
354.128	107.94
354.355	91.94
354.583	96.94
354.81	90.94
355.037	83.94
355.264	104.94
355.491	75.94
355.718	101.94
355.945	85.94
356.172	89.94
356.399	95.94
356.626	99.94
356.853	94.94
357.08	88.94
357.307	79.94
357.534	88.94
357.761	88.94
357.988	86.94
358.215	73.94
358.441	92.94
358.668	81.94
358.895	97.94
359.122	100.94
359.349	84.94
359.576	87.94
359.802	107.94
360.029	114.94
360.256	108.94
360.483	99.94
360.709	91.94
360.936	90.94
361.163	77.94
361.39	82.94
361.616	95.94
361.843	71.94
362.07	95.94
362.296	89.94
362.523	83.94
362.749	84.94
362.976	94.94
363.203	79.94
363.429	78.94
363.656	89.94
363.882	95.94
364.109	85.94
364.335	96.94
364.562	87.94
364.788	96.94
365.015	93.94
365.241	93.94
365.468	103.94
365.694	95.94
365.92	86.94
366.147	79.94
366.373	92.94
366.599	87.94
366.826	92.94
367.052	79.94
367.278	89.94
367.505	85.94
367.731	87.94
367.957	79.94
368.184	82.94
368.41	99.94
368.636	117.94
368.862	101.94
369.089	111.94
369.315	86.94
369.541	91.94
369.767	83.94
369.993	79.94
370.219	69.94
370.445	93.94
370.672	93.94
370.898	100.94
371.124	99.94
371.35	87.94
371.576	65.94
371.802	87.94
372.028	88.94
372.254	92.94
372.48	90.94
372.706	85.94
372.932	94.94
373.158	98.94
373.384	97.94
373.61	105.94
373.835	99.94
374.061	103.94
374.287	80.94
374.513	84.94
374.739	84.94
374.965	101.94
375.191	100.94
375.416	89.94
375.642	73.94
375.868	85.94
376.094	96.94
376.319	101.94
376.545	95.94
376.771	92.94
376.997	93.94
377.222	93.94
377.448	80.94
377.674	83.94
377.899	84.94
378.125	85.94
378.35	95.94
378.576	89.94
378.802	91.94
379.027	83.94
379.253	74.94
379.478	88.94
379.704	78.94
379.929	88.94
380.155	95.94
380.38	76.94
380.606	98.94
380.831	99.94
381.057	92.94
381.282	80.94
381.507	87.94
381.733	109.94
381.958	87.94
382.184	100.94
382.409	95.94
382.634	89.94
382.86	107.94
383.085	90.94
383.31	97.94
383.535	100.94
383.761	77.94
383.986	106.94
384.211	98.94
384.436	98.94
384.662	111.94
384.887	100.94
385.112	110.94
385.337	89.94
385.562	94.94
385.787	87.94
386.013	108.94
386.238	105.94
386.463	102.94
386.688	97.94
386.913	93.94
387.138	92.94
387.363	96.94
387.588	110.94
387.813	86.94
388.038	112.94
388.263	109.94
388.488	103.94
388.713	96.94
388.938	109.94
389.163	85.94
389.387	71.94
389.612	96.94
389.837	90.94
390.062	93.94
390.287	86.94
390.512	76.94
390.736	94.94
390.961	95.94
391.186	104.94
391.411	109.94
391.636	95.94
391.86	99.94
392.085	80.94
392.31	99.94
392.534	98.94
392.759	77.94
392.984	80.94
393.208	84.94
393.433	89.94
393.658	77.94
393.882	71.94
394.107	81.94
394.331	93.94
394.556	98.94
394.78	81.94
395.005	100.94
395.229	84.94
395.454	80.94
395.678	93.94
395.903	88.94
396.127	89.94
396.352	76.94
396.576	85.94
396.801	94.94
397.025	83.94
397.249	77.94
397.474	84.94
397.698	83.94
397.922	84.94
398.147	92.94
398.371	90.94
398.595	87.94
398.82	91.94
399.044	97.94
399.268	78.94
399.492	85.94
399.717	99.94
399.941	87.94
400.165	94.94
400.389	90.94
400.613	97.94
400.837	89.94
401.062	89.94
401.286	83.94
401.51	89.94
401.734	97.94
401.958	91.94
402.182	115.94
402.406	143.94
402.63	109.94
402.854	103.94
403.078	88.94
403.302	83.94
403.526	80.94
403.75	75.94
403.974	95.94
404.198	87.94
404.422	76.94
404.645	93.94
404.869	92.94
405.093	94.94
405.317	96.94
405.541	82.94
405.765	104.94
405.988	112.94
406.212	148.94
406.436	194.94
406.66	129.94
406.883	107.94
407.107	81.94
407.331	95.94
407.555	105.94
407.778	85.94
408.002	85.94
408.226	92.94
408.449	89.94
408.673	92.94
408.896	98.94
409.12	92.94
409.344	83.94
409.567	83.94
409.791	90.94
410.014	83.94
410.238	108.94
410.461	85.94
410.685	87.94
410.908	101.94
411.132	102.94
411.355	88.94
411.578	81.94
411.802	110.94
412.025	94.94
412.249	91.94
412.472	91.94
412.695	91.94
412.919	75.94
413.142	96.94
413.365	79.94
413.589	98.94
413.812	89.94
414.035	87.94
414.258	85.94
414.482	100.94
414.705	90.94
414.928	103.94
415.151	96.94
415.374	103.94
415.597	97.94
415.821	88.94
416.044	83.94
416.267	91.94
416.49	83.94
416.713	95.94
416.936	92.94
417.159	98.94
417.382	82.94
417.605	99.94
417.828	97.94
418.051	76.94
418.274	81.94
418.497	79.94
418.72	91.94
418.943	87.94
419.166	81.94
419.389	98.94
419.611	101.94
419.834	94.94
420.057	90.94
420.28	84.94
420.503	90.94
420.726	74.94
420.948	93.94
421.171	91.94
421.394	83.94
421.617	84.94
421.839	84.94
422.062	78.94
422.285	83.94
422.507	91.94
422.73	85.94
422.953	83.94
423.175	91.94
423.398	89.94
423.621	95.94
423.843	87.94
424.066	87.94
424.288	92.94
424.511	91.94
424.733	92.94
424.956	104.94
425.178	95.94
425.401	100.94
425.623	95.94
425.846	100.94
426.068	87.94
426.291	94.94
426.513	92.94
426.735	99.94
426.958	94.94
427.18	103.94
427.402	128.94
427.625	141.94
427.847	116.94
428.069	104.94
428.292	100.94
428.514	85.94
428.736	90.94
428.958	85.94
429.181	82.94
429.403	74.94
429.625	96.94
429.847	79.94
430.069	106.94
430.292	91.94
430.514	75.94
430.736	87.94
430.958	88.94
431.18	87.94
431.402	85.94
431.624	73.94
431.846	95.94
432.068	70.94
432.29	94.94
432.512	89.94
432.734	89.94
432.956	96.94
433.178	90.94
433.4	91.94
433.622	107.94
433.844	88.94
434.066	88.94
434.287	76.94
434.509	100.94
434.731	89.94
434.953	91.94
435.175	96.94
435.397	97.94
435.618	96.94
435.84	105.94
436.062	121.94
436.284	102.94
436.505	103.94
436.727	107.94
436.949	84.94
437.17	84.94
437.392	90.94
437.614	97.94
437.835	101.94
438.057	111.94
438.278	101.94
438.5	92.94
438.721	106.94
438.943	103.94
439.165	95.94
439.386	100.94
439.608	91.94
439.829	82.94
440.05	99.94
440.272	123.94
440.493	98.94
440.715	96.94
440.936	85.94
441.158	92.94
441.379	79.94
441.6	95.94
441.822	77.94
442.043	87.94
442.264	97.94
442.486	96.94
442.707	94.94
442.928	90.94
443.149	124.94
443.371	118.94
443.592	98.94
443.813	105.94
444.034	104.94
444.255	95.94
444.476	79.94
444.698	88.94
444.919	96.94
445.14	125.94
445.361	117.94
445.582	112.94
445.803	130.94
446.024	133.94
446.245	124.94
446.466	122.94
446.687	92.94
446.908	104.94
447.129	87.94
447.35	93.94
447.571	98.94
447.792	72.94
448.013	95.94
448.234	100.94
448.455	100.94
448.675	111.94
448.896	124.94
449.117	106.94
449.338	114.94
449.559	124.94
449.779	118.94
450	92.94
450.221	89.94
450.442	95.94
450.662	94.94
450.883	107.94
451.104	104.94
451.324	95.94
451.545	85.94
451.766	92.94
451.986	89.94
452.207	93.94
452.428	107.94
452.648	92.94
452.869	106.94
453.089	102.94
453.31	101.94
453.53	98.94
453.751	87.94
453.971	73.94
454.192	111.94
454.412	100.94
454.633	87.94
454.853	97.94
455.073	89.94
455.294	87.94
455.514	88.94
455.734	100.94
455.955	88.94
456.175	71.94
456.395	73.94
456.616	91.94
456.836	81.94
457.056	94.94
457.276	91.94
457.497	94.94
457.717	100.94
457.937	100.94
458.157	89.94
458.377	99.94
458.598	105.94
458.818	124.94
459.038	141.94
459.258	113.94
459.478	92.94
459.698	98.94
459.918	85.94
460.138	89.94
460.358	93.94
460.578	79.94
460.798	93.94
461.018	96.94
461.238	86.94
461.458	92.94
461.678	95.94
461.898	91.94
462.118	93.94
462.338	100.94
462.558	98.94
462.777	90.94
462.997	80.94
463.217	84.94
463.437	79.94
463.657	93.94
463.876	82.94
464.096	103.94
464.316	83.94
464.536	100.94
464.755	90.94
464.975	101.94
465.195	149.94
465.414	133.94
465.634	94.94
465.854	95.94
466.073	93.94
466.293	97.94
466.512	87.94
466.732	84.94
466.951	83.94
467.171	84.94
467.391	92.94
467.61	102.94
467.829	107.94
468.049	84.94
468.268	100.94
468.488	89.94
468.707	81.94
468.927	76.94
469.146	91.94
469.365	95.94
469.585	75.94
469.804	106.94
470.023	98.94
470.243	94.94
470.462	88.94
470.681	95.94
470.901	96.94
471.12	101.94
471.339	93.94
471.558	98.94
471.777	96.94
471.997	83.94
472.216	92.94
472.435	97.94
472.654	82.94
472.873	107.94
473.092	89.94
473.311	100.94
473.53	92.94
473.749	100.94
473.968	111.94
474.187	97.94
474.406	93.94
474.625	111.94
474.844	87.94
475.063	74.94
475.282	94.94
475.501	81.94
475.72	79.94
475.939	82.94
476.158	84.94
476.377	83.94
476.596	101.94
476.814	99.94
477.033	98.94
477.252	87.94
477.471	94.94
477.69	83.94
477.908	92.94
478.127	82.94
478.346	90.94
478.564	79.94
478.783	110.94
479.002	89.94
479.22	91.94
479.439	109.94
479.658	103.94
479.876	87.94
480.095	95.94
480.313	98.94
480.532	85.94
480.751	97.94
480.969	114.94
481.188	107.94
481.406	97.94
481.624	93.94
481.843	93.94
482.061	79.94
482.28	84.94
482.498	76.94
482.717	89.94
482.935	72.94
483.153	93.94
483.372	99.94
483.59	92.94
483.808	98.94
484.027	75.94
484.245	90.94
484.463	83.94
484.681	94.94
484.9	100.94
485.118	105.94
485.336	95.94
485.554	102.94
485.772	95.94
485.99	109.94
486.209	106.94
486.427	92.94
486.645	100.94
486.863	117.94
487.081	92.94
487.299	83.94
487.517	96.94
487.735	85.94
487.953	106.94
488.171	105.94
488.389	95.94
488.607	87.94
488.825	85.94
489.043	80.94
489.261	84.94
489.479	99.94
489.696	91.94
489.914	93.94
490.132	83.94
490.35	97.94
490.568	81.94
490.786	84.94
491.003	81.94
491.221	96.94
491.439	96.94
491.657	101.94
491.874	101.94
492.092	101.94
492.31	89.94
492.527	85.94
492.745	85.94
492.963	95.94
493.18	88.94
493.398	102.94
493.615	112.94
493.833	93.94
494.05	92.94
494.268	92.94
494.485	74.94
494.703	79.94
494.92	97.94
495.138	87.94
495.355	83.94
495.573	91.94
495.79	94.94
496.008	92.94
496.225	76.94
496.442	97.94
496.66	97.94
496.877	98.94
497.094	101.94
497.312	90.94
497.529	88.94
497.746	94.94
497.963	115.94
498.181	103.94
498.398	96.94
498.615	101.94
498.832	110.94
499.049	93.94
499.267	93.94
499.484	81.94
499.701	89.94
499.918	81.94
500.135	85.94
500.352	84.94
500.569	92.94
500.786	105.94
501.003	83.94
501.22	75.94
501.437	96.94
501.654	92.94
501.871	92.94
502.088	89.94
502.305	81.94
502.522	91.94
502.739	91.94
502.956	88.94
503.172	91.94
503.389	98.94
503.606	99.94
503.823	89.94
504.04	93.94
504.256	103.94
504.473	95.94
504.69	96.94
504.907	91.94
505.123	69.94
505.34	95.94
505.557	89.94
505.773	99.94
505.99	87.94
506.207	100.94
506.423	100.94
506.64	100.94
506.856	84.94
507.073	89.94
507.289	89.94
507.506	83.94
507.722	109.94
507.939	103.94
508.155	87.94
508.372	100.94
508.588	93.94
508.805	96.94
509.021	96.94
509.238	88.94
509.454	100.94
509.67	107.94
509.887	117.94
510.103	151.94
510.319	182.94
510.536	655.94
510.752	1954.94
510.968	550.94
511.184	135.94
511.401	113.94
511.617	121.94
511.833	88.94
512.049	103.94
512.265	97.94
512.481	87.94
512.698	91.94
512.914	111.94
513.13	101.94
513.346	103.94
513.562	90.94
513.778	93.94
513.994	100.94
514.21	97.94
514.426	103.94
514.642	119.94
514.858	137.94
515.074	159.94
515.29	409.94
515.506	1187.94
515.721	455.94
515.937	151.94
