Data from Uncirc_1997_H10_HRD10591_00085.txt Node
Date: Wed Jan 03 11:28:47 EST 2024
User: Yrep
Spectrometer: HR+D1059
Trigger mode: 1
Integration Time (sec): 1.000000E-1
Scans to average: 1
Electric dark correction enabled: true
Nonlinearity correction enabled: false
Boxcar width: 0
XAxis mode: Wavelengths
Number of Pixels in Spectrum: 2048
>>>>>Begin Spectral Data<<<<<
223.165	-5.56
223.4	-5.56
223.635	-5.56
223.869	-20.56
224.104	-20.56
224.338	-6.56
224.573	-22.56
224.808	-10.56
225.042	-8.56
225.277	-6.56
225.511	1.44
225.746	1.44
225.98	3.44
226.215	6.44
226.449	10.44
226.683	23.44
226.918	30.44
227.152	24.44
227.387	25.44
227.621	55.44
227.856	43.44
228.09	47.44
228.324	65.44
228.559	53.44
228.793	67.44
229.027	70.44
229.262	72.44
229.496	66.44
229.73	72.44
229.964	77.44
230.199	81.44
230.433	71.44
230.667	74.44
230.901	70.44
231.136	73.44
231.37	89.44
231.604	67.44
231.838	77.44
232.072	90.44
232.306	106.44
232.541	78.44
232.775	83.44
233.009	90.44
233.243	73.44
233.477	75.44
233.711	88.44
233.945	88.44
234.179	73.44
234.413	94.44
234.647	80.44
234.881	84.44
235.115	84.44
235.349	73.44
235.583	89.44
235.817	85.44
236.051	79.44
236.285	99.44
236.519	97.44
236.753	91.44
236.987	74.44
237.221	84.44
237.455	79.44
237.689	80.44
237.922	82.44
238.156	83.44
238.39	67.44
238.624	72.44
238.858	78.44
239.091	75.44
239.325	82.44
239.559	75.44
239.793	77.44
240.027	84.44
240.26	80.44
240.494	86.44
240.728	72.44
240.961	79.44
241.195	75.44
241.429	84.44
241.662	87.44
241.896	60.44
242.13	67.44
242.363	76.44
242.597	79.44
242.83	68.44
243.064	74.44
243.298	94.44
243.531	61.44
243.765	89.44
243.998	77.44
244.232	78.44
244.465	75.44
244.699	72.44
244.932	87.44
245.166	91.44
245.399	87.44
245.633	78.44
245.866	83.44
246.099	83.44
246.333	80.44
246.566	91.44
246.8	80.44
247.033	78.44
247.266	81.44
247.5	73.44
247.733	79.44
247.966	68.44
248.2	76.44
248.433	89.44
248.666	93.44
248.899	88.44
249.133	93.44
249.366	99.44
249.599	86.44
249.832	78.44
250.066	79.44
250.299	89.44
250.532	86.44
250.765	79.44
250.998	78.44
251.231	76.44
251.465	65.44
251.698	82.44
251.931	74.44
252.164	87.44
252.397	78.44
252.63	74.44
252.863	82.44
253.096	78.44
253.329	82.44
253.562	87.44
253.795	76.44
254.028	83.44
254.261	84.44
254.494	70.44
254.727	72.44
254.96	80.44
255.193	84.44
255.426	84.44
255.659	83.44
255.892	83.44
256.124	83.44
256.357	77.44
256.59	78.44
256.823	70.44
257.056	78.44
257.289	80.44
257.521	79.44
257.754	90.44
257.987	96.44
258.22	92.44
258.452	82.44
258.685	77.44
258.918	77.44
259.151	83.44
259.383	82.44
259.616	83.44
259.849	78.44
260.081	78.44
260.314	87.44
260.547	92.44
260.779	87.44
261.012	80.44
261.244	78.44
261.477	90.44
261.71	87.44
261.942	90.44
262.175	98.44
262.407	91.44
262.64	76.44
262.872	90.44
263.105	79.44
263.337	94.44
263.57	86.44
263.802	84.44
264.035	67.44
264.267	71.44
264.499	78.44
264.732	81.44
264.964	78.44
265.197	92.44
265.429	86.44
265.661	80.44
265.894	84.44
266.126	79.44
266.358	85.44
266.591	98.44
266.823	80.44
267.055	70.44
267.287	100.44
267.52	88.44
267.752	82.44
267.984	86.44
268.216	86.44
268.448	94.44
268.681	94.44
268.913	96.44
269.145	75.44
269.377	81.44
269.609	95.44
269.841	89.44
270.073	92.44
270.306	78.44
270.538	95.44
270.77	93.44
271.002	84.44
271.234	76.44
271.466	82.44
271.698	87.44
271.93	90.44
272.162	79.44
272.394	88.44
272.626	91.44
272.858	84.44
273.09	74.44
273.322	98.44
273.553	100.44
273.785	88.44
274.017	88.44
274.249	91.44
274.481	78.44
274.713	80.44
274.945	78.44
275.176	92.44
275.408	87.44
275.64	79.44
275.872	76.44
276.104	93.44
276.335	95.44
276.567	93.44
276.799	97.44
277.031	109.44
277.262	87.44
277.494	83.44
277.726	92.44
277.957	86.44
278.189	98.44
278.421	82.44
278.652	76.44
278.884	87.44
279.115	81.44
279.347	86.44
279.579	83.44
279.81	85.44
280.042	86.44
280.273	78.44
280.505	91.44
280.736	90.44
280.968	89.44
281.199	100.44
281.431	73.44
281.662	76.44
281.894	98.44
282.125	104.44
282.356	113.44
282.588	120.44
282.819	108.44
283.051	79.44
283.282	87.44
283.513	97.44
283.745	91.44
283.976	87.44
284.207	77.44
284.439	81.44
284.67	87.44
284.901	90.44
285.132	79.44
285.364	78.44
285.595	77.44
285.826	89.44
286.057	84.44
286.288	72.44
286.52	78.44
286.751	81.44
286.982	90.44
287.213	74.44
287.444	89.44
287.675	95.44
287.906	89.44
288.138	90.44
288.369	90.44
288.6	83.44
288.831	95.44
289.062	91.44
289.293	77.44
289.524	84.44
289.755	85.44
289.986	82.44
290.217	85.44
290.448	70.44
290.679	92.44
290.91	94.44
291.141	92.44
291.371	80.44
291.602	88.44
291.833	80.44
292.064	91.44
292.295	82.44
292.526	86.44
292.757	93.44
292.987	90.44
293.218	89.44
293.449	95.44
293.68	106.44
293.91	83.44
294.141	104.44
294.372	95.44
294.603	95.44
294.833	89.44
295.064	93.44
295.295	91.44
295.525	88.44
295.756	90.44
295.987	103.44
296.217	129.44
296.448	108.44
296.679	98.44
296.909	90.44
297.14	81.44
297.37	87.44
297.601	98.44
297.831	96.44
298.062	87.44
298.292	87.44
298.523	85.44
298.753	82.44
298.984	101.44
299.214	90.44
299.445	98.44
299.675	99.44
299.905	95.44
300.136	102.44
300.366	84.44
300.597	92.44
300.827	97.44
301.057	105.44
301.288	102.44
301.518	103.44
301.748	87.44
301.979	98.44
302.209	98.44
302.439	92.44
302.669	80.44
302.9	94.44
303.13	95.44
303.36	93.44
303.59	90.44
303.82	105.44
304.051	105.44
304.281	99.44
304.511	91.44
304.741	103.44
304.971	99.44
305.201	101.44
305.431	94.44
305.661	78.44
305.891	95.44
306.121	100.44
306.352	109.44
306.582	95.44
306.812	111.44
307.042	94.44
307.272	88.44
307.502	97.44
307.731	86.44
307.961	93.44
308.191	102.44
308.421	96.44
308.651	103.44
308.881	96.44
309.111	88.44
309.341	102.44
309.571	101.44
309.8	87.44
310.03	96.44
310.26	82.44
310.49	92.44
310.72	93.44
310.949	105.44
311.179	95.44
311.409	98.44
311.639	112.44
311.868	96.44
312.098	84.44
312.328	83.44
312.557	83.44
312.787	100.44
313.017	99.44
313.246	95.44
313.476	90.44
313.706	91.44
313.935	100.44
314.165	91.44
314.394	97.44
314.624	91.44
314.853	105.44
315.083	98.44
315.312	80.44
315.542	83.44
315.771	88.44
316.001	95.44
316.23	91.44
316.46	103.44
316.689	99.44
316.919	98.44
317.148	88.44
317.377	103.44
317.607	112.44
317.836	102.44
318.065	86.44
318.295	112.44
318.524	89.44
318.753	86.44
318.983	100.44
319.212	101.44
319.441	105.44
319.67	89.44
319.9	91.44
320.129	96.44
320.358	78.44
320.587	94.44
320.816	90.44
321.046	95.44
321.275	99.44
321.504	81.44
321.733	90.44
321.962	93.44
322.191	98.44
322.42	113.44
322.649	105.44
322.878	96.44
323.108	115.44
323.337	130.44
323.566	120.44
323.795	132.44
324.024	186.44
324.253	338.44
324.482	704.44
324.71	1468.44
324.939	1880.44
325.168	693.44
325.397	235.44
325.626	139.44
325.855	123.44
326.084	129.44
326.313	136.44
326.542	156.44
326.77	208.44
326.999	416.44
327.228	853.44
327.457	1473.44
327.686	1219.44
327.914	327.44
328.143	168.44
328.372	125.44
328.6	116.44
328.829	105.44
329.058	98.44
329.287	111.44
329.515	116.44
329.744	92.44
329.972	78.44
330.201	98.44
330.43	98.44
330.658	102.44
330.887	118.44
331.115	111.44
331.344	99.44
331.572	101.44
331.801	109.44
332.03	107.44
332.258	106.44
332.486	95.44
332.715	90.44
332.943	83.44
333.172	88.44
333.4	96.44
333.629	88.44
333.857	102.44
334.085	94.44
334.314	83.44
334.542	104.44
334.771	96.44
334.999	102.44
335.227	98.44
335.455	93.44
335.684	90.44
335.912	104.44
336.14	99.44
336.369	105.44
336.597	100.44
336.825	92.44
337.053	94.44
337.281	92.44
337.51	89.44
337.738	104.44
337.966	99.44
338.194	96.44
338.422	95.44
338.65	83.44
338.878	95.44
339.106	92.44
339.334	87.44
339.562	91.44
339.79	90.44
340.018	93.44
340.246	83.44
340.474	88.44
340.702	94.44
340.93	83.44
341.158	100.44
341.386	78.44
341.614	103.44
341.842	93.44
342.07	84.44
342.298	101.44
342.526	93.44
342.754	83.44
342.981	86.44
343.209	90.44
343.437	100.44
343.665	93.44
343.893	92.44
344.12	89.44
344.348	91.44
344.576	90.44
344.804	76.44
345.031	78.44
345.259	100.44
345.487	91.44
345.714	91.44
345.942	92.44
346.17	86.44
346.397	99.44
346.625	95.44
346.853	99.44
347.08	89.44
347.308	86.44
347.535	108.44
347.763	93.44
347.99	95.44
348.218	102.44
348.445	95.44
348.673	92.44
348.9	86.44
349.128	94.44
349.355	96.44
349.583	82.44
349.81	92.44
350.037	80.44
350.265	92.44
350.492	101.44
350.72	92.44
350.947	91.44
351.174	99.44
351.402	111.44
351.629	92.44
351.856	115.44
352.083	102.44
352.311	104.44
352.538	114.44
352.765	107.44
352.992	111.44
353.22	120.44
353.447	102.44
353.674	106.44
353.901	104.44
354.128	107.44
354.355	92.44
354.583	90.44
354.81	92.44
355.037	76.44
355.264	96.44
355.491	103.44
355.718	92.44
355.945	91.44
356.172	95.44
356.399	86.44
356.626	85.44
356.853	74.44
357.08	101.44
357.307	83.44
357.534	90.44
357.761	83.44
357.988	108.44
358.215	89.44
358.441	94.44
358.668	97.44
358.895	76.44
359.122	88.44
359.349	94.44
359.576	90.44
359.802	97.44
360.029	109.44
360.256	101.44
360.483	102.44
360.709	74.44
360.936	98.44
361.163	98.44
361.39	95.44
361.616	95.44
361.843	80.44
362.07	94.44
362.296	104.44
362.523	96.44
362.749	99.44
362.976	103.44
363.203	90.44
363.429	84.44
363.656	108.44
363.882	97.44
364.109	94.44
364.335	85.44
364.562	87.44
364.788	87.44
365.015	96.44
365.241	97.44
365.468	104.44
365.694	105.44
365.92	94.44
366.147	89.44
366.373	83.44
366.599	87.44
366.826	90.44
367.052	89.44
367.278	98.44
367.505	92.44
367.731	91.44
367.957	96.44
368.184	99.44
368.41	92.44
368.636	102.44
368.862	121.44
369.089	100.44
369.315	91.44
369.541	88.44
369.767	80.44
369.993	87.44
370.219	62.44
370.445	72.44
370.672	72.44
370.898	89.44
371.124	83.44
371.35	90.44
371.576	91.44
371.802	100.44
372.028	89.44
372.254	78.44
372.48	95.44
372.706	78.44
372.932	76.44
373.158	84.44
373.384	87.44
373.61	82.44
373.835	90.44
374.061	79.44
374.287	104.44
374.513	83.44
374.739	74.44
374.965	83.44
375.191	94.44
375.416	95.44
375.642	95.44
375.868	93.44
376.094	94.44
376.319	87.44
376.545	90.44
376.771	90.44
376.997	89.44
377.222	75.44
377.448	82.44
377.674	88.44
377.899	93.44
378.125	108.44
378.35	91.44
378.576	88.44
378.802	90.44
379.027	104.44
379.253	90.44
379.478	84.44
379.704	74.44
379.929	84.44
380.155	95.44
380.38	105.44
380.606	102.44
380.831	97.44
381.057	106.44
381.282	83.44
381.507	89.44
381.733	103.44
381.958	94.44
382.184	93.44
382.409	92.44
382.634	94.44
382.86	88.44
383.085	109.44
383.31	86.44
383.535	99.44
383.761	100.44
383.986	110.44
384.211	97.44
384.436	101.44
384.662	90.44
384.887	105.44
385.112	97.44
385.337	102.44
385.562	98.44
385.787	99.44
386.013	107.44
386.238	108.44
386.463	90.44
386.688	110.44
386.913	91.44
387.138	89.44
387.363	104.44
387.588	89.44
387.813	103.44
388.038	100.44
388.263	98.44
388.488	106.44
388.713	104.44
388.938	84.44
389.163	101.44
389.387	91.44
389.612	90.44
389.837	90.44
390.062	104.44
390.287	93.44
390.512	83.44
390.736	83.44
390.961	118.44
391.186	86.44
391.411	96.44
391.636	106.44
391.86	93.44
392.085	86.44
392.31	75.44
392.534	94.44
392.759	88.44
392.984	88.44
393.208	90.44
393.433	94.44
393.658	83.44
393.882	92.44
394.107	97.44
394.331	90.44
394.556	81.44
394.78	89.44
395.005	95.44
395.229	87.44
395.454	89.44
395.678	96.44
395.903	86.44
396.127	86.44
396.352	91.44
396.576	94.44
396.801	87.44
397.025	82.44
397.249	90.44
397.474	83.44
397.698	72.44
397.922	88.44
398.147	98.44
398.371	90.44
398.595	97.44
398.82	76.44
399.044	90.44
399.268	94.44
399.492	81.44
399.717	92.44
399.941	92.44
400.165	98.44
400.389	86.44
400.613	91.44
400.837	97.44
401.062	84.44
401.286	85.44
401.51	95.44
401.734	96.44
401.958	95.44
402.182	122.44
402.406	126.44
402.63	109.44
402.854	102.44
403.078	76.44
403.302	85.44
403.526	95.44
403.75	75.44
403.974	100.44
404.198	98.44
404.422	94.44
404.645	94.44
404.869	91.44
405.093	99.44
405.317	104.44
405.541	88.44
405.765	88.44
405.988	96.44
406.212	147.44
406.436	193.44
406.66	128.44
406.883	107.44
407.107	98.44
407.331	106.44
407.555	102.44
407.778	103.44
408.002	81.44
408.226	98.44
408.449	90.44
408.673	82.44
408.896	100.44
409.12	97.44
409.344	74.44
409.567	88.44
409.791	92.44
410.014	94.44
410.238	110.44
410.461	97.44
410.685	88.44
410.908	113.44
411.132	99.44
411.355	88.44
411.578	84.44
411.802	80.44
412.025	103.44
412.249	89.44
412.472	93.44
412.695	80.44
412.919	88.44
413.142	83.44
413.365	81.44
413.589	85.44
413.812	96.44
414.035	102.44
414.258	71.44
414.482	95.44
414.705	97.44
414.928	72.44
415.151	91.44
415.374	77.44
415.597	94.44
415.821	90.44
416.044	89.44
416.267	95.44
416.49	89.44
416.713	95.44
416.936	78.44
417.159	83.44
417.382	104.44
417.605	83.44
417.828	88.44
418.051	86.44
418.274	90.44
418.497	92.44
418.72	79.44
418.943	91.44
419.166	93.44
419.389	96.44
419.611	84.44
419.834	82.44
420.057	87.44
420.28	86.44
420.503	80.44
420.726	80.44
420.948	89.44
421.171	103.44
421.394	94.44
421.617	85.44
421.839	80.44
422.062	86.44
422.285	93.44
422.507	96.44
422.73	110.44
422.953	85.44
423.175	80.44
423.398	104.44
423.621	92.44
423.843	87.44
424.066	95.44
424.288	88.44
424.511	88.44
424.733	103.44
424.956	103.44
425.178	100.44
425.401	94.44
425.623	89.44
425.846	93.44
426.068	87.44
426.291	88.44
426.513	91.44
426.735	83.44
426.958	99.44
427.18	107.44
427.402	132.44
427.625	143.44
427.847	113.44
428.069	112.44
428.292	100.44
428.514	86.44
428.736	93.44
428.958	74.44
429.181	92.44
429.403	86.44
429.625	95.44
429.847	97.44
430.069	107.44
430.292	88.44
430.514	97.44
430.736	90.44
430.958	88.44
431.18	87.44
431.402	90.44
431.624	92.44
431.846	75.44
432.068	101.44
432.29	110.44
432.512	91.44
432.734	77.44
432.956	97.44
433.178	106.44
433.4	104.44
433.622	87.44
433.844	95.44
434.066	78.44
434.287	98.44
434.509	79.44
434.731	86.44
434.953	88.44
435.175	79.44
435.397	96.44
435.618	97.44
435.84	102.44
436.062	117.44
436.284	113.44
436.505	107.44
436.727	103.44
436.949	65.44
437.17	87.44
437.392	80.44
437.614	102.44
437.835	108.44
438.057	115.44
438.278	115.44
438.5	105.44
438.721	108.44
438.943	102.44
439.165	92.44
439.386	90.44
439.608	86.44
439.829	86.44
440.05	122.44
440.272	127.44
440.493	105.44
440.715	97.44
440.936	87.44
441.158	94.44
441.379	97.44
441.6	99.44
441.822	89.44
442.043	100.44
442.264	107.44
442.486	87.44
442.707	95.44
442.928	100.44
443.149	126.44
443.371	130.44
443.592	112.44
443.813	111.44
444.034	106.44
444.255	103.44
444.476	90.44
444.698	93.44
444.919	107.44
445.14	124.44
445.361	119.44
445.582	115.44
445.803	106.44
446.024	121.44
446.245	115.44
446.466	99.44
446.687	89.44
446.908	80.44
447.129	104.44
447.35	89.44
447.571	98.44
447.792	97.44
448.013	87.44
448.234	99.44
448.455	94.44
448.675	107.44
448.896	113.44
449.117	98.44
449.338	105.44
449.559	119.44
449.779	127.44
450	88.44
450.221	104.44
450.442	90.44
450.662	85.44
450.883	95.44
451.104	103.44
451.324	110.44
451.545	87.44
451.766	81.44
451.986	81.44
452.207	87.44
452.428	90.44
452.648	94.44
452.869	114.44
453.089	100.44
453.31	104.44
453.53	93.44
453.751	103.44
453.971	110.44
454.192	90.44
454.412	100.44
454.633	92.44
454.853	80.44
455.073	86.44
455.294	87.44
455.514	101.44
455.734	81.44
455.955	67.44
456.175	78.44
456.395	78.44
456.616	78.44
456.836	90.44
457.056	86.44
457.276	84.44
457.497	101.44
457.717	90.44
457.937	83.44
458.157	91.44
458.377	93.44
458.598	123.44
458.818	143.44
459.038	134.44
459.258	106.44
459.478	91.44
459.698	94.44
459.918	82.44
460.138	94.44
460.358	80.44
460.578	105.44
460.798	93.44
461.018	84.44
461.238	83.44
461.458	83.44
461.678	89.44
461.898	88.44
462.118	82.44
462.338	99.44
462.558	71.44
462.777	89.44
462.997	80.44
463.217	82.44
463.437	100.44
463.657	78.44
463.876	87.44
464.096	98.44
464.316	99.44
464.536	96.44
464.755	92.44
464.975	112.44
465.195	135.44
465.414	147.44
465.634	85.44
465.854	88.44
466.073	87.44
466.293	87.44
466.512	76.44
466.732	89.44
466.951	88.44
467.171	97.44
467.391	96.44
467.61	110.44
467.829	91.44
468.049	80.44
468.268	95.44
468.488	67.44
468.707	77.44
468.927	86.44
469.146	76.44
469.365	85.44
469.585	93.44
469.804	94.44
470.023	86.44
470.243	81.44
470.462	86.44
470.681	106.44
470.901	91.44
471.12	76.44
471.339	80.44
471.558	82.44
471.777	91.44
471.997	88.44
472.216	96.44
472.435	100.44
472.654	82.44
472.873	90.44
473.092	80.44
473.311	84.44
473.53	80.44
473.749	91.44
473.968	88.44
474.187	107.44
474.406	97.44
474.625	99.44
474.844	96.44
475.063	79.44
475.282	93.44
475.501	90.44
475.72	77.44
475.939	83.44
476.158	84.44
476.377	95.44
476.596	93.44
476.814	88.44
477.033	87.44
477.252	78.44
477.471	84.44
477.69	76.44
477.908	92.44
478.127	93.44
478.346	83.44
478.564	93.44
478.783	90.44
479.002	82.44
479.22	92.44
479.439	103.44
479.658	94.44
479.876	97.44
480.095	81.44
480.313	93.44
480.532	106.44
480.751	96.44
480.969	99.44
481.188	102.44
481.406	95.44
481.624	83.44
481.843	84.44
482.061	83.44
482.28	88.44
482.498	82.44
482.717	94.44
482.935	78.44
483.153	95.44
483.372	93.44
483.59	96.44
483.808	86.44
484.027	88.44
484.245	100.44
484.463	98.44
484.681	92.44
484.9	95.44
485.118	99.44
485.336	90.44
485.554	91.44
485.772	97.44
485.99	103.44
486.209	99.44
486.427	88.44
486.645	102.44
486.863	115.44
487.081	104.44
487.299	96.44
487.517	85.44
487.735	102.44
487.953	97.44
488.171	99.44
488.389	104.44
488.607	98.44
488.825	94.44
489.043	82.44
489.261	84.44
489.479	91.44
489.696	84.44
489.914	84.44
490.132	81.44
490.35	86.44
490.568	103.44
490.786	81.44
491.003	78.44
491.221	90.44
491.439	89.44
491.657	102.44
491.874	98.44
492.092	87.44
492.31	87.44
492.527	82.44
492.745	90.44
492.963	83.44
493.18	99.44
493.398	83.44
493.615	96.44
493.833	100.44
494.05	84.44
494.268	92.44
494.485	86.44
494.703	93.44
494.92	95.44
495.138	80.44
495.355	83.44
495.573	84.44
495.79	88.44
496.008	87.44
496.225	78.44
496.442	94.44
496.66	104.44
496.877	98.44
497.094	97.44
497.312	100.44
497.529	91.44
497.746	86.44
497.963	81.44
498.181	89.44
498.398	101.44
498.615	107.44
498.832	104.44
499.049	90.44
499.267	94.44
499.484	91.44
499.701	100.44
499.918	79.44
500.135	86.44
500.352	101.44
500.569	97.44
500.786	98.44
501.003	99.44
501.22	96.44
501.437	92.44
501.654	87.44
501.871	99.44
502.088	93.44
502.305	98.44
502.522	83.44
502.739	88.44
502.956	83.44
503.172	91.44
503.389	89.44
503.606	106.44
503.823	96.44
504.04	94.44
504.256	98.44
504.473	100.44
504.69	103.44
504.907	102.44
505.123	104.44
505.34	70.44
505.557	91.44
505.773	76.44
505.99	79.44
506.207	86.44
506.423	81.44
506.64	86.44
506.856	82.44
507.073	81.44
507.289	81.44
507.506	100.44
507.722	113.44
507.939	108.44
508.155	107.44
508.372	82.44
508.588	88.44
508.805	82.44
509.021	90.44
509.238	92.44
509.454	105.44
509.67	106.44
509.887	94.44
510.103	117.44
510.319	198.44
510.536	664.44
510.752	2037.44
510.968	550.44
511.184	148.44
511.401	102.44
511.617	105.44
511.833	94.44
512.049	94.44
512.265	95.44
512.481	85.44
512.698	81.44
512.914	92.44
513.13	98.44
513.346	87.44
513.562	98.44
513.778	92.44
513.994	114.44
514.21	112.44
514.426	91.44
514.642	121.44
514.858	121.44
515.074	147.44
515.29	410.44
515.506	1284.44
515.721	466.44
515.937	148.44
