Data from Uncirc_1997_H10_HRD10591_00052.txt Node
Date: Wed Jan 03 11:28:41 EST 2024
User: Yrep
Spectrometer: HR+D1059
Trigger mode: 1
Integration Time (sec): 1.000000E-1
Scans to average: 1
Electric dark correction enabled: true
Nonlinearity correction enabled: false
Boxcar width: 0
XAxis mode: Wavelengths
Number of Pixels in Spectrum: 2048
>>>>>Begin Spectral Data<<<<<
223.165	-3.5
223.4	-3.5
223.635	-3.5
223.869	-21.5
224.104	-26.5
224.338	-12.5
224.573	-7.5
224.808	-9.5
225.042	-17.5
225.277	-11.5
225.511	-7.5
225.746	15.5
225.98	5.5
226.215	10.5
226.449	24.5
226.683	14.5
226.918	21.5
227.152	25.5
227.387	33.5
227.621	44.5
227.856	46.5
228.09	52.5
228.324	32.5
228.559	50.5
228.793	53.5
229.027	60.5
229.262	53.5
229.496	76.5
229.73	78.5
229.964	75.5
230.199	61.5
230.433	63.5
230.667	74.5
230.901	77.5
231.136	74.5
231.37	84.5
231.604	72.5
231.838	84.5
232.072	72.5
232.306	81.5
232.541	84.5
232.775	72.5
233.009	77.5
233.243	73.5
233.477	74.5
233.711	88.5
233.945	64.5
234.179	63.5
234.413	81.5
234.647	54.5
234.881	86.5
235.115	79.5
235.349	93.5
235.583	72.5
235.817	70.5
236.051	76.5
236.285	66.5
236.519	74.5
236.753	78.5
236.987	77.5
237.221	84.5
237.455	78.5
237.689	88.5
237.922	85.5
238.156	71.5
238.39	77.5
238.624	80.5
238.858	73.5
239.091	74.5
239.325	71.5
239.559	90.5
239.793	66.5
240.027	85.5
240.26	74.5
240.494	58.5
240.728	73.5
240.961	68.5
241.195	90.5
241.429	77.5
241.662	80.5
241.896	86.5
242.13	83.5
242.363	66.5
242.597	55.5
242.83	80.5
243.064	88.5
243.298	72.5
243.531	90.5
243.765	87.5
243.998	85.5
244.232	77.5
244.465	59.5
244.699	95.5
244.932	59.5
245.166	76.5
245.399	79.5
245.633	67.5
245.866	74.5
246.099	63.5
246.333	80.5
246.566	71.5
246.8	63.5
247.033	86.5
247.266	70.5
247.5	71.5
247.733	68.5
247.966	80.5
248.2	74.5
248.433	69.5
248.666	73.5
248.899	73.5
249.133	79.5
249.366	87.5
249.599	78.5
249.832	82.5
250.066	88.5
250.299	79.5
250.532	80.5
250.765	81.5
250.998	67.5
251.231	82.5
251.465	71.5
251.698	83.5
251.931	70.5
252.164	75.5
252.397	83.5
252.63	72.5
252.863	91.5
253.096	72.5
253.329	73.5
253.562	74.5
253.795	86.5
254.028	61.5
254.261	79.5
254.494	63.5
254.727	83.5
254.96	77.5
255.193	70.5
255.426	72.5
255.659	84.5
255.892	82.5
256.124	79.5
256.357	74.5
256.59	76.5
256.823	68.5
257.056	81.5
257.289	75.5
257.521	93.5
257.754	78.5
257.987	75.5
258.22	63.5
258.452	81.5
258.685	82.5
258.918	80.5
259.151	78.5
259.383	74.5
259.616	60.5
259.849	78.5
260.081	71.5
260.314	77.5
260.547	75.5
260.779	86.5
261.012	80.5
261.244	73.5
261.477	83.5
261.71	100.5
261.942	95.5
262.175	116.5
262.407	86.5
262.64	84.5
262.872	66.5
263.105	88.5
263.337	86.5
263.57	88.5
263.802	84.5
264.035	84.5
264.267	85.5
264.499	78.5
264.732	76.5
264.964	76.5
265.197	63.5
265.429	84.5
265.661	76.5
265.894	83.5
266.126	90.5
266.358	72.5
266.591	78.5
266.823	73.5
267.055	90.5
267.287	92.5
267.52	77.5
267.752	90.5
267.984	97.5
268.216	71.5
268.448	88.5
268.681	96.5
268.913	90.5
269.145	100.5
269.377	85.5
269.609	86.5
269.841	98.5
270.073	78.5
270.306	70.5
270.538	76.5
270.77	83.5
271.002	81.5
271.234	80.5
271.466	77.5
271.698	84.5
271.93	89.5
272.162	85.5
272.394	76.5
272.626	85.5
272.858	91.5
273.09	96.5
273.322	90.5
273.553	86.5
273.785	86.5
274.017	84.5
274.249	74.5
274.481	87.5
274.713	76.5
274.945	74.5
275.176	74.5
275.408	85.5
275.64	72.5
275.872	84.5
276.104	79.5
276.335	80.5
276.567	88.5
276.799	100.5
277.031	96.5
277.262	86.5
277.494	93.5
277.726	75.5
277.957	91.5
278.189	86.5
278.421	73.5
278.652	70.5
278.884	85.5
279.115	60.5
279.347	86.5
279.579	83.5
279.81	75.5
280.042	70.5
280.273	89.5
280.505	77.5
280.736	85.5
280.968	93.5
281.199	89.5
281.431	86.5
281.662	90.5
281.894	90.5
282.125	95.5
282.356	103.5
282.588	121.5
282.819	95.5
283.051	85.5
283.282	82.5
283.513	85.5
283.745	84.5
283.976	74.5
284.207	74.5
284.439	68.5
284.67	90.5
284.901	83.5
285.132	73.5
285.364	74.5
285.595	79.5
285.826	83.5
286.057	91.5
286.288	86.5
286.52	78.5
286.751	102.5
286.982	89.5
287.213	79.5
287.444	82.5
287.675	77.5
287.906	87.5
288.138	84.5
288.369	97.5
288.6	86.5
288.831	73.5
289.062	86.5
289.293	81.5
289.524	78.5
289.755	104.5
289.986	86.5
290.217	96.5
290.448	96.5
290.679	77.5
290.91	88.5
291.141	82.5
291.371	89.5
291.602	88.5
291.833	93.5
292.064	76.5
292.295	84.5
292.526	81.5
292.757	77.5
292.987	84.5
293.218	99.5
293.449	86.5
293.68	84.5
293.91	93.5
294.141	78.5
294.372	79.5
294.603	88.5
294.833	101.5
295.064	99.5
295.295	100.5
295.525	87.5
295.756	110.5
295.987	95.5
296.217	122.5
296.448	124.5
296.679	91.5
296.909	92.5
297.14	87.5
297.37	83.5
297.601	93.5
297.831	96.5
298.062	71.5
298.292	85.5
298.523	83.5
298.753	83.5
298.984	85.5
299.214	87.5
299.445	86.5
299.675	77.5
299.905	82.5
300.136	95.5
300.366	86.5
300.597	84.5
300.827	91.5
301.057	94.5
301.288	94.5
301.518	89.5
301.748	82.5
301.979	88.5
302.209	107.5
302.439	93.5
302.669	90.5
302.9	94.5
303.13	99.5
303.36	75.5
303.59	100.5
303.82	107.5
304.051	91.5
304.281	91.5
304.511	90.5
304.741	77.5
304.971	90.5
305.201	86.5
305.431	90.5
305.661	99.5
305.891	74.5
306.121	88.5
306.352	108.5
306.582	94.5
306.812	96.5
307.042	86.5
307.272	84.5
307.502	97.5
307.731	85.5
307.961	86.5
308.191	86.5
308.421	77.5
308.651	80.5
308.881	83.5
309.111	95.5
309.341	97.5
309.571	95.5
309.8	89.5
310.03	86.5
310.26	90.5
310.49	93.5
310.72	91.5
310.949	85.5
311.179	109.5
311.409	85.5
311.639	91.5
311.868	79.5
312.098	77.5
312.328	94.5
312.557	95.5
312.787	101.5
313.017	96.5
313.246	84.5
313.476	93.5
313.706	84.5
313.935	81.5
314.165	104.5
314.394	93.5
314.624	88.5
314.853	113.5
315.083	92.5
315.312	86.5
315.542	102.5
315.771	76.5
316.001	83.5
316.23	83.5
316.46	84.5
316.689	87.5
316.919	88.5
317.148	81.5
317.377	82.5
317.607	95.5
317.836	80.5
318.065	93.5
318.295	85.5
318.524	76.5
318.753	90.5
318.983	84.5
319.212	96.5
319.441	102.5
319.67	107.5
319.9	87.5
320.129	89.5
320.358	99.5
320.587	90.5
320.816	78.5
321.046	90.5
321.275	96.5
321.504	89.5
321.733	93.5
321.962	85.5
322.191	95.5
322.42	90.5
322.649	111.5
322.878	110.5
323.108	110.5
323.337	101.5
323.566	114.5
323.795	148.5
324.024	188.5
324.253	350.5
324.482	720.5
324.71	1451.5
324.939	1874.5
325.168	706.5
325.397	211.5
325.626	140.5
325.855	111.5
326.084	122.5
326.313	107.5
326.542	131.5
326.77	212.5
326.999	406.5
327.228	846.5
327.457	1487.5
327.686	1170.5
327.914	333.5
328.143	162.5
328.372	144.5
328.6	120.5
328.829	111.5
329.058	116.5
329.287	109.5
329.515	96.5
329.744	107.5
329.972	89.5
330.201	99.5
330.43	104.5
330.658	102.5
330.887	118.5
331.115	115.5
331.344	85.5
331.572	102.5
331.801	97.5
332.03	100.5
332.258	83.5
332.486	102.5
332.715	87.5
332.943	99.5
333.172	93.5
333.4	94.5
333.629	99.5
333.857	109.5
334.085	86.5
334.314	89.5
334.542	101.5
334.771	102.5
334.999	89.5
335.227	107.5
335.455	66.5
335.684	93.5
335.912	104.5
336.14	93.5
336.369	94.5
336.597	103.5
336.825	86.5
337.053	80.5
337.281	95.5
337.51	78.5
337.738	93.5
337.966	93.5
338.194	94.5
338.422	97.5
338.65	90.5
338.878	93.5
339.106	89.5
339.334	99.5
339.562	86.5
339.79	82.5
340.018	78.5
340.246	88.5
340.474	92.5
340.702	85.5
340.93	75.5
341.158	76.5
341.386	102.5
341.614	91.5
341.842	87.5
342.07	91.5
342.298	74.5
342.526	82.5
342.754	83.5
342.981	89.5
343.209	76.5
343.437	95.5
343.665	91.5
343.893	84.5
344.12	89.5
344.348	91.5
344.576	84.5
344.804	81.5
345.031	84.5
345.259	93.5
345.487	97.5
345.714	80.5
345.942	98.5
346.17	90.5
346.397	89.5
346.625	77.5
346.853	97.5
347.08	86.5
347.308	84.5
347.535	106.5
347.763	102.5
347.99	100.5
348.218	103.5
348.445	98.5
348.673	100.5
348.9	87.5
349.128	94.5
349.355	94.5
349.583	87.5
349.81	95.5
350.037	92.5
350.265	97.5
350.492	102.5
350.72	103.5
350.947	98.5
351.174	116.5
351.402	96.5
351.629	95.5
351.856	100.5
352.083	100.5
352.311	98.5
352.538	102.5
352.765	105.5
352.992	117.5
353.22	106.5
353.447	96.5
353.674	98.5
353.901	102.5
354.128	110.5
354.355	92.5
354.583	88.5
354.81	88.5
355.037	87.5
355.264	78.5
355.491	80.5
355.718	86.5
355.945	82.5
356.172	79.5
356.399	95.5
356.626	79.5
356.853	106.5
357.08	90.5
357.307	81.5
357.534	91.5
357.761	82.5
357.988	86.5
358.215	88.5
358.441	89.5
358.668	85.5
358.895	80.5
359.122	75.5
359.349	87.5
359.576	87.5
359.802	94.5
360.029	101.5
360.256	95.5
360.483	95.5
360.709	89.5
360.936	94.5
361.163	78.5
361.39	89.5
361.616	85.5
361.843	75.5
362.07	84.5
362.296	90.5
362.523	86.5
362.749	95.5
362.976	83.5
363.203	78.5
363.429	84.5
363.656	94.5
363.882	87.5
364.109	94.5
364.335	102.5
364.562	83.5
364.788	93.5
365.015	82.5
365.241	99.5
365.468	114.5
365.694	99.5
365.92	87.5
366.147	101.5
366.373	92.5
366.599	94.5
366.826	91.5
367.052	88.5
367.278	93.5
367.505	85.5
367.731	89.5
367.957	95.5
368.184	101.5
368.41	113.5
368.636	114.5
368.862	101.5
369.089	101.5
369.315	89.5
369.541	85.5
369.767	92.5
369.993	80.5
370.219	72.5
370.445	94.5
370.672	84.5
370.898	81.5
371.124	82.5
371.35	92.5
371.576	89.5
371.802	86.5
372.028	90.5
372.254	87.5
372.48	85.5
372.706	86.5
372.932	85.5
373.158	74.5
373.384	68.5
373.61	82.5
373.835	92.5
374.061	88.5
374.287	82.5
374.513	91.5
374.739	85.5
374.965	91.5
375.191	78.5
375.416	79.5
375.642	84.5
375.868	83.5
376.094	102.5
376.319	84.5
376.545	96.5
376.771	84.5
376.997	83.5
377.222	92.5
377.448	98.5
377.674	78.5
377.899	87.5
378.125	74.5
378.35	82.5
378.576	98.5
378.802	86.5
379.027	83.5
379.253	71.5
379.478	91.5
379.704	90.5
379.929	95.5
380.155	95.5
380.38	99.5
380.606	93.5
380.831	100.5
381.057	89.5
381.282	91.5
381.507	89.5
381.733	88.5
381.958	93.5
382.184	90.5
382.409	91.5
382.634	102.5
382.86	94.5
383.085	91.5
383.31	94.5
383.535	93.5
383.761	92.5
383.986	100.5
384.211	85.5
384.436	86.5
384.662	105.5
384.887	96.5
385.112	78.5
385.337	89.5
385.562	90.5
385.787	96.5
386.013	92.5
386.238	102.5
386.463	101.5
386.688	101.5
386.913	94.5
387.138	91.5
387.363	108.5
387.588	102.5
387.813	96.5
388.038	94.5
388.263	107.5
388.488	105.5
388.713	87.5
388.938	100.5
389.163	92.5
389.387	86.5
389.612	103.5
389.837	79.5
390.062	89.5
390.287	97.5
390.512	81.5
390.736	102.5
390.961	89.5
391.186	78.5
391.411	91.5
391.636	88.5
391.86	101.5
392.085	88.5
392.31	84.5
392.534	82.5
392.759	69.5
392.984	80.5
393.208	78.5
393.433	78.5
393.658	83.5
393.882	85.5
394.107	70.5
394.331	83.5
394.556	83.5
394.78	84.5
395.005	90.5
395.229	77.5
395.454	86.5
395.678	75.5
395.903	76.5
396.127	74.5
396.352	86.5
396.576	88.5
396.801	92.5
397.025	84.5
397.249	86.5
397.474	98.5
397.698	86.5
397.922	94.5
398.147	80.5
398.371	89.5
398.595	82.5
398.82	73.5
399.044	89.5
399.268	82.5
399.492	96.5
399.717	84.5
399.941	92.5
400.165	90.5
400.389	90.5
400.613	89.5
400.837	75.5
401.062	87.5
401.286	74.5
401.51	94.5
401.734	99.5
401.958	103.5
402.182	128.5
402.406	143.5
402.63	107.5
402.854	100.5
403.078	72.5
403.302	85.5
403.526	99.5
403.75	81.5
403.974	88.5
404.198	76.5
404.422	75.5
404.645	94.5
404.869	84.5
405.093	88.5
405.317	99.5
405.541	95.5
405.765	93.5
405.988	118.5
406.212	166.5
406.436	206.5
406.66	147.5
406.883	90.5
407.107	91.5
407.331	89.5
407.555	92.5
407.778	81.5
408.002	78.5
408.226	84.5
408.449	83.5
408.673	89.5
408.896	91.5
409.12	73.5
409.344	87.5
409.567	76.5
409.791	82.5
410.014	87.5
410.238	85.5
410.461	79.5
410.685	86.5
410.908	82.5
411.132	116.5
411.355	96.5
411.578	95.5
411.802	79.5
412.025	79.5
412.249	90.5
412.472	85.5
412.695	77.5
412.919	70.5
413.142	76.5
413.365	76.5
413.589	82.5
413.812	80.5
414.035	88.5
414.258	86.5
414.482	87.5
414.705	86.5
414.928	67.5
415.151	80.5
415.374	94.5
415.597	82.5
415.821	60.5
416.044	84.5
416.267	93.5
416.49	80.5
416.713	87.5
416.936	93.5
417.159	88.5
417.382	96.5
417.605	83.5
417.828	95.5
418.051	99.5
418.274	86.5
418.497	72.5
418.72	90.5
418.943	73.5
419.166	85.5
419.389	78.5
419.611	84.5
419.834	72.5
420.057	87.5
420.28	89.5
420.503	78.5
420.726	82.5
420.948	93.5
421.171	82.5
421.394	85.5
421.617	87.5
421.839	73.5
422.062	80.5
422.285	89.5
422.507	93.5
422.73	100.5
422.953	80.5
423.175	93.5
423.398	72.5
423.621	82.5
423.843	94.5
424.066	95.5
424.288	82.5
424.511	74.5
424.733	104.5
424.956	92.5
425.178	101.5
425.401	90.5
425.623	88.5
425.846	73.5
426.068	86.5
426.291	93.5
426.513	86.5
426.735	73.5
426.958	98.5
427.18	93.5
427.402	123.5
427.625	151.5
427.847	107.5
428.069	93.5
428.292	84.5
428.514	76.5
428.736	83.5
428.958	87.5
429.181	87.5
429.403	91.5
429.625	87.5
429.847	84.5
430.069	91.5
430.292	87.5
430.514	74.5
430.736	98.5
430.958	82.5
431.18	75.5
431.402	96.5
431.624	79.5
431.846	87.5
432.068	72.5
432.29	75.5
432.512	92.5
432.734	80.5
432.956	83.5
433.178	90.5
433.4	98.5
433.622	83.5
433.844	87.5
434.066	75.5
434.287	90.5
434.509	76.5
434.731	83.5
434.953	88.5
435.175	80.5
435.397	92.5
435.618	90.5
435.84	88.5
436.062	98.5
436.284	102.5
436.505	79.5
436.727	93.5
436.949	82.5
437.17	87.5
437.392	96.5
437.614	100.5
437.835	92.5
438.057	114.5
438.278	100.5
438.5	90.5
438.721	108.5
438.943	90.5
439.165	90.5
439.386	93.5
439.608	72.5
439.829	95.5
440.05	102.5
440.272	115.5
440.493	90.5
440.715	95.5
440.936	78.5
441.158	76.5
441.379	80.5
441.6	91.5
441.822	90.5
442.043	95.5
442.264	92.5
442.486	87.5
442.707	78.5
442.928	96.5
443.149	109.5
443.371	116.5
443.592	95.5
443.813	100.5
444.034	109.5
444.255	92.5
444.476	88.5
444.698	88.5
444.919	72.5
445.14	110.5
445.361	122.5
445.582	99.5
445.803	130.5
446.024	127.5
446.245	122.5
446.466	91.5
446.687	79.5
446.908	70.5
447.129	88.5
447.35	94.5
447.571	81.5
447.792	76.5
448.013	88.5
448.234	98.5
448.455	96.5
448.675	112.5
448.896	100.5
449.117	86.5
449.338	108.5
449.559	114.5
449.779	115.5
450	84.5
450.221	75.5
450.442	86.5
450.662	84.5
450.883	91.5
451.104	114.5
451.324	96.5
451.545	96.5
451.766	74.5
451.986	91.5
452.207	93.5
452.428	101.5
452.648	92.5
452.869	110.5
453.089	93.5
453.31	96.5
453.53	81.5
453.751	92.5
453.971	90.5
454.192	88.5
454.412	87.5
454.633	85.5
454.853	81.5
455.073	70.5
455.294	90.5
455.514	110.5
455.734	92.5
455.955	76.5
456.175	91.5
456.395	84.5
456.616	62.5
456.836	84.5
457.056	78.5
457.276	78.5
457.497	79.5
457.717	87.5
457.937	100.5
458.157	88.5
458.377	74.5
458.598	103.5
458.818	144.5
459.038	139.5
459.258	101.5
459.478	83.5
459.698	81.5
459.918	88.5
460.138	76.5
460.358	81.5
460.578	89.5
460.798	92.5
461.018	85.5
461.238	94.5
461.458	85.5
461.678	91.5
461.898	87.5
462.118	82.5
462.338	80.5
462.558	92.5
462.777	86.5
462.997	77.5
463.217	85.5
463.437	79.5
463.657	83.5
463.876	80.5
464.096	88.5
464.316	89.5
464.536	90.5
464.755	87.5
464.975	100.5
465.195	146.5
465.414	136.5
465.634	103.5
465.854	78.5
466.073	86.5
466.293	88.5
466.512	90.5
466.732	83.5
466.951	78.5
467.171	82.5
467.391	104.5
467.61	111.5
467.829	99.5
468.049	100.5
468.268	73.5
468.488	71.5
468.707	85.5
468.927	99.5
469.146	73.5
469.365	82.5
469.585	86.5
469.804	88.5
470.023	95.5
470.243	93.5
470.462	89.5
470.681	92.5
470.901	103.5
471.12	82.5
471.339	95.5
471.558	84.5
471.777	80.5
471.997	83.5
472.216	85.5
472.435	99.5
472.654	89.5
472.873	84.5
473.092	85.5
473.311	71.5
473.53	83.5
473.749	76.5
473.968	86.5
474.187	87.5
474.406	93.5
474.625	82.5
474.844	75.5
475.063	91.5
475.282	73.5
475.501	85.5
475.72	86.5
475.939	63.5
476.158	68.5
476.377	80.5
476.596	90.5
476.814	82.5
477.033	81.5
477.252	92.5
477.471	94.5
477.69	97.5
477.908	90.5
478.127	95.5
478.346	91.5
478.564	84.5
478.783	94.5
479.002	84.5
479.22	95.5
479.439	107.5
479.658	93.5
479.876	90.5
480.095	90.5
480.313	83.5
480.532	83.5
480.751	79.5
480.969	82.5
481.188	112.5
481.406	96.5
481.624	86.5
481.843	84.5
482.061	85.5
482.28	87.5
482.498	85.5
482.717	88.5
482.935	83.5
483.153	85.5
483.372	80.5
483.59	83.5
483.808	72.5
484.027	90.5
484.245	93.5
484.463	101.5
484.681	104.5
484.9	96.5
485.118	88.5
485.336	79.5
485.554	92.5
485.772	86.5
485.99	98.5
486.209	92.5
486.427	97.5
486.645	96.5
486.863	100.5
487.081	114.5
487.299	102.5
487.517	89.5
487.735	86.5
487.953	84.5
488.171	93.5
488.389	87.5
488.607	95.5
488.825	74.5
489.043	72.5
489.261	89.5
489.479	88.5
489.696	84.5
489.914	96.5
490.132	83.5
490.35	89.5
490.568	74.5
490.786	88.5
491.003	93.5
491.221	73.5
491.439	80.5
491.657	89.5
491.874	84.5
492.092	93.5
492.31	91.5
492.527	92.5
492.745	73.5
492.963	91.5
493.18	91.5
493.398	98.5
493.615	90.5
493.833	91.5
494.05	110.5
494.268	93.5
494.485	99.5
494.703	84.5
494.92	76.5
495.138	80.5
495.355	82.5
495.573	93.5
495.79	95.5
496.008	91.5
496.225	98.5
496.442	76.5
496.66	78.5
496.877	98.5
497.094	75.5
497.312	79.5
497.529	71.5
497.746	81.5
497.963	94.5
498.181	93.5
498.398	91.5
498.615	89.5
498.832	100.5
499.049	80.5
499.267	90.5
499.484	90.5
499.701	81.5
499.918	103.5
500.135	94.5
500.352	64.5
500.569	83.5
500.786	83.5
501.003	85.5
501.22	90.5
501.437	84.5
501.654	88.5
501.871	103.5
502.088	88.5
502.305	83.5
502.522	84.5
502.739	95.5
502.956	92.5
503.172	96.5
503.389	100.5
503.606	94.5
503.823	81.5
504.04	110.5
504.256	80.5
504.473	80.5
504.69	97.5
504.907	95.5
505.123	92.5
505.34	87.5
505.557	92.5
505.773	86.5
505.99	97.5
506.207	78.5
506.423	88.5
506.64	88.5
506.856	83.5
507.073	83.5
507.289	83.5
507.506	93.5
507.722	96.5
507.939	112.5
508.155	87.5
508.372	93.5
508.588	89.5
508.805	80.5
509.021	82.5
509.238	94.5
509.454	92.5
509.67	95.5
509.887	101.5
510.103	117.5
510.319	195.5
510.536	687.5
510.752	2101.5
510.968	582.5
511.184	143.5
511.401	114.5
511.617	92.5
511.833	86.5
512.049	90.5
512.265	87.5
512.481	106.5
512.698	100.5
512.914	83.5
513.13	99.5
513.346	74.5
513.562	74.5
513.778	99.5
513.994	99.5
514.21	84.5
514.426	112.5
514.642	127.5
514.858	107.5
515.074	156.5
515.29	416.5
515.506	1287.5
515.721	485.5
515.937	146.5
516.153	110.5
516.369	87.5
516.585	86.5
516.801	89.5
517.016	85.5
517.232	97.5
517.448	99.5
517.664	93.5
517.879	91.5
518.095	91.5
518.311	80.5
518.527	94.5
518.742	94.5
518.958	97.5
519.173	91.5
519.389	87.5
519.605	74.5
519.82	86.5
520.036	91.5
520.251	99.5
520.467	112.5
520.682	91.5
520.898	86.5
521.113	123.5
521.329	130.5
521.544	197.5
521.76	512.5
521.975	2098.5
522.19	1286.5
522.406	287.5
522.621	119.5
522.836	94.5
523.052	101.5
523.267	84.5
523.482	96.5
523.698	99.5
523.913	107.5
524.128	103.5
524.343	86.5
524.559	95.5
524.774	93.5
524.989	103.5
525.204	94.5
525.419	80.5
525.634	84.5
525.849	89.5
526.064	90.5
526.28	90.5
526.495	93.5
526.71	82.5
526.925	90.5
527.14	85.5
527.355	77.5
527.57	80.5
527.785	78.5
527.999	84.5
528.214	88.5
528.429	91.5
528.644	87.5
528.859	87.5
529.074	93.5
529.289	116.5
529.503	172.5
529.718	103.5
529.933	91.5
530.148	77.5
530.363	85.5
530.577	77.5
530.792	78.5
531.007	83.5
531.221	85.5
531.436	82.5
531.651	91.5
531.865	87.5
532.08	86.5
532.295	96.5
532.509	80.5
532.724	84.5
532.938	101.5
533.153	88.5
533.367	88.5
533.582	89.5
533.796	86.5
534.011	101.5
534.225	93.5
534.44	99.5
534.654	88.5
534.868	90.5
535.083	84.5
535.297	90.5
535.511	96.5
535.726	86.5
535.94	85.5
536.154	89.5
536.369	97.5
536.583	86.5
536.797	84.5
537.011	76.5
537.225	99.5
