Data from Uncirc_1997_H10_HRD10591_00004.txt Node
Date: Wed Jan 03 11:28:31 EST 2024
User: Yrep
Spectrometer: HR+D1059
Trigger mode: 1
Integration Time (sec): 1.000000E-1
Scans to average: 1
Electric dark correction enabled: true
Nonlinearity correction enabled: false
Boxcar width: 0
XAxis mode: Wavelengths
Number of Pixels in Spectrum: 2048
>>>>>Begin Spectral Data<<<<<
223.165	-8.44
223.4	-8.44
223.635	-8.44
223.869	-15.44
224.104	-31.44
224.338	8.56
224.573	-19.44
224.808	-22.44
225.042	-8.44
225.277	-15.44
225.511	-7.44
225.746	-1.44
225.98	20.56
226.215	-1.44
226.449	17.56
226.683	32.56
226.918	23.56
227.152	28.56
227.387	41.56
227.621	51.56
227.856	43.56
228.09	57.56
228.324	50.56
228.559	58.56
228.793	66.56
229.027	56.56
229.262	68.56
229.496	65.56
229.73	82.56
229.964	91.56
230.199	84.56
230.433	77.56
230.667	84.56
230.901	89.56
231.136	74.56
231.37	73.56
231.604	68.56
231.838	83.56
232.072	93.56
232.306	87.56
232.541	83.56
232.775	69.56
233.009	79.56
233.243	84.56
233.477	83.56
233.711	79.56
233.945	89.56
234.179	77.56
234.413	79.56
234.647	89.56
234.881	71.56
235.115	78.56
235.349	71.56
235.583	85.56
235.817	82.56
236.051	76.56
236.285	78.56
236.519	74.56
236.753	77.56
236.987	78.56
237.221	82.56
237.455	77.56
237.689	81.56
237.922	80.56
238.156	81.56
238.39	78.56
238.624	81.56
238.858	82.56
239.091	85.56
239.325	80.56
239.559	83.56
239.793	75.56
240.027	87.56
240.26	75.56
240.494	90.56
240.728	87.56
240.961	72.56
241.195	78.56
241.429	81.56
241.662	76.56
241.896	77.56
242.13	85.56
242.363	84.56
242.597	80.56
242.83	83.56
243.064	68.56
243.298	91.56
243.531	91.56
243.765	77.56
243.998	75.56
244.232	79.56
244.465	81.56
244.699	72.56
244.932	85.56
245.166	80.56
245.399	82.56
245.633	79.56
245.866	89.56
246.099	89.56
246.333	79.56
246.566	88.56
246.8	67.56
247.033	81.56
247.266	65.56
247.5	82.56
247.733	72.56
247.966	77.56
248.2	87.56
248.433	79.56
248.666	91.56
248.899	79.56
249.133	84.56
249.366	91.56
249.599	95.56
249.832	68.56
250.066	96.56
250.299	85.56
250.532	81.56
250.765	76.56
250.998	73.56
251.231	81.56
251.465	76.56
251.698	79.56
251.931	88.56
252.164	89.56
252.397	81.56
252.63	84.56
252.863	90.56
253.096	68.56
253.329	74.56
253.562	75.56
253.795	71.56
254.028	77.56
254.261	89.56
254.494	76.56
254.727	87.56
254.96	82.56
255.193	78.56
255.426	70.56
255.659	90.56
255.892	67.56
256.124	70.56
256.357	91.56
256.59	98.56
256.823	79.56
257.056	81.56
257.289	87.56
257.521	81.56
257.754	97.56
257.987	80.56
258.22	91.56
258.452	77.56
258.685	74.56
258.918	82.56
259.151	91.56
259.383	73.56
259.616	68.56
259.849	81.56
260.081	75.56
260.314	84.56
260.547	92.56
260.779	79.56
261.012	79.56
261.244	73.56
261.477	93.56
261.71	93.56
261.942	95.56
262.175	113.56
262.407	95.56
262.64	93.56
262.872	83.56
263.105	89.56
263.337	89.56
263.57	86.56
263.802	97.56
264.035	87.56
264.267	78.56
264.499	79.56
264.732	86.56
264.964	82.56
265.197	85.56
265.429	73.56
265.661	84.56
265.894	83.56
266.126	91.56
266.358	88.56
266.591	76.56
266.823	82.56
267.055	78.56
267.287	85.56
267.52	87.56
267.752	98.56
267.984	88.56
268.216	80.56
268.448	96.56
268.681	75.56
268.913	88.56
269.145	84.56
269.377	83.56
269.609	66.56
269.841	79.56
270.073	79.56
270.306	74.56
270.538	93.56
270.77	100.56
271.002	77.56
271.234	91.56
271.466	92.56
271.698	88.56
271.93	94.56
272.162	94.56
272.394	89.56
272.626	91.56
272.858	84.56
273.09	80.56
273.322	73.56
273.553	94.56
273.785	80.56
274.017	85.56
274.249	86.56
274.481	79.56
274.713	83.56
274.945	89.56
275.176	90.56
275.408	108.56
275.64	82.56
275.872	77.56
276.104	82.56
276.335	81.56
276.567	116.56
276.799	94.56
277.031	113.56
277.262	85.56
277.494	100.56
277.726	79.56
277.957	90.56
278.189	95.56
278.421	88.56
278.652	81.56
278.884	80.56
279.115	92.56
279.347	81.56
279.579	92.56
279.81	91.56
280.042	89.56
280.273	83.56
280.505	79.56
280.736	94.56
280.968	94.56
281.199	92.56
281.431	78.56
281.662	89.56
281.894	97.56
282.125	85.56
282.356	111.56
282.588	126.56
282.819	107.56
283.051	96.56
283.282	78.56
283.513	89.56
283.745	79.56
283.976	89.56
284.207	83.56
284.439	84.56
284.67	101.56
284.901	83.56
285.132	72.56
285.364	81.56
285.595	85.56
285.826	85.56
286.057	80.56
286.288	76.56
286.52	90.56
286.751	79.56
286.982	85.56
287.213	93.56
287.444	88.56
287.675	101.56
287.906	73.56
288.138	78.56
288.369	90.56
288.6	84.56
288.831	92.56
289.062	79.56
289.293	93.56
289.524	66.56
289.755	88.56
289.986	77.56
290.217	90.56
290.448	80.56
290.679	79.56
290.91	86.56
291.141	87.56
291.371	99.56
291.602	92.56
291.833	89.56
292.064	99.56
292.295	90.56
292.526	85.56
292.757	89.56
292.987	89.56
293.218	87.56
293.449	81.56
293.68	93.56
293.91	93.56
294.141	80.56
294.372	69.56
294.603	91.56
294.833	92.56
295.064	83.56
295.295	91.56
295.525	91.56
295.756	93.56
295.987	101.56
296.217	120.56
296.448	106.56
296.679	95.56
296.909	86.56
297.14	79.56
297.37	97.56
297.601	94.56
297.831	97.56
298.062	91.56
298.292	81.56
298.523	80.56
298.753	77.56
298.984	91.56
299.214	76.56
299.445	83.56
299.675	98.56
299.905	82.56
300.136	121.56
300.366	89.56
300.597	96.56
300.827	87.56
301.057	91.56
301.288	110.56
301.518	91.56
301.748	100.56
301.979	97.56
302.209	73.56
302.439	83.56
302.669	103.56
302.9	83.56
303.13	93.56
303.36	105.56
303.59	96.56
303.82	106.56
304.051	83.56
304.281	89.56
304.511	102.56
304.741	83.56
304.971	89.56
305.201	107.56
305.431	93.56
305.661	90.56
305.891	102.56
306.121	93.56
306.352	107.56
306.582	104.56
306.812	96.56
307.042	97.56
307.272	99.56
307.502	92.56
307.731	95.56
307.961	85.56
308.191	87.56
308.421	91.56
308.651	93.56
308.881	93.56
309.111	95.56
309.341	92.56
309.571	102.56
309.8	109.56
310.03	91.56
310.26	101.56
310.49	107.56
310.72	97.56
310.949	86.56
311.179	85.56
311.409	91.56
311.639	89.56
311.868	100.56
312.098	81.56
312.328	95.56
312.557	109.56
312.787	104.56
313.017	99.56
313.246	97.56
313.476	109.56
313.706	95.56
313.935	88.56
314.165	108.56
314.394	95.56
314.624	90.56
314.853	101.56
315.083	94.56
315.312	101.56
315.542	92.56
315.771	97.56
316.001	104.56
316.23	91.56
316.46	91.56
316.689	92.56
316.919	98.56
317.148	95.56
317.377	106.56
317.607	114.56
317.836	88.56
318.065	87.56
318.295	101.56
318.524	92.56
318.753	89.56
318.983	99.56
319.212	99.56
319.441	103.56
319.67	120.56
319.9	89.56
320.129	80.56
320.358	90.56
320.587	103.56
320.816	96.56
321.046	100.56
321.275	103.56
321.504	91.56
321.733	106.56
321.962	96.56
322.191	101.56
322.42	99.56
322.649	104.56
322.878	95.56
323.108	96.56
323.337	114.56
323.566	124.56
323.795	134.56
324.024	178.56
324.253	320.56
324.482	725.56
324.71	1424.56
324.939	1822.56
325.168	703.56
325.397	212.56
325.626	124.56
325.855	127.56
326.084	125.56
326.313	112.56
326.542	143.56
326.77	189.56
326.999	402.56
327.228	779.56
327.457	1426.56
327.686	1171.56
327.914	311.56
328.143	158.56
328.372	138.56
328.6	129.56
328.829	111.56
329.058	111.56
329.287	111.56
329.515	107.56
329.744	100.56
329.972	95.56
330.201	110.56
330.43	100.56
330.658	114.56
330.887	120.56
331.115	101.56
331.344	98.56
331.572	108.56
331.801	98.56
332.03	96.56
332.258	89.56
332.486	93.56
332.715	82.56
332.943	91.56
333.172	97.56
333.4	96.56
333.629	109.56
333.857	101.56
334.085	107.56
334.314	97.56
334.542	101.56
334.771	100.56
334.999	99.56
335.227	104.56
335.455	98.56
335.684	100.56
335.912	93.56
336.14	91.56
336.369	87.56
336.597	90.56
336.825	90.56
337.053	97.56
337.281	92.56
337.51	99.56
337.738	108.56
337.966	101.56
338.194	92.56
338.422	91.56
338.65	89.56
338.878	98.56
339.106	100.56
339.334	88.56
339.562	97.56
339.79	103.56
340.018	98.56
340.246	87.56
340.474	88.56
340.702	88.56
340.93	89.56
341.158	91.56
341.386	83.56
341.614	93.56
341.842	82.56
342.07	97.56
342.298	89.56
342.526	77.56
342.754	85.56
342.981	88.56
343.209	90.56
343.437	96.56
343.665	82.56
343.893	68.56
344.12	83.56
344.348	96.56
344.576	90.56
344.804	92.56
345.031	101.56
345.259	86.56
345.487	83.56
345.714	99.56
345.942	97.56
346.17	106.56
346.397	104.56
346.625	91.56
346.853	82.56
347.08	93.56
347.308	93.56
347.535	92.56
347.763	104.56
347.99	79.56
348.218	117.56
348.445	96.56
348.673	90.56
348.9	76.56
349.128	99.56
349.355	85.56
349.583	91.56
349.81	94.56
350.037	93.56
350.265	82.56
350.492	97.56
350.72	96.56
350.947	105.56
351.174	104.56
351.402	116.56
351.629	108.56
351.856	97.56
352.083	90.56
352.311	99.56
352.538	104.56
352.765	101.56
352.992	110.56
353.22	98.56
353.447	109.56
353.674	93.56
353.901	106.56
354.128	89.56
354.355	89.56
354.583	110.56
354.81	99.56
355.037	99.56
355.264	87.56
355.491	97.56
355.718	106.56
355.945	107.56
356.172	111.56
356.399	95.56
356.626	97.56
356.853	91.56
357.08	90.56
357.307	115.56
357.534	89.56
357.761	84.56
357.988	85.56
358.215	94.56
358.441	90.56
358.668	84.56
358.895	87.56
359.122	89.56
359.349	84.56
359.576	94.56
359.802	114.56
360.029	108.56
360.256	102.56
360.483	98.56
360.709	87.56
360.936	94.56
361.163	97.56
361.39	95.56
361.616	93.56
361.843	74.56
362.07	72.56
362.296	98.56
362.523	84.56
362.749	93.56
362.976	99.56
363.203	92.56
363.429	97.56
363.656	87.56
363.882	95.56
364.109	83.56
364.335	103.56
364.562	93.56
364.788	91.56
365.015	96.56
365.241	100.56
365.468	90.56
365.694	86.56
365.92	95.56
366.147	88.56
366.373	89.56
366.599	93.56
366.826	89.56
367.052	88.56
367.278	88.56
367.505	83.56
367.731	84.56
367.957	88.56
368.184	93.56
368.41	97.56
368.636	102.56
368.862	114.56
369.089	99.56
369.315	101.56
369.541	82.56
369.767	90.56
369.993	94.56
370.219	88.56
370.445	89.56
370.672	106.56
370.898	79.56
371.124	87.56
371.35	84.56
371.576	97.56
371.802	87.56
372.028	82.56
372.254	75.56
372.48	101.56
372.706	78.56
372.932	85.56
373.158	83.56
373.384	97.56
373.61	68.56
373.835	97.56
374.061	92.56
374.287	92.56
374.513	86.56
374.739	83.56
374.965	77.56
375.191	110.56
375.416	91.56
375.642	90.56
375.868	108.56
376.094	107.56
376.319	87.56
376.545	94.56
376.771	99.56
376.997	84.56
377.222	82.56
377.448	85.56
377.674	84.56
377.899	108.56
378.125	92.56
378.35	92.56
378.576	83.56
378.802	89.56
379.027	84.56
379.253	85.56
379.478	93.56
379.704	84.56
379.929	81.56
380.155	102.56
380.38	89.56
380.606	100.56
380.831	91.56
381.057	90.56
381.282	90.56
381.507	96.56
381.733	100.56
381.958	111.56
382.184	102.56
382.409	101.56
382.634	100.56
382.86	100.56
383.085	96.56
383.31	113.56
383.535	106.56
383.761	97.56
383.986	80.56
384.211	96.56
384.436	114.56
384.662	106.56
384.887	105.56
385.112	105.56
385.337	99.56
385.562	103.56
385.787	107.56
386.013	109.56
386.238	104.56
386.463	96.56
386.688	101.56
386.913	91.56
387.138	101.56
387.363	106.56
387.588	99.56
387.813	100.56
388.038	96.56
388.263	95.56
388.488	98.56
388.713	100.56
388.938	77.56
389.163	73.56
389.387	83.56
389.612	100.56
389.837	96.56
390.062	95.56
390.287	91.56
390.512	89.56
390.736	93.56
390.961	88.56
391.186	98.56
391.411	96.56
391.636	82.56
391.86	77.56
392.085	95.56
392.31	84.56
392.534	96.56
392.759	83.56
392.984	100.56
393.208	84.56
393.433	84.56
393.658	82.56
393.882	83.56
394.107	83.56
394.331	95.56
394.556	84.56
394.78	100.56
395.005	80.56
395.229	97.56
395.454	84.56
395.678	81.56
395.903	90.56
396.127	75.56
396.352	95.56
396.576	88.56
396.801	105.56
397.025	81.56
397.249	95.56
397.474	87.56
397.698	78.56
397.922	79.56
398.147	81.56
398.371	92.56
398.595	86.56
398.82	91.56
399.044	66.56
399.268	87.56
399.492	101.56
399.717	100.56
399.941	97.56
400.165	105.56
400.389	89.56
400.613	91.56
400.837	99.56
401.062	90.56
401.286	82.56
401.51	89.56
401.734	93.56
401.958	99.56
402.182	119.56
402.406	132.56
402.63	113.56
402.854	90.56
403.078	103.56
403.302	100.56
403.526	79.56
403.75	92.56
403.974	101.56
404.198	73.56
404.422	107.56
404.645	87.56
404.869	88.56
405.093	84.56
405.317	88.56
405.541	91.56
405.765	94.56
405.988	99.56
406.212	152.56
406.436	186.56
406.66	114.56
406.883	105.56
407.107	95.56
407.331	95.56
407.555	86.56
407.778	85.56
408.002	75.56
408.226	91.56
408.449	91.56
408.673	99.56
408.896	100.56
409.12	101.56
409.344	91.56
409.567	89.56
409.791	87.56
410.014	98.56
410.238	103.56
410.461	94.56
410.685	89.56
410.908	92.56
411.132	97.56
411.355	93.56
411.578	92.56
411.802	92.56
412.025	74.56
412.249	95.56
412.472	100.56
412.695	88.56
412.919	92.56
413.142	88.56
413.365	87.56
413.589	89.56
413.812	97.56
414.035	71.56
414.258	88.56
414.482	85.56
414.705	95.56
414.928	99.56
415.151	79.56
415.374	97.56
415.597	80.56
415.821	89.56
416.044	93.56
416.267	93.56
416.49	99.56
416.713	86.56
416.936	89.56
417.159	87.56
417.382	93.56
417.605	90.56
417.828	101.56
418.051	83.56
418.274	88.56
418.497	79.56
418.72	89.56
418.943	89.56
419.166	96.56
419.389	90.56
419.611	87.56
419.834	89.56
420.057	100.56
420.28	90.56
420.503	87.56
420.726	90.56
420.948	90.56
421.171	91.56
421.394	95.56
421.617	89.56
421.839	96.56
422.062	98.56
422.285	91.56
422.507	99.56
422.73	108.56
422.953	98.56
423.175	94.56
423.398	84.56
423.621	74.56
423.843	89.56
424.066	91.56
424.288	96.56
424.511	90.56
424.733	105.56
424.956	103.56
425.178	96.56
425.401	88.56
425.623	104.56
425.846	94.56
426.068	103.56
426.291	85.56
426.513	103.56
426.735	105.56
426.958	93.56
427.18	89.56
427.402	132.56
427.625	140.56
427.847	119.56
428.069	105.56
428.292	86.56
428.514	94.56
428.736	84.56
428.958	88.56
429.181	85.56
429.403	87.56
429.625	83.56
429.847	81.56
430.069	103.56
430.292	93.56
430.514	98.56
430.736	72.56
430.958	79.56
431.18	83.56
431.402	92.56
431.624	84.56
431.846	86.56
432.068	103.56
432.29	80.56
432.512	84.56
432.734	81.56
432.956	85.56
433.178	91.56
433.4	96.56
433.622	91.56
433.844	105.56
434.066	87.56
434.287	91.56
434.509	90.56
434.731	81.56
434.953	95.56
435.175	97.56
435.397	99.56
435.618	91.56
435.84	106.56
436.062	122.56
436.284	104.56
436.505	86.56
436.727	110.56
436.949	96.56
437.17	103.56
437.392	103.56
437.614	88.56
437.835	104.56
438.057	92.56
438.278	98.56
438.5	84.56
438.721	118.56
438.943	101.56
439.165	96.56
439.386	93.56
439.608	102.56
439.829	92.56
440.05	106.56
440.272	129.56
440.493	86.56
440.715	91.56
440.936	92.56
441.158	95.56
441.379	84.56
441.6	91.56
441.822	91.56
442.043	93.56
442.264	101.56
442.486	99.56
442.707	98.56
442.928	104.56
443.149	114.56
443.371	103.56
443.592	104.56
443.813	102.56
444.034	100.56
444.255	89.56
444.476	103.56
444.698	104.56
444.919	84.56
445.14	123.56
445.361	115.56
445.582	101.56
445.803	125.56
446.024	123.56
446.245	127.56
446.466	97.56
446.687	90.56
446.908	92.56
447.129	96.56
447.35	98.56
447.571	92.56
447.792	75.56
448.013	103.56
448.234	102.56
448.455	108.56
448.675	113.56
448.896	102.56
449.117	103.56
449.338	100.56
449.559	120.56
449.779	124.56
450	87.56
450.221	85.56
450.442	78.56
450.662	95.56
450.883	110.56
451.104	101.56
451.324	85.56
451.545	86.56
451.766	89.56
451.986	74.56
452.207	80.56
452.428	88.56
452.648	88.56
452.869	107.56
453.089	109.56
453.31	97.56
453.53	87.56
453.751	92.56
453.971	109.56
454.192	106.56
454.412	75.56
454.633	88.56
454.853	90.56
455.073	89.56
455.294	74.56
455.514	114.56
455.734	96.56
455.955	88.56
456.175	96.56
456.395	87.56
456.616	90.56
456.836	89.56
457.056	76.56
457.276	72.56
457.497	80.56
457.717	95.56
457.937	79.56
458.157	109.56
458.377	88.56
458.598	100.56
458.818	120.56
459.038	133.56
459.258	111.56
459.478	85.56
459.698	96.56
459.918	84.56
460.138	89.56
460.358	79.56
460.578	83.56
460.798	101.56
461.018	90.56
461.238	83.56
461.458	79.56
461.678	84.56
461.898	75.56
462.118	90.56
462.338	92.56
462.558	80.56
462.777	81.56
462.997	82.56
463.217	83.56
463.437	85.56
463.657	82.56
463.876	91.56
464.096	90.56
464.316	93.56
464.536	99.56
464.755	84.56
464.975	99.56
465.195	141.56
465.414	139.56
465.634	109.56
465.854	93.56
466.073	92.56
466.293	107.56
466.512	80.56
466.732	87.56
466.951	94.56
467.171	90.56
467.391	93.56
467.61	89.56
467.829	92.56
468.049	92.56
468.268	81.56
468.488	100.56
468.707	91.56
468.927	85.56
469.146	74.56
469.365	95.56
469.585	108.56
469.804	98.56
470.023	81.56
470.243	99.56
470.462	88.56
470.681	98.56
470.901	90.56
471.12	96.56
471.339	103.56
471.558	82.56
471.777	85.56
471.997	83.56
472.216	98.56
472.435	92.56
472.654	82.56
472.873	92.56
473.092	101.56
473.311	98.56
473.53	86.56
473.749	95.56
473.968	95.56
474.187	109.56
474.406	110.56
474.625	85.56
474.844	75.56
475.063	88.56
475.282	93.56
475.501	93.56
475.72	78.56
475.939	75.56
476.158	74.56
476.377	83.56
476.596	85.56
476.814	85.56
477.033	99.56
477.252	93.56
477.471	80.56
477.69	91.56
477.908	88.56
478.127	94.56
478.346	90.56
478.564	71.56
478.783	88.56
479.002	85.56
479.22	92.56
479.439	98.56
479.658	87.56
479.876	81.56
480.095	88.56
480.313	86.56
480.532	89.56
480.751	102.56
480.969	97.56
481.188	112.56
481.406	100.56
481.624	95.56
481.843	83.56
482.061	83.56
482.28	91.56
482.498	101.56
482.717	95.56
482.935	74.56
483.153	86.56
483.372	84.56
483.59	92.56
483.808	93.56
484.027	88.56
484.245	92.56
484.463	87.56
484.681	100.56
484.9	89.56
485.118	101.56
485.336	94.56
485.554	115.56
485.772	101.56
485.99	93.56
486.209	91.56
486.427	100.56
486.645	111.56
486.863	115.56
487.081	104.56
487.299	95.56
487.517	92.56
487.735	81.56
487.953	91.56
488.171	97.56
488.389	102.56
488.607	99.56
488.825	105.56
489.043	93.56
489.261	86.56
489.479	82.56
489.696	92.56
489.914	95.56
490.132	75.56
490.35	93.56
490.568	84.56
490.786	87.56
491.003	99.56
491.221	101.56
491.439	103.56
491.657	88.56
491.874	93.56
492.092	97.56
492.31	102.56
492.527	105.56
492.745	87.56
492.963	98.56
493.18	85.56
493.398	86.56
493.615	106.56
493.833	91.56
494.05	87.56
494.268	90.56
494.485	97.56
494.703	97.56
494.92	83.56
495.138	89.56
495.355	86.56
495.573	86.56
495.79	90.56
496.008	92.56
496.225	84.56
496.442	91.56
496.66	91.56
496.877	95.56
497.094	97.56
497.312	86.56
497.529	95.56
497.746	96.56
497.963	100.56
498.181	97.56
498.398	99.56
498.615	90.56
498.832	107.56
499.049	91.56
499.267	87.56
499.484	100.56
499.701	100.56
499.918	82.56
500.135	108.56
500.352	93.56
500.569	87.56
500.786	100.56
501.003	92.56
501.22	82.56
501.437	80.56
501.654	91.56
501.871	105.56
502.088	93.56
502.305	84.56
502.522	100.56
502.739	96.56
502.956	96.56
503.172	101.56
503.389	92.56
503.606	98.56
503.823	93.56
504.04	95.56
504.256	100.56
504.473	92.56
504.69	91.56
504.907	79.56
505.123	95.56
505.34	97.56
505.557	85.56
505.773	83.56
505.99	97.56
506.207	103.56
506.423	88.56
506.64	93.56
506.856	96.56
507.073	89.56
507.289	92.56
507.506	103.56
507.722	101.56
507.939	96.56
508.155	100.56
508.372	107.56
508.588	92.56
508.805	90.56
509.021	92.56
509.238	84.56
509.454	91.56
509.67	91.56
509.887	95.56
510.103	130.56
510.319	180.56
510.536	595.56
510.752	1739.56
510.968	496.56
511.184	131.56
511.401	97.56
511.617	109.56
511.833	100.56
512.049	95.56
512.265	96.56
512.481	88.56
512.698	95.56
512.914	79.56
513.13	87.56
513.346	105.56
513.562	96.56
513.778	103.56
513.994	109.56
514.21	98.56
514.426	110.56
514.642	120.56
514.858	103.56
515.074	141.56
515.29	361.56
515.506	1050.56
515.721	401.56
