Data from Uncirc_1997_H10_HRD10591_00060.txt Node
Date: Wed Jan 03 11:28:42 EST 2024
User: Yrep
Spectrometer: HR+D1059
Trigger mode: 1
Integration Time (sec): 1.000000E-1
Scans to average: 1
Electric dark correction enabled: true
Nonlinearity correction enabled: false
Boxcar width: 0
XAxis mode: Wavelengths
Number of Pixels in Spectrum: 2048
>>>>>Begin Spectral Data<<<<<
223.165	-21.62
223.4	-21.62
223.635	-21.62
223.869	-16.62
224.104	-20.62
224.338	-19.62
224.573	-16.62
224.808	-17.62
225.042	-12.62
225.277	9.38
225.511	-1.62
225.746	8.38
225.98	15.38
226.215	8.38
226.449	9.38
226.683	10.38
226.918	30.38
227.152	35.38
227.387	31.38
227.621	32.38
227.856	27.38
228.09	56.38
228.324	69.38
228.559	56.38
228.793	51.38
229.027	77.38
229.262	61.38
229.496	73.38
229.73	62.38
229.964	78.38
230.199	81.38
230.433	55.38
230.667	85.38
230.901	81.38
231.136	83.38
231.37	86.38
231.604	85.38
231.838	83.38
232.072	88.38
232.306	76.38
232.541	73.38
232.775	79.38
233.009	83.38
233.243	87.38
233.477	83.38
233.711	87.38
233.945	80.38
234.179	73.38
234.413	88.38
234.647	73.38
234.881	72.38
235.115	80.38
235.349	87.38
235.583	72.38
235.817	80.38
236.051	77.38
236.285	62.38
236.519	80.38
236.753	72.38
236.987	79.38
237.221	91.38
237.455	88.38
237.689	84.38
237.922	82.38
238.156	87.38
238.39	78.38
238.624	71.38
238.858	74.38
239.091	78.38
239.325	70.38
239.559	91.38
239.793	74.38
240.027	87.38
240.26	89.38
240.494	78.38
240.728	84.38
240.961	81.38
241.195	85.38
241.429	82.38
241.662	73.38
241.896	72.38
242.13	79.38
242.363	71.38
242.597	79.38
242.83	69.38
243.064	76.38
243.298	66.38
243.531	79.38
243.765	89.38
243.998	77.38
244.232	69.38
244.465	81.38
244.699	83.38
244.932	78.38
245.166	73.38
245.399	84.38
245.633	71.38
245.866	82.38
246.099	71.38
246.333	63.38
246.566	83.38
246.8	90.38
247.033	77.38
247.266	73.38
247.5	87.38
247.733	81.38
247.966	86.38
248.2	83.38
248.433	67.38
248.666	85.38
248.899	73.38
249.133	83.38
249.366	90.38
249.599	85.38
249.832	75.38
250.066	81.38
250.299	70.38
250.532	80.38
250.765	95.38
250.998	87.38
251.231	81.38
251.465	78.38
251.698	80.38
251.931	70.38
252.164	78.38
252.397	88.38
252.63	69.38
252.863	85.38
253.096	86.38
253.329	85.38
253.562	62.38
253.795	85.38
254.028	93.38
254.261	73.38
254.494	77.38
254.727	97.38
254.96	96.38
255.193	78.38
255.426	81.38
255.659	89.38
255.892	80.38
256.124	64.38
256.357	79.38
256.59	89.38
256.823	70.38
257.056	74.38
257.289	76.38
257.521	67.38
257.754	78.38
257.987	91.38
258.22	88.38
258.452	83.38
258.685	75.38
258.918	95.38
259.151	78.38
259.383	82.38
259.616	90.38
259.849	79.38
260.081	94.38
260.314	81.38
260.547	72.38
260.779	87.38
261.012	78.38
261.244	84.38
261.477	90.38
261.71	89.38
261.942	114.38
262.175	105.38
262.407	87.38
262.64	90.38
262.872	81.38
263.105	67.38
263.337	75.38
263.57	98.38
263.802	80.38
264.035	75.38
264.267	73.38
264.499	81.38
264.732	81.38
264.964	74.38
265.197	74.38
265.429	84.38
265.661	75.38
265.894	84.38
266.126	94.38
266.358	90.38
266.591	72.38
266.823	81.38
267.055	78.38
267.287	75.38
267.52	80.38
267.752	88.38
267.984	80.38
268.216	85.38
268.448	83.38
268.681	75.38
268.913	75.38
269.145	83.38
269.377	85.38
269.609	68.38
269.841	89.38
270.073	84.38
270.306	91.38
270.538	95.38
270.77	69.38
271.002	89.38
271.234	84.38
271.466	85.38
271.698	94.38
271.93	91.38
272.162	78.38
272.394	99.38
272.626	90.38
272.858	84.38
273.09	95.38
273.322	95.38
273.553	91.38
273.785	80.38
274.017	79.38
274.249	92.38
274.481	89.38
274.713	89.38
274.945	81.38
275.176	86.38
275.408	93.38
275.64	89.38
275.872	82.38
276.104	92.38
276.335	90.38
276.567	85.38
276.799	95.38
277.031	87.38
277.262	74.38
277.494	88.38
277.726	94.38
277.957	88.38
278.189	86.38
278.421	86.38
278.652	85.38
278.884	91.38
279.115	98.38
279.347	89.38
279.579	94.38
279.81	93.38
280.042	81.38
280.273	91.38
280.505	90.38
280.736	98.38
280.968	80.38
281.199	93.38
281.431	93.38
281.662	74.38
281.894	75.38
282.125	89.38
282.356	121.38
282.588	134.38
282.819	93.38
283.051	85.38
283.282	79.38
283.513	89.38
283.745	80.38
283.976	77.38
284.207	81.38
284.439	92.38
284.67	94.38
284.901	83.38
285.132	78.38
285.364	88.38
285.595	81.38
285.826	77.38
286.057	85.38
286.288	81.38
286.52	78.38
286.751	96.38
286.982	90.38
287.213	73.38
287.444	102.38
287.675	87.38
287.906	92.38
288.138	77.38
288.369	93.38
288.6	79.38
288.831	92.38
289.062	78.38
289.293	82.38
289.524	94.38
289.755	85.38
289.986	81.38
290.217	91.38
290.448	88.38
290.679	80.38
290.91	97.38
291.141	82.38
291.371	77.38
291.602	97.38
291.833	92.38
292.064	89.38
292.295	81.38
292.526	74.38
292.757	92.38
292.987	89.38
293.218	94.38
293.449	72.38
293.68	101.38
293.91	88.38
294.141	93.38
294.372	87.38
294.603	86.38
294.833	99.38
295.064	85.38
295.295	92.38
295.525	97.38
295.756	94.38
295.987	99.38
296.217	120.38
296.448	111.38
296.679	107.38
296.909	96.38
297.14	90.38
297.37	94.38
297.601	72.38
297.831	82.38
298.062	81.38
298.292	92.38
298.523	85.38
298.753	90.38
298.984	78.38
299.214	80.38
299.445	77.38
299.675	92.38
299.905	87.38
300.136	99.38
300.366	93.38
300.597	88.38
300.827	84.38
301.057	96.38
301.288	93.38
301.518	83.38
301.748	82.38
301.979	89.38
302.209	82.38
302.439	96.38
302.669	91.38
302.9	87.38
303.13	88.38
303.36	82.38
303.59	100.38
303.82	107.38
304.051	91.38
304.281	98.38
304.511	93.38
304.741	88.38
304.971	98.38
305.201	93.38
305.431	65.38
305.661	76.38
305.891	92.38
306.121	83.38
306.352	92.38
306.582	97.38
306.812	91.38
307.042	81.38
307.272	94.38
307.502	80.38
307.731	99.38
307.961	90.38
308.191	72.38
308.421	97.38
308.651	78.38
308.881	98.38
309.111	80.38
309.341	92.38
309.571	90.38
309.8	94.38
310.03	90.38
310.26	86.38
310.49	93.38
310.72	101.38
310.949	93.38
311.179	96.38
311.409	93.38
311.639	80.38
311.868	85.38
312.098	83.38
312.328	91.38
312.557	94.38
312.787	98.38
313.017	103.38
313.246	85.38
313.476	96.38
313.706	75.38
313.935	83.38
314.165	88.38
314.394	85.38
314.624	100.38
314.853	97.38
315.083	85.38
315.312	104.38
315.542	78.38
315.771	92.38
316.001	92.38
316.23	91.38
316.46	81.38
316.689	91.38
316.919	82.38
317.148	101.38
317.377	90.38
317.607	82.38
317.836	98.38
318.065	89.38
318.295	94.38
318.524	90.38
318.753	83.38
318.983	89.38
319.212	104.38
319.441	91.38
319.67	104.38
319.9	93.38
320.129	107.38
320.358	90.38
320.587	94.38
320.816	88.38
321.046	94.38
321.275	107.38
321.504	91.38
321.733	93.38
321.962	110.38
322.191	104.38
322.42	90.38
322.649	105.38
322.878	113.38
323.108	104.38
323.337	117.38
323.566	113.38
323.795	152.38
324.024	179.38
324.253	331.38
324.482	688.38
324.71	1376.38
324.939	1767.38
325.168	652.38
325.397	215.38
325.626	149.38
325.855	119.38
326.084	123.38
326.313	124.38
326.542	137.38
326.77	215.38
326.999	394.38
327.228	778.38
327.457	1403.38
327.686	1123.38
327.914	304.38
328.143	177.38
328.372	130.38
328.6	112.38
328.829	105.38
329.058	111.38
329.287	133.38
329.515	111.38
329.744	96.38
329.972	94.38
330.201	101.38
330.43	98.38
330.658	116.38
330.887	114.38
331.115	102.38
331.344	92.38
331.572	95.38
331.801	98.38
332.03	105.38
332.258	93.38
332.486	88.38
332.715	90.38
332.943	94.38
333.172	97.38
333.4	98.38
333.629	111.38
333.857	112.38
334.085	98.38
334.314	113.38
334.542	103.38
334.771	102.38
334.999	109.38
335.227	92.38
335.455	90.38
335.684	102.38
335.912	99.38
336.14	92.38
336.369	87.38
336.597	95.38
336.825	97.38
337.053	84.38
337.281	72.38
337.51	78.38
337.738	89.38
337.966	96.38
338.194	107.38
338.422	80.38
338.65	88.38
338.878	92.38
339.106	98.38
339.334	82.38
339.562	86.38
339.79	98.38
340.018	81.38
340.246	86.38
340.474	98.38
340.702	94.38
340.93	97.38
341.158	89.38
341.386	96.38
341.614	89.38
341.842	77.38
342.07	67.38
342.298	91.38
342.526	85.38
342.754	91.38
342.981	80.38
343.209	82.38
343.437	96.38
343.665	90.38
343.893	87.38
344.12	78.38
344.348	82.38
344.576	91.38
344.804	81.38
345.031	96.38
345.259	86.38
345.487	89.38
345.714	90.38
345.942	86.38
346.17	93.38
346.397	75.38
346.625	85.38
346.853	87.38
347.08	91.38
347.308	94.38
347.535	81.38
347.763	83.38
347.99	92.38
348.218	110.38
348.445	88.38
348.673	92.38
348.9	105.38
349.128	97.38
349.355	91.38
349.583	92.38
349.81	88.38
350.037	85.38
350.265	84.38
350.492	91.38
350.72	103.38
350.947	106.38
351.174	104.38
351.402	103.38
351.629	98.38
351.856	87.38
352.083	90.38
352.311	96.38
352.538	108.38
352.765	96.38
352.992	111.38
353.22	114.38
353.447	113.38
353.674	103.38
353.901	107.38
354.128	85.38
354.355	83.38
354.583	96.38
354.81	89.38
355.037	80.38
355.264	106.38
355.491	82.38
355.718	89.38
355.945	92.38
356.172	85.38
356.399	103.38
356.626	103.38
356.853	96.38
357.08	83.38
357.307	78.38
357.534	87.38
357.761	99.38
357.988	90.38
358.215	92.38
358.441	93.38
358.668	83.38
358.895	89.38
359.122	78.38
359.349	74.38
359.576	78.38
359.802	98.38
360.029	104.38
360.256	117.38
360.483	93.38
360.709	80.38
360.936	92.38
361.163	86.38
361.39	74.38
361.616	89.38
361.843	91.38
362.07	81.38
362.296	98.38
362.523	95.38
362.749	87.38
362.976	93.38
363.203	88.38
363.429	108.38
363.656	89.38
363.882	82.38
364.109	91.38
364.335	93.38
364.562	87.38
364.788	96.38
365.015	106.38
365.241	107.38
365.468	83.38
365.694	97.38
365.92	96.38
366.147	85.38
366.373	91.38
366.599	78.38
366.826	88.38
367.052	87.38
367.278	83.38
367.505	95.38
367.731	94.38
367.957	88.38
368.184	101.38
368.41	105.38
368.636	99.38
368.862	113.38
369.089	113.38
369.315	87.38
369.541	94.38
369.767	76.38
369.993	88.38
370.219	87.38
370.445	92.38
370.672	91.38
370.898	97.38
371.124	83.38
371.35	87.38
371.576	88.38
371.802	80.38
372.028	76.38
372.254	93.38
372.48	79.38
372.706	104.38
372.932	90.38
373.158	89.38
373.384	90.38
373.61	71.38
373.835	69.38
374.061	98.38
374.287	80.38
374.513	96.38
374.739	89.38
374.965	86.38
375.191	82.38
375.416	90.38
375.642	85.38
375.868	91.38
376.094	98.38
376.319	101.38
376.545	85.38
376.771	91.38
376.997	93.38
377.222	91.38
377.448	88.38
377.674	79.38
377.899	98.38
378.125	78.38
378.35	89.38
378.576	88.38
378.802	87.38
379.027	86.38
379.253	90.38
379.478	89.38
379.704	96.38
379.929	112.38
380.155	89.38
380.38	82.38
380.606	90.38
380.831	78.38
381.057	81.38
381.282	93.38
381.507	93.38
381.733	86.38
381.958	93.38
382.184	94.38
382.409	85.38
382.634	88.38
382.86	95.38
383.085	93.38
383.31	99.38
383.535	93.38
383.761	107.38
383.986	102.38
384.211	88.38
384.436	85.38
384.662	91.38
384.887	92.38
385.112	107.38
385.337	119.38
385.562	105.38
385.787	116.38
386.013	102.38
386.238	98.38
386.463	98.38
386.688	86.38
386.913	85.38
387.138	96.38
387.363	93.38
387.588	101.38
387.813	88.38
388.038	82.38
388.263	103.38
388.488	101.38
388.713	81.38
388.938	86.38
389.163	92.38
389.387	87.38
389.612	95.38
389.837	89.38
390.062	81.38
390.287	87.38
390.512	85.38
390.736	95.38
390.961	91.38
391.186	79.38
391.411	77.38
391.636	101.38
391.86	74.38
392.085	92.38
392.31	73.38
392.534	81.38
392.759	89.38
392.984	70.38
393.208	84.38
393.433	96.38
393.658	81.38
393.882	92.38
394.107	88.38
394.331	82.38
394.556	95.38
394.78	93.38
395.005	74.38
395.229	85.38
395.454	81.38
395.678	106.38
395.903	86.38
396.127	95.38
396.352	84.38
396.576	61.38
396.801	89.38
397.025	77.38
397.249	92.38
397.474	96.38
397.698	78.38
397.922	84.38
398.147	83.38
398.371	77.38
398.595	80.38
398.82	81.38
399.044	80.38
399.268	97.38
399.492	92.38
399.717	86.38
399.941	86.38
400.165	101.38
400.389	98.38
400.613	85.38
400.837	69.38
401.062	83.38
401.286	98.38
401.51	78.38
401.734	82.38
401.958	89.38
402.182	109.38
402.406	140.38
402.63	105.38
402.854	89.38
403.078	83.38
403.302	83.38
403.526	99.38
403.75	92.38
403.974	92.38
404.198	74.38
404.422	79.38
404.645	93.38
404.869	91.38
405.093	93.38
405.317	85.38
405.541	78.38
405.765	106.38
405.988	116.38
406.212	175.38
406.436	180.38
406.66	137.38
406.883	87.38
407.107	99.38
407.331	93.38
407.555	103.38
407.778	96.38
408.002	91.38
408.226	101.38
408.449	87.38
408.673	89.38
408.896	98.38
409.12	95.38
409.344	95.38
409.567	95.38
409.791	91.38
410.014	87.38
410.238	86.38
410.461	90.38
410.685	89.38
410.908	89.38
411.132	108.38
411.355	99.38
411.578	93.38
411.802	76.38
412.025	79.38
412.249	98.38
412.472	94.38
412.695	74.38
412.919	77.38
413.142	87.38
413.365	81.38
413.589	85.38
413.812	81.38
414.035	89.38
414.258	85.38
414.482	92.38
414.705	82.38
414.928	72.38
415.151	96.38
415.374	98.38
415.597	98.38
415.821	89.38
416.044	93.38
416.267	94.38
416.49	96.38
416.713	92.38
416.936	83.38
417.159	90.38
417.382	81.38
417.605	88.38
417.828	82.38
418.051	91.38
418.274	71.38
418.497	73.38
418.72	94.38
418.943	76.38
419.166	93.38
419.389	96.38
419.611	98.38
419.834	80.38
420.057	84.38
420.28	85.38
420.503	85.38
420.726	88.38
420.948	80.38
421.171	95.38
421.394	82.38
421.617	84.38
421.839	98.38
422.062	89.38
422.285	96.38
422.507	92.38
422.73	106.38
422.953	109.38
423.175	80.38
423.398	87.38
423.621	94.38
423.843	74.38
424.066	90.38
424.288	74.38
424.511	87.38
424.733	86.38
424.956	95.38
425.178	95.38
425.401	94.38
425.623	86.38
425.846	93.38
426.068	101.38
426.291	81.38
426.513	80.38
426.735	99.38
426.958	88.38
427.18	121.38
427.402	111.38
427.625	141.38
427.847	93.38
428.069	88.38
428.292	89.38
428.514	91.38
428.736	83.38
428.958	88.38
429.181	87.38
429.403	93.38
429.625	91.38
429.847	77.38
430.069	90.38
430.292	89.38
430.514	83.38
430.736	81.38
430.958	88.38
431.18	70.38
431.402	88.38
431.624	78.38
431.846	90.38
432.068	78.38
432.29	86.38
432.512	85.38
432.734	99.38
432.956	81.38
433.178	103.38
433.4	91.38
433.622	75.38
433.844	83.38
434.066	68.38
434.287	87.38
434.509	79.38
434.731	84.38
434.953	82.38
435.175	90.38
435.397	98.38
435.618	82.38
435.84	90.38
436.062	114.38
436.284	109.38
436.505	101.38
436.727	113.38
436.949	86.38
437.17	77.38
437.392	106.38
437.614	90.38
437.835	95.38
438.057	107.38
438.278	105.38
438.5	111.38
438.721	109.38
438.943	92.38
439.165	83.38
439.386	82.38
439.608	84.38
439.829	105.38
440.05	104.38
440.272	134.38
440.493	103.38
440.715	87.38
440.936	95.38
441.158	81.38
441.379	81.38
441.6	75.38
441.822	101.38
442.043	92.38
442.264	97.38
442.486	95.38
442.707	100.38
442.928	104.38
443.149	131.38
443.371	114.38
443.592	97.38
443.813	107.38
444.034	96.38
444.255	90.38
444.476	85.38
444.698	86.38
444.919	77.38
445.14	114.38
445.361	103.38
445.582	99.38
445.803	109.38
446.024	131.38
446.245	132.38
446.466	101.38
446.687	74.38
446.908	74.38
447.129	84.38
447.35	87.38
447.571	95.38
447.792	83.38
448.013	93.38
448.234	98.38
448.455	94.38
448.675	102.38
448.896	107.38
449.117	86.38
449.338	86.38
449.559	124.38
449.779	134.38
450	103.38
450.221	85.38
450.442	77.38
450.662	88.38
450.883	103.38
451.104	95.38
451.324	95.38
451.545	78.38
451.766	93.38
451.986	82.38
452.207	77.38
452.428	79.38
452.648	88.38
452.869	108.38
453.089	102.38
453.31	110.38
453.53	81.38
453.751	106.38
453.971	97.38
454.192	93.38
454.412	101.38
454.633	73.38
454.853	93.38
455.073	64.38
455.294	86.38
455.514	96.38
455.734	91.38
455.955	83.38
456.175	85.38
456.395	75.38
456.616	69.38
456.836	93.38
457.056	79.38
457.276	82.38
457.497	90.38
457.717	86.38
457.937	82.38
458.157	97.38
458.377	87.38
458.598	98.38
458.818	114.38
459.038	143.38
459.258	112.38
459.478	94.38
459.698	85.38
459.918	86.38
460.138	93.38
460.358	99.38
460.578	66.38
460.798	91.38
461.018	74.38
461.238	74.38
461.458	80.38
461.678	86.38
461.898	78.38
462.118	76.38
462.338	80.38
462.558	62.38
462.777	76.38
462.997	87.38
463.217	89.38
463.437	98.38
463.657	76.38
463.876	94.38
464.096	93.38
464.316	91.38
464.536	90.38
464.755	96.38
464.975	90.38
465.195	135.38
465.414	135.38
465.634	98.38
465.854	82.38
466.073	92.38
466.293	92.38
466.512	93.38
466.732	74.38
466.951	85.38
467.171	98.38
467.391	89.38
467.61	89.38
467.829	72.38
468.049	108.38
468.268	82.38
468.488	93.38
468.707	93.38
468.927	73.38
469.146	87.38
469.365	79.38
469.585	85.38
469.804	84.38
470.023	74.38
470.243	88.38
470.462	88.38
470.681	99.38
470.901	82.38
471.12	71.38
471.339	82.38
471.558	83.38
471.777	73.38
471.997	78.38
472.216	95.38
472.435	94.38
472.654	78.38
472.873	69.38
473.092	81.38
473.311	99.38
473.53	96.38
473.749	91.38
473.968	102.38
474.187	94.38
474.406	102.38
474.625	88.38
474.844	79.38
475.063	79.38
475.282	98.38
475.501	90.38
475.72	89.38
475.939	90.38
476.158	81.38
476.377	84.38
476.596	89.38
476.814	85.38
477.033	98.38
477.252	95.38
477.471	82.38
477.69	81.38
477.908	89.38
478.127	77.38
478.346	70.38
478.564	86.38
478.783	96.38
479.002	82.38
479.22	84.38
479.439	84.38
479.658	89.38
479.876	74.38
480.095	84.38
480.313	94.38
480.532	92.38
480.751	83.38
480.969	87.38
481.188	106.38
481.406	96.38
481.624	82.38
481.843	97.38
482.061	98.38
482.28	82.38
482.498	97.38
482.717	89.38
482.935	80.38
483.153	81.38
483.372	101.38
483.59	95.38
483.808	88.38
484.027	89.38
484.245	86.38
484.463	110.38
484.681	88.38
484.9	85.38
485.118	83.38
485.336	84.38
485.554	99.38
485.772	84.38
485.99	99.38
486.209	108.38
486.427	88.38
486.645	99.38
486.863	104.38
487.081	98.38
487.299	82.38
487.517	89.38
487.735	92.38
487.953	89.38
488.171	93.38
488.389	93.38
488.607	85.38
488.825	86.38
489.043	87.38
489.261	93.38
489.479	86.38
489.696	80.38
489.914	81.38
490.132	88.38
490.35	88.38
490.568	85.38
490.786	102.38
491.003	94.38
491.221	81.38
491.439	84.38
491.657	96.38
491.874	90.38
492.092	94.38
492.31	86.38
492.527	92.38
492.745	88.38
492.963	98.38
493.18	91.38
493.398	95.38
493.615	88.38
493.833	93.38
494.05	92.38
494.268	93.38
494.485	92.38
494.703	75.38
494.92	105.38
495.138	76.38
495.355	90.38
495.573	82.38
495.79	93.38
496.008	94.38
496.225	76.38
496.442	77.38
496.66	85.38
496.877	110.38
497.094	94.38
497.312	100.38
497.529	99.38
497.746	77.38
497.963	92.38
498.181	83.38
498.398	96.38
498.615	112.38
498.832	94.38
499.049	70.38
499.267	86.38
499.484	90.38
499.701	86.38
499.918	99.38
500.135	95.38
500.352	89.38
500.569	82.38
500.786	106.38
501.003	85.38
501.22	73.38
501.437	97.38
501.654	85.38
501.871	95.38
502.088	88.38
502.305	94.38
502.522	93.38
502.739	83.38
502.956	85.38
503.172	88.38
503.389	96.38
503.606	100.38
503.823	96.38
504.04	86.38
504.256	89.38
504.473	92.38
504.69	82.38
504.907	97.38
505.123	99.38
505.34	91.38
505.557	90.38
505.773	82.38
505.99	91.38
506.207	79.38
506.423	91.38
506.64	82.38
506.856	85.38
507.073	87.38
507.289	80.38
507.506	95.38
507.722	118.38
507.939	96.38
508.155	94.38
508.372	76.38
508.588	78.38
508.805	88.38
509.021	93.38
509.238	85.38
509.454	95.38
509.67	99.38
509.887	107.38
510.103	130.38
510.319	187.38
510.536	610.38
510.752	1856.38
510.968	529.38
511.184	146.38
511.401	109.38
511.617	104.38
511.833	85.38
512.049	82.38
512.265	63.38
512.481	95.38
512.698	81.38
512.914	84.38
513.13	99.38
513.346	98.38
513.562	90.38
513.778	108.38
513.994	93.38
514.21	105.38
514.426	109.38
514.642	114.38
514.858	111.38
515.074	139.38
515.29	365.38
515.506	1104.38
515.721	435.38
515.937	139.38
516.153	110.38
516.369	96.38
516.585	87.38
516.801	95.38
517.016	90.38
517.232	98.38
