Data from Uncirc_1997_H10_HRD10591_00025.txt Node
Date: Wed Jan 03 11:28:35 EST 2024
User: Yrep
Spectrometer: HR+D1059
Trigger mode: 1
Integration Time (sec): 1.000000E-1
Scans to average: 1
Electric dark correction enabled: true
Nonlinearity correction enabled: false
Boxcar width: 0
XAxis mode: Wavelengths
Number of Pixels in Spectrum: 2048
>>>>>Begin Spectral Data<<<<<
223.165	-18.38
223.4	-18.38
223.635	-18.38
223.869	-10.38
224.104	-21.38
224.338	-6.38
224.573	-17.38
224.808	-12.38
225.042	-4.38
225.277	-14.38
225.511	-6.38
225.746	-5.38
225.98	7.62
226.215	11.62
226.449	27.62
226.683	27.62
226.918	9.62
227.152	32.62
227.387	31.62
227.621	29.62
227.856	34.62
228.09	42.62
228.324	48.62
228.559	51.62
228.793	56.62
229.027	58.62
229.262	65.62
229.496	83.62
229.73	67.62
229.964	75.62
230.199	74.62
230.433	77.62
230.667	71.62
230.901	80.62
231.136	79.62
231.37	69.62
231.604	85.62
231.838	72.62
232.072	95.62
232.306	82.62
232.541	89.62
232.775	82.62
233.009	73.62
233.243	81.62
233.477	81.62
233.711	88.62
233.945	85.62
234.179	77.62
234.413	72.62
234.647	66.62
234.881	57.62
235.115	77.62
235.349	67.62
235.583	75.62
235.817	84.62
236.051	81.62
236.285	78.62
236.519	82.62
236.753	78.62
236.987	73.62
237.221	66.62
237.455	85.62
237.689	67.62
237.922	89.62
238.156	90.62
238.39	75.62
238.624	73.62
238.858	83.62
239.091	87.62
239.325	69.62
239.559	81.62
239.793	82.62
240.027	71.62
240.26	81.62
240.494	79.62
240.728	72.62
240.961	79.62
241.195	87.62
241.429	82.62
241.662	67.62
241.896	75.62
242.13	89.62
242.363	91.62
242.597	75.62
242.83	77.62
243.064	70.62
243.298	68.62
243.531	65.62
243.765	75.62
243.998	77.62
244.232	78.62
244.465	78.62
244.699	88.62
244.932	85.62
245.166	62.62
245.399	76.62
245.633	66.62
245.866	74.62
246.099	62.62
246.333	62.62
246.566	79.62
246.8	69.62
247.033	83.62
247.266	64.62
247.5	80.62
247.733	81.62
247.966	73.62
248.2	73.62
248.433	83.62
248.666	88.62
248.899	81.62
249.133	82.62
249.366	81.62
249.599	94.62
249.832	82.62
250.066	81.62
250.299	79.62
250.532	67.62
250.765	78.62
250.998	64.62
251.231	69.62
251.465	75.62
251.698	67.62
251.931	67.62
252.164	73.62
252.397	91.62
252.63	90.62
252.863	85.62
253.096	86.62
253.329	85.62
253.562	84.62
253.795	76.62
254.028	83.62
254.261	91.62
254.494	77.62
254.727	85.62
254.96	83.62
255.193	75.62
255.426	82.62
255.659	82.62
255.892	80.62
256.124	91.62
256.357	80.62
256.59	79.62
256.823	85.62
257.056	75.62
257.289	78.62
257.521	88.62
257.754	71.62
257.987	72.62
258.22	84.62
258.452	66.62
258.685	81.62
258.918	77.62
259.151	88.62
259.383	81.62
259.616	86.62
259.849	78.62
260.081	82.62
260.314	73.62
260.547	72.62
260.779	81.62
261.012	84.62
261.244	91.62
261.477	90.62
261.71	86.62
261.942	99.62
262.175	94.62
262.407	82.62
262.64	74.62
262.872	78.62
263.105	88.62
263.337	103.62
263.57	88.62
263.802	86.62
264.035	76.62
264.267	76.62
264.499	89.62
264.732	71.62
264.964	81.62
265.197	90.62
265.429	74.62
265.661	75.62
265.894	75.62
266.126	91.62
266.358	75.62
266.591	88.62
266.823	90.62
267.055	86.62
267.287	81.62
267.52	86.62
267.752	81.62
267.984	93.62
268.216	102.62
268.448	86.62
268.681	76.62
268.913	96.62
269.145	93.62
269.377	72.62
269.609	83.62
269.841	73.62
270.073	83.62
270.306	73.62
270.538	66.62
270.77	89.62
271.002	87.62
271.234	74.62
271.466	70.62
271.698	86.62
271.93	77.62
272.162	87.62
272.394	87.62
272.626	78.62
272.858	78.62
273.09	81.62
273.322	79.62
273.553	90.62
273.785	82.62
274.017	70.62
274.249	63.62
274.481	72.62
274.713	83.62
274.945	89.62
275.176	83.62
275.408	93.62
275.64	82.62
275.872	74.62
276.104	89.62
276.335	81.62
276.567	81.62
276.799	98.62
277.031	98.62
277.262	80.62
277.494	92.62
277.726	82.62
277.957	85.62
278.189	78.62
278.421	72.62
278.652	85.62
278.884	82.62
279.115	76.62
279.347	83.62
279.579	89.62
279.81	74.62
280.042	96.62
280.273	73.62
280.505	91.62
280.736	75.62
280.968	93.62
281.199	82.62
281.431	81.62
281.662	72.62
281.894	73.62
282.125	86.62
282.356	115.62
282.588	121.62
282.819	112.62
283.051	97.62
283.282	71.62
283.513	91.62
283.745	77.62
283.976	87.62
284.207	86.62
284.439	93.62
284.67	78.62
284.901	73.62
285.132	87.62
285.364	79.62
285.595	84.62
285.826	93.62
286.057	69.62
286.288	78.62
286.52	84.62
286.751	93.62
286.982	81.62
287.213	75.62
287.444	91.62
287.675	94.62
287.906	82.62
288.138	85.62
288.369	81.62
288.6	93.62
288.831	81.62
289.062	82.62
289.293	73.62
289.524	93.62
289.755	81.62
289.986	87.62
290.217	87.62
290.448	93.62
290.679	92.62
290.91	81.62
291.141	90.62
291.371	81.62
291.602	101.62
291.833	85.62
292.064	82.62
292.295	95.62
292.526	87.62
292.757	69.62
292.987	93.62
293.218	86.62
293.449	99.62
293.68	90.62
293.91	75.62
294.141	88.62
294.372	83.62
294.603	110.62
294.833	94.62
295.064	75.62
295.295	84.62
295.525	93.62
295.756	85.62
295.987	115.62
296.217	114.62
296.448	108.62
296.679	85.62
296.909	98.62
297.14	71.62
297.37	89.62
297.601	80.62
297.831	88.62
298.062	78.62
298.292	77.62
298.523	79.62
298.753	86.62
298.984	84.62
299.214	93.62
299.445	99.62
299.675	86.62
299.905	83.62
300.136	85.62
300.366	89.62
300.597	90.62
300.827	91.62
301.057	100.62
301.288	104.62
301.518	88.62
301.748	72.62
301.979	96.62
302.209	83.62
302.439	89.62
302.669	106.62
302.9	89.62
303.13	83.62
303.36	92.62
303.59	89.62
303.82	98.62
304.051	89.62
304.281	97.62
304.511	92.62
304.741	81.62
304.971	95.62
305.201	89.62
305.431	101.62
305.661	85.62
305.891	93.62
306.121	90.62
306.352	89.62
306.582	91.62
306.812	91.62
307.042	80.62
307.272	89.62
307.502	97.62
307.731	101.62
307.961	96.62
308.191	92.62
308.421	85.62
308.651	80.62
308.881	88.62
309.111	84.62
309.341	103.62
309.571	94.62
309.8	83.62
310.03	81.62
310.26	91.62
310.49	81.62
310.72	101.62
310.949	82.62
311.179	94.62
311.409	99.62
311.639	97.62
311.868	80.62
312.098	81.62
312.328	98.62
312.557	98.62
312.787	81.62
313.017	84.62
313.246	83.62
313.476	99.62
313.706	100.62
313.935	91.62
314.165	97.62
314.394	96.62
314.624	87.62
314.853	87.62
315.083	94.62
315.312	87.62
315.542	88.62
315.771	99.62
316.001	82.62
316.23	86.62
316.46	85.62
316.689	91.62
316.919	90.62
317.148	98.62
317.377	98.62
317.607	87.62
317.836	88.62
318.065	96.62
318.295	99.62
318.524	98.62
318.753	91.62
318.983	90.62
319.212	91.62
319.441	103.62
319.67	86.62
319.9	82.62
320.129	85.62
320.358	97.62
320.587	89.62
320.816	87.62
321.046	94.62
321.275	94.62
321.504	98.62
321.733	98.62
321.962	93.62
322.191	105.62
322.42	110.62
322.649	98.62
322.878	98.62
323.108	119.62
323.337	113.62
323.566	136.62
323.795	128.62
324.024	173.62
324.253	334.62
324.482	668.62
324.71	1334.62
324.939	1747.62
325.168	659.62
325.397	208.62
325.626	131.62
325.855	107.62
326.084	115.62
326.313	127.62
326.542	129.62
326.77	199.62
326.999	386.62
327.228	762.62
327.457	1390.62
327.686	1089.62
327.914	309.62
328.143	157.62
328.372	130.62
328.6	105.62
328.829	113.62
329.058	114.62
329.287	107.62
329.515	96.62
329.744	89.62
329.972	92.62
330.201	85.62
330.43	113.62
330.658	100.62
330.887	111.62
331.115	130.62
331.344	99.62
331.572	109.62
331.801	94.62
332.03	89.62
332.258	92.62
332.486	93.62
332.715	94.62
332.943	83.62
333.172	105.62
333.4	93.62
333.629	112.62
333.857	121.62
334.085	100.62
334.314	105.62
334.542	113.62
334.771	96.62
334.999	97.62
335.227	99.62
335.455	90.62
335.684	93.62
335.912	90.62
336.14	99.62
336.369	100.62
336.597	87.62
336.825	108.62
337.053	91.62
337.281	86.62
337.51	94.62
337.738	102.62
337.966	80.62
338.194	89.62
338.422	86.62
338.65	80.62
338.878	93.62
339.106	97.62
339.334	94.62
339.562	110.62
339.79	91.62
340.018	94.62
340.246	88.62
340.474	85.62
340.702	87.62
340.93	88.62
341.158	97.62
341.386	84.62
341.614	94.62
341.842	91.62
342.07	97.62
342.298	97.62
342.526	87.62
342.754	82.62
342.981	80.62
343.209	94.62
343.437	101.62
343.665	88.62
343.893	82.62
344.12	89.62
344.348	74.62
344.576	85.62
344.804	94.62
345.031	104.62
345.259	85.62
345.487	89.62
345.714	88.62
345.942	95.62
346.17	100.62
346.397	91.62
346.625	95.62
346.853	97.62
347.08	94.62
347.308	89.62
347.535	93.62
347.763	99.62
347.99	99.62
348.218	103.62
348.445	94.62
348.673	103.62
348.9	105.62
349.128	105.62
349.355	106.62
349.583	92.62
349.81	91.62
350.037	97.62
350.265	102.62
350.492	98.62
350.72	76.62
350.947	96.62
351.174	99.62
351.402	105.62
351.629	107.62
351.856	76.62
352.083	117.62
352.311	95.62
352.538	103.62
352.765	97.62
352.992	115.62
353.22	108.62
353.447	93.62
353.674	98.62
353.901	83.62
354.128	80.62
354.355	77.62
354.583	84.62
354.81	92.62
355.037	78.62
355.264	102.62
355.491	102.62
355.718	96.62
355.945	94.62
356.172	102.62
356.399	96.62
356.626	99.62
356.853	94.62
357.08	106.62
357.307	93.62
357.534	92.62
357.761	94.62
357.988	87.62
358.215	79.62
358.441	106.62
358.668	90.62
358.895	95.62
359.122	98.62
359.349	97.62
359.576	82.62
359.802	97.62
360.029	93.62
360.256	101.62
360.483	102.62
360.709	85.62
360.936	82.62
361.163	87.62
361.39	95.62
361.616	105.62
361.843	89.62
362.07	79.62
362.296	98.62
362.523	89.62
362.749	95.62
362.976	91.62
363.203	75.62
363.429	73.62
363.656	90.62
363.882	92.62
364.109	85.62
364.335	81.62
364.562	104.62
364.788	84.62
365.015	93.62
365.241	93.62
365.468	99.62
365.694	95.62
365.92	82.62
366.147	89.62
366.373	80.62
366.599	77.62
366.826	79.62
367.052	85.62
367.278	94.62
367.505	91.62
367.731	91.62
367.957	97.62
368.184	110.62
368.41	96.62
368.636	110.62
368.862	110.62
369.089	96.62
369.315	87.62
369.541	87.62
369.767	90.62
369.993	95.62
370.219	73.62
370.445	83.62
370.672	85.62
370.898	78.62
371.124	78.62
371.35	82.62
371.576	91.62
371.802	91.62
372.028	71.62
372.254	81.62
372.48	93.62
372.706	95.62
372.932	99.62
373.158	94.62
373.384	83.62
373.61	85.62
373.835	87.62
374.061	93.62
374.287	93.62
374.513	87.62
374.739	75.62
374.965	88.62
375.191	92.62
375.416	81.62
375.642	102.62
375.868	78.62
376.094	78.62
376.319	105.62
376.545	75.62
376.771	87.62
376.997	110.62
377.222	87.62
377.448	79.62
377.674	82.62
377.899	105.62
378.125	94.62
378.35	90.62
378.576	87.62
378.802	88.62
379.027	84.62
379.253	95.62
379.478	85.62
379.704	87.62
379.929	88.62
380.155	86.62
380.38	92.62
380.606	88.62
380.831	94.62
381.057	89.62
381.282	88.62
381.507	84.62
381.733	93.62
381.958	91.62
382.184	101.62
382.409	107.62
382.634	105.62
382.86	91.62
383.085	120.62
383.31	104.62
383.535	95.62
383.761	91.62
383.986	89.62
384.211	93.62
384.436	90.62
384.662	105.62
384.887	93.62
385.112	86.62
385.337	101.62
385.562	89.62
385.787	87.62
386.013	92.62
386.238	107.62
386.463	102.62
386.688	97.62
386.913	88.62
387.138	108.62
387.363	88.62
387.588	97.62
387.813	85.62
388.038	96.62
388.263	100.62
388.488	104.62
388.713	103.62
388.938	88.62
389.163	99.62
389.387	93.62
389.612	81.62
389.837	97.62
390.062	84.62
390.287	85.62
390.512	93.62
390.736	94.62
390.961	113.62
391.186	87.62
391.411	106.62
391.636	90.62
391.86	72.62
392.085	89.62
392.31	83.62
392.534	77.62
392.759	83.62
392.984	87.62
393.208	84.62
393.433	89.62
393.658	99.62
393.882	74.62
394.107	83.62
394.331	81.62
394.556	87.62
394.78	84.62
395.005	93.62
395.229	88.62
395.454	103.62
395.678	105.62
395.903	78.62
396.127	80.62
396.352	101.62
396.576	90.62
396.801	89.62
397.025	84.62
397.249	88.62
397.474	83.62
397.698	73.62
397.922	90.62
398.147	83.62
398.371	75.62
398.595	86.62
398.82	78.62
399.044	98.62
399.268	90.62
399.492	76.62
399.717	77.62
399.941	90.62
400.165	89.62
400.389	98.62
400.613	87.62
400.837	74.62
401.062	80.62
401.286	89.62
401.51	82.62
401.734	104.62
401.958	93.62
402.182	108.62
402.406	125.62
402.63	107.62
402.854	93.62
403.078	91.62
403.302	79.62
403.526	69.62
403.75	87.62
403.974	85.62
404.198	102.62
404.422	77.62
404.645	82.62
404.869	94.62
405.093	88.62
405.317	91.62
405.541	100.62
405.765	82.62
405.988	107.62
406.212	152.62
406.436	178.62
406.66	118.62
406.883	89.62
407.107	95.62
407.331	82.62
407.555	91.62
407.778	104.62
408.002	82.62
408.226	87.62
408.449	93.62
408.673	83.62
408.896	91.62
409.12	85.62
409.344	85.62
409.567	86.62
409.791	92.62
410.014	87.62
410.238	97.62
410.461	82.62
410.685	81.62
410.908	99.62
411.132	112.62
411.355	99.62
411.578	90.62
411.802	101.62
412.025	89.62
412.249	85.62
412.472	79.62
412.695	95.62
412.919	81.62
413.142	87.62
413.365	91.62
413.589	81.62
413.812	90.62
414.035	94.62
414.258	106.62
414.482	102.62
414.705	89.62
414.928	84.62
415.151	88.62
415.374	91.62
415.597	86.62
415.821	91.62
416.044	80.62
416.267	64.62
416.49	78.62
416.713	79.62
416.936	92.62
417.159	89.62
417.382	92.62
417.605	82.62
417.828	100.62
418.051	81.62
418.274	83.62
418.497	90.62
418.72	80.62
418.943	89.62
419.166	88.62
419.389	94.62
419.611	107.62
419.834	82.62
420.057	94.62
420.28	91.62
420.503	87.62
420.726	82.62
420.948	84.62
421.171	86.62
421.394	101.62
421.617	92.62
421.839	89.62
422.062	99.62
422.285	103.62
422.507	90.62
422.73	114.62
422.953	97.62
423.175	82.62
423.398	85.62
423.621	98.62
423.843	98.62
424.066	97.62
424.288	93.62
424.511	89.62
424.733	86.62
424.956	107.62
425.178	94.62
425.401	92.62
425.623	86.62
425.846	93.62
426.068	85.62
426.291	81.62
426.513	86.62
426.735	87.62
426.958	64.62
427.18	98.62
427.402	117.62
427.625	137.62
427.847	113.62
428.069	102.62
428.292	85.62
428.514	94.62
428.736	86.62
428.958	98.62
429.181	86.62
429.403	94.62
429.625	87.62
429.847	105.62
430.069	96.62
430.292	100.62
430.514	80.62
430.736	73.62
430.958	93.62
431.18	86.62
431.402	89.62
431.624	77.62
431.846	77.62
432.068	87.62
432.29	94.62
432.512	77.62
432.734	86.62
432.956	85.62
433.178	95.62
433.4	81.62
433.622	85.62
433.844	93.62
434.066	85.62
434.287	83.62
434.509	90.62
434.731	94.62
434.953	93.62
435.175	90.62
435.397	90.62
435.618	94.62
435.84	96.62
436.062	113.62
436.284	106.62
436.505	97.62
436.727	103.62
436.949	71.62
437.17	86.62
437.392	72.62
437.614	112.62
437.835	105.62
438.057	109.62
438.278	107.62
438.5	104.62
438.721	105.62
438.943	88.62
439.165	88.62
439.386	84.62
439.608	84.62
439.829	104.62
440.05	117.62
440.272	118.62
440.493	89.62
440.715	81.62
440.936	94.62
441.158	82.62
441.379	87.62
441.6	86.62
441.822	77.62
442.043	88.62
442.264	98.62
442.486	103.62
442.707	93.62
442.928	101.62
443.149	121.62
443.371	118.62
443.592	80.62
443.813	95.62
444.034	110.62
444.255	81.62
444.476	80.62
444.698	76.62
444.919	80.62
445.14	134.62
445.361	114.62
445.582	114.62
445.803	124.62
446.024	127.62
446.245	122.62
446.466	111.62
446.687	84.62
446.908	87.62
447.129	89.62
447.35	89.62
447.571	74.62
447.792	89.62
448.013	87.62
448.234	92.62
448.455	85.62
448.675	94.62
448.896	108.62
449.117	79.62
449.338	88.62
449.559	114.62
449.779	128.62
450	83.62
450.221	87.62
450.442	98.62
450.662	96.62
450.883	102.62
451.104	113.62
451.324	89.62
451.545	82.62
451.766	78.62
451.986	71.62
452.207	77.62
452.428	90.62
452.648	85.62
452.869	107.62
453.089	96.62
453.31	95.62
453.53	90.62
453.751	81.62
453.971	90.62
454.192	97.62
454.412	108.62
454.633	74.62
454.853	90.62
455.073	78.62
455.294	80.62
455.514	95.62
455.734	94.62
455.955	93.62
456.175	73.62
456.395	87.62
456.616	71.62
456.836	83.62
457.056	89.62
457.276	87.62
457.497	96.62
457.717	76.62
457.937	86.62
458.157	81.62
458.377	107.62
458.598	93.62
458.818	122.62
459.038	149.62
459.258	109.62
459.478	91.62
459.698	88.62
459.918	93.62
460.138	101.62
460.358	87.62
460.578	84.62
460.798	73.62
461.018	90.62
461.238	89.62
461.458	94.62
461.678	79.62
461.898	86.62
462.118	65.62
462.338	75.62
462.558	97.62
462.777	77.62
462.997	82.62
463.217	70.62
463.437	73.62
463.657	86.62
463.876	98.62
464.096	80.62
464.316	81.62
464.536	81.62
464.755	82.62
464.975	93.62
465.195	134.62
465.414	115.62
465.634	77.62
465.854	87.62
466.073	88.62
466.293	95.62
466.512	91.62
466.732	92.62
466.951	82.62
467.171	83.62
467.391	93.62
467.61	96.62
467.829	92.62
468.049	89.62
468.268	89.62
468.488	86.62
468.707	79.62
468.927	85.62
469.146	88.62
469.365	90.62
469.585	89.62
469.804	88.62
470.023	86.62
470.243	88.62
470.462	96.62
470.681	95.62
470.901	91.62
471.12	93.62
471.339	81.62
471.558	91.62
471.777	87.62
471.997	86.62
472.216	78.62
472.435	87.62
472.654	91.62
472.873	83.62
473.092	90.62
473.311	82.62
473.53	86.62
473.749	85.62
473.968	90.62
474.187	91.62
474.406	92.62
474.625	91.62
474.844	96.62
475.063	80.62
475.282	84.62
475.501	78.62
475.72	86.62
475.939	89.62
476.158	90.62
476.377	95.62
476.596	89.62
476.814	85.62
477.033	77.62
477.252	92.62
477.471	85.62
477.69	83.62
477.908	94.62
478.127	86.62
478.346	84.62
478.564	96.62
478.783	99.62
479.002	105.62
479.22	99.62
479.439	87.62
479.658	99.62
479.876	97.62
480.095	70.62
480.313	91.62
480.532	80.62
480.751	75.62
480.969	97.62
481.188	106.62
481.406	89.62
481.624	81.62
481.843	81.62
482.061	84.62
482.28	79.62
482.498	89.62
482.717	90.62
482.935	88.62
483.153	88.62
483.372	76.62
483.59	90.62
483.808	97.62
484.027	93.62
484.245	83.62
484.463	91.62
484.681	95.62
484.9	92.62
485.118	94.62
485.336	93.62
485.554	94.62
485.772	98.62
485.99	105.62
486.209	109.62
486.427	103.62
486.645	107.62
486.863	86.62
487.081	102.62
487.299	104.62
487.517	91.62
487.735	100.62
487.953	95.62
488.171	89.62
488.389	97.62
488.607	96.62
488.825	96.62
489.043	82.62
489.261	102.62
489.479	79.62
489.696	79.62
489.914	89.62
490.132	87.62
490.35	79.62
490.568	94.62
490.786	93.62
491.003	82.62
491.221	85.62
491.439	81.62
491.657	96.62
491.874	96.62
492.092	63.62
492.31	81.62
492.527	96.62
492.745	97.62
492.963	88.62
493.18	88.62
493.398	102.62
493.615	101.62
493.833	87.62
494.05	85.62
494.268	83.62
494.485	80.62
494.703	104.62
494.92	94.62
495.138	90.62
495.355	91.62
495.573	93.62
495.79	81.62
496.008	73.62
496.225	83.62
496.442	86.62
496.66	72.62
496.877	102.62
497.094	105.62
497.312	95.62
497.529	87.62
497.746	102.62
497.963	72.62
498.181	93.62
498.398	95.62
498.615	85.62
498.832	95.62
499.049	88.62
499.267	85.62
499.484	88.62
499.701	100.62
499.918	93.62
500.135	96.62
500.352	106.62
500.569	90.62
500.786	97.62
501.003	88.62
501.22	79.62
501.437	74.62
501.654	88.62
501.871	93.62
502.088	93.62
502.305	90.62
502.522	78.62
502.739	82.62
502.956	94.62
503.172	84.62
503.389	86.62
503.606	98.62
503.823	105.62
504.04	95.62
504.256	86.62
504.473	73.62
504.69	93.62
504.907	85.62
505.123	78.62
505.34	79.62
505.557	92.62
505.773	79.62
505.99	85.62
506.207	96.62
506.423	92.62
506.64	90.62
506.856	88.62
507.073	95.62
507.289	98.62
507.506	87.62
507.722	106.62
507.939	118.62
508.155	92.62
508.372	95.62
508.588	98.62
508.805	94.62
509.021	101.62
509.238	97.62
509.454	107.62
509.67	96.62
509.887	95.62
510.103	120.62
510.319	183.62
510.536	562.62
510.752	1689.62
510.968	480.62
511.184	117.62
511.401	98.62
511.617	97.62
511.833	90.62
512.049	78.62
512.265	85.62
512.481	101.62
512.698	92.62
512.914	89.62
513.13	81.62
513.346	95.62
513.562	92.62
513.778	97.62
513.994	91.62
514.21	108.62
514.426	109.62
514.642	105.62
514.858	126.62
515.074	139.62
515.29	345.62
515.506	1043.62
515.721	366.62
515.937	124.62
516.153	92.62
516.369	86.62
516.585	88.62
516.801	92.62
517.016	95.62
