Data from Uncirc_1997_H10_HRD10591_00054.txt Node
Date: Wed Jan 03 11:28:41 EST 2024
User: Yrep
Spectrometer: HR+D1059
Trigger mode: 1
Integration Time (sec): 1.000000E-1
Scans to average: 1
Electric dark correction enabled: true
Nonlinearity correction enabled: false
Boxcar width: 0
XAxis mode: Wavelengths
Number of Pixels in Spectrum: 2048
>>>>>Begin Spectral Data<<<<<
223.165	-22.25
223.4	-22.25
223.635	-22.25
223.869	-18.25
224.104	-18.25
224.338	-14.25
224.573	-11.25
224.808	-15.25
225.042	-9.25
225.277	8.75
225.511	-9.25
225.746	7.75
225.98	15.75
226.215	11.75
226.449	26.75
226.683	9.75
226.918	17.75
227.152	19.75
227.387	33.75
227.621	42.75
227.856	47.75
228.09	30.75
228.324	40.75
228.559	55.75
228.793	58.75
229.027	64.75
229.262	58.75
229.496	69.75
229.73	85.75
229.964	74.75
230.199	75.75
230.433	60.75
230.667	78.75
230.901	71.75
231.136	77.75
231.37	80.75
231.604	83.75
231.838	67.75
232.072	87.75
232.306	69.75
232.541	92.75
232.775	74.75
233.009	77.75
233.243	91.75
233.477	67.75
233.711	87.75
233.945	69.75
234.179	63.75
234.413	77.75
234.647	81.75
234.881	60.75
235.115	76.75
235.349	85.75
235.583	79.75
235.817	70.75
236.051	81.75
236.285	67.75
236.519	71.75
236.753	72.75
236.987	90.75
237.221	90.75
237.455	77.75
237.689	71.75
237.922	77.75
238.156	64.75
238.39	83.75
238.624	75.75
238.858	73.75
239.091	72.75
239.325	80.75
239.559	69.75
239.793	76.75
240.027	74.75
240.26	75.75
240.494	67.75
240.728	81.75
240.961	75.75
241.195	78.75
241.429	82.75
241.662	78.75
241.896	86.75
242.13	79.75
242.363	76.75
242.597	57.75
242.83	65.75
243.064	75.75
243.298	92.75
243.531	72.75
243.765	75.75
243.998	79.75
244.232	81.75
244.465	72.75
244.699	62.75
244.932	73.75
245.166	74.75
245.399	71.75
245.633	85.75
245.866	69.75
246.099	70.75
246.333	67.75
246.566	82.75
246.8	75.75
247.033	70.75
247.266	78.75
247.5	76.75
247.733	74.75
247.966	79.75
248.2	78.75
248.433	84.75
248.666	77.75
248.899	87.75
249.133	97.75
249.366	89.75
249.599	95.75
249.832	59.75
250.066	77.75
250.299	73.75
250.532	81.75
250.765	86.75
250.998	73.75
251.231	75.75
251.465	87.75
251.698	73.75
251.931	78.75
252.164	86.75
252.397	73.75
252.63	81.75
252.863	68.75
253.096	72.75
253.329	79.75
253.562	89.75
253.795	80.75
254.028	81.75
254.261	70.75
254.494	74.75
254.727	66.75
254.96	69.75
255.193	76.75
255.426	85.75
255.659	75.75
255.892	93.75
256.124	83.75
256.357	94.75
256.59	72.75
256.823	84.75
257.056	81.75
257.289	70.75
257.521	83.75
257.754	81.75
257.987	96.75
258.22	73.75
258.452	75.75
258.685	73.75
258.918	72.75
259.151	81.75
259.383	78.75
259.616	71.75
259.849	80.75
260.081	86.75
260.314	75.75
260.547	81.75
260.779	77.75
261.012	67.75
261.244	73.75
261.477	79.75
261.71	97.75
261.942	102.75
262.175	91.75
262.407	78.75
262.64	74.75
262.872	75.75
263.105	76.75
263.337	82.75
263.57	85.75
263.802	73.75
264.035	93.75
264.267	87.75
264.499	89.75
264.732	88.75
264.964	73.75
265.197	76.75
265.429	92.75
265.661	78.75
265.894	94.75
266.126	91.75
266.358	74.75
266.591	69.75
266.823	72.75
267.055	82.75
267.287	75.75
267.52	73.75
267.752	73.75
267.984	86.75
268.216	92.75
268.448	93.75
268.681	82.75
268.913	90.75
269.145	95.75
269.377	78.75
269.609	75.75
269.841	88.75
270.073	94.75
270.306	87.75
270.538	82.75
270.77	77.75
271.002	71.75
271.234	81.75
271.466	77.75
271.698	85.75
271.93	82.75
272.162	96.75
272.394	92.75
272.626	86.75
272.858	77.75
273.09	79.75
273.322	81.75
273.553	88.75
273.785	78.75
274.017	82.75
274.249	77.75
274.481	88.75
274.713	78.75
274.945	85.75
275.176	72.75
275.408	97.75
275.64	80.75
275.872	75.75
276.104	96.75
276.335	85.75
276.567	87.75
276.799	101.75
277.031	98.75
277.262	77.75
277.494	97.75
277.726	86.75
277.957	88.75
278.189	76.75
278.421	83.75
278.652	97.75
278.884	71.75
279.115	75.75
279.347	94.75
279.579	86.75
279.81	85.75
280.042	88.75
280.273	89.75
280.505	88.75
280.736	92.75
280.968	83.75
281.199	73.75
281.431	70.75
281.662	87.75
281.894	86.75
282.125	94.75
282.356	123.75
282.588	130.75
282.819	104.75
283.051	93.75
283.282	81.75
283.513	83.75
283.745	75.75
283.976	91.75
284.207	84.75
284.439	95.75
284.67	87.75
284.901	71.75
285.132	74.75
285.364	88.75
285.595	82.75
285.826	81.75
286.057	83.75
286.288	81.75
286.52	91.75
286.751	98.75
286.982	85.75
287.213	86.75
287.444	78.75
287.675	88.75
287.906	89.75
288.138	93.75
288.369	92.75
288.6	96.75
288.831	83.75
289.062	75.75
289.293	92.75
289.524	86.75
289.755	83.75
289.986	79.75
290.217	81.75
290.448	85.75
290.679	71.75
290.91	83.75
291.141	89.75
291.371	86.75
291.602	75.75
291.833	91.75
292.064	87.75
292.295	95.75
292.526	88.75
292.757	85.75
292.987	80.75
293.218	83.75
293.449	85.75
293.68	85.75
293.91	88.75
294.141	92.75
294.372	93.75
294.603	84.75
294.833	92.75
295.064	79.75
295.295	91.75
295.525	81.75
295.756	97.75
295.987	105.75
296.217	118.75
296.448	111.75
296.679	88.75
296.909	102.75
297.14	98.75
297.37	92.75
297.601	83.75
297.831	85.75
298.062	90.75
298.292	97.75
298.523	89.75
298.753	80.75
298.984	70.75
299.214	68.75
299.445	78.75
299.675	82.75
299.905	83.75
300.136	92.75
300.366	95.75
300.597	81.75
300.827	89.75
301.057	99.75
301.288	93.75
301.518	105.75
301.748	101.75
301.979	97.75
302.209	96.75
302.439	97.75
302.669	81.75
302.9	89.75
303.13	91.75
303.36	79.75
303.59	94.75
303.82	87.75
304.051	91.75
304.281	101.75
304.511	77.75
304.741	89.75
304.971	96.75
305.201	89.75
305.431	90.75
305.661	81.75
305.891	87.75
306.121	105.75
306.352	84.75
306.582	93.75
306.812	87.75
307.042	85.75
307.272	97.75
307.502	76.75
307.731	79.75
307.961	94.75
308.191	86.75
308.421	100.75
308.651	106.75
308.881	100.75
309.111	85.75
309.341	94.75
309.571	106.75
309.8	85.75
310.03	104.75
310.26	87.75
310.49	88.75
310.72	105.75
310.949	94.75
311.179	91.75
311.409	87.75
311.639	87.75
311.868	84.75
312.098	95.75
312.328	96.75
312.557	93.75
312.787	96.75
313.017	96.75
313.246	92.75
313.476	95.75
313.706	85.75
313.935	84.75
314.165	88.75
314.394	99.75
314.624	89.75
314.853	95.75
315.083	100.75
315.312	92.75
315.542	92.75
315.771	71.75
316.001	93.75
316.23	96.75
316.46	85.75
316.689	89.75
316.919	103.75
317.148	99.75
317.377	80.75
317.607	85.75
317.836	88.75
318.065	91.75
318.295	102.75
318.524	92.75
318.753	87.75
318.983	95.75
319.212	101.75
319.441	110.75
319.67	100.75
319.9	89.75
320.129	93.75
320.358	73.75
320.587	84.75
320.816	88.75
321.046	105.75
321.275	93.75
321.504	77.75
321.733	99.75
321.962	108.75
322.191	97.75
322.42	95.75
322.649	107.75
322.878	110.75
323.108	101.75
323.337	116.75
323.566	119.75
323.795	132.75
324.024	171.75
324.253	341.75
324.482	673.75
324.71	1397.75
324.939	1811.75
325.168	667.75
325.397	219.75
325.626	132.75
325.855	113.75
326.084	111.75
326.313	139.75
326.542	137.75
326.77	211.75
326.999	384.75
327.228	748.75
327.457	1439.75
327.686	1126.75
327.914	321.75
328.143	189.75
328.372	120.75
328.6	117.75
328.829	107.75
329.058	116.75
329.287	115.75
329.515	105.75
329.744	96.75
329.972	92.75
330.201	100.75
330.43	106.75
330.658	103.75
330.887	121.75
331.115	123.75
331.344	92.75
331.572	88.75
331.801	97.75
332.03	92.75
332.258	91.75
332.486	94.75
332.715	88.75
332.943	85.75
333.172	84.75
333.4	108.75
333.629	111.75
333.857	116.75
334.085	96.75
334.314	88.75
334.542	88.75
334.771	103.75
334.999	78.75
335.227	87.75
335.455	78.75
335.684	112.75
335.912	92.75
336.14	93.75
336.369	90.75
336.597	108.75
336.825	95.75
337.053	103.75
337.281	96.75
337.51	84.75
337.738	69.75
337.966	78.75
338.194	89.75
338.422	84.75
338.65	102.75
338.878	90.75
339.106	92.75
339.334	96.75
339.562	88.75
339.79	92.75
340.018	93.75
340.246	91.75
340.474	96.75
340.702	98.75
340.93	76.75
341.158	94.75
341.386	86.75
341.614	92.75
341.842	83.75
342.07	81.75
342.298	95.75
342.526	82.75
342.754	86.75
342.981	80.75
343.209	80.75
343.437	100.75
343.665	89.75
343.893	102.75
344.12	87.75
344.348	94.75
344.576	74.75
344.804	108.75
345.031	106.75
345.259	79.75
345.487	86.75
345.714	76.75
345.942	89.75
346.17	90.75
346.397	87.75
346.625	96.75
346.853	88.75
347.08	95.75
347.308	93.75
347.535	90.75
347.763	92.75
347.99	85.75
348.218	109.75
348.445	103.75
348.673	103.75
348.9	101.75
349.128	112.75
349.355	88.75
349.583	75.75
349.81	79.75
350.037	87.75
350.265	101.75
350.492	97.75
350.72	99.75
350.947	92.75
351.174	100.75
351.402	112.75
351.629	93.75
351.856	89.75
352.083	99.75
352.311	97.75
352.538	101.75
352.765	107.75
352.992	107.75
353.22	95.75
353.447	95.75
353.674	93.75
353.901	94.75
354.128	91.75
354.355	86.75
354.583	109.75
354.81	88.75
355.037	94.75
355.264	87.75
355.491	81.75
355.718	94.75
355.945	91.75
356.172	105.75
356.399	87.75
356.626	92.75
356.853	98.75
357.08	89.75
357.307	94.75
357.534	71.75
357.761	93.75
357.988	84.75
358.215	85.75
358.441	90.75
358.668	73.75
358.895	93.75
359.122	90.75
359.349	86.75
359.576	95.75
359.802	85.75
360.029	95.75
360.256	85.75
360.483	90.75
360.709	88.75
360.936	93.75
361.163	86.75
361.39	92.75
361.616	92.75
361.843	87.75
362.07	97.75
362.296	97.75
362.523	84.75
362.749	89.75
362.976	80.75
363.203	95.75
363.429	85.75
363.656	88.75
363.882	91.75
364.109	87.75
364.335	102.75
364.562	82.75
364.788	96.75
365.015	91.75
365.241	110.75
365.468	100.75
365.694	88.75
365.92	91.75
366.147	84.75
366.373	74.75
366.599	73.75
366.826	94.75
367.052	79.75
367.278	95.75
367.505	88.75
367.731	93.75
367.957	85.75
368.184	85.75
368.41	88.75
368.636	109.75
368.862	110.75
369.089	106.75
369.315	88.75
369.541	73.75
369.767	77.75
369.993	77.75
370.219	87.75
370.445	95.75
370.672	93.75
370.898	85.75
371.124	79.75
371.35	84.75
371.576	106.75
371.802	91.75
372.028	87.75
372.254	89.75
372.48	79.75
372.706	93.75
372.932	84.75
373.158	79.75
373.384	71.75
373.61	68.75
373.835	88.75
374.061	90.75
374.287	91.75
374.513	86.75
374.739	90.75
374.965	91.75
375.191	95.75
375.416	86.75
375.642	83.75
375.868	87.75
376.094	86.75
376.319	92.75
376.545	100.75
376.771	92.75
376.997	90.75
377.222	97.75
377.448	80.75
377.674	97.75
377.899	92.75
378.125	83.75
378.35	85.75
378.576	84.75
378.802	89.75
379.027	89.75
379.253	87.75
379.478	100.75
379.704	80.75
379.929	86.75
380.155	96.75
380.38	89.75
380.606	93.75
380.831	90.75
381.057	74.75
381.282	86.75
381.507	98.75
381.733	103.75
381.958	97.75
382.184	103.75
382.409	88.75
382.634	96.75
382.86	93.75
383.085	85.75
383.31	89.75
383.535	101.75
383.761	87.75
383.986	98.75
384.211	88.75
384.436	102.75
384.662	94.75
384.887	82.75
385.112	84.75
385.337	80.75
385.562	87.75
385.787	106.75
386.013	83.75
386.238	124.75
386.463	107.75
386.688	101.75
386.913	105.75
387.138	94.75
387.363	85.75
387.588	95.75
387.813	86.75
388.038	103.75
388.263	113.75
388.488	101.75
388.713	108.75
388.938	102.75
389.163	94.75
389.387	87.75
389.612	75.75
389.837	92.75
390.062	91.75
390.287	92.75
390.512	89.75
390.736	82.75
390.961	104.75
391.186	104.75
391.411	101.75
391.636	88.75
391.86	84.75
392.085	84.75
392.31	91.75
392.534	86.75
392.759	88.75
392.984	75.75
393.208	74.75
393.433	89.75
393.658	97.75
393.882	93.75
394.107	97.75
394.331	87.75
394.556	88.75
394.78	87.75
395.005	79.75
395.229	86.75
395.454	83.75
395.678	90.75
395.903	93.75
396.127	85.75
396.352	89.75
396.576	93.75
396.801	83.75
397.025	84.75
397.249	92.75
397.474	86.75
397.698	86.75
397.922	75.75
398.147	71.75
398.371	87.75
398.595	102.75
398.82	80.75
399.044	71.75
399.268	86.75
399.492	79.75
399.717	96.75
399.941	74.75
400.165	93.75
400.389	80.75
400.613	91.75
400.837	79.75
401.062	80.75
401.286	94.75
401.51	95.75
401.734	79.75
401.958	97.75
402.182	119.75
402.406	135.75
402.63	95.75
402.854	89.75
403.078	96.75
403.302	79.75
403.526	87.75
403.75	103.75
403.974	99.75
404.198	83.75
404.422	91.75
404.645	79.75
404.869	90.75
405.093	76.75
405.317	103.75
405.541	90.75
405.765	91.75
405.988	107.75
406.212	138.75
406.436	190.75
406.66	120.75
406.883	96.75
407.107	94.75
407.331	96.75
407.555	98.75
407.778	79.75
408.002	87.75
408.226	87.75
408.449	92.75
408.673	76.75
408.896	81.75
409.12	88.75
409.344	79.75
409.567	94.75
409.791	97.75
410.014	101.75
410.238	87.75
410.461	84.75
410.685	91.75
410.908	85.75
411.132	103.75
411.355	91.75
411.578	88.75
411.802	83.75
412.025	73.75
412.249	83.75
412.472	84.75
412.695	96.75
412.919	84.75
413.142	85.75
413.365	87.75
413.589	88.75
413.812	83.75
414.035	83.75
414.258	89.75
414.482	99.75
414.705	83.75
414.928	82.75
415.151	85.75
415.374	104.75
415.597	77.75
415.821	93.75
416.044	77.75
416.267	72.75
416.49	69.75
416.713	92.75
416.936	94.75
417.159	88.75
417.382	92.75
417.605	84.75
417.828	97.75
418.051	76.75
418.274	87.75
418.497	64.75
418.72	76.75
418.943	90.75
419.166	87.75
419.389	87.75
419.611	96.75
419.834	92.75
420.057	83.75
420.28	92.75
420.503	69.75
420.726	96.75
420.948	84.75
421.171	111.75
421.394	102.75
421.617	82.75
421.839	88.75
422.062	94.75
422.285	96.75
422.507	104.75
422.73	96.75
422.953	73.75
423.175	87.75
423.398	73.75
423.621	87.75
423.843	83.75
424.066	90.75
424.288	84.75
424.511	83.75
424.733	105.75
424.956	95.75
425.178	89.75
425.401	102.75
425.623	96.75
425.846	79.75
426.068	71.75
426.291	84.75
426.513	103.75
426.735	75.75
426.958	85.75
427.18	87.75
427.402	121.75
427.625	137.75
427.847	107.75
428.069	98.75
428.292	86.75
428.514	90.75
428.736	93.75
428.958	94.75
429.181	79.75
429.403	86.75
429.625	76.75
429.847	87.75
430.069	101.75
430.292	90.75
430.514	81.75
430.736	86.75
430.958	76.75
431.18	90.75
431.402	86.75
431.624	73.75
431.846	80.75
432.068	75.75
432.29	77.75
432.512	88.75
432.734	92.75
432.956	75.75
433.178	97.75
433.4	104.75
433.622	97.75
433.844	78.75
434.066	84.75
434.287	91.75
434.509	83.75
434.731	87.75
434.953	98.75
435.175	68.75
435.397	72.75
435.618	88.75
435.84	82.75
436.062	109.75
436.284	116.75
436.505	99.75
436.727	77.75
436.949	89.75
437.17	98.75
437.392	71.75
437.614	80.75
437.835	105.75
438.057	102.75
438.278	99.75
438.5	102.75
438.721	114.75
438.943	81.75
439.165	71.75
439.386	102.75
439.608	91.75
439.829	101.75
440.05	120.75
440.272	133.75
440.493	97.75
440.715	95.75
440.936	97.75
441.158	77.75
441.379	91.75
441.6	84.75
441.822	99.75
442.043	103.75
442.264	100.75
442.486	90.75
442.707	91.75
442.928	87.75
443.149	111.75
443.371	112.75
443.592	86.75
443.813	103.75
444.034	97.75
444.255	83.75
444.476	82.75
444.698	89.75
444.919	92.75
445.14	112.75
445.361	117.75
445.582	110.75
445.803	116.75
446.024	125.75
446.245	120.75
446.466	107.75
446.687	83.75
446.908	92.75
447.129	81.75
447.35	96.75
447.571	94.75
447.792	95.75
448.013	94.75
448.234	107.75
448.455	96.75
448.675	101.75
448.896	105.75
449.117	86.75
449.338	87.75
449.559	114.75
449.779	111.75
450	93.75
450.221	79.75
450.442	78.75
450.662	102.75
450.883	92.75
451.104	111.75
451.324	100.75
451.545	54.75
451.766	92.75
451.986	91.75
452.207	91.75
452.428	92.75
452.648	99.75
452.869	105.75
453.089	116.75
453.31	100.75
453.53	72.75
453.751	109.75
453.971	93.75
454.192	105.75
454.412	88.75
454.633	91.75
454.853	74.75
455.073	85.75
455.294	87.75
455.514	96.75
455.734	95.75
455.955	95.75
456.175	97.75
456.395	84.75
456.616	79.75
456.836	87.75
457.056	78.75
457.276	82.75
457.497	86.75
457.717	80.75
457.937	85.75
458.157	89.75
458.377	83.75
458.598	92.75
458.818	128.75
459.038	149.75
459.258	99.75
459.478	86.75
459.698	64.75
459.918	88.75
460.138	86.75
460.358	81.75
460.578	84.75
460.798	76.75
461.018	60.75
461.238	74.75
461.458	83.75
461.678	85.75
461.898	79.75
462.118	88.75
462.338	75.75
462.558	92.75
462.777	79.75
462.997	85.75
463.217	92.75
463.437	83.75
463.657	81.75
463.876	85.75
464.096	101.75
464.316	81.75
464.536	70.75
464.755	72.75
464.975	91.75
465.195	121.75
465.414	143.75
465.634	107.75
465.854	69.75
466.073	86.75
466.293	83.75
466.512	87.75
466.732	70.75
466.951	77.75
467.171	87.75
467.391	94.75
467.61	107.75
467.829	97.75
468.049	76.75
468.268	86.75
468.488	79.75
468.707	76.75
468.927	92.75
469.146	76.75
469.365	85.75
469.585	76.75
469.804	99.75
470.023	103.75
470.243	86.75
470.462	85.75
470.681	87.75
470.901	86.75
471.12	79.75
471.339	85.75
471.558	88.75
471.777	75.75
471.997	93.75
472.216	80.75
472.435	90.75
472.654	86.75
472.873	79.75
473.092	88.75
473.311	93.75
473.53	88.75
473.749	102.75
473.968	98.75
474.187	101.75
474.406	118.75
474.625	89.75
474.844	80.75
475.063	90.75
475.282	83.75
475.501	80.75
475.72	96.75
475.939	84.75
476.158	80.75
476.377	91.75
476.596	87.75
476.814	83.75
477.033	87.75
477.252	91.75
477.471	90.75
477.69	85.75
477.908	83.75
478.127	80.75
478.346	85.75
478.564	78.75
478.783	89.75
479.002	92.75
479.22	68.75
479.439	85.75
479.658	99.75
479.876	80.75
480.095	86.75
480.313	95.75
480.532	102.75
480.751	84.75
480.969	91.75
481.188	98.75
481.406	87.75
481.624	94.75
481.843	79.75
482.061	86.75
482.28	99.75
482.498	87.75
482.717	99.75
482.935	85.75
483.153	86.75
483.372	80.75
483.59	91.75
483.808	81.75
484.027	86.75
484.245	99.75
484.463	88.75
484.681	99.75
484.9	83.75
485.118	96.75
485.336	96.75
485.554	89.75
485.772	96.75
485.99	93.75
486.209	108.75
486.427	104.75
486.645	118.75
486.863	98.75
487.081	85.75
487.299	95.75
487.517	94.75
487.735	101.75
487.953	88.75
488.171	86.75
488.389	92.75
488.607	86.75
488.825	83.75
489.043	74.75
489.261	100.75
489.479	80.75
489.696	81.75
489.914	104.75
490.132	82.75
490.35	84.75
490.568	76.75
490.786	80.75
491.003	73.75
491.221	80.75
491.439	89.75
491.657	86.75
491.874	89.75
492.092	95.75
492.31	77.75
492.527	74.75
492.745	95.75
492.963	81.75
493.18	90.75
493.398	75.75
493.615	96.75
493.833	95.75
494.05	87.75
494.268	76.75
494.485	79.75
494.703	105.75
494.92	93.75
495.138	81.75
495.355	76.75
495.573	84.75
495.79	86.75
496.008	105.75
496.225	95.75
496.442	80.75
496.66	87.75
496.877	76.75
497.094	87.75
497.312	92.75
497.529	75.75
497.746	91.75
497.963	92.75
498.181	91.75
498.398	77.75
498.615	121.75
498.832	96.75
499.049	94.75
499.267	80.75
499.484	84.75
499.701	89.75
499.918	88.75
500.135	88.75
500.352	95.75
500.569	97.75
500.786	99.75
501.003	69.75
501.22	81.75
501.437	93.75
501.654	91.75
501.871	105.75
502.088	97.75
502.305	77.75
502.522	92.75
502.739	87.75
502.956	86.75
503.172	93.75
503.389	87.75
503.606	104.75
503.823	90.75
504.04	87.75
504.256	91.75
504.473	91.75
504.69	88.75
504.907	90.75
505.123	84.75
505.34	81.75
505.557	91.75
505.773	79.75
505.99	91.75
506.207	85.75
506.423	79.75
506.64	80.75
506.856	79.75
507.073	84.75
507.289	84.75
507.506	95.75
507.722	98.75
507.939	119.75
508.155	75.75
508.372	104.75
508.588	92.75
508.805	83.75
509.021	89.75
509.238	94.75
509.454	89.75
509.67	97.75
509.887	108.75
510.103	119.75
510.319	185.75
510.536	661.75
510.752	1995.75
510.968	550.75
511.184	138.75
511.401	104.75
511.617	97.75
511.833	83.75
512.049	86.75
512.265	91.75
512.481	95.75
512.698	92.75
512.914	84.75
513.13	98.75
513.346	77.75
513.562	101.75
513.778	92.75
513.994	104.75
514.21	79.75
514.426	93.75
514.642	106.75
514.858	102.75
515.074	134.75
515.29	389.75
515.506	1193.75
515.721	444.75
515.937	139.75
516.153	95.75
516.369	90.75
516.585	94.75
516.801	80.75
517.016	91.75
