Data from Uncirc_1997_H10_HRD10591_00012.txt Node
Date: Wed Jan 03 11:28:33 EST 2024
User: Yrep
Spectrometer: HR+D1059
Trigger mode: 1
Integration Time (sec): 1.000000E-1
Scans to average: 1
Electric dark correction enabled: true
Nonlinearity correction enabled: false
Boxcar width: 0
XAxis mode: Wavelengths
Number of Pixels in Spectrum: 2048
>>>>>Begin Spectral Data<<<<<
223.165	-17.88
223.4	-17.88
223.635	-17.88
223.869	-11.88
224.104	-20.88
224.338	-15.88
224.573	-13.88
224.808	-13.88
225.042	-18.88
225.277	2.12
225.511	4.12
225.746	-0.88
225.98	5.12
226.215	14.12
226.449	13.12
226.683	20.12
226.918	28.12
227.152	27.12
227.387	29.12
227.621	40.12
227.856	48.12
228.09	52.12
228.324	44.12
228.559	73.12
228.793	68.12
229.027	52.12
229.262	76.12
229.496	76.12
229.73	85.12
229.964	82.12
230.199	74.12
230.433	73.12
230.667	90.12
230.901	92.12
231.136	69.12
231.37	68.12
231.604	90.12
231.838	85.12
232.072	90.12
232.306	94.12
232.541	82.12
232.775	76.12
233.009	97.12
233.243	74.12
233.477	74.12
233.711	77.12
233.945	87.12
234.179	76.12
234.413	87.12
234.647	81.12
234.881	75.12
235.115	80.12
235.349	84.12
235.583	83.12
235.817	88.12
236.051	72.12
236.285	77.12
236.519	80.12
236.753	72.12
236.987	73.12
237.221	85.12
237.455	99.12
237.689	89.12
237.922	75.12
238.156	68.12
238.39	69.12
238.624	83.12
238.858	78.12
239.091	73.12
239.325	75.12
239.559	85.12
239.793	81.12
240.027	70.12
240.26	72.12
240.494	67.12
240.728	72.12
240.961	84.12
241.195	80.12
241.429	76.12
241.662	65.12
241.896	77.12
242.13	77.12
242.363	93.12
242.597	94.12
242.83	90.12
243.064	77.12
243.298	65.12
243.531	76.12
243.765	95.12
243.998	77.12
244.232	75.12
244.465	93.12
244.699	78.12
244.932	89.12
245.166	78.12
245.399	89.12
245.633	68.12
245.866	84.12
246.099	81.12
246.333	79.12
246.566	86.12
246.8	81.12
247.033	71.12
247.266	77.12
247.5	85.12
247.733	88.12
247.966	88.12
248.2	85.12
248.433	66.12
248.666	80.12
248.899	80.12
249.133	75.12
249.366	111.12
249.599	85.12
249.832	74.12
250.066	88.12
250.299	81.12
250.532	72.12
250.765	89.12
250.998	81.12
251.231	72.12
251.465	77.12
251.698	81.12
251.931	75.12
252.164	62.12
252.397	76.12
252.63	87.12
252.863	89.12
253.096	80.12
253.329	87.12
253.562	82.12
253.795	90.12
254.028	84.12
254.261	71.12
254.494	91.12
254.727	98.12
254.96	62.12
255.193	74.12
255.426	72.12
255.659	79.12
255.892	93.12
256.124	73.12
256.357	72.12
256.59	76.12
256.823	75.12
257.056	81.12
257.289	81.12
257.521	96.12
257.754	85.12
257.987	78.12
258.22	76.12
258.452	76.12
258.685	76.12
258.918	95.12
259.151	92.12
259.383	96.12
259.616	95.12
259.849	82.12
260.081	79.12
260.314	103.12
260.547	84.12
260.779	82.12
261.012	79.12
261.244	83.12
261.477	71.12
261.71	93.12
261.942	107.12
262.175	106.12
262.407	91.12
262.64	77.12
262.872	83.12
263.105	82.12
263.337	84.12
263.57	91.12
263.802	99.12
264.035	84.12
264.267	89.12
264.499	84.12
264.732	88.12
264.964	83.12
265.197	88.12
265.429	88.12
265.661	77.12
265.894	83.12
266.126	81.12
266.358	89.12
266.591	84.12
266.823	92.12
267.055	74.12
267.287	73.12
267.52	80.12
267.752	77.12
267.984	108.12
268.216	86.12
268.448	96.12
268.681	96.12
268.913	89.12
269.145	92.12
269.377	79.12
269.609	84.12
269.841	91.12
270.073	91.12
270.306	83.12
270.538	88.12
270.77	90.12
271.002	85.12
271.234	94.12
271.466	83.12
271.698	95.12
271.93	86.12
272.162	95.12
272.394	97.12
272.626	87.12
272.858	90.12
273.09	76.12
273.322	88.12
273.553	82.12
273.785	91.12
274.017	83.12
274.249	96.12
274.481	77.12
274.713	72.12
274.945	102.12
275.176	95.12
275.408	83.12
275.64	88.12
275.872	97.12
276.104	97.12
276.335	86.12
276.567	96.12
276.799	95.12
277.031	110.12
277.262	88.12
277.494	92.12
277.726	84.12
277.957	85.12
278.189	94.12
278.421	87.12
278.652	72.12
278.884	91.12
279.115	96.12
279.347	93.12
279.579	87.12
279.81	93.12
280.042	85.12
280.273	102.12
280.505	88.12
280.736	103.12
280.968	76.12
281.199	82.12
281.431	74.12
281.662	91.12
281.894	98.12
282.125	100.12
282.356	92.12
282.588	110.12
282.819	110.12
283.051	86.12
283.282	73.12
283.513	97.12
283.745	92.12
283.976	72.12
284.207	86.12
284.439	101.12
284.67	91.12
284.901	96.12
285.132	82.12
285.364	98.12
285.595	81.12
285.826	82.12
286.057	94.12
286.288	88.12
286.52	91.12
286.751	100.12
286.982	92.12
287.213	87.12
287.444	93.12
287.675	91.12
287.906	85.12
288.138	88.12
288.369	82.12
288.6	101.12
288.831	98.12
289.062	102.12
289.293	93.12
289.524	73.12
289.755	93.12
289.986	95.12
290.217	89.12
290.448	78.12
290.679	90.12
290.91	90.12
291.141	90.12
291.371	84.12
291.602	76.12
291.833	95.12
292.064	91.12
292.295	83.12
292.526	84.12
292.757	89.12
292.987	92.12
293.218	88.12
293.449	95.12
293.68	84.12
293.91	83.12
294.141	98.12
294.372	115.12
294.603	76.12
294.833	100.12
295.064	86.12
295.295	90.12
295.525	102.12
295.756	99.12
295.987	111.12
296.217	138.12
296.448	122.12
296.679	102.12
296.909	100.12
297.14	96.12
297.37	92.12
297.601	84.12
297.831	90.12
298.062	96.12
298.292	82.12
298.523	94.12
298.753	86.12
298.984	83.12
299.214	76.12
299.445	95.12
299.675	99.12
299.905	95.12
300.136	91.12
300.366	100.12
300.597	89.12
300.827	105.12
301.057	91.12
301.288	79.12
301.518	81.12
301.748	77.12
301.979	105.12
302.209	94.12
302.439	90.12
302.669	86.12
302.9	81.12
303.13	92.12
303.36	86.12
303.59	103.12
303.82	105.12
304.051	93.12
304.281	95.12
304.511	89.12
304.741	92.12
304.971	98.12
305.201	99.12
305.431	95.12
305.661	97.12
305.891	87.12
306.121	98.12
306.352	101.12
306.582	103.12
306.812	93.12
307.042	84.12
307.272	86.12
307.502	99.12
307.731	94.12
307.961	96.12
308.191	100.12
308.421	100.12
308.651	81.12
308.881	104.12
309.111	87.12
309.341	94.12
309.571	94.12
309.8	86.12
310.03	81.12
310.26	109.12
310.49	107.12
310.72	100.12
310.949	100.12
311.179	93.12
311.409	86.12
311.639	89.12
311.868	84.12
312.098	97.12
312.328	91.12
312.557	100.12
312.787	98.12
313.017	92.12
313.246	85.12
313.476	92.12
313.706	88.12
313.935	105.12
314.165	98.12
314.394	94.12
314.624	79.12
314.853	90.12
315.083	102.12
315.312	86.12
315.542	90.12
315.771	94.12
316.001	94.12
316.23	96.12
316.46	88.12
316.689	89.12
316.919	80.12
317.148	102.12
317.377	96.12
317.607	106.12
317.836	111.12
318.065	91.12
318.295	89.12
318.524	89.12
318.753	103.12
318.983	90.12
319.212	104.12
319.441	111.12
319.67	117.12
319.9	101.12
320.129	86.12
320.358	95.12
320.587	103.12
320.816	96.12
321.046	104.12
321.275	102.12
321.504	100.12
321.733	105.12
321.962	94.12
322.191	100.12
322.42	112.12
322.649	104.12
322.878	102.12
323.108	108.12
323.337	120.12
323.566	134.12
323.795	159.12
324.024	174.12
324.253	348.12
324.482	724.12
324.71	1476.12
324.939	1894.12
325.168	693.12
325.397	230.12
325.626	146.12
325.855	120.12
326.084	117.12
326.313	125.12
326.542	153.12
326.77	224.12
326.999	411.12
327.228	855.12
327.457	1524.12
327.686	1172.12
327.914	309.12
328.143	187.12
328.372	158.12
328.6	128.12
328.829	105.12
329.058	120.12
329.287	113.12
329.515	102.12
329.744	106.12
329.972	109.12
330.201	110.12
330.43	118.12
330.658	103.12
330.887	129.12
331.115	119.12
331.344	104.12
331.572	111.12
331.801	104.12
332.03	120.12
332.258	106.12
332.486	102.12
332.715	99.12
332.943	101.12
333.172	81.12
333.4	81.12
333.629	117.12
333.857	102.12
334.085	100.12
334.314	100.12
334.542	124.12
334.771	106.12
334.999	97.12
335.227	114.12
335.455	108.12
335.684	87.12
335.912	104.12
336.14	107.12
336.369	94.12
336.597	93.12
336.825	99.12
337.053	74.12
337.281	99.12
337.51	97.12
337.738	101.12
337.966	100.12
338.194	117.12
338.422	89.12
338.65	97.12
338.878	102.12
339.106	94.12
339.334	85.12
339.562	96.12
339.79	92.12
340.018	81.12
340.246	102.12
340.474	78.12
340.702	107.12
340.93	99.12
341.158	95.12
341.386	93.12
341.614	88.12
341.842	94.12
342.07	91.12
342.298	95.12
342.526	88.12
342.754	81.12
342.981	93.12
343.209	104.12
343.437	99.12
343.665	99.12
343.893	95.12
344.12	81.12
344.348	86.12
344.576	100.12
344.804	91.12
345.031	98.12
345.259	99.12
345.487	93.12
345.714	94.12
345.942	100.12
346.17	105.12
346.397	90.12
346.625	90.12
346.853	80.12
347.08	97.12
347.308	100.12
347.535	99.12
347.763	83.12
347.99	90.12
348.218	101.12
348.445	123.12
348.673	109.12
348.9	92.12
349.128	102.12
349.355	91.12
349.583	86.12
349.81	100.12
350.037	99.12
350.265	106.12
350.492	86.12
350.72	112.12
350.947	99.12
351.174	106.12
351.402	118.12
351.629	109.12
351.856	114.12
352.083	100.12
352.311	101.12
352.538	115.12
352.765	122.12
352.992	126.12
353.22	119.12
353.447	104.12
353.674	98.12
353.901	99.12
354.128	96.12
354.355	98.12
354.583	104.12
354.81	107.12
355.037	103.12
355.264	102.12
355.491	93.12
355.718	103.12
355.945	101.12
356.172	92.12
356.399	106.12
356.626	97.12
356.853	87.12
357.08	80.12
357.307	90.12
357.534	96.12
357.761	102.12
357.988	96.12
358.215	84.12
358.441	94.12
358.668	94.12
358.895	93.12
359.122	82.12
359.349	89.12
359.576	101.12
359.802	98.12
360.029	111.12
360.256	91.12
360.483	92.12
360.709	91.12
360.936	82.12
361.163	91.12
361.39	108.12
361.616	106.12
361.843	106.12
362.07	95.12
362.296	95.12
362.523	87.12
362.749	103.12
362.976	89.12
363.203	92.12
363.429	69.12
363.656	104.12
363.882	102.12
364.109	99.12
364.335	100.12
364.562	88.12
364.788	83.12
365.015	108.12
365.241	110.12
365.468	104.12
365.694	105.12
365.92	111.12
366.147	108.12
366.373	82.12
366.599	89.12
366.826	97.12
367.052	91.12
367.278	100.12
367.505	90.12
367.731	94.12
367.957	93.12
368.184	74.12
368.41	106.12
368.636	102.12
368.862	107.12
369.089	100.12
369.315	85.12
369.541	97.12
369.767	93.12
369.993	105.12
370.219	89.12
370.445	100.12
370.672	89.12
370.898	79.12
371.124	85.12
371.35	90.12
371.576	96.12
371.802	93.12
372.028	101.12
372.254	80.12
372.48	84.12
372.706	94.12
372.932	93.12
373.158	86.12
373.384	88.12
373.61	97.12
373.835	90.12
374.061	83.12
374.287	94.12
374.513	90.12
374.739	82.12
374.965	77.12
375.191	101.12
375.416	94.12
375.642	98.12
375.868	102.12
376.094	85.12
376.319	93.12
376.545	97.12
376.771	85.12
376.997	95.12
377.222	83.12
377.448	88.12
377.674	85.12
377.899	85.12
378.125	95.12
378.35	106.12
378.576	91.12
378.802	101.12
379.027	93.12
379.253	86.12
379.478	101.12
379.704	95.12
379.929	99.12
380.155	85.12
380.38	96.12
380.606	86.12
380.831	90.12
381.057	97.12
381.282	101.12
381.507	96.12
381.733	101.12
381.958	103.12
382.184	106.12
382.409	113.12
382.634	98.12
382.86	91.12
383.085	113.12
383.31	102.12
383.535	110.12
383.761	96.12
383.986	96.12
384.211	82.12
384.436	117.12
384.662	107.12
384.887	94.12
385.112	101.12
385.337	104.12
385.562	91.12
385.787	95.12
386.013	111.12
386.238	102.12
386.463	114.12
386.688	104.12
386.913	98.12
387.138	92.12
387.363	96.12
387.588	95.12
387.813	105.12
388.038	101.12
388.263	113.12
388.488	104.12
388.713	84.12
388.938	100.12
389.163	85.12
389.387	101.12
389.612	85.12
389.837	104.12
390.062	102.12
390.287	92.12
390.512	89.12
390.736	92.12
390.961	90.12
391.186	97.12
391.411	109.12
391.636	96.12
391.86	93.12
392.085	85.12
392.31	82.12
392.534	74.12
392.759	93.12
392.984	97.12
393.208	96.12
393.433	97.12
393.658	96.12
393.882	89.12
394.107	90.12
394.331	87.12
394.556	81.12
394.78	83.12
395.005	100.12
395.229	96.12
395.454	97.12
395.678	83.12
395.903	81.12
396.127	87.12
396.352	80.12
396.576	93.12
396.801	102.12
397.025	92.12
397.249	84.12
397.474	113.12
397.698	84.12
397.922	82.12
398.147	88.12
398.371	88.12
398.595	77.12
398.82	97.12
399.044	89.12
399.268	86.12
399.492	81.12
399.717	97.12
399.941	95.12
400.165	104.12
400.389	78.12
400.613	86.12
400.837	92.12
401.062	103.12
401.286	90.12
401.51	100.12
401.734	69.12
401.958	94.12
402.182	109.12
402.406	142.12
402.63	108.12
402.854	88.12
403.078	97.12
403.302	89.12
403.526	89.12
403.75	93.12
403.974	89.12
404.198	86.12
404.422	98.12
404.645	99.12
404.869	91.12
405.093	83.12
405.317	98.12
405.541	103.12
405.765	103.12
405.988	112.12
406.212	160.12
406.436	218.12
406.66	134.12
406.883	110.12
407.107	106.12
407.331	97.12
407.555	102.12
407.778	88.12
408.002	94.12
408.226	85.12
408.449	101.12
408.673	91.12
408.896	93.12
409.12	86.12
409.344	93.12
409.567	97.12
409.791	91.12
410.014	89.12
410.238	95.12
410.461	81.12
410.685	94.12
410.908	96.12
411.132	91.12
411.355	111.12
411.578	100.12
411.802	85.12
412.025	97.12
412.249	82.12
412.472	88.12
412.695	88.12
412.919	98.12
413.142	78.12
413.365	91.12
413.589	88.12
413.812	100.12
414.035	92.12
414.258	103.12
414.482	97.12
414.705	94.12
414.928	96.12
415.151	102.12
415.374	99.12
415.597	98.12
415.821	86.12
416.044	69.12
416.267	92.12
416.49	86.12
416.713	95.12
416.936	87.12
417.159	96.12
417.382	89.12
417.605	96.12
417.828	102.12
418.051	93.12
418.274	102.12
418.497	85.12
418.72	100.12
418.943	82.12
419.166	88.12
419.389	80.12
419.611	92.12
419.834	78.12
420.057	81.12
420.28	84.12
420.503	80.12
420.726	85.12
420.948	93.12
421.171	98.12
421.394	96.12
421.617	97.12
421.839	92.12
422.062	103.12
422.285	95.12
422.507	92.12
422.73	123.12
422.953	97.12
423.175	85.12
423.398	82.12
423.621	90.12
423.843	97.12
424.066	83.12
424.288	106.12
424.511	104.12
424.733	93.12
424.956	96.12
425.178	89.12
425.401	105.12
425.623	100.12
425.846	94.12
426.068	88.12
426.291	100.12
426.513	101.12
426.735	104.12
426.958	107.12
427.18	105.12
427.402	109.12
427.625	153.12
427.847	122.12
428.069	112.12
428.292	92.12
428.514	100.12
428.736	83.12
428.958	87.12
429.181	85.12
429.403	86.12
429.625	89.12
429.847	101.12
430.069	103.12
430.292	97.12
430.514	96.12
430.736	90.12
430.958	91.12
431.18	86.12
431.402	92.12
431.624	81.12
431.846	90.12
432.068	85.12
432.29	109.12
432.512	92.12
432.734	94.12
432.956	84.12
433.178	97.12
433.4	86.12
433.622	86.12
433.844	107.12
434.066	116.12
434.287	98.12
434.509	89.12
434.731	94.12
434.953	102.12
435.175	88.12
435.397	92.12
435.618	92.12
435.84	106.12
436.062	121.12
436.284	111.12
436.505	112.12
436.727	110.12
436.949	99.12
437.17	106.12
437.392	91.12
437.614	91.12
437.835	102.12
438.057	107.12
438.278	110.12
438.5	101.12
438.721	101.12
438.943	87.12
439.165	85.12
439.386	84.12
439.608	93.12
439.829	99.12
440.05	118.12
440.272	148.12
440.493	97.12
440.715	91.12
440.936	88.12
441.158	86.12
441.379	90.12
441.6	108.12
441.822	95.12
442.043	96.12
442.264	99.12
442.486	81.12
442.707	90.12
442.928	122.12
443.149	133.12
443.371	128.12
443.592	102.12
443.813	111.12
444.034	106.12
444.255	105.12
444.476	105.12
444.698	108.12
444.919	98.12
445.14	126.12
445.361	127.12
445.582	104.12
445.803	123.12
446.024	114.12
446.245	124.12
446.466	109.12
446.687	95.12
446.908	84.12
447.129	76.12
447.35	99.12
447.571	96.12
447.792	106.12
448.013	107.12
448.234	110.12
448.455	89.12
448.675	101.12
448.896	122.12
449.117	109.12
449.338	93.12
449.559	114.12
449.779	115.12
450	101.12
450.221	103.12
450.442	97.12
450.662	88.12
450.883	84.12
451.104	117.12
451.324	80.12
451.545	96.12
451.766	96.12
451.986	81.12
452.207	84.12
452.428	96.12
452.648	97.12
452.869	109.12
453.089	117.12
453.31	108.12
453.53	94.12
453.751	95.12
453.971	106.12
454.192	118.12
454.412	96.12
454.633	90.12
454.853	93.12
455.073	90.12
455.294	88.12
455.514	113.12
455.734	100.12
455.955	74.12
456.175	87.12
456.395	92.12
456.616	86.12
456.836	84.12
457.056	80.12
457.276	91.12
457.497	91.12
457.717	99.12
457.937	86.12
458.157	89.12
458.377	94.12
458.598	86.12
458.818	139.12
459.038	156.12
459.258	115.12
459.478	91.12
459.698	86.12
459.918	91.12
460.138	92.12
460.358	86.12
460.578	84.12
460.798	81.12
461.018	95.12
461.238	86.12
461.458	85.12
461.678	88.12
461.898	93.12
462.118	93.12
462.338	85.12
462.558	93.12
462.777	89.12
462.997	105.12
463.217	89.12
463.437	96.12
463.657	82.12
463.876	96.12
464.096	99.12
464.316	96.12
464.536	91.12
464.755	101.12
464.975	115.12
465.195	152.12
465.414	142.12
465.634	112.12
465.854	94.12
466.073	87.12
466.293	90.12
466.512	96.12
466.732	86.12
466.951	85.12
467.171	100.12
467.391	91.12
467.61	104.12
467.829	105.12
468.049	97.12
468.268	85.12
468.488	80.12
468.707	88.12
468.927	91.12
469.146	86.12
469.365	99.12
469.585	85.12
469.804	90.12
470.023	103.12
470.243	81.12
470.462	111.12
470.681	107.12
470.901	83.12
471.12	89.12
471.339	94.12
471.558	106.12
471.777	105.12
471.997	91.12
472.216	97.12
472.435	98.12
472.654	87.12
472.873	108.12
473.092	81.12
473.311	88.12
473.53	93.12
473.749	94.12
473.968	112.12
474.187	98.12
474.406	85.12
474.625	100.12
474.844	98.12
475.063	83.12
475.282	90.12
475.501	85.12
475.72	92.12
475.939	81.12
476.158	88.12
476.377	85.12
476.596	82.12
476.814	89.12
477.033	85.12
477.252	100.12
477.471	81.12
477.69	95.12
477.908	97.12
478.127	96.12
478.346	92.12
478.564	90.12
478.783	106.12
479.002	92.12
479.22	93.12
479.439	104.12
479.658	93.12
479.876	96.12
480.095	92.12
480.313	85.12
480.532	90.12
480.751	77.12
480.969	103.12
481.188	121.12
481.406	102.12
481.624	93.12
481.843	99.12
482.061	90.12
482.28	88.12
482.498	84.12
482.717	80.12
482.935	88.12
483.153	92.12
483.372	100.12
483.59	95.12
483.808	84.12
484.027	102.12
484.245	89.12
484.463	93.12
484.681	98.12
484.9	93.12
485.118	96.12
485.336	96.12
485.554	106.12
485.772	114.12
485.99	98.12
486.209	105.12
486.427	103.12
486.645	112.12
486.863	100.12
487.081	96.12
487.299	104.12
487.517	99.12
487.735	105.12
487.953	102.12
488.171	86.12
488.389	83.12
488.607	94.12
488.825	113.12
489.043	105.12
489.261	90.12
489.479	94.12
489.696	86.12
489.914	92.12
490.132	82.12
490.35	85.12
490.568	88.12
490.786	93.12
491.003	97.12
491.221	80.12
491.439	93.12
491.657	94.12
491.874	101.12
492.092	86.12
492.31	93.12
492.527	93.12
492.745	96.12
492.963	94.12
493.18	107.12
493.398	94.12
493.615	108.12
493.833	103.12
494.05	96.12
494.268	91.12
494.485	87.12
494.703	88.12
494.92	90.12
495.138	88.12
495.355	92.12
495.573	100.12
495.79	96.12
496.008	93.12
496.225	107.12
496.442	94.12
496.66	95.12
496.877	91.12
497.094	90.12
497.312	100.12
497.529	72.12
497.746	88.12
497.963	88.12
498.181	87.12
498.398	100.12
498.615	106.12
498.832	84.12
499.049	101.12
499.267	83.12
499.484	103.12
499.701	93.12
499.918	104.12
500.135	92.12
500.352	77.12
500.569	101.12
500.786	99.12
501.003	96.12
501.22	81.12
501.437	91.12
501.654	106.12
501.871	94.12
502.088	72.12
502.305	88.12
502.522	89.12
502.739	87.12
502.956	85.12
503.172	78.12
503.389	94.12
503.606	98.12
503.823	94.12
504.04	101.12
504.256	95.12
504.473	98.12
504.69	82.12
504.907	90.12
505.123	93.12
505.34	91.12
505.557	87.12
505.773	97.12
505.99	95.12
506.207	91.12
506.423	91.12
506.64	98.12
506.856	104.12
507.073	96.12
507.289	92.12
507.506	89.12
507.722	120.12
507.939	113.12
508.155	92.12
508.372	105.12
508.588	93.12
508.805	93.12
509.021	105.12
509.238	86.12
509.454	108.12
509.67	96.12
509.887	108.12
510.103	103.12
510.319	210.12
510.536	641.12
510.752	1884.12
510.968	557.12
511.184	143.12
511.401	113.12
511.617	97.12
511.833	89.12
512.049	90.12
512.265	115.12
512.481	95.12
512.698	96.12
512.914	88.12
513.13	99.12
513.346	98.12
513.562	91.12
513.778	100.12
513.994	97.12
514.21	100.12
514.426	121.12
514.642	132.12
