Data from Uncirc_1997_H10_HRD10591_00001.txt Node
Date: Wed Jan 03 11:28:30 EST 2024
User: Yrep
Spectrometer: HR+D1059
Trigger mode: 1
Integration Time (sec): 1.000000E-1
Scans to average: 1
Electric dark correction enabled: true
Nonlinearity correction enabled: false
Boxcar width: 0
XAxis mode: Wavelengths
Number of Pixels in Spectrum: 2048
>>>>>Begin Spectral Data<<<<<
223.165	-26.75
223.4	-26.75
223.635	-26.75
223.869	-26.75
224.104	-21.75
224.338	-12.75
224.573	-23.75
224.808	4.25
225.042	-12.75
225.277	-9.75
225.511	-4.75
225.746	-1.75
225.98	7.25
226.215	16.25
226.449	13.25
226.683	16.25
226.918	46.25
227.152	37.25
227.387	37.25
227.621	50.25
227.856	48.25
228.09	38.25
228.324	32.25
228.559	46.25
228.793	72.25
229.027	70.25
229.262	77.25
229.496	74.25
229.73	86.25
229.964	82.25
230.199	64.25
230.433	72.25
230.667	79.25
230.901	71.25
231.136	76.25
231.37	63.25
231.604	79.25
231.838	75.25
232.072	84.25
232.306	85.25
232.541	89.25
232.775	73.25
233.009	80.25
233.243	92.25
233.477	79.25
233.711	74.25
233.945	86.25
234.179	73.25
234.413	77.25
234.647	76.25
234.881	86.25
235.115	82.25
235.349	81.25
235.583	69.25
235.817	72.25
236.051	70.25
236.285	103.25
236.519	80.25
236.753	79.25
236.987	81.25
237.221	79.25
237.455	69.25
237.689	80.25
237.922	68.25
238.156	78.25
238.39	102.25
238.624	87.25
238.858	79.25
239.091	67.25
239.325	67.25
239.559	80.25
239.793	80.25
240.027	80.25
240.26	77.25
240.494	85.25
240.728	83.25
240.961	82.25
241.195	76.25
241.429	73.25
241.662	70.25
241.896	71.25
242.13	70.25
242.363	82.25
242.597	78.25
242.83	82.25
243.064	72.25
243.298	73.25
243.531	61.25
243.765	74.25
243.998	93.25
244.232	70.25
244.465	96.25
244.699	79.25
244.932	83.25
245.166	85.25
245.399	65.25
245.633	77.25
245.866	79.25
246.099	77.25
246.333	75.25
246.566	60.25
246.8	72.25
247.033	81.25
247.266	63.25
247.5	76.25
247.733	78.25
247.966	77.25
248.2	76.25
248.433	94.25
248.666	81.25
248.899	76.25
249.133	97.25
249.366	98.25
249.599	86.25
249.832	85.25
250.066	72.25
250.299	78.25
250.532	84.25
250.765	67.25
250.998	79.25
251.231	88.25
251.465	80.25
251.698	78.25
251.931	90.25
252.164	78.25
252.397	70.25
252.63	72.25
252.863	84.25
253.096	71.25
253.329	79.25
253.562	77.25
253.795	79.25
254.028	76.25
254.261	84.25
254.494	83.25
254.727	79.25
254.96	80.25
255.193	83.25
255.426	90.25
255.659	76.25
255.892	59.25
256.124	75.25
256.357	64.25
256.59	91.25
256.823	86.25
257.056	81.25
257.289	83.25
257.521	77.25
257.754	78.25
257.987	74.25
258.22	78.25
258.452	84.25
258.685	76.25
258.918	76.25
259.151	77.25
259.383	66.25
259.616	70.25
259.849	78.25
260.081	72.25
260.314	77.25
260.547	79.25
260.779	70.25
261.012	96.25
261.244	89.25
261.477	91.25
261.71	75.25
261.942	90.25
262.175	98.25
262.407	87.25
262.64	79.25
262.872	84.25
263.105	76.25
263.337	84.25
263.57	80.25
263.802	65.25
264.035	81.25
264.267	74.25
264.499	92.25
264.732	84.25
264.964	87.25
265.197	88.25
265.429	82.25
265.661	81.25
265.894	66.25
266.126	78.25
266.358	84.25
266.591	88.25
266.823	93.25
267.055	84.25
267.287	66.25
267.52	74.25
267.752	82.25
267.984	84.25
268.216	72.25
268.448	82.25
268.681	81.25
268.913	82.25
269.145	84.25
269.377	95.25
269.609	93.25
269.841	93.25
270.073	68.25
270.306	90.25
270.538	80.25
270.77	73.25
271.002	78.25
271.234	77.25
271.466	87.25
271.698	86.25
271.93	83.25
272.162	81.25
272.394	78.25
272.626	96.25
272.858	88.25
273.09	84.25
273.322	88.25
273.553	81.25
273.785	78.25
274.017	72.25
274.249	90.25
274.481	88.25
274.713	90.25
274.945	77.25
275.176	75.25
275.408	85.25
275.64	73.25
275.872	92.25
276.104	87.25
276.335	86.25
276.567	93.25
276.799	86.25
277.031	94.25
277.262	76.25
277.494	102.25
277.726	98.25
277.957	78.25
278.189	71.25
278.421	78.25
278.652	82.25
278.884	102.25
279.115	90.25
279.347	81.25
279.579	77.25
279.81	85.25
280.042	88.25
280.273	88.25
280.505	83.25
280.736	72.25
280.968	65.25
281.199	100.25
281.431	86.25
281.662	76.25
281.894	86.25
282.125	101.25
282.356	98.25
282.588	117.25
282.819	106.25
283.051	80.25
283.282	82.25
283.513	80.25
283.745	96.25
283.976	89.25
284.207	78.25
284.439	87.25
284.67	85.25
284.901	89.25
285.132	98.25
285.364	65.25
285.595	74.25
285.826	94.25
286.057	76.25
286.288	79.25
286.52	89.25
286.751	81.25
286.982	86.25
287.213	73.25
287.444	84.25
287.675	94.25
287.906	76.25
288.138	82.25
288.369	84.25
288.6	91.25
288.831	85.25
289.062	90.25
289.293	90.25
289.524	82.25
289.755	79.25
289.986	83.25
290.217	77.25
290.448	79.25
290.679	98.25
290.91	87.25
291.141	86.25
291.371	88.25
291.602	87.25
291.833	78.25
292.064	74.25
292.295	97.25
292.526	97.25
292.757	93.25
292.987	86.25
293.218	91.25
293.449	77.25
293.68	103.25
293.91	82.25
294.141	93.25
294.372	78.25
294.603	81.25
294.833	86.25
295.064	88.25
295.295	91.25
295.525	77.25
295.756	93.25
295.987	101.25
296.217	124.25
296.448	114.25
296.679	104.25
296.909	79.25
297.14	100.25
297.37	88.25
297.601	79.25
297.831	77.25
298.062	85.25
298.292	80.25
298.523	85.25
298.753	83.25
298.984	85.25
299.214	96.25
299.445	86.25
299.675	89.25
299.905	86.25
300.136	79.25
300.366	86.25
300.597	97.25
300.827	78.25
301.057	97.25
301.288	90.25
301.518	101.25
301.748	77.25
301.979	100.25
302.209	84.25
302.439	73.25
302.669	85.25
302.9	78.25
303.13	86.25
303.36	99.25
303.59	97.25
303.82	103.25
304.051	90.25
304.281	91.25
304.511	93.25
304.741	84.25
304.971	87.25
305.201	85.25
305.431	88.25
305.661	84.25
305.891	89.25
306.121	82.25
306.352	103.25
306.582	96.25
306.812	82.25
307.042	84.25
307.272	92.25
307.502	98.25
307.731	87.25
307.961	76.25
308.191	81.25
308.421	98.25
308.651	91.25
308.881	86.25
309.111	80.25
309.341	85.25
309.571	108.25
309.8	84.25
310.03	78.25
310.26	86.25
310.49	82.25
310.72	94.25
310.949	95.25
311.179	94.25
311.409	102.25
311.639	90.25
311.868	95.25
312.098	96.25
312.328	89.25
312.557	93.25
312.787	88.25
313.017	94.25
313.246	87.25
313.476	95.25
313.706	85.25
313.935	95.25
314.165	96.25
314.394	92.25
314.624	82.25
314.853	87.25
315.083	93.25
315.312	102.25
315.542	84.25
315.771	91.25
316.001	103.25
316.23	98.25
316.46	64.25
316.689	75.25
316.919	94.25
317.148	97.25
317.377	94.25
317.607	88.25
317.836	76.25
318.065	104.25
318.295	84.25
318.524	101.25
318.753	74.25
318.983	89.25
319.212	81.25
319.441	95.25
319.67	95.25
319.9	77.25
320.129	99.25
320.358	89.25
320.587	91.25
320.816	98.25
321.046	82.25
321.275	100.25
321.504	87.25
321.733	87.25
321.962	95.25
322.191	94.25
322.42	92.25
322.649	87.25
322.878	104.25
323.108	110.25
323.337	118.25
323.566	114.25
323.795	138.25
324.024	181.25
324.253	342.25
324.482	726.25
324.71	1484.25
324.939	1928.25
325.168	693.25
325.397	220.25
325.626	134.25
325.855	114.25
326.084	108.25
326.313	115.25
326.542	166.25
326.77	201.25
326.999	418.25
327.228	838.25
327.457	1510.25
327.686	1164.25
327.914	326.25
328.143	162.25
328.372	130.25
328.6	131.25
328.829	123.25
329.058	104.25
329.287	122.25
329.515	104.25
329.744	90.25
329.972	99.25
330.201	96.25
330.43	89.25
330.658	107.25
330.887	123.25
331.115	111.25
331.344	96.25
331.572	96.25
331.801	95.25
332.03	92.25
332.258	88.25
332.486	98.25
332.715	92.25
332.943	98.25
333.172	97.25
333.4	75.25
333.629	98.25
333.857	105.25
334.085	90.25
334.314	85.25
334.542	85.25
334.771	103.25
334.999	88.25
335.227	91.25
335.455	100.25
335.684	88.25
335.912	79.25
336.14	104.25
336.369	84.25
336.597	89.25
336.825	88.25
337.053	98.25
337.281	91.25
337.51	85.25
337.738	86.25
337.966	91.25
338.194	101.25
338.422	88.25
338.65	97.25
338.878	87.25
339.106	93.25
339.334	87.25
339.562	85.25
339.79	96.25
340.018	85.25
340.246	89.25
340.474	92.25
340.702	100.25
340.93	99.25
341.158	105.25
341.386	97.25
341.614	86.25
341.842	76.25
342.07	78.25
342.298	76.25
342.526	97.25
342.754	93.25
342.981	91.25
343.209	96.25
343.437	93.25
343.665	82.25
343.893	81.25
344.12	86.25
344.348	91.25
344.576	80.25
344.804	80.25
345.031	87.25
345.259	106.25
345.487	98.25
345.714	79.25
345.942	102.25
346.17	91.25
346.397	108.25
346.625	93.25
346.853	79.25
347.08	90.25
347.308	84.25
347.535	97.25
347.763	93.25
347.99	90.25
348.218	92.25
348.445	86.25
348.673	77.25
348.9	95.25
349.128	96.25
349.355	107.25
349.583	88.25
349.81	83.25
350.037	90.25
350.265	94.25
350.492	96.25
350.72	97.25
350.947	92.25
351.174	104.25
351.402	106.25
351.629	96.25
351.856	101.25
352.083	93.25
352.311	104.25
352.538	117.25
352.765	100.25
352.992	117.25
353.22	109.25
353.447	92.25
353.674	101.25
353.901	99.25
354.128	94.25
354.355	89.25
354.583	84.25
354.81	98.25
355.037	93.25
355.264	97.25
355.491	93.25
355.718	98.25
355.945	95.25
356.172	85.25
356.399	97.25
356.626	80.25
356.853	95.25
357.08	99.25
357.307	80.25
357.534	94.25
357.761	72.25
357.988	101.25
358.215	95.25
358.441	87.25
358.668	110.25
358.895	77.25
359.122	87.25
359.349	102.25
359.576	80.25
359.802	98.25
360.029	104.25
360.256	104.25
360.483	95.25
360.709	86.25
360.936	90.25
361.163	98.25
361.39	97.25
361.616	81.25
361.843	82.25
362.07	89.25
362.296	87.25
362.523	75.25
362.749	85.25
362.976	90.25
363.203	85.25
363.429	98.25
363.656	83.25
363.882	82.25
364.109	74.25
364.335	92.25
364.562	82.25
364.788	96.25
365.015	91.25
365.241	92.25
365.468	89.25
365.694	108.25
365.92	98.25
366.147	82.25
366.373	71.25
366.599	90.25
366.826	88.25
367.052	90.25
367.278	91.25
367.505	84.25
367.731	98.25
367.957	75.25
368.184	88.25
368.41	92.25
368.636	108.25
368.862	98.25
369.089	101.25
369.315	86.25
369.541	92.25
369.767	79.25
369.993	74.25
370.219	92.25
370.445	96.25
370.672	77.25
370.898	72.25
371.124	94.25
371.35	83.25
371.576	84.25
371.802	82.25
372.028	88.25
372.254	89.25
372.48	77.25
372.706	84.25
372.932	69.25
373.158	94.25
373.384	85.25
373.61	80.25
373.835	82.25
374.061	86.25
374.287	86.25
374.513	98.25
374.739	90.25
374.965	81.25
375.191	89.25
375.416	88.25
375.642	94.25
375.868	91.25
376.094	72.25
376.319	75.25
376.545	80.25
376.771	103.25
376.997	81.25
377.222	83.25
377.448	85.25
377.674	99.25
377.899	84.25
378.125	91.25
378.35	80.25
378.576	79.25
378.802	100.25
379.027	84.25
379.253	80.25
379.478	84.25
379.704	76.25
379.929	95.25
380.155	95.25
380.38	90.25
380.606	98.25
380.831	94.25
381.057	98.25
381.282	94.25
381.507	93.25
381.733	90.25
381.958	92.25
382.184	101.25
382.409	106.25
382.634	92.25
382.86	102.25
383.085	92.25
383.31	93.25
383.535	93.25
383.761	90.25
383.986	95.25
384.211	90.25
384.436	89.25
384.662	88.25
384.887	89.25
385.112	104.25
385.337	98.25
385.562	104.25
385.787	93.25
386.013	91.25
386.238	94.25
386.463	92.25
386.688	126.25
386.913	120.25
387.138	103.25
387.363	104.25
387.588	97.25
387.813	105.25
388.038	102.25
388.263	115.25
388.488	104.25
388.713	98.25
388.938	88.25
389.163	99.25
389.387	95.25
389.612	106.25
389.837	84.25
390.062	104.25
390.287	92.25
390.512	94.25
390.736	87.25
390.961	93.25
391.186	90.25
391.411	94.25
391.636	72.25
391.86	80.25
392.085	81.25
392.31	96.25
392.534	83.25
392.759	93.25
392.984	96.25
393.208	79.25
393.433	91.25
393.658	100.25
393.882	98.25
394.107	98.25
394.331	92.25
394.556	91.25
394.78	97.25
395.005	100.25
395.229	88.25
395.454	81.25
395.678	79.25
395.903	83.25
396.127	81.25
396.352	97.25
396.576	77.25
396.801	83.25
397.025	110.25
397.249	110.25
397.474	85.25
397.698	78.25
397.922	69.25
398.147	70.25
398.371	72.25
398.595	92.25
398.82	88.25
399.044	112.25
399.268	89.25
399.492	74.25
399.717	72.25
399.941	92.25
400.165	95.25
400.389	102.25
400.613	78.25
400.837	80.25
401.062	72.25
401.286	86.25
401.51	84.25
401.734	88.25
401.958	94.25
402.182	107.25
402.406	139.25
402.63	100.25
402.854	98.25
403.078	90.25
403.302	88.25
403.526	57.25
403.75	75.25
403.974	75.25
404.198	90.25
404.422	96.25
404.645	81.25
404.869	70.25
405.093	105.25
405.317	106.25
405.541	88.25
405.765	96.25
405.988	104.25
406.212	164.25
406.436	183.25
406.66	125.25
406.883	89.25
407.107	87.25
407.331	89.25
407.555	75.25
407.778	88.25
408.002	74.25
408.226	85.25
408.449	92.25
408.673	98.25
408.896	92.25
409.12	82.25
409.344	80.25
409.567	77.25
409.791	89.25
410.014	92.25
410.238	95.25
410.461	85.25
410.685	88.25
410.908	109.25
411.132	107.25
411.355	92.25
411.578	90.25
411.802	85.25
412.025	91.25
412.249	86.25
412.472	105.25
412.695	76.25
412.919	89.25
413.142	90.25
413.365	85.25
413.589	86.25
413.812	103.25
414.035	102.25
414.258	95.25
414.482	76.25
414.705	80.25
414.928	96.25
415.151	89.25
415.374	89.25
415.597	94.25
415.821	89.25
416.044	75.25
416.267	102.25
416.49	77.25
416.713	95.25
416.936	84.25
417.159	79.25
417.382	74.25
417.605	79.25
417.828	100.25
418.051	96.25
418.274	95.25
418.497	79.25
418.72	91.25
418.943	90.25
419.166	78.25
419.389	80.25
419.611	91.25
419.834	88.25
420.057	72.25
420.28	85.25
420.503	77.25
420.726	88.25
420.948	91.25
421.171	94.25
421.394	92.25
421.617	85.25
421.839	91.25
422.062	85.25
422.285	90.25
422.507	89.25
422.73	100.25
422.953	108.25
423.175	89.25
423.398	89.25
423.621	92.25
423.843	76.25
424.066	82.25
424.288	87.25
424.511	82.25
424.733	102.25
424.956	88.25
425.178	96.25
425.401	86.25
425.623	104.25
425.846	89.25
426.068	98.25
426.291	82.25
426.513	86.25
426.735	82.25
426.958	96.25
427.18	96.25
427.402	119.25
427.625	133.25
427.847	121.25
428.069	105.25
428.292	101.25
428.514	71.25
428.736	98.25
428.958	78.25
429.181	80.25
429.403	72.25
429.625	94.25
429.847	92.25
430.069	97.25
430.292	98.25
430.514	86.25
430.736	71.25
430.958	91.25
431.18	90.25
431.402	96.25
431.624	79.25
431.846	76.25
432.068	70.25
432.29	93.25
432.512	99.25
432.734	80.25
432.956	101.25
433.178	96.25
433.4	97.25
433.622	92.25
433.844	80.25
434.066	92.25
434.287	94.25
434.509	94.25
434.731	73.25
434.953	75.25
435.175	90.25
435.397	93.25
435.618	98.25
435.84	108.25
436.062	111.25
436.284	113.25
436.505	97.25
436.727	86.25
436.949	81.25
437.17	85.25
437.392	89.25
437.614	86.25
437.835	106.25
438.057	113.25
438.278	108.25
438.5	111.25
438.721	115.25
438.943	96.25
439.165	91.25
439.386	74.25
439.608	80.25
439.829	101.25
440.05	110.25
440.272	126.25
440.493	89.25
440.715	72.25
440.936	90.25
441.158	84.25
441.379	80.25
441.6	90.25
441.822	85.25
442.043	81.25
442.264	94.25
442.486	89.25
442.707	82.25
442.928	101.25
443.149	105.25
443.371	112.25
443.592	109.25
443.813	109.25
444.034	92.25
444.255	97.25
444.476	80.25
444.698	73.25
444.919	88.25
445.14	123.25
445.361	118.25
445.582	97.25
445.803	118.25
446.024	124.25
446.245	129.25
446.466	112.25
446.687	91.25
446.908	86.25
447.129	90.25
447.35	98.25
447.571	91.25
447.792	84.25
448.013	85.25
448.234	93.25
448.455	83.25
448.675	96.25
448.896	119.25
449.117	91.25
449.338	107.25
449.559	121.25
449.779	120.25
450	96.25
450.221	81.25
450.442	109.25
450.662	97.25
450.883	97.25
451.104	97.25
451.324	97.25
451.545	88.25
451.766	97.25
451.986	87.25
452.207	92.25
452.428	91.25
452.648	91.25
452.869	109.25
453.089	93.25
453.31	92.25
453.53	101.25
453.751	90.25
453.971	104.25
454.192	98.25
454.412	98.25
454.633	86.25
454.853	72.25
455.073	88.25
455.294	81.25
455.514	75.25
455.734	96.25
455.955	70.25
456.175	86.25
456.395	72.25
456.616	89.25
456.836	90.25
457.056	82.25
457.276	78.25
457.497	90.25
457.717	79.25
457.937	76.25
458.157	88.25
458.377	90.25
458.598	98.25
458.818	125.25
459.038	139.25
459.258	111.25
459.478	89.25
459.698	89.25
459.918	91.25
460.138	79.25
460.358	76.25
460.578	89.25
460.798	98.25
461.018	88.25
461.238	69.25
461.458	90.25
461.678	77.25
461.898	84.25
462.118	85.25
462.338	102.25
462.558	87.25
462.777	84.25
462.997	89.25
463.217	94.25
463.437	91.25
463.657	81.25
463.876	86.25
464.096	92.25
464.316	86.25
464.536	80.25
464.755	89.25
464.975	97.25
465.195	145.25
465.414	145.25
465.634	98.25
465.854	86.25
466.073	92.25
466.293	81.25
466.512	89.25
466.732	79.25
466.951	85.25
467.171	81.25
467.391	85.25
467.61	108.25
467.829	98.25
468.049	99.25
468.268	91.25
468.488	84.25
468.707	85.25
468.927	68.25
469.146	81.25
469.365	77.25
469.585	88.25
469.804	100.25
470.023	102.25
470.243	94.25
470.462	95.25
470.681	103.25
470.901	86.25
471.12	83.25
471.339	85.25
471.558	79.25
471.777	78.25
471.997	87.25
472.216	91.25
472.435	94.25
472.654	74.25
472.873	90.25
473.092	78.25
473.311	77.25
473.53	87.25
473.749	83.25
473.968	93.25
474.187	91.25
474.406	108.25
474.625	89.25
474.844	95.25
475.063	76.25
475.282	81.25
475.501	82.25
475.72	88.25
475.939	91.25
476.158	83.25
476.377	93.25
476.596	90.25
476.814	92.25
477.033	84.25
477.252	79.25
477.471	80.25
477.69	87.25
477.908	86.25
478.127	95.25
478.346	94.25
478.564	103.25
478.783	79.25
479.002	90.25
479.22	97.25
479.439	95.25
479.658	108.25
479.876	80.25
480.095	84.25
480.313	88.25
480.532	87.25
480.751	92.25
480.969	79.25
481.188	122.25
481.406	89.25
481.624	90.25
481.843	92.25
482.061	84.25
482.28	85.25
482.498	91.25
482.717	92.25
482.935	92.25
483.153	83.25
483.372	95.25
483.59	84.25
483.808	97.25
484.027	87.25
484.245	96.25
484.463	86.25
484.681	100.25
484.9	94.25
485.118	107.25
485.336	96.25
485.554	100.25
485.772	99.25
485.99	98.25
486.209	95.25
486.427	102.25
486.645	102.25
486.863	98.25
487.081	103.25
487.299	95.25
487.517	85.25
487.735	88.25
487.953	94.25
488.171	91.25
488.389	90.25
488.607	89.25
488.825	92.25
489.043	96.25
489.261	107.25
489.479	89.25
489.696	84.25
489.914	92.25
490.132	93.25
490.35	96.25
490.568	101.25
490.786	97.25
491.003	90.25
491.221	84.25
491.439	92.25
491.657	86.25
491.874	99.25
492.092	78.25
492.31	82.25
492.527	74.25
492.745	80.25
492.963	102.25
493.18	86.25
493.398	101.25
493.615	88.25
493.833	94.25
494.05	90.25
494.268	76.25
494.485	95.25
494.703	95.25
494.92	97.25
495.138	97.25
495.355	88.25
495.573	100.25
495.79	83.25
496.008	98.25
496.225	86.25
496.442	81.25
496.66	84.25
496.877	89.25
497.094	100.25
497.312	95.25
497.529	89.25
497.746	80.25
497.963	90.25
498.181	85.25
498.398	92.25
498.615	105.25
498.832	111.25
499.049	83.25
499.267	93.25
499.484	84.25
499.701	90.25
499.918	78.25
500.135	93.25
500.352	96.25
500.569	89.25
500.786	81.25
501.003	96.25
501.22	98.25
501.437	86.25
501.654	94.25
501.871	111.25
502.088	75.25
502.305	92.25
502.522	81.25
502.739	90.25
502.956	96.25
503.172	88.25
503.389	97.25
503.606	104.25
503.823	105.25
504.04	96.25
504.256	99.25
504.473	70.25
504.69	81.25
504.907	81.25
505.123	94.25
505.34	83.25
505.557	79.25
505.773	104.25
505.99	96.25
506.207	95.25
506.423	86.25
506.64	92.25
506.856	97.25
507.073	89.25
507.289	96.25
507.506	89.25
507.722	105.25
507.939	102.25
508.155	85.25
508.372	96.25
508.588	98.25
508.805	96.25
509.021	87.25
509.238	97.25
509.454	95.25
509.67	108.25
509.887	103.25
510.103	116.25
510.319	181.25
510.536	614.25
510.752	1764.25
510.968	502.25
511.184	137.25
511.401	100.25
511.617	102.25
511.833	86.25
512.049	89.25
512.265	84.25
512.481	70.25
512.698	81.25
512.914	89.25
513.13	93.25
513.346	90.25
513.562	90.25
513.778	95.25
513.994	97.25
514.21	97.25
514.426	103.25
514.642	131.25
514.858	98.25
515.074	144.25
515.29	362.25
515.506	1121.25
515.721	432.25
515.937	156.25
516.153	101.25
516.369	89.25
516.585	86.25
516.801	85.25
517.016	109.25
