Data from Uncirc_1997_H10_HRD10591_00003.txt Node
Date: Wed Jan 03 11:28:31 EST 2024
User: Yrep
Spectrometer: HR+D1059
Trigger mode: 1
Integration Time (sec): 1.000000E-1
Scans to average: 1
Electric dark correction enabled: true
Nonlinearity correction enabled: false
Boxcar width: 0
XAxis mode: Wavelengths
Number of Pixels in Spectrum: 2048
>>>>>Begin Spectral Data<<<<<
223.165	-22.94
223.4	-22.94
223.635	-22.94
223.869	-19.94
224.104	-13.94
224.338	-16.94
224.573	-16.94
224.808	-35.94
225.042	-7.94
225.277	-8.94
225.511	10.06
225.746	12.06
225.98	27.06
226.215	9.06
226.449	15.06
226.683	24.06
226.918	24.06
227.152	22.06
227.387	33.06
227.621	23.06
227.856	32.06
228.09	52.06
228.324	43.06
228.559	54.06
228.793	59.06
229.027	65.06
229.262	69.06
229.496	80.06
229.73	73.06
229.964	68.06
230.199	69.06
230.433	60.06
230.667	72.06
230.901	65.06
231.136	84.06
231.37	76.06
231.604	82.06
231.838	63.06
232.072	85.06
232.306	79.06
232.541	69.06
232.775	82.06
233.009	75.06
233.243	84.06
233.477	89.06
233.711	88.06
233.945	79.06
234.179	82.06
234.413	82.06
234.647	80.06
234.881	73.06
235.115	83.06
235.349	82.06
235.583	75.06
235.817	78.06
236.051	74.06
236.285	60.06
236.519	80.06
236.753	70.06
236.987	81.06
237.221	82.06
237.455	86.06
237.689	77.06
237.922	58.06
238.156	79.06
238.39	64.06
238.624	81.06
238.858	80.06
239.091	73.06
239.325	76.06
239.559	86.06
239.793	72.06
240.027	86.06
240.26	55.06
240.494	73.06
240.728	73.06
240.961	79.06
241.195	71.06
241.429	83.06
241.662	78.06
241.896	89.06
242.13	81.06
242.363	54.06
242.597	75.06
242.83	72.06
243.064	63.06
243.298	72.06
243.531	80.06
243.765	85.06
243.998	72.06
244.232	87.06
244.465	93.06
244.699	73.06
244.932	87.06
245.166	72.06
245.399	76.06
245.633	86.06
245.866	74.06
246.099	79.06
246.333	73.06
246.566	74.06
246.8	81.06
247.033	84.06
247.266	86.06
247.5	65.06
247.733	77.06
247.966	92.06
248.2	69.06
248.433	76.06
248.666	90.06
248.899	73.06
249.133	79.06
249.366	95.06
249.599	84.06
249.832	85.06
250.066	77.06
250.299	63.06
250.532	72.06
250.765	65.06
250.998	74.06
251.231	85.06
251.465	63.06
251.698	78.06
251.931	69.06
252.164	79.06
252.397	74.06
252.63	82.06
252.863	92.06
253.096	81.06
253.329	84.06
253.562	75.06
253.795	86.06
254.028	93.06
254.261	81.06
254.494	81.06
254.727	68.06
254.96	84.06
255.193	90.06
255.426	76.06
255.659	87.06
255.892	82.06
256.124	54.06
256.357	71.06
256.59	75.06
256.823	77.06
257.056	98.06
257.289	78.06
257.521	66.06
257.754	74.06
257.987	81.06
258.22	76.06
258.452	78.06
258.685	85.06
258.918	89.06
259.151	85.06
259.383	84.06
259.616	72.06
259.849	83.06
260.081	78.06
260.314	85.06
260.547	84.06
260.779	72.06
261.012	72.06
261.244	71.06
261.477	85.06
261.71	92.06
261.942	116.06
262.175	110.06
262.407	76.06
262.64	80.06
262.872	79.06
263.105	78.06
263.337	82.06
263.57	83.06
263.802	86.06
264.035	74.06
264.267	77.06
264.499	90.06
264.732	82.06
264.964	68.06
265.197	65.06
265.429	83.06
265.661	72.06
265.894	88.06
266.126	81.06
266.358	79.06
266.591	80.06
266.823	83.06
267.055	84.06
267.287	95.06
267.52	70.06
267.752	80.06
267.984	89.06
268.216	74.06
268.448	73.06
268.681	74.06
268.913	69.06
269.145	94.06
269.377	97.06
269.609	94.06
269.841	81.06
270.073	70.06
270.306	85.06
270.538	79.06
270.77	78.06
271.002	88.06
271.234	90.06
271.466	82.06
271.698	85.06
271.93	87.06
272.162	98.06
272.394	81.06
272.626	79.06
272.858	73.06
273.09	61.06
273.322	78.06
273.553	79.06
273.785	89.06
274.017	76.06
274.249	74.06
274.481	79.06
274.713	80.06
274.945	81.06
275.176	81.06
275.408	87.06
275.64	86.06
275.872	82.06
276.104	75.06
276.335	85.06
276.567	90.06
276.799	86.06
277.031	82.06
277.262	92.06
277.494	100.06
277.726	89.06
277.957	89.06
278.189	90.06
278.421	83.06
278.652	92.06
278.884	80.06
279.115	92.06
279.347	89.06
279.579	88.06
279.81	83.06
280.042	69.06
280.273	85.06
280.505	79.06
280.736	76.06
280.968	76.06
281.199	78.06
281.431	76.06
281.662	101.06
281.894	95.06
282.125	84.06
282.356	99.06
282.588	100.06
282.819	103.06
283.051	89.06
283.282	72.06
283.513	73.06
283.745	81.06
283.976	92.06
284.207	92.06
284.439	98.06
284.67	83.06
284.901	97.06
285.132	82.06
285.364	78.06
285.595	79.06
285.826	96.06
286.057	84.06
286.288	79.06
286.52	92.06
286.751	75.06
286.982	76.06
287.213	90.06
287.444	87.06
287.675	87.06
287.906	85.06
288.138	92.06
288.369	89.06
288.6	94.06
288.831	72.06
289.062	88.06
289.293	72.06
289.524	84.06
289.755	86.06
289.986	60.06
290.217	84.06
290.448	93.06
290.679	87.06
290.91	74.06
291.141	90.06
291.371	93.06
291.602	92.06
291.833	98.06
292.064	79.06
292.295	94.06
292.526	88.06
292.757	83.06
292.987	88.06
293.218	69.06
293.449	80.06
293.68	77.06
293.91	72.06
294.141	94.06
294.372	88.06
294.603	78.06
294.833	85.06
295.064	80.06
295.295	88.06
295.525	90.06
295.756	101.06
295.987	106.06
296.217	136.06
296.448	103.06
296.679	88.06
296.909	81.06
297.14	96.06
297.37	88.06
297.601	81.06
297.831	99.06
298.062	90.06
298.292	77.06
298.523	93.06
298.753	101.06
298.984	81.06
299.214	80.06
299.445	98.06
299.675	88.06
299.905	81.06
300.136	91.06
300.366	90.06
300.597	92.06
300.827	95.06
301.057	97.06
301.288	100.06
301.518	105.06
301.748	87.06
301.979	86.06
302.209	96.06
302.439	88.06
302.669	88.06
302.9	84.06
303.13	81.06
303.36	88.06
303.59	113.06
303.82	88.06
304.051	82.06
304.281	78.06
304.511	86.06
304.741	86.06
304.971	79.06
305.201	91.06
305.431	75.06
305.661	85.06
305.891	78.06
306.121	79.06
306.352	103.06
306.582	105.06
306.812	78.06
307.042	89.06
307.272	84.06
307.502	94.06
307.731	81.06
307.961	92.06
308.191	86.06
308.421	79.06
308.651	77.06
308.881	88.06
309.111	75.06
309.341	76.06
309.571	95.06
309.8	91.06
310.03	84.06
310.26	86.06
310.49	100.06
310.72	93.06
310.949	86.06
311.179	85.06
311.409	94.06
311.639	98.06
311.868	90.06
312.098	89.06
312.328	100.06
312.557	104.06
312.787	107.06
313.017	92.06
313.246	83.06
313.476	99.06
313.706	81.06
313.935	95.06
314.165	99.06
314.394	84.06
314.624	88.06
314.853	95.06
315.083	82.06
315.312	87.06
315.542	92.06
315.771	90.06
316.001	100.06
316.23	89.06
316.46	82.06
316.689	95.06
316.919	76.06
317.148	89.06
317.377	91.06
317.607	93.06
317.836	91.06
318.065	84.06
318.295	98.06
318.524	86.06
318.753	78.06
318.983	89.06
319.212	85.06
319.441	80.06
319.67	99.06
319.9	94.06
320.129	79.06
320.358	87.06
320.587	89.06
320.816	85.06
321.046	82.06
321.275	90.06
321.504	96.06
321.733	104.06
321.962	100.06
322.191	100.06
322.42	99.06
322.649	103.06
322.878	121.06
323.108	105.06
323.337	105.06
323.566	121.06
323.795	146.06
324.024	186.06
324.253	339.06
324.482	685.06
324.71	1400.06
324.939	1763.06
325.168	674.06
325.397	202.06
325.626	119.06
325.855	122.06
326.084	122.06
326.313	127.06
326.542	144.06
326.77	189.06
326.999	408.06
327.228	799.06
327.457	1425.06
327.686	1115.06
327.914	313.06
328.143	168.06
328.372	128.06
328.6	105.06
328.829	110.06
329.058	119.06
329.287	112.06
329.515	96.06
329.744	104.06
329.972	92.06
330.201	95.06
330.43	91.06
330.658	116.06
330.887	120.06
331.115	122.06
331.344	91.06
331.572	100.06
331.801	80.06
332.03	94.06
332.258	102.06
332.486	88.06
332.715	87.06
332.943	88.06
333.172	93.06
333.4	95.06
333.629	86.06
333.857	102.06
334.085	91.06
334.314	102.06
334.542	98.06
334.771	81.06
334.999	89.06
335.227	79.06
335.455	85.06
335.684	102.06
335.912	97.06
336.14	102.06
336.369	101.06
336.597	103.06
336.825	88.06
337.053	89.06
337.281	88.06
337.51	98.06
337.738	89.06
337.966	85.06
338.194	97.06
338.422	84.06
338.65	102.06
338.878	81.06
339.106	85.06
339.334	108.06
339.562	89.06
339.79	92.06
340.018	100.06
340.246	85.06
340.474	90.06
340.702	101.06
340.93	87.06
341.158	90.06
341.386	95.06
341.614	93.06
341.842	84.06
342.07	77.06
342.298	80.06
342.526	88.06
342.754	78.06
342.981	83.06
343.209	82.06
343.437	105.06
343.665	93.06
343.893	91.06
344.12	99.06
344.348	94.06
344.576	82.06
344.804	78.06
345.031	90.06
345.259	96.06
345.487	99.06
345.714	92.06
345.942	97.06
346.17	85.06
346.397	79.06
346.625	89.06
346.853	92.06
347.08	84.06
347.308	75.06
347.535	101.06
347.763	106.06
347.99	86.06
348.218	105.06
348.445	92.06
348.673	87.06
348.9	91.06
349.128	83.06
349.355	93.06
349.583	93.06
349.81	89.06
350.037	89.06
350.265	94.06
350.492	85.06
350.72	82.06
350.947	99.06
351.174	89.06
351.402	100.06
351.629	93.06
351.856	86.06
352.083	97.06
352.311	101.06
352.538	92.06
352.765	103.06
352.992	112.06
353.22	112.06
353.447	108.06
353.674	94.06
353.901	104.06
354.128	102.06
354.355	96.06
354.583	70.06
354.81	86.06
355.037	80.06
355.264	88.06
355.491	102.06
355.718	95.06
355.945	89.06
356.172	96.06
356.399	90.06
356.626	108.06
356.853	95.06
357.08	96.06
357.307	90.06
357.534	97.06
357.761	81.06
357.988	97.06
358.215	97.06
358.441	77.06
358.668	90.06
358.895	79.06
359.122	94.06
359.349	93.06
359.576	98.06
359.802	108.06
360.029	104.06
360.256	94.06
360.483	78.06
360.709	92.06
360.936	88.06
361.163	88.06
361.39	88.06
361.616	98.06
361.843	91.06
362.07	89.06
362.296	103.06
362.523	87.06
362.749	85.06
362.976	77.06
363.203	114.06
363.429	90.06
363.656	92.06
363.882	96.06
364.109	96.06
364.335	88.06
364.562	74.06
364.788	84.06
365.015	75.06
365.241	98.06
365.468	105.06
365.694	108.06
365.92	84.06
366.147	90.06
366.373	82.06
366.599	78.06
366.826	75.06
367.052	101.06
367.278	84.06
367.505	92.06
367.731	93.06
367.957	78.06
368.184	84.06
368.41	95.06
368.636	98.06
368.862	105.06
369.089	100.06
369.315	72.06
369.541	75.06
369.767	94.06
369.993	65.06
370.219	90.06
370.445	83.06
370.672	76.06
370.898	66.06
371.124	82.06
371.35	98.06
371.576	79.06
371.802	92.06
372.028	80.06
372.254	79.06
372.48	92.06
372.706	72.06
372.932	94.06
373.158	81.06
373.384	83.06
373.61	92.06
373.835	87.06
374.061	87.06
374.287	88.06
374.513	87.06
374.739	83.06
374.965	82.06
375.191	88.06
375.416	65.06
375.642	86.06
375.868	94.06
376.094	82.06
376.319	78.06
376.545	85.06
376.771	88.06
376.997	89.06
377.222	80.06
377.448	92.06
377.674	84.06
377.899	84.06
378.125	88.06
378.35	80.06
378.576	80.06
378.802	91.06
379.027	96.06
379.253	90.06
379.478	89.06
379.704	102.06
379.929	85.06
380.155	93.06
380.38	101.06
380.606	82.06
380.831	84.06
381.057	80.06
381.282	89.06
381.507	83.06
381.733	89.06
381.958	91.06
382.184	95.06
382.409	94.06
382.634	92.06
382.86	94.06
383.085	100.06
383.31	95.06
383.535	93.06
383.761	106.06
383.986	98.06
384.211	101.06
384.436	99.06
384.662	92.06
384.887	87.06
385.112	108.06
385.337	85.06
385.562	91.06
385.787	97.06
386.013	92.06
386.238	113.06
386.463	93.06
386.688	111.06
386.913	95.06
387.138	99.06
387.363	86.06
387.588	105.06
387.813	102.06
388.038	96.06
388.263	111.06
388.488	91.06
388.713	106.06
388.938	95.06
389.163	97.06
389.387	103.06
389.612	108.06
389.837	96.06
390.062	84.06
390.287	87.06
390.512	88.06
390.736	76.06
390.961	90.06
391.186	87.06
391.411	88.06
391.636	102.06
391.86	68.06
392.085	88.06
392.31	86.06
392.534	82.06
392.759	73.06
392.984	65.06
393.208	85.06
393.433	105.06
393.658	97.06
393.882	84.06
394.107	66.06
394.331	90.06
394.556	91.06
394.78	84.06
395.005	94.06
395.229	99.06
395.454	83.06
395.678	78.06
395.903	74.06
396.127	83.06
396.352	84.06
396.576	86.06
396.801	92.06
397.025	98.06
397.249	86.06
397.474	81.06
397.698	84.06
397.922	80.06
398.147	68.06
398.371	73.06
398.595	102.06
398.82	80.06
399.044	82.06
399.268	77.06
399.492	78.06
399.717	85.06
399.941	85.06
400.165	93.06
400.389	102.06
400.613	84.06
400.837	80.06
401.062	84.06
401.286	85.06
401.51	79.06
401.734	90.06
401.958	88.06
402.182	100.06
402.406	116.06
402.63	90.06
402.854	90.06
403.078	80.06
403.302	97.06
403.526	94.06
403.75	93.06
403.974	81.06
404.198	78.06
404.422	77.06
404.645	85.06
404.869	85.06
405.093	96.06
405.317	101.06
405.541	95.06
405.765	87.06
405.988	115.06
406.212	148.06
406.436	184.06
406.66	121.06
406.883	92.06
407.107	98.06
407.331	68.06
407.555	85.06
407.778	89.06
408.002	93.06
408.226	81.06
408.449	79.06
408.673	92.06
408.896	92.06
409.12	95.06
409.344	90.06
409.567	93.06
409.791	92.06
410.014	97.06
410.238	102.06
410.461	105.06
410.685	79.06
410.908	91.06
411.132	95.06
411.355	100.06
411.578	93.06
411.802	74.06
412.025	81.06
412.249	92.06
412.472	87.06
412.695	84.06
412.919	94.06
413.142	95.06
413.365	88.06
413.589	98.06
413.812	92.06
414.035	90.06
414.258	89.06
414.482	78.06
414.705	79.06
414.928	88.06
415.151	81.06
415.374	79.06
415.597	92.06
415.821	82.06
416.044	76.06
416.267	88.06
416.49	85.06
416.713	85.06
416.936	82.06
417.159	90.06
417.382	88.06
417.605	77.06
417.828	84.06
418.051	87.06
418.274	88.06
418.497	90.06
418.72	91.06
418.943	89.06
419.166	92.06
419.389	96.06
419.611	80.06
419.834	84.06
420.057	86.06
420.28	88.06
420.503	72.06
420.726	71.06
420.948	78.06
421.171	88.06
421.394	76.06
421.617	85.06
421.839	70.06
422.062	86.06
422.285	95.06
422.507	95.06
422.73	88.06
422.953	87.06
423.175	93.06
423.398	78.06
423.621	94.06
423.843	85.06
424.066	74.06
424.288	79.06
424.511	93.06
424.733	93.06
424.956	104.06
425.178	97.06
425.401	93.06
425.623	103.06
425.846	82.06
426.068	87.06
426.291	99.06
426.513	99.06
426.735	105.06
426.958	95.06
427.18	97.06
427.402	124.06
427.625	137.06
427.847	111.06
428.069	83.06
428.292	81.06
428.514	90.06
428.736	79.06
428.958	84.06
429.181	70.06
429.403	67.06
429.625	94.06
429.847	91.06
430.069	94.06
430.292	97.06
430.514	95.06
430.736	87.06
430.958	82.06
431.18	88.06
431.402	85.06
431.624	72.06
431.846	71.06
432.068	66.06
432.29	85.06
432.512	92.06
432.734	88.06
432.956	75.06
433.178	93.06
433.4	100.06
433.622	89.06
433.844	78.06
434.066	87.06
434.287	78.06
434.509	88.06
434.731	82.06
434.953	77.06
435.175	92.06
435.397	84.06
435.618	109.06
435.84	102.06
436.062	112.06
436.284	106.06
436.505	102.06
436.727	114.06
436.949	84.06
437.17	89.06
437.392	97.06
437.614	92.06
437.835	98.06
438.057	100.06
438.278	111.06
438.5	98.06
438.721	104.06
438.943	98.06
439.165	92.06
439.386	86.06
439.608	98.06
439.829	93.06
440.05	106.06
440.272	126.06
440.493	78.06
440.715	74.06
440.936	82.06
441.158	85.06
441.379	90.06
441.6	83.06
441.822	77.06
442.043	92.06
442.264	98.06
442.486	95.06
442.707	101.06
442.928	84.06
443.149	107.06
443.371	114.06
443.592	106.06
443.813	104.06
444.034	98.06
444.255	87.06
444.476	92.06
444.698	73.06
444.919	84.06
445.14	126.06
445.361	114.06
445.582	97.06
445.803	106.06
446.024	105.06
446.245	136.06
446.466	108.06
446.687	90.06
446.908	77.06
447.129	73.06
447.35	86.06
447.571	93.06
447.792	89.06
448.013	83.06
448.234	86.06
448.455	93.06
448.675	105.06
448.896	101.06
449.117	107.06
449.338	97.06
449.559	120.06
449.779	104.06
450	91.06
450.221	84.06
450.442	74.06
450.662	87.06
450.883	99.06
451.104	98.06
451.324	84.06
451.545	82.06
451.766	82.06
451.986	90.06
452.207	88.06
452.428	89.06
452.648	96.06
452.869	87.06
453.089	104.06
453.31	116.06
453.53	80.06
453.751	89.06
453.971	106.06
454.192	98.06
454.412	81.06
454.633	84.06
454.853	92.06
455.073	86.06
455.294	91.06
455.514	92.06
455.734	81.06
455.955	82.06
456.175	86.06
456.395	89.06
456.616	68.06
456.836	65.06
457.056	76.06
457.276	70.06
457.497	78.06
457.717	81.06
457.937	83.06
458.157	76.06
458.377	80.06
458.598	89.06
458.818	133.06
459.038	132.06
459.258	92.06
459.478	80.06
459.698	81.06
459.918	93.06
460.138	64.06
460.358	62.06
460.578	73.06
460.798	83.06
461.018	84.06
461.238	95.06
461.458	86.06
461.678	93.06
461.898	84.06
462.118	86.06
462.338	83.06
462.558	82.06
462.777	88.06
462.997	69.06
463.217	92.06
463.437	72.06
463.657	84.06
463.876	90.06
464.096	89.06
464.316	94.06
464.536	89.06
464.755	96.06
464.975	102.06
465.195	137.06
465.414	130.06
465.634	94.06
465.854	83.06
466.073	82.06
466.293	98.06
466.512	84.06
466.732	77.06
466.951	85.06
467.171	78.06
467.391	100.06
467.61	107.06
467.829	81.06
468.049	89.06
468.268	79.06
468.488	84.06
468.707	89.06
468.927	92.06
469.146	93.06
469.365	84.06
469.585	72.06
469.804	74.06
470.023	97.06
470.243	79.06
470.462	89.06
470.681	105.06
470.901	93.06
471.12	92.06
471.339	80.06
471.558	85.06
471.777	72.06
471.997	75.06
472.216	99.06
472.435	96.06
472.654	76.06
472.873	77.06
473.092	82.06
473.311	71.06
473.53	86.06
473.749	68.06
473.968	88.06
474.187	85.06
474.406	96.06
474.625	98.06
474.844	85.06
475.063	96.06
475.282	73.06
475.501	86.06
475.72	83.06
475.939	105.06
476.158	72.06
476.377	81.06
476.596	89.06
476.814	94.06
477.033	92.06
477.252	75.06
477.471	92.06
477.69	84.06
477.908	76.06
478.127	75.06
478.346	85.06
478.564	88.06
478.783	91.06
479.002	83.06
479.22	86.06
479.439	96.06
479.658	90.06
479.876	91.06
480.095	78.06
480.313	94.06
480.532	86.06
480.751	96.06
480.969	90.06
481.188	109.06
481.406	97.06
481.624	84.06
481.843	95.06
482.061	81.06
482.28	84.06
482.498	102.06
482.717	84.06
482.935	84.06
483.153	84.06
483.372	96.06
483.59	70.06
483.808	86.06
484.027	87.06
484.245	87.06
484.463	74.06
484.681	86.06
484.9	81.06
485.118	88.06
485.336	102.06
485.554	90.06
485.772	87.06
485.99	97.06
486.209	100.06
486.427	87.06
486.645	99.06
486.863	101.06
487.081	83.06
487.299	87.06
487.517	101.06
487.735	87.06
487.953	84.06
488.171	95.06
488.389	96.06
488.607	97.06
488.825	77.06
489.043	93.06
489.261	84.06
489.479	101.06
489.696	82.06
489.914	75.06
490.132	78.06
490.35	92.06
490.568	93.06
490.786	84.06
491.003	88.06
491.221	82.06
491.439	82.06
491.657	73.06
491.874	89.06
492.092	100.06
492.31	94.06
492.527	87.06
492.745	92.06
492.963	83.06
493.18	95.06
493.398	101.06
493.615	86.06
493.833	87.06
494.05	102.06
494.268	89.06
494.485	84.06
494.703	93.06
494.92	91.06
495.138	89.06
495.355	84.06
495.573	98.06
495.79	77.06
496.008	79.06
496.225	87.06
496.442	81.06
496.66	87.06
496.877	86.06
497.094	91.06
497.312	90.06
497.529	76.06
497.746	87.06
497.963	88.06
498.181	88.06
498.398	77.06
498.615	103.06
498.832	94.06
499.049	81.06
499.267	84.06
499.484	86.06
499.701	82.06
499.918	83.06
500.135	92.06
500.352	80.06
500.569	84.06
500.786	93.06
501.003	72.06
501.22	83.06
501.437	100.06
501.654	87.06
501.871	92.06
502.088	94.06
502.305	94.06
502.522	80.06
502.739	86.06
502.956	101.06
503.172	86.06
503.389	93.06
503.606	103.06
503.823	107.06
504.04	95.06
504.256	88.06
504.473	76.06
504.69	87.06
504.907	79.06
505.123	93.06
505.34	96.06
505.557	86.06
505.773	82.06
505.99	89.06
506.207	76.06
506.423	78.06
506.64	100.06
506.856	82.06
507.073	93.06
507.289	97.06
507.506	95.06
507.722	113.06
507.939	123.06
508.155	93.06
508.372	90.06
508.588	89.06
508.805	93.06
509.021	95.06
509.238	96.06
509.454	101.06
509.67	97.06
509.887	95.06
510.103	121.06
510.319	191.06
510.536	619.06
510.752	1772.06
510.968	504.06
511.184	125.06
511.401	93.06
511.617	91.06
511.833	88.06
512.049	82.06
512.265	93.06
512.481	106.06
512.698	85.06
512.914	90.06
513.13	97.06
513.346	92.06
513.562	78.06
513.778	87.06
513.994	75.06
514.21	94.06
514.426	109.06
514.642	118.06
514.858	113.06
515.074	137.06
515.29	352.06
515.506	1073.06
515.721	390.06
515.937	129.06
516.153	108.06
516.369	93.06
516.585	96.06
516.801	87.06
517.016	92.06
517.232	96.06
