Data from Uncirc_1997_H10_HRD10591_00063.txt Node
Date: Wed Jan 03 11:28:43 EST 2024
User: Yrep
Spectrometer: HR+D1059
Trigger mode: 1
Integration Time (sec): 1.000000E-1
Scans to average: 1
Electric dark correction enabled: true
Nonlinearity correction enabled: false
Boxcar width: 0
XAxis mode: Wavelengths
Number of Pixels in Spectrum: 2048
>>>>>Begin Spectral Data<<<<<
223.165	-15.12
223.4	-15.12
223.635	-15.12
223.869	-8.12
224.104	-25.12
224.338	-22.12
224.573	-17.12
224.808	-21.12
225.042	1.88
225.277	7.88
225.511	7.88
225.746	-2.12
225.98	12.88
226.215	8.88
226.449	8.88
226.683	14.88
226.918	22.88
227.152	24.88
227.387	38.88
227.621	36.88
227.856	41.88
228.09	59.88
228.324	49.88
228.559	41.88
228.793	50.88
229.027	59.88
229.262	59.88
229.496	84.88
229.73	77.88
229.964	79.88
230.199	101.88
230.433	74.88
230.667	80.88
230.901	82.88
231.136	81.88
231.37	65.88
231.604	77.88
231.838	92.88
232.072	78.88
232.306	77.88
232.541	78.88
232.775	90.88
233.009	85.88
233.243	69.88
233.477	78.88
233.711	74.88
233.945	77.88
234.179	66.88
234.413	73.88
234.647	85.88
234.881	71.88
235.115	81.88
235.349	94.88
235.583	85.88
235.817	86.88
236.051	81.88
236.285	64.88
236.519	72.88
236.753	77.88
236.987	91.88
237.221	82.88
237.455	82.88
237.689	87.88
237.922	87.88
238.156	83.88
238.39	66.88
238.624	62.88
238.858	81.88
239.091	77.88
239.325	81.88
239.559	71.88
239.793	74.88
240.027	80.88
240.26	66.88
240.494	71.88
240.728	78.88
240.961	66.88
241.195	72.88
241.429	77.88
241.662	79.88
241.896	83.88
242.13	84.88
242.363	83.88
242.597	81.88
242.83	66.88
243.064	69.88
243.298	66.88
243.531	71.88
243.765	75.88
243.998	74.88
244.232	84.88
244.465	77.88
244.699	87.88
244.932	72.88
245.166	77.88
245.399	84.88
245.633	81.88
245.866	79.88
246.099	80.88
246.333	75.88
246.566	80.88
246.8	71.88
247.033	94.88
247.266	81.88
247.5	85.88
247.733	83.88
247.966	66.88
248.2	91.88
248.433	93.88
248.666	72.88
248.899	74.88
249.133	68.88
249.366	97.88
249.599	88.88
249.832	82.88
250.066	91.88
250.299	91.88
250.532	71.88
250.765	72.88
250.998	79.88
251.231	81.88
251.465	91.88
251.698	87.88
251.931	87.88
252.164	81.88
252.397	77.88
252.63	76.88
252.863	72.88
253.096	90.88
253.329	73.88
253.562	74.88
253.795	77.88
254.028	79.88
254.261	96.88
254.494	78.88
254.727	67.88
254.96	73.88
255.193	71.88
255.426	87.88
255.659	87.88
255.892	83.88
256.124	69.88
256.357	80.88
256.59	78.88
256.823	74.88
257.056	78.88
257.289	94.88
257.521	86.88
257.754	72.88
257.987	76.88
258.22	83.88
258.452	74.88
258.685	86.88
258.918	87.88
259.151	91.88
259.383	89.88
259.616	95.88
259.849	87.88
260.081	72.88
260.314	88.88
260.547	71.88
260.779	75.88
261.012	83.88
261.244	79.88
261.477	80.88
261.71	94.88
261.942	102.88
262.175	105.88
262.407	66.88
262.64	71.88
262.872	84.88
263.105	77.88
263.337	76.88
263.57	86.88
263.802	81.88
264.035	85.88
264.267	82.88
264.499	86.88
264.732	81.88
264.964	79.88
265.197	74.88
265.429	81.88
265.661	76.88
265.894	77.88
266.126	93.88
266.358	89.88
266.591	74.88
266.823	86.88
267.055	77.88
267.287	87.88
267.52	71.88
267.752	85.88
267.984	72.88
268.216	83.88
268.448	91.88
268.681	77.88
268.913	83.88
269.145	83.88
269.377	81.88
269.609	76.88
269.841	81.88
270.073	76.88
270.306	85.88
270.538	85.88
270.77	80.88
271.002	80.88
271.234	89.88
271.466	75.88
271.698	65.88
271.93	74.88
272.162	84.88
272.394	79.88
272.626	74.88
272.858	93.88
273.09	77.88
273.322	95.88
273.553	73.88
273.785	86.88
274.017	95.88
274.249	90.88
274.481	74.88
274.713	80.88
274.945	77.88
275.176	75.88
275.408	97.88
275.64	86.88
275.872	89.88
276.104	78.88
276.335	90.88
276.567	102.88
276.799	99.88
277.031	96.88
277.262	82.88
277.494	79.88
277.726	82.88
277.957	74.88
278.189	85.88
278.421	83.88
278.652	93.88
278.884	94.88
279.115	93.88
279.347	85.88
279.579	88.88
279.81	97.88
280.042	89.88
280.273	85.88
280.505	75.88
280.736	87.88
280.968	74.88
281.199	81.88
281.431	81.88
281.662	82.88
281.894	88.88
282.125	107.88
282.356	112.88
282.588	122.88
282.819	102.88
283.051	88.88
283.282	81.88
283.513	73.88
283.745	81.88
283.976	91.88
284.207	90.88
284.439	87.88
284.67	92.88
284.901	86.88
285.132	70.88
285.364	95.88
285.595	82.88
285.826	81.88
286.057	95.88
286.288	76.88
286.52	85.88
286.751	83.88
286.982	83.88
287.213	78.88
287.444	85.88
287.675	80.88
287.906	98.88
288.138	99.88
288.369	91.88
288.6	91.88
288.831	75.88
289.062	93.88
289.293	89.88
289.524	90.88
289.755	79.88
289.986	73.88
290.217	73.88
290.448	78.88
290.679	87.88
290.91	102.88
291.141	77.88
291.371	64.88
291.602	81.88
291.833	93.88
292.064	83.88
292.295	77.88
292.526	83.88
292.757	82.88
292.987	92.88
293.218	90.88
293.449	72.88
293.68	87.88
293.91	80.88
294.141	87.88
294.372	85.88
294.603	92.88
294.833	109.88
295.064	97.88
295.295	90.88
295.525	86.88
295.756	85.88
295.987	115.88
296.217	124.88
296.448	125.88
296.679	103.88
296.909	92.88
297.14	101.88
297.37	103.88
297.601	91.88
297.831	83.88
298.062	93.88
298.292	77.88
298.523	83.88
298.753	77.88
298.984	92.88
299.214	89.88
299.445	106.88
299.675	91.88
299.905	94.88
300.136	109.88
300.366	81.88
300.597	82.88
300.827	78.88
301.057	81.88
301.288	96.88
301.518	94.88
301.748	76.88
301.979	94.88
302.209	87.88
302.439	97.88
302.669	82.88
302.9	87.88
303.13	87.88
303.36	95.88
303.59	97.88
303.82	98.88
304.051	87.88
304.281	79.88
304.511	86.88
304.741	93.88
304.971	83.88
305.201	87.88
305.431	88.88
305.661	89.88
305.891	81.88
306.121	93.88
306.352	96.88
306.582	117.88
306.812	87.88
307.042	88.88
307.272	92.88
307.502	88.88
307.731	88.88
307.961	91.88
308.191	94.88
308.421	94.88
308.651	96.88
308.881	95.88
309.111	87.88
309.341	91.88
309.571	98.88
309.8	86.88
310.03	91.88
310.26	95.88
310.49	95.88
310.72	87.88
310.949	80.88
311.179	102.88
311.409	98.88
311.639	95.88
311.868	100.88
312.098	93.88
312.328	88.88
312.557	96.88
312.787	112.88
313.017	94.88
313.246	90.88
313.476	94.88
313.706	77.88
313.935	83.88
314.165	92.88
314.394	107.88
314.624	89.88
314.853	104.88
315.083	91.88
315.312	78.88
315.542	80.88
315.771	88.88
316.001	80.88
316.23	96.88
316.46	79.88
316.689	91.88
316.919	88.88
317.148	84.88
317.377	90.88
317.607	79.88
317.836	89.88
318.065	89.88
318.295	79.88
318.524	89.88
318.753	90.88
318.983	89.88
319.212	99.88
319.441	92.88
319.67	98.88
319.9	87.88
320.129	82.88
320.358	93.88
320.587	96.88
320.816	97.88
321.046	82.88
321.275	98.88
321.504	90.88
321.733	86.88
321.962	89.88
322.191	89.88
322.42	98.88
322.649	105.88
322.878	94.88
323.108	96.88
323.337	120.88
323.566	113.88
323.795	146.88
324.024	191.88
324.253	361.88
324.482	740.88
324.71	1505.88
324.939	1944.88
325.168	725.88
325.397	215.88
325.626	131.88
325.855	144.88
326.084	113.88
326.313	142.88
326.542	158.88
326.77	222.88
326.999	393.88
327.228	827.88
327.457	1501.88
327.686	1179.88
327.914	342.88
328.143	159.88
328.372	151.88
328.6	114.88
328.829	119.88
329.058	110.88
329.287	122.88
329.515	104.88
329.744	95.88
329.972	91.88
330.201	99.88
330.43	106.88
330.658	103.88
330.887	126.88
331.115	118.88
331.344	95.88
331.572	93.88
331.801	98.88
332.03	87.88
332.258	102.88
332.486	96.88
332.715	105.88
332.943	94.88
333.172	96.88
333.4	87.88
333.629	102.88
333.857	97.88
334.085	113.88
334.314	104.88
334.542	96.88
334.771	99.88
334.999	102.88
335.227	99.88
335.455	93.88
335.684	94.88
335.912	98.88
336.14	93.88
336.369	92.88
336.597	112.88
336.825	95.88
337.053	105.88
337.281	102.88
337.51	86.88
337.738	95.88
337.966	85.88
338.194	92.88
338.422	85.88
338.65	99.88
338.878	99.88
339.106	84.88
339.334	77.88
339.562	89.88
339.79	86.88
340.018	81.88
340.246	98.88
340.474	102.88
340.702	87.88
340.93	77.88
341.158	99.88
341.386	84.88
341.614	83.88
341.842	79.88
342.07	94.88
342.298	81.88
342.526	90.88
342.754	90.88
342.981	89.88
343.209	94.88
343.437	96.88
343.665	88.88
343.893	90.88
344.12	92.88
344.348	79.88
344.576	77.88
344.804	106.88
345.031	95.88
345.259	87.88
345.487	86.88
345.714	104.88
345.942	87.88
346.17	94.88
346.397	88.88
346.625	80.88
346.853	82.88
347.08	87.88
347.308	96.88
347.535	97.88
347.763	102.88
347.99	103.88
348.218	92.88
348.445	83.88
348.673	97.88
348.9	109.88
349.128	82.88
349.355	89.88
349.583	89.88
349.81	93.88
350.037	93.88
350.265	103.88
350.492	96.88
350.72	90.88
350.947	98.88
351.174	105.88
351.402	115.88
351.629	104.88
351.856	102.88
352.083	99.88
352.311	109.88
352.538	105.88
352.765	100.88
352.992	103.88
353.22	111.88
353.447	86.88
353.674	104.88
353.901	90.88
354.128	90.88
354.355	102.88
354.583	95.88
354.81	96.88
355.037	90.88
355.264	90.88
355.491	85.88
355.718	98.88
355.945	94.88
356.172	88.88
356.399	96.88
356.626	101.88
356.853	96.88
357.08	84.88
357.307	91.88
357.534	94.88
357.761	95.88
357.988	88.88
358.215	96.88
358.441	88.88
358.668	94.88
358.895	96.88
359.122	102.88
359.349	67.88
359.576	85.88
359.802	94.88
360.029	98.88
360.256	99.88
360.483	80.88
360.709	93.88
360.936	95.88
361.163	84.88
361.39	82.88
361.616	103.88
361.843	102.88
362.07	96.88
362.296	87.88
362.523	93.88
362.749	96.88
362.976	99.88
363.203	87.88
363.429	87.88
363.656	94.88
363.882	91.88
364.109	89.88
364.335	78.88
364.562	97.88
364.788	89.88
365.015	91.88
365.241	77.88
365.468	99.88
365.694	98.88
365.92	88.88
366.147	92.88
366.373	86.88
366.599	75.88
366.826	101.88
367.052	87.88
367.278	79.88
367.505	76.88
367.731	97.88
367.957	88.88
368.184	75.88
368.41	90.88
368.636	123.88
368.862	116.88
369.089	99.88
369.315	91.88
369.541	81.88
369.767	89.88
369.993	100.88
370.219	98.88
370.445	89.88
370.672	93.88
370.898	74.88
371.124	93.88
371.35	91.88
371.576	95.88
371.802	81.88
372.028	78.88
372.254	82.88
372.48	88.88
372.706	87.88
372.932	90.88
373.158	82.88
373.384	78.88
373.61	78.88
373.835	86.88
374.061	81.88
374.287	71.88
374.513	72.88
374.739	76.88
374.965	85.88
375.191	91.88
375.416	89.88
375.642	86.88
375.868	94.88
376.094	82.88
376.319	91.88
376.545	93.88
376.771	95.88
376.997	94.88
377.222	82.88
377.448	104.88
377.674	76.88
377.899	78.88
378.125	90.88
378.35	85.88
378.576	100.88
378.802	89.88
379.027	76.88
379.253	90.88
379.478	86.88
379.704	99.88
379.929	101.88
380.155	98.88
380.38	66.88
380.606	94.88
380.831	98.88
381.057	95.88
381.282	96.88
381.507	81.88
381.733	108.88
381.958	86.88
382.184	79.88
382.409	88.88
382.634	94.88
382.86	85.88
383.085	100.88
383.31	97.88
383.535	91.88
383.761	78.88
383.986	100.88
384.211	99.88
384.436	90.88
384.662	96.88
384.887	86.88
385.112	111.88
385.337	90.88
385.562	105.88
385.787	100.88
386.013	96.88
386.238	105.88
386.463	99.88
386.688	115.88
386.913	103.88
387.138	97.88
387.363	89.88
387.588	88.88
387.813	109.88
388.038	105.88
388.263	99.88
388.488	104.88
388.713	89.88
388.938	98.88
389.163	95.88
389.387	85.88
389.612	90.88
389.837	91.88
390.062	86.88
390.287	101.88
390.512	95.88
390.736	62.88
390.961	94.88
391.186	95.88
391.411	99.88
391.636	111.88
391.86	98.88
392.085	86.88
392.31	89.88
392.534	76.88
392.759	76.88
392.984	91.88
393.208	87.88
393.433	95.88
393.658	86.88
393.882	78.88
394.107	80.88
394.331	74.88
394.556	89.88
394.78	86.88
395.005	79.88
395.229	79.88
395.454	78.88
395.678	77.88
395.903	98.88
396.127	81.88
396.352	93.88
396.576	82.88
396.801	76.88
397.025	90.88
397.249	77.88
397.474	97.88
397.698	76.88
397.922	86.88
398.147	71.88
398.371	84.88
398.595	79.88
398.82	83.88
399.044	71.88
399.268	88.88
399.492	84.88
399.717	83.88
399.941	89.88
400.165	95.88
400.389	94.88
400.613	74.88
400.837	81.88
401.062	90.88
401.286	109.88
401.51	83.88
401.734	88.88
401.958	96.88
402.182	127.88
402.406	128.88
402.63	102.88
402.854	88.88
403.078	71.88
403.302	87.88
403.526	97.88
403.75	87.88
403.974	100.88
404.198	89.88
404.422	95.88
404.645	92.88
404.869	78.88
405.093	82.88
405.317	94.88
405.541	91.88
405.765	85.88
405.988	117.88
406.212	150.88
406.436	194.88
406.66	137.88
406.883	96.88
407.107	102.88
407.331	93.88
407.555	98.88
407.778	87.88
408.002	83.88
408.226	82.88
408.449	79.88
408.673	95.88
408.896	102.88
409.12	96.88
409.344	79.88
409.567	94.88
409.791	80.88
410.014	76.88
410.238	86.88
410.461	103.88
410.685	90.88
410.908	104.88
411.132	91.88
411.355	93.88
411.578	96.88
411.802	91.88
412.025	89.88
412.249	99.88
412.472	89.88
412.695	86.88
412.919	78.88
413.142	77.88
413.365	88.88
413.589	101.88
413.812	77.88
414.035	104.88
414.258	78.88
414.482	94.88
414.705	86.88
414.928	93.88
415.151	81.88
415.374	102.88
415.597	93.88
415.821	81.88
416.044	85.88
416.267	95.88
416.49	76.88
416.713	86.88
416.936	87.88
417.159	98.88
417.382	82.88
417.605	105.88
417.828	98.88
418.051	86.88
418.274	74.88
418.497	67.88
418.72	76.88
418.943	88.88
419.166	88.88
419.389	81.88
419.611	93.88
419.834	63.88
420.057	89.88
420.28	76.88
420.503	91.88
420.726	90.88
420.948	89.88
421.171	94.88
421.394	92.88
421.617	95.88
421.839	89.88
422.062	94.88
422.285	86.88
422.507	84.88
422.73	89.88
422.953	97.88
423.175	104.88
423.398	103.88
423.621	86.88
423.843	89.88
424.066	87.88
424.288	89.88
424.511	89.88
424.733	95.88
424.956	108.88
425.178	87.88
425.401	104.88
425.623	110.88
425.846	86.88
426.068	88.88
426.291	97.88
426.513	89.88
426.735	84.88
426.958	91.88
427.18	112.88
427.402	133.88
427.625	135.88
427.847	115.88
428.069	90.88
428.292	89.88
428.514	76.88
428.736	86.88
428.958	78.88
429.181	82.88
429.403	74.88
429.625	91.88
429.847	89.88
430.069	99.88
430.292	98.88
430.514	76.88
430.736	85.88
430.958	85.88
431.18	87.88
431.402	95.88
431.624	98.88
431.846	95.88
432.068	91.88
432.29	103.88
432.512	73.88
432.734	91.88
432.956	91.88
433.178	99.88
433.4	104.88
433.622	84.88
433.844	100.88
434.066	87.88
434.287	92.88
434.509	83.88
434.731	82.88
434.953	75.88
435.175	87.88
435.397	91.88
435.618	89.88
435.84	109.88
436.062	105.88
436.284	113.88
436.505	98.88
436.727	96.88
436.949	96.88
437.17	88.88
437.392	89.88
437.614	91.88
437.835	105.88
438.057	103.88
438.278	102.88
438.5	89.88
438.721	118.88
438.943	107.88
439.165	93.88
439.386	85.88
439.608	90.88
439.829	108.88
440.05	103.88
440.272	117.88
440.493	101.88
440.715	94.88
440.936	76.88
441.158	74.88
441.379	71.88
441.6	77.88
441.822	89.88
442.043	91.88
442.264	104.88
442.486	94.88
442.707	69.88
442.928	95.88
443.149	123.88
443.371	115.88
443.592	94.88
443.813	90.88
444.034	110.88
444.255	95.88
444.476	79.88
444.698	77.88
444.919	88.88
445.14	122.88
445.361	125.88
445.582	101.88
445.803	111.88
446.024	115.88
446.245	134.88
446.466	117.88
446.687	112.88
446.908	95.88
447.129	86.88
447.35	78.88
447.571	79.88
447.792	89.88
448.013	94.88
448.234	102.88
448.455	86.88
448.675	105.88
448.896	113.88
449.117	93.88
449.338	118.88
449.559	119.88
449.779	119.88
450	77.88
450.221	90.88
450.442	91.88
450.662	95.88
450.883	95.88
451.104	97.88
451.324	87.88
451.545	76.88
451.766	82.88
451.986	77.88
452.207	87.88
452.428	81.88
452.648	107.88
452.869	98.88
453.089	108.88
453.31	100.88
453.53	97.88
453.751	97.88
453.971	97.88
454.192	109.88
454.412	82.88
454.633	83.88
454.853	92.88
455.073	85.88
455.294	86.88
455.514	92.88
455.734	81.88
455.955	92.88
456.175	87.88
456.395	83.88
456.616	89.88
456.836	88.88
457.056	92.88
457.276	102.88
457.497	77.88
457.717	92.88
457.937	82.88
458.157	96.88
458.377	90.88
458.598	91.88
458.818	146.88
459.038	140.88
459.258	114.88
459.478	88.88
459.698	75.88
459.918	95.88
460.138	81.88
460.358	95.88
460.578	91.88
460.798	82.88
461.018	89.88
461.238	74.88
461.458	84.88
461.678	78.88
461.898	84.88
462.118	91.88
462.338	87.88
462.558	93.88
462.777	71.88
462.997	78.88
463.217	86.88
463.437	93.88
463.657	85.88
463.876	80.88
464.096	97.88
464.316	80.88
464.536	88.88
464.755	85.88
464.975	106.88
465.195	139.88
465.414	139.88
465.634	86.88
465.854	87.88
466.073	84.88
466.293	78.88
466.512	108.88
466.732	84.88
466.951	87.88
467.171	97.88
467.391	89.88
467.61	107.88
467.829	108.88
468.049	90.88
468.268	92.88
468.488	78.88
468.707	83.88
468.927	80.88
469.146	90.88
469.365	90.88
469.585	86.88
469.804	94.88
470.023	96.88
470.243	92.88
470.462	83.88
470.681	100.88
470.901	90.88
471.12	85.88
471.339	76.88
471.558	69.88
471.777	79.88
471.997	95.88
472.216	82.88
472.435	86.88
472.654	85.88
472.873	81.88
473.092	86.88
473.311	93.88
473.53	89.88
473.749	87.88
473.968	87.88
474.187	96.88
474.406	86.88
474.625	93.88
474.844	93.88
475.063	82.88
475.282	89.88
475.501	95.88
475.72	95.88
475.939	76.88
476.158	75.88
476.377	85.88
476.596	94.88
476.814	81.88
477.033	102.88
477.252	90.88
477.471	77.88
477.69	73.88
477.908	90.88
478.127	83.88
478.346	97.88
478.564	80.88
478.783	104.88
479.002	90.88
479.22	96.88
479.439	86.88
479.658	90.88
479.876	88.88
480.095	88.88
480.313	87.88
480.532	92.88
480.751	86.88
480.969	88.88
481.188	104.88
481.406	105.88
481.624	74.88
481.843	77.88
482.061	97.88
482.28	87.88
482.498	92.88
482.717	77.88
482.935	91.88
483.153	83.88
483.372	86.88
483.59	83.88
483.808	96.88
484.027	85.88
484.245	87.88
484.463	99.88
484.681	90.88
484.9	88.88
485.118	80.88
485.336	88.88
485.554	89.88
485.772	90.88
485.99	95.88
486.209	101.88
486.427	100.88
486.645	116.88
486.863	99.88
487.081	94.88
487.299	90.88
487.517	96.88
487.735	96.88
487.953	88.88
488.171	102.88
488.389	98.88
488.607	91.88
488.825	77.88
489.043	81.88
489.261	87.88
489.479	103.88
489.696	97.88
489.914	87.88
490.132	94.88
490.35	84.88
490.568	95.88
490.786	84.88
491.003	85.88
491.221	82.88
491.439	75.88
491.657	93.88
491.874	79.88
492.092	85.88
492.31	86.88
492.527	93.88
492.745	81.88
492.963	81.88
493.18	90.88
493.398	94.88
493.615	104.88
493.833	101.88
494.05	98.88
494.268	104.88
494.485	103.88
494.703	90.88
494.92	90.88
495.138	92.88
495.355	89.88
495.573	88.88
495.79	105.88
496.008	92.88
496.225	100.88
496.442	88.88
496.66	94.88
496.877	89.88
497.094	99.88
497.312	86.88
497.529	94.88
497.746	94.88
497.963	90.88
498.181	82.88
498.398	101.88
498.615	89.88
498.832	97.88
499.049	73.88
499.267	90.88
499.484	87.88
499.701	84.88
499.918	99.88
500.135	88.88
500.352	87.88
500.569	83.88
500.786	80.88
501.003	83.88
501.22	90.88
501.437	98.88
501.654	105.88
501.871	110.88
502.088	94.88
502.305	80.88
502.522	89.88
502.739	88.88
502.956	84.88
503.172	82.88
503.389	96.88
503.606	102.88
503.823	93.88
504.04	92.88
504.256	86.88
504.473	91.88
504.69	93.88
504.907	94.88
505.123	96.88
505.34	94.88
505.557	88.88
505.773	81.88
505.99	96.88
506.207	83.88
506.423	97.88
506.64	79.88
506.856	77.88
507.073	79.88
507.289	85.88
507.506	83.88
507.722	99.88
507.939	94.88
508.155	97.88
508.372	80.88
508.588	85.88
508.805	80.88
509.021	84.88
509.238	99.88
509.454	98.88
509.67	98.88
509.887	108.88
510.103	129.88
510.319	199.88
510.536	692.88
510.752	2025.88
510.968	565.88
511.184	149.88
511.401	105.88
511.617	93.88
511.833	101.88
512.049	100.88
512.265	89.88
512.481	91.88
512.698	103.88
512.914	96.88
513.13	99.88
513.346	99.88
513.562	93.88
513.778	97.88
513.994	86.88
514.21	98.88
514.426	105.88
514.642	114.88
514.858	128.88
515.074	160.88
515.29	385.88
515.506	1255.88
515.721	467.88
515.937	143.88
516.153	88.88
516.369	101.88
516.585	86.88
516.801	96.88
517.016	89.88
