Data from Uncirc_1997_H10_HRD10591_00045.txt Node
Date: Wed Jan 03 11:28:39 EST 2024
User: Yrep
Spectrometer: HR+D1059
Trigger mode: 1
Integration Time (sec): 1.000000E-1
Scans to average: 1
Electric dark correction enabled: true
Nonlinearity correction enabled: false
Boxcar width: 0
XAxis mode: Wavelengths
Number of Pixels in Spectrum: 2048
>>>>>Begin Spectral Data<<<<<
223.165	-12.62
223.4	-12.62
223.635	-12.62
223.869	-19.62
224.104	-34.62
224.338	-17.62
224.573	-7.62
224.808	-13.62
225.042	-11.62
225.277	-8.62
225.511	5.38
225.746	1.38
225.98	11.38
226.215	4.38
226.449	11.38
226.683	27.38
226.918	31.38
227.152	33.38
227.387	38.38
227.621	44.38
227.856	42.38
228.09	46.38
228.324	52.38
228.559	53.38
228.793	148.38
229.027	441.38
229.262	492.38
229.496	573.38
229.73	759.38
229.964	744.38
230.199	488.38
230.433	450.38
230.667	437.38
230.901	426.38
231.136	419.38
231.37	432.38
231.604	445.38
231.838	444.38
232.072	448.38
232.306	448.38
232.541	465.38
232.775	465.38
233.009	430.38
233.243	452.38
233.477	467.38
233.711	475.38
233.945	471.38
234.179	503.38
234.413	481.38
234.647	491.38
234.881	508.38
235.115	510.38
235.349	509.38
235.583	535.38
235.817	584.38
236.051	589.38
236.285	580.38
236.519	599.38
236.753	678.38
236.987	876.38
237.221	1287.38
237.455	1430.38
237.689	850.38
237.922	732.38
238.156	700.38
238.39	654.38
238.624	600.38
238.858	596.38
239.091	616.38
239.325	633.38
239.559	660.38
239.793	657.38
240.027	739.38
240.26	866.38
240.494	901.38
240.728	895.38
240.961	886.38
241.195	801.38
241.429	761.38
241.662	761.38
241.896	774.38
242.13	764.38
242.363	746.38
242.597	765.38
242.83	780.38
243.064	788.38
243.298	807.38
243.531	796.38
243.765	800.38
243.998	792.38
244.232	800.38
244.465	816.38
244.699	892.38
244.932	856.38
245.166	884.38
245.399	878.38
245.633	880.38
245.866	906.38
246.099	894.38
246.333	896.38
246.566	908.38
246.8	970.38
247.033	925.38
247.266	1006.38
247.5	1076.38
247.733	1119.38
247.966	1119.38
248.2	1080.38
248.433	1100.38
248.666	1134.38
248.899	1265.38
249.133	1337.38
249.366	1345.38
249.599	1244.38
249.832	1177.38
250.066	1160.38
250.299	1220.38
250.532	1306.38
250.765	1437.38
250.998	1638.38
251.231	1606.38
251.465	1457.38
251.698	1383.38
251.931	1341.38
252.164	1348.38
252.397	1356.38
252.63	1395.38
252.863	1479.38
253.096	1642.38
253.329	1662.38
253.562	1608.38
253.795	1494.38
254.028	1543.38
254.261	1560.38
254.494	1747.38
254.727	2046.38
254.96	2105.38
255.193	1861.38
255.426	1656.38
255.659	1562.38
255.892	1565.38
256.124	1547.38
256.357	1501.38
256.59	1462.38
256.823	1438.38
257.056	1461.38
257.289	1452.38
257.521	1480.38
257.754	1473.38
257.987	1464.38
258.22	1482.38
258.452	1488.38
258.685	1525.38
258.918	1522.38
259.151	1547.38
259.383	1620.38
259.616	1640.38
259.849	1719.38
260.081	1869.38
260.314	2020.38
260.547	1926.38
260.779	1819.38
261.012	1735.38
261.244	1662.38
261.477	1634.38
261.71	1624.38
261.942	1647.38
262.175	1649.38
262.407	1680.38
262.64	1592.38
262.872	1583.38
263.105	1580.38
263.337	1607.38
263.57	1589.38
263.802	1588.38
264.035	1612.38
264.267	1623.38
264.499	1617.38
264.732	1635.38
264.964	1616.38
265.197	1615.38
265.429	1665.38
265.661	1653.38
265.894	1706.38
266.126	1692.38
266.358	1710.38
266.591	1736.38
266.823	1789.38
267.055	1779.38
267.287	1820.38
267.52	1763.38
267.752	1797.38
267.984	1789.38
268.216	1812.38
268.448	1855.38
268.681	1942.38
268.913	2071.38
269.145	2207.38
269.377	2309.38
269.609	2217.38
269.841	2244.38
270.073	2280.38
270.306	2536.38
270.538	2653.38
270.77	2596.38
271.002	2472.38
271.234	2346.38
271.466	2534.38
271.698	2622.38
271.93	2620.38
272.162	2650.38
272.394	2612.38
272.626	2444.38
272.858	2328.38
273.09	2245.38
273.322	2205.38
273.553	2175.38
273.785	2196.38
274.017	2182.38
274.249	2168.38
274.481	2212.38
274.713	2197.38
274.945	2211.38
275.176	2188.38
275.408	2189.38
275.64	2164.38
275.872	2187.38
276.104	2188.38
276.335	2248.38
276.567	2320.38
276.799	2418.38
277.031	2623.38
277.262	2757.38
277.494	2673.38
277.726	2487.38
277.957	2364.38
278.189	2351.38
278.421	2317.38
278.652	2292.38
278.884	2278.38
279.115	2279.38
279.347	2321.38
279.579	2261.38
279.81	2318.38
280.042	2295.38
280.273	2330.38
280.505	2352.38
280.736	2351.38
280.968	2345.38
281.199	2339.38
281.431	2371.38
281.662	2405.38
281.894	2414.38
282.125	2439.38
282.356	2565.38
282.588	2648.38
282.819	2575.38
283.051	2470.38
283.282	2427.38
283.513	2515.38
283.745	2556.38
283.976	2576.38
284.207	2567.38
284.439	2545.38
284.67	2555.38
284.901	2530.38
285.132	2593.38
285.364	2538.38
285.595	2600.38
285.826	2567.38
286.057	2580.38
286.288	2553.38
286.52	2599.38
286.751	2583.38
286.982	2617.38
287.213	2670.38
287.444	2666.38
287.675	2703.38
287.906	2821.38
288.138	2809.38
288.369	2846.38
288.6	2858.38
288.831	2813.38
289.062	2804.38
289.293	2773.38
289.524	2732.38
289.755	2692.38
289.986	2752.38
290.217	2753.38
290.448	2662.38
290.679	2751.38
290.91	2744.38
291.141	2725.38
291.371	2784.38
291.602	2747.38
291.833	2681.38
292.064	2766.38
292.295	2701.38
292.526	2743.38
292.757	2769.38
292.987	2725.38
293.218	2732.38
293.449	2759.38
293.68	2802.38
293.91	2806.38
294.141	2811.38
294.372	2765.38
294.603	2791.38
294.833	2841.38
295.064	2825.38
295.295	2792.38
295.525	2876.38
295.756	2856.38
295.987	2880.38
296.217	3058.38
296.448	3038.38
296.679	2868.38
296.909	2916.38
297.14	2882.38
297.37	2932.38
297.601	2955.38
297.831	2953.38
298.062	2926.38
298.292	3010.38
298.523	3065.38
298.753	3031.38
298.984	3062.38
299.214	3016.38
299.445	3052.38
299.675	3032.38
299.905	3073.38
300.136	3004.38
300.366	3090.38
300.597	3129.38
300.827	3143.38
301.057	3288.38
301.288	3256.38
301.518	3262.38
301.748	3252.38
301.979	3342.38
302.209	3292.38
302.439	3295.38
302.669	3245.38
302.9	3255.38
303.13	3223.38
303.36	3273.38
303.59	3322.38
303.82	3310.38
304.051	3240.38
304.281	3284.38
304.511	3227.38
304.741	3263.38
304.971	3232.38
305.201	3164.38
305.431	3156.38
305.661	3183.38
305.891	3189.38
306.121	3128.38
306.352	3217.38
306.582	3224.38
306.812	3165.38
307.042	3248.38
307.272	3202.38
307.502	3205.38
307.731	3236.38
307.961	3174.38
308.191	3201.38
308.421	3163.38
308.651	3232.38
308.881	3233.38
309.111	3297.38
309.341	3216.38
309.571	3328.38
309.8	3379.38
310.03	3441.38
310.26	3457.38
310.49	3441.38
310.72	3535.38
310.949	3591.38
311.179	3580.38
311.409	3519.38
311.639	3500.38
311.868	3558.38
312.098	3627.38
312.328	3637.38
312.557	3772.38
312.787	3807.38
313.017	3668.38
313.246	3624.38
313.476	3630.38
313.706	3705.38
313.935	3797.38
314.165	3824.38
314.394	3799.38
314.624	3744.38
314.853	3691.38
315.083	3636.38
315.312	3654.38
315.542	3660.38
315.771	3592.38
316.001	3606.38
316.23	3600.38
316.46	3625.38
316.689	3600.38
316.919	3598.38
317.148	3660.38
317.377	3654.38
317.607	3562.38
317.836	3569.38
318.065	3525.38
318.295	3568.38
318.524	3565.38
318.753	3559.38
318.983	3593.38
319.212	3533.38
319.441	3667.38
319.67	3663.38
319.9	3622.38
320.129	3610.38
320.358	3637.38
320.587	3672.38
320.816	3685.38
321.046	3692.38
321.275	3696.38
321.504	3755.38
321.733	3782.38
321.962	3771.38
322.191	3871.38
322.42	3962.38
322.649	4089.38
322.878	4065.38
323.108	4158.38
323.337	4318.38
323.566	4501.38
323.795	4748.38
324.024	5135.38
324.253	6692.38
324.482	9812.38
324.71	14412.38
324.939	15618.38
325.168	11194.38
325.397	6144.38
325.626	4967.38
325.855	4653.38
326.084	4614.38
326.313	4561.38
326.542	4648.38
326.77	5212.38
326.999	6444.38
327.228	9222.38
327.457	13350.38
327.686	12527.38
327.914	6895.38
328.143	5517.38
328.372	5101.38
328.6	4963.38
328.829	4935.38
329.058	5048.38
329.287	5022.38
329.515	4691.38
329.744	4620.38
329.972	4532.38
330.201	4740.38
330.43	4883.38
330.658	5073.38
330.887	5370.38
331.115	5036.38
331.344	4765.38
331.572	4698.38
331.801	4814.38
332.03	4816.38
332.258	4781.38
332.486	4811.38
332.715	4908.38
332.943	5085.38
333.172	5240.38
333.4	5382.38
333.629	5356.38
333.857	5494.38
334.085	5389.38
334.314	5289.38
334.542	5272.38
334.771	5284.38
334.999	5155.38
335.227	5130.38
335.455	4986.38
335.684	4849.38
335.912	4884.38
336.14	4841.38
336.369	4792.38
336.597	4885.38
336.825	4864.38
337.053	4720.38
337.281	4642.38
337.51	4615.38
337.738	4589.38
337.966	4576.38
338.194	4598.38
338.422	4494.38
338.65	4374.38
338.878	4393.38
339.106	4362.38
339.334	4412.38
339.562	4300.38
339.79	4249.38
340.018	4259.38
340.246	4292.38
340.474	4327.38
340.702	4309.38
340.93	4272.38
341.158	4230.38
341.386	4278.38
341.614	4245.38
341.842	4292.38
342.07	4233.38
342.298	4244.38
342.526	4204.38
342.754	4244.38
342.981	4271.38
343.209	4337.38
343.437	4549.38
343.665	4799.38
343.893	5040.38
344.12	5092.38
344.348	4824.38
344.576	4696.38
344.804	4613.38
345.031	4495.38
345.259	4458.38
345.487	4327.38
345.714	4214.38
345.942	4144.38
346.17	4141.38
346.397	4104.38
346.625	4052.38
346.853	4089.38
347.08	4088.38
347.308	4094.38
347.535	4214.38
347.763	4185.38
347.99	4169.38
348.218	4133.38
348.445	4185.38
348.673	4155.38
348.9	4110.38
349.128	4059.38
349.355	3990.38
349.583	3980.38
349.81	4020.38
350.037	3918.38
350.265	3993.38
350.492	3970.38
350.72	4025.38
350.947	3975.38
351.174	4089.38
351.402	4044.38
351.629	4040.38
351.856	4072.38
352.083	4117.38
352.311	4080.38
352.538	4041.38
352.765	4052.38
352.992	4061.38
353.22	3960.38
353.447	3971.38
353.674	3906.38
353.901	3891.38
354.128	3872.38
354.355	3888.38
354.583	3890.38
354.81	3889.38
355.037	3878.38
355.264	3866.38
355.491	3823.38
355.718	3879.38
355.945	3860.38
356.172	3925.38
356.399	3928.38
356.626	3914.38
356.853	3877.38
357.08	3833.38
357.307	3887.38
357.534	3880.38
357.761	3879.38
357.988	3895.38
358.215	3891.38
358.441	3913.38
358.668	3937.38
358.895	3893.38
359.122	3893.38
359.349	4066.38
359.576	4122.38
359.802	4287.38
360.029	4396.38
360.256	4390.38
360.483	4299.38
360.709	4078.38
360.936	4083.38
361.163	4118.38
361.39	4078.38
361.616	4093.38
361.843	4059.38
362.07	4063.38
362.296	4135.38
362.523	4096.38
362.749	4101.38
362.976	4020.38
363.203	4039.38
363.429	3997.38
363.656	3946.38
363.882	3945.38
364.109	3946.38
364.335	3884.38
364.562	3959.38
364.788	3933.38
365.015	3908.38
365.241	3972.38
365.468	3948.38
365.694	4002.38
365.92	3959.38
366.147	3990.38
366.373	3913.38
366.599	4013.38
366.826	3894.38
367.052	3893.38
367.278	3990.38
367.505	3985.38
367.731	4014.38
367.957	3965.38
368.184	3993.38
368.41	4082.38
368.636	4164.38
368.862	4154.38
369.089	4114.38
369.315	4081.38
369.541	4060.38
369.767	4096.38
369.993	4156.38
370.219	4084.38
370.445	4166.38
370.672	4070.38
370.898	4109.38
371.124	4190.38
371.35	4314.38
371.576	4178.38
371.802	4216.38
372.028	4230.38
372.254	4209.38
372.48	4265.38
372.706	4402.38
372.932	4414.38
373.158	4341.38
373.384	4280.38
373.61	4248.38
373.835	4331.38
374.061	4285.38
374.287	4338.38
374.513	4465.38
374.739	4560.38
374.965	4657.38
375.191	4634.38
375.416	4574.38
375.642	4455.38
375.868	4429.38
376.094	4411.38
376.319	4322.38
376.545	4296.38
376.771	4279.38
376.997	4266.38
377.222	4229.38
377.448	4217.38
377.674	4228.38
377.899	4207.38
378.125	4185.38
378.35	4225.38
378.576	4160.38
378.802	4248.38
379.027	4211.38
379.253	4244.38
379.478	4196.38
379.704	4204.38
379.929	4250.38
380.155	4226.38
380.38	4262.38
380.606	4236.38
380.831	4267.38
381.057	4288.38
381.282	4205.38
381.507	4239.38
381.733	4347.38
381.958	4359.38
382.184	4413.38
382.409	4486.38
382.634	4449.38
382.86	4534.38
383.085	4614.38
383.31	4573.38
383.535	4652.38
383.761	4662.38
383.986	4713.38
384.211	4929.38
384.436	4949.38
384.662	5014.38
384.887	5116.38
385.112	5093.38
385.337	5136.38
385.562	5124.38
385.787	5192.38
386.013	5179.38
386.238	5226.38
386.463	5159.38
386.688	5224.38
386.913	5029.38
387.138	5062.38
387.363	5101.38
387.588	5048.38
387.813	5071.38
388.038	5050.38
388.263	5074.38
388.488	5142.38
388.713	5115.38
388.938	5078.38
389.163	5073.38
389.387	5068.38
389.612	4996.38
389.837	5003.38
390.062	4988.38
390.287	5033.38
390.512	5007.38
390.736	5055.38
390.961	5179.38
391.186	5258.38
391.411	5332.38
391.636	5556.38
391.86	5708.38
392.085	5717.38
392.31	5605.38
392.534	5511.38
392.759	5338.38
392.984	5398.38
393.208	5282.38
393.433	5345.38
393.658	5229.38
393.882	5278.38
394.107	5343.38
394.331	5356.38
394.556	5340.38
394.78	5361.38
395.005	5434.38
395.229	5501.38
395.454	5682.38
395.678	5722.38
395.903	5753.38
396.127	5739.38
396.352	5612.38
396.576	5428.38
396.801	5368.38
397.025	5472.38
397.249	5628.38
397.474	5647.38
397.698	5791.38
397.922	5821.38
398.147	5966.38
398.371	6071.38
398.595	6244.38
398.82	6573.38
399.044	7020.38
399.268	7846.38
399.492	8843.38
399.717	9450.38
399.941	9201.38
400.165	8634.38
400.389	7913.38
400.613	7258.38
400.837	6729.38
401.062	6614.38
401.286	6495.38
401.51	6424.38
401.734	6395.38
401.958	6531.38
402.182	6610.38
402.406	6683.38
402.63	6735.38
402.854	6905.38
403.078	7110.38
403.302	7130.38
403.526	7265.38
403.75	7267.38
403.974	7346.38
404.198	7304.38
404.422	7389.38
404.645	7225.38
404.869	7176.38
405.093	7423.38
405.317	7485.38
405.541	7425.38
405.765	7164.38
405.988	7104.38
406.212	7313.38
406.436	7354.38
406.66	7521.38
406.883	7536.38
407.107	8140.38
407.331	8636.38
407.555	9190.38
407.778	8836.38
408.002	8112.38
408.226	7794.38
408.449	7647.38
408.673	7570.38
408.896	7730.38
409.12	7861.38
409.344	7365.38
409.567	7102.38
409.791	7016.38
410.014	6911.38
410.238	6826.38
410.461	6896.38
410.685	6982.38
410.908	7078.38
411.132	7217.38
411.355	7223.38
411.578	6849.38
411.802	6708.38
412.025	6616.38
412.249	6750.38
412.472	6761.38
412.695	6616.38
412.919	6458.38
413.142	6324.38
413.365	6289.38
413.589	6365.38
413.812	6258.38
414.035	6172.38
414.258	6288.38
414.482	6267.38
414.705	6339.38
414.928	6306.38
415.151	6417.38
415.374	6242.38
415.597	6216.38
415.821	6186.38
416.044	6192.38
416.267	6126.38
416.49	6086.38
416.713	6150.38
416.936	6211.38
417.159	6169.38
417.382	6305.38
417.605	6308.38
417.828	6377.38
418.051	6557.38
418.274	6407.38
418.497	6328.38
418.72	6426.38
418.943	6358.38
419.166	6783.38
419.389	7216.38
419.611	6951.38
419.834	6799.38
420.057	6618.38
420.28	6449.38
420.503	6273.38
420.726	6406.38
420.948	6503.38
421.171	6914.38
421.394	6893.38
421.617	6432.38
421.839	6371.38
422.062	6519.38
422.285	6684.38
422.507	7382.38
422.73	7825.38
422.953	7294.38
423.175	6907.38
423.398	6928.38
423.621	6880.38
423.843	7180.38
424.066	7134.38
424.288	6967.38
424.511	7212.38
424.733	7620.38
424.956	8038.38
425.178	7540.38
425.401	7752.38
425.623	7624.38
425.846	6650.38
426.068	6504.38
426.291	6453.38
426.513	6458.38
426.735	6575.38
426.958	7017.38
427.18	7751.38
427.402	8794.38
427.625	8689.38
427.847	7399.38
428.069	6560.38
428.292	6260.38
428.514	6009.38
428.736	5899.38
428.958	5875.38
429.181	5748.38
429.403	5758.38
429.625	5895.38
429.847	6164.38
430.069	6697.38
430.292	6244.38
430.514	5786.38
430.736	5772.38
430.958	5551.38
431.18	5610.38
431.402	5556.38
431.624	5568.38
431.846	5658.38
432.068	5656.38
432.29	5785.38
432.512	5620.38
432.734	5734.38
432.956	5749.38
433.178	5710.38
433.4	5706.38
433.622	5660.38
433.844	5645.38
434.066	5678.38
434.287	5871.38
434.509	5986.38
434.731	6204.38
434.953	6416.38
435.175	6463.38
435.397	6611.38
435.618	6444.38
435.84	6937.38
436.062	7704.38
436.284	7632.38
436.505	6421.38
436.727	6080.38
436.949	5770.38
437.17	5804.38
437.392	5662.38
437.614	5860.38
437.835	6178.38
438.057	7200.38
438.278	7854.38
438.5	7743.38
438.721	8381.38
438.943	7400.38
439.165	6318.38
439.386	6146.38
439.608	6172.38
439.829	6193.38
440.05	6437.38
440.272	6840.38
440.493	6237.38
440.715	6036.38
440.936	6034.38
441.158	6096.38
441.379	6234.38
441.6	6504.38
441.822	6734.38
442.043	7133.38
442.264	7880.38
442.486	7626.38
442.707	6704.38
442.928	6682.38
443.149	6858.38
443.371	6952.38
443.592	7507.38
443.813	8482.38
444.034	8439.38
444.255	7353.38
444.476	7239.38
444.698	7490.38
444.919	7546.38
445.14	7283.38
445.361	7067.38
445.582	7236.38
445.803	7760.38
446.024	8342.38
446.245	8007.38
446.466	7277.38
446.687	6324.38
446.908	6092.38
447.129	5753.38
447.35	5619.38
447.571	5508.38
447.792	5477.38
448.013	5589.38
448.234	5767.38
448.455	6350.38
448.675	7504.38
448.896	8072.38
449.117	6638.38
449.338	6880.38
449.559	8068.38
449.779	8151.38
450	6383.38
450.221	5686.38
450.442	5502.38
450.662	5437.38
450.883	5428.38
451.104	5458.38
451.324	5349.38
451.545	5315.38
451.766	5162.38
451.986	4997.38
452.207	4976.38
452.428	5036.38
452.648	4958.38
452.869	5001.38
453.089	5115.38
453.31	5153.38
453.53	4967.38
453.751	4944.38
453.971	4961.38
454.192	5050.38
454.412	4797.38
454.633	4801.38
454.853	4815.38
455.073	4887.38
455.294	5284.38
455.514	5697.38
455.734	5288.38
455.955	4705.38
456.175	4634.38
456.395	4623.38
456.616	4530.38
456.836	4621.38
457.056	4572.38
457.276	4480.38
457.497	4666.38
457.717	4650.38
457.937	4765.38
458.157	4775.38
458.377	4895.38
458.598	5197.38
458.818	5782.38
459.038	6504.38
459.258	6468.38
459.478	5795.38
459.698	5685.38
459.918	5815.38
460.138	6053.38
460.358	6295.38
460.578	6232.38
460.798	6321.38
461.018	6245.38
461.238	6163.38
461.458	6199.38
461.678	6088.38
461.898	6254.38
462.118	6223.38
462.338	6553.38
462.558	6769.38
462.777	7046.38
462.997	7600.38
463.217	8050.38
463.437	7821.38
463.657	7217.38
463.876	7089.38
464.096	7082.38
464.316	7064.38
464.536	7087.38
464.755	6873.38
464.975	6767.38
465.195	6775.38
465.414	6706.38
465.634	6057.38
465.854	5817.38
466.073	5531.38
466.293	5424.38
466.512	5331.38
466.732	5144.38
466.951	5175.38
467.171	5182.38
467.391	5193.38
467.61	5217.38
467.829	5249.38
468.049	5096.38
468.268	4953.38
468.488	4987.38
468.707	4864.38
468.927	4866.38
469.146	4907.38
469.365	4956.38
469.585	4950.38
469.804	5154.38
470.023	5268.38
470.243	5313.38
470.462	5358.38
470.681	5548.38
470.901	5399.38
471.12	5306.38
471.339	5260.38
471.558	5176.38
471.777	5122.38
471.997	5050.38
472.216	4986.38
472.435	5003.38
472.654	4898.38
472.873	4852.38
473.092	4863.38
473.311	4916.38
473.53	4904.38
473.749	5033.38
473.968	5563.38
474.187	6464.38
474.406	6043.38
474.625	5235.38
474.844	4955.38
475.063	4960.38
475.282	4982.38
475.501	5008.38
475.72	5041.38
475.939	5016.38
476.158	5104.38
476.377	5154.38
476.596	5234.38
476.814	5257.38
477.033	5267.38
477.252	5372.38
477.471	5465.38
477.69	5578.38
477.908	5687.38
478.127	5852.38
478.346	5910.38
478.564	5974.38
478.783	6101.38
479.002	6214.38
479.22	6228.38
479.439	6320.38
479.658	6362.38
479.876	6440.38
480.095	6673.38
480.313	7073.38
480.532	6963.38
480.751	6863.38
480.969	6646.38
481.188	6558.38
481.406	6327.38
481.624	6218.38
481.843	6002.38
482.061	5829.38
482.28	5785.38
482.498	5769.38
482.717	5814.38
482.935	5767.38
483.153	5772.38
483.372	5679.38
483.59	5716.38
483.808	5808.38
484.027	5785.38
484.245	5873.38
484.463	5863.38
484.681	5969.38
484.9	5927.38
485.118	5993.38
485.336	6058.38
485.554	6162.38
485.772	6123.38
485.99	6119.38
486.209	6271.38
486.427	6272.38
486.645	6187.38
486.863	6380.38
487.081	6224.38
487.299	6236.38
487.517	6176.38
487.735	6209.38
487.953	6164.38
