Data from Uncirc_1997_H10_HRD10591_00008.txt Node
Date: Wed Jan 03 11:28:32 EST 2024
User: Yrep
Spectrometer: HR+D1059
Trigger mode: 1
Integration Time (sec): 1.000000E-1
Scans to average: 1
Electric dark correction enabled: true
Nonlinearity correction enabled: false
Boxcar width: 0
XAxis mode: Wavelengths
Number of Pixels in Spectrum: 2048
>>>>>Begin Spectral Data<<<<<
223.165	-20.12
223.4	-20.12
223.635	-20.12
223.869	-19.12
224.104	-16.12
224.338	-13.12
224.573	-8.12
224.808	-17.12
225.042	1.88
225.277	-2.12
225.511	-2.12
225.746	-4.12
225.98	4.88
226.215	6.88
226.449	16.88
226.683	18.88
226.918	29.88
227.152	22.88
227.387	31.88
227.621	46.88
227.856	45.88
228.09	43.88
228.324	50.88
228.559	50.88
228.793	49.88
229.027	59.88
229.262	64.88
229.496	68.88
229.73	84.88
229.964	66.88
230.199	75.88
230.433	74.88
230.667	79.88
230.901	94.88
231.136	72.88
231.37	64.88
231.604	58.88
231.838	72.88
232.072	58.88
232.306	68.88
232.541	90.88
232.775	84.88
233.009	71.88
233.243	81.88
233.477	81.88
233.711	83.88
233.945	85.88
234.179	60.88
234.413	81.88
234.647	80.88
234.881	90.88
235.115	63.88
235.349	78.88
235.583	74.88
235.817	88.88
236.051	83.88
236.285	72.88
236.519	71.88
236.753	82.88
236.987	86.88
237.221	75.88
237.455	80.88
237.689	76.88
237.922	86.88
238.156	69.88
238.39	71.88
238.624	71.88
238.858	73.88
239.091	68.88
239.325	73.88
239.559	87.88
239.793	83.88
240.027	88.88
240.26	76.88
240.494	92.88
240.728	72.88
240.961	54.88
241.195	71.88
241.429	68.88
241.662	62.88
241.896	71.88
242.13	86.88
242.363	74.88
242.597	82.88
242.83	58.88
243.064	67.88
243.298	66.88
243.531	62.88
243.765	79.88
243.998	73.88
244.232	77.88
244.465	82.88
244.699	87.88
244.932	77.88
245.166	81.88
245.399	71.88
245.633	76.88
245.866	68.88
246.099	75.88
246.333	70.88
246.566	82.88
246.8	60.88
247.033	62.88
247.266	76.88
247.5	70.88
247.733	92.88
247.966	83.88
248.2	80.88
248.433	60.88
248.666	76.88
248.899	59.88
249.133	84.88
249.366	89.88
249.599	95.88
249.832	81.88
250.066	81.88
250.299	69.88
250.532	80.88
250.765	63.88
250.998	71.88
251.231	89.88
251.465	91.88
251.698	76.88
251.931	81.88
252.164	76.88
252.397	77.88
252.63	63.88
252.863	73.88
253.096	77.88
253.329	60.88
253.562	66.88
253.795	70.88
254.028	80.88
254.261	77.88
254.494	82.88
254.727	70.88
254.96	87.88
255.193	72.88
255.426	68.88
255.659	73.88
255.892	92.88
256.124	83.88
256.357	76.88
256.59	79.88
256.823	90.88
257.056	72.88
257.289	66.88
257.521	63.88
257.754	70.88
257.987	78.88
258.22	80.88
258.452	72.88
258.685	83.88
258.918	74.88
259.151	71.88
259.383	74.88
259.616	83.88
259.849	74.88
260.081	75.88
260.314	87.88
260.547	76.88
260.779	81.88
261.012	66.88
261.244	57.88
261.477	80.88
261.71	76.88
261.942	100.88
262.175	116.88
262.407	82.88
262.64	87.88
262.872	83.88
263.105	74.88
263.337	79.88
263.57	70.88
263.802	85.88
264.035	80.88
264.267	76.88
264.499	71.88
264.732	83.88
264.964	67.88
265.197	79.88
265.429	87.88
265.661	90.88
265.894	77.88
266.126	86.88
266.358	93.88
266.591	72.88
266.823	92.88
267.055	83.88
267.287	76.88
267.52	59.88
267.752	79.88
267.984	76.88
268.216	83.88
268.448	83.88
268.681	75.88
268.913	85.88
269.145	86.88
269.377	76.88
269.609	77.88
269.841	77.88
270.073	73.88
270.306	92.88
270.538	71.88
270.77	78.88
271.002	79.88
271.234	63.88
271.466	90.88
271.698	68.88
271.93	64.88
272.162	78.88
272.394	82.88
272.626	78.88
272.858	84.88
273.09	83.88
273.322	88.88
273.553	83.88
273.785	91.88
274.017	70.88
274.249	80.88
274.481	86.88
274.713	83.88
274.945	75.88
275.176	70.88
275.408	72.88
275.64	78.88
275.872	87.88
276.104	92.88
276.335	84.88
276.567	97.88
276.799	103.88
277.031	95.88
277.262	84.88
277.494	75.88
277.726	76.88
277.957	87.88
278.189	82.88
278.421	83.88
278.652	80.88
278.884	70.88
279.115	68.88
279.347	72.88
279.579	84.88
279.81	75.88
280.042	84.88
280.273	90.88
280.505	69.88
280.736	84.88
280.968	86.88
281.199	84.88
281.431	85.88
281.662	88.88
281.894	83.88
282.125	83.88
282.356	103.88
282.588	113.88
282.819	103.88
283.051	73.88
283.282	80.88
283.513	71.88
283.745	81.88
283.976	95.88
284.207	81.88
284.439	77.88
284.67	86.88
284.901	96.88
285.132	84.88
285.364	86.88
285.595	78.88
285.826	71.88
286.057	68.88
286.288	88.88
286.52	88.88
286.751	93.88
286.982	88.88
287.213	91.88
287.444	80.88
287.675	87.88
287.906	78.88
288.138	85.88
288.369	90.88
288.6	74.88
288.831	70.88
289.062	85.88
289.293	67.88
289.524	68.88
289.755	90.88
289.986	88.88
290.217	84.88
290.448	74.88
290.679	98.88
290.91	72.88
291.141	94.88
291.371	94.88
291.602	70.88
291.833	90.88
292.064	89.88
292.295	82.88
292.526	82.88
292.757	85.88
292.987	77.88
293.218	81.88
293.449	87.88
293.68	79.88
293.91	64.88
294.141	94.88
294.372	74.88
294.603	81.88
294.833	72.88
295.064	81.88
295.295	85.88
295.525	90.88
295.756	81.88
295.987	85.88
296.217	122.88
296.448	100.88
296.679	94.88
296.909	79.88
297.14	86.88
297.37	93.88
297.601	90.88
297.831	87.88
298.062	71.88
298.292	73.88
298.523	77.88
298.753	89.88
298.984	88.88
299.214	70.88
299.445	82.88
299.675	93.88
299.905	87.88
300.136	78.88
300.366	95.88
300.597	79.88
300.827	92.88
301.057	87.88
301.288	93.88
301.518	79.88
301.748	82.88
301.979	89.88
302.209	76.88
302.439	74.88
302.669	96.88
302.9	87.88
303.13	92.88
303.36	88.88
303.59	95.88
303.82	96.88
304.051	80.88
304.281	92.88
304.511	91.88
304.741	78.88
304.971	58.88
305.201	92.88
305.431	79.88
305.661	73.88
305.891	70.88
306.121	69.88
306.352	88.88
306.582	100.88
306.812	79.88
307.042	90.88
307.272	86.88
307.502	90.88
307.731	89.88
307.961	83.88
308.191	80.88
308.421	77.88
308.651	77.88
308.881	94.88
309.111	74.88
309.341	99.88
309.571	86.88
309.8	76.88
310.03	90.88
310.26	100.88
310.49	97.88
310.72	101.88
310.949	93.88
311.179	95.88
311.409	90.88
311.639	82.88
311.868	79.88
312.098	99.88
312.328	76.88
312.557	100.88
312.787	92.88
313.017	86.88
313.246	81.88
313.476	85.88
313.706	93.88
313.935	82.88
314.165	97.88
314.394	95.88
314.624	100.88
314.853	85.88
315.083	80.88
315.312	85.88
315.542	93.88
315.771	91.88
316.001	91.88
316.23	87.88
316.46	87.88
316.689	88.88
316.919	87.88
317.148	87.88
317.377	87.88
317.607	84.88
317.836	87.88
318.065	75.88
318.295	76.88
318.524	72.88
318.753	94.88
318.983	95.88
319.212	92.88
319.441	99.88
319.67	100.88
319.9	87.88
320.129	78.88
320.358	91.88
320.587	97.88
320.816	95.88
321.046	102.88
321.275	82.88
321.504	77.88
321.733	102.88
321.962	76.88
322.191	105.88
322.42	91.88
322.649	93.88
322.878	95.88
323.108	85.88
323.337	94.88
323.566	135.88
323.795	122.88
324.024	183.88
324.253	371.88
324.482	704.88
324.71	1392.88
324.939	1891.88
325.168	700.88
325.397	207.88
325.626	132.88
325.855	114.88
326.084	116.88
326.313	138.88
326.542	134.88
326.77	195.88
326.999	387.88
327.228	825.88
327.457	1467.88
327.686	1156.88
327.914	334.88
328.143	144.88
328.372	138.88
328.6	118.88
328.829	88.88
329.058	122.88
329.287	108.88
329.515	94.88
329.744	105.88
329.972	92.88
330.201	91.88
330.43	101.88
330.658	105.88
330.887	116.88
331.115	120.88
331.344	90.88
331.572	84.88
331.801	92.88
332.03	88.88
332.258	94.88
332.486	91.88
332.715	66.88
332.943	83.88
333.172	79.88
333.4	93.88
333.629	88.88
333.857	101.88
334.085	98.88
334.314	91.88
334.542	104.88
334.771	97.88
334.999	102.88
335.227	93.88
335.455	87.88
335.684	95.88
335.912	90.88
336.14	96.88
336.369	83.88
336.597	93.88
336.825	97.88
337.053	70.88
337.281	81.88
337.51	82.88
337.738	89.88
337.966	80.88
338.194	92.88
338.422	95.88
338.65	98.88
338.878	81.88
339.106	92.88
339.334	100.88
339.562	87.88
339.79	70.88
340.018	76.88
340.246	75.88
340.474	81.88
340.702	96.88
340.93	90.88
341.158	87.88
341.386	87.88
341.614	80.88
341.842	86.88
342.07	75.88
342.298	86.88
342.526	74.88
342.754	90.88
342.981	86.88
343.209	77.88
343.437	93.88
343.665	87.88
343.893	74.88
344.12	80.88
344.348	79.88
344.576	82.88
344.804	79.88
345.031	89.88
345.259	106.88
345.487	76.88
345.714	75.88
345.942	82.88
346.17	90.88
346.397	84.88
346.625	85.88
346.853	90.88
347.08	87.88
347.308	90.88
347.535	73.88
347.763	87.88
347.99	91.88
348.218	101.88
348.445	106.88
348.673	93.88
348.9	96.88
349.128	84.88
349.355	80.88
349.583	78.88
349.81	87.88
350.037	91.88
350.265	104.88
350.492	79.88
350.72	101.88
350.947	85.88
351.174	90.88
351.402	93.88
351.629	107.88
351.856	90.88
352.083	86.88
352.311	115.88
352.538	107.88
352.765	99.88
352.992	107.88
353.22	96.88
353.447	94.88
353.674	72.88
353.901	87.88
354.128	95.88
354.355	105.88
354.583	102.88
354.81	88.88
355.037	88.88
355.264	87.88
355.491	75.88
355.718	82.88
355.945	87.88
356.172	93.88
356.399	80.88
356.626	90.88
356.853	79.88
357.08	83.88
357.307	80.88
357.534	88.88
357.761	76.88
357.988	84.88
358.215	86.88
358.441	71.88
358.668	87.88
358.895	85.88
359.122	78.88
359.349	80.88
359.576	91.88
359.802	98.88
360.029	90.88
360.256	86.88
360.483	90.88
360.709	73.88
360.936	81.88
361.163	99.88
361.39	85.88
361.616	95.88
361.843	103.88
362.07	94.88
362.296	92.88
362.523	80.88
362.749	91.88
362.976	90.88
363.203	95.88
363.429	78.88
363.656	95.88
363.882	94.88
364.109	90.88
364.335	90.88
364.562	84.88
364.788	103.88
365.015	86.88
365.241	89.88
365.468	90.88
365.694	103.88
365.92	87.88
366.147	84.88
366.373	91.88
366.599	80.88
366.826	90.88
367.052	88.88
367.278	86.88
367.505	83.88
367.731	95.88
367.957	83.88
368.184	75.88
368.41	78.88
368.636	98.88
368.862	89.88
369.089	100.88
369.315	70.88
369.541	76.88
369.767	81.88
369.993	77.88
370.219	95.88
370.445	83.88
370.672	69.88
370.898	76.88
371.124	76.88
371.35	83.88
371.576	79.88
371.802	86.88
372.028	86.88
372.254	79.88
372.48	76.88
372.706	87.88
372.932	70.88
373.158	78.88
373.384	90.88
373.61	89.88
373.835	80.88
374.061	68.88
374.287	96.88
374.513	76.88
374.739	84.88
374.965	90.88
375.191	79.88
375.416	83.88
375.642	81.88
375.868	93.88
376.094	73.88
376.319	87.88
376.545	87.88
376.771	99.88
376.997	79.88
377.222	82.88
377.448	92.88
377.674	87.88
377.899	87.88
378.125	85.88
378.35	92.88
378.576	91.88
378.802	84.88
379.027	79.88
379.253	99.88
379.478	93.88
379.704	71.88
379.929	95.88
380.155	94.88
380.38	85.88
380.606	80.88
380.831	104.88
381.057	80.88
381.282	86.88
381.507	87.88
381.733	96.88
381.958	87.88
382.184	80.88
382.409	98.88
382.634	101.88
382.86	111.88
383.085	107.88
383.31	90.88
383.535	90.88
383.761	78.88
383.986	85.88
384.211	93.88
384.436	77.88
384.662	94.88
384.887	97.88
385.112	98.88
385.337	92.88
385.562	85.88
385.787	101.88
386.013	98.88
386.238	97.88
386.463	106.88
386.688	102.88
386.913	101.88
387.138	100.88
387.363	97.88
387.588	86.88
387.813	95.88
388.038	100.88
388.263	103.88
388.488	109.88
388.713	70.88
388.938	84.88
389.163	91.88
389.387	85.88
389.612	84.88
389.837	75.88
390.062	84.88
390.287	94.88
390.512	77.88
390.736	69.88
390.961	97.88
391.186	87.88
391.411	92.88
391.636	76.88
391.86	71.88
392.085	71.88
392.31	91.88
392.534	84.88
392.759	86.88
392.984	97.88
393.208	103.88
393.433	91.88
393.658	80.88
393.882	85.88
394.107	76.88
394.331	92.88
394.556	90.88
394.78	96.88
395.005	79.88
395.229	75.88
395.454	69.88
395.678	56.88
395.903	101.88
396.127	86.88
396.352	78.88
396.576	75.88
396.801	92.88
397.025	95.88
397.249	87.88
397.474	90.88
397.698	66.88
397.922	86.88
398.147	70.88
398.371	87.88
398.595	95.88
398.82	85.88
399.044	76.88
399.268	90.88
399.492	83.88
399.717	101.88
399.941	82.88
400.165	90.88
400.389	93.88
400.613	82.88
400.837	77.88
401.062	69.88
401.286	89.88
401.51	87.88
401.734	77.88
401.958	72.88
402.182	102.88
402.406	121.88
402.63	96.88
402.854	86.88
403.078	78.88
403.302	86.88
403.526	90.88
403.75	90.88
403.974	83.88
404.198	79.88
404.422	91.88
404.645	70.88
404.869	93.88
405.093	90.88
405.317	76.88
405.541	93.88
405.765	90.88
405.988	104.88
406.212	164.88
406.436	173.88
406.66	109.88
406.883	93.88
407.107	81.88
407.331	92.88
407.555	102.88
407.778	74.88
408.002	102.88
408.226	85.88
408.449	85.88
408.673	88.88
408.896	76.88
409.12	107.88
409.344	86.88
409.567	93.88
409.791	94.88
410.014	89.88
410.238	85.88
410.461	82.88
410.685	85.88
410.908	82.88
411.132	97.88
411.355	101.88
411.578	86.88
411.802	89.88
412.025	83.88
412.249	89.88
412.472	92.88
412.695	62.88
412.919	86.88
413.142	95.88
413.365	102.88
413.589	92.88
413.812	79.88
414.035	88.88
414.258	95.88
414.482	91.88
414.705	86.88
414.928	93.88
415.151	78.88
415.374	82.88
415.597	94.88
415.821	94.88
416.044	93.88
416.267	74.88
416.49	85.88
416.713	77.88
416.936	81.88
417.159	77.88
417.382	80.88
417.605	78.88
417.828	93.88
418.051	85.88
418.274	91.88
418.497	86.88
418.72	89.88
418.943	80.88
419.166	83.88
419.389	79.88
419.611	93.88
419.834	86.88
420.057	84.88
420.28	71.88
420.503	84.88
420.726	72.88
420.948	80.88
421.171	71.88
421.394	83.88
421.617	75.88
421.839	81.88
422.062	87.88
422.285	90.88
422.507	95.88
422.73	102.88
422.953	82.88
423.175	80.88
423.398	84.88
423.621	88.88
423.843	78.88
424.066	73.88
424.288	62.88
424.511	83.88
424.733	83.88
424.956	87.88
425.178	91.88
425.401	92.88
425.623	97.88
425.846	103.88
426.068	87.88
426.291	87.88
426.513	84.88
426.735	90.88
426.958	84.88
427.18	94.88
427.402	131.88
427.625	136.88
427.847	96.88
428.069	101.88
428.292	88.88
428.514	76.88
428.736	99.88
428.958	85.88
429.181	81.88
429.403	77.88
429.625	78.88
429.847	86.88
430.069	95.88
430.292	98.88
430.514	85.88
430.736	77.88
430.958	80.88
431.18	82.88
431.402	93.88
431.624	95.88
431.846	78.88
432.068	78.88
432.29	86.88
432.512	76.88
432.734	85.88
432.956	79.88
433.178	90.88
433.4	86.88
433.622	86.88
433.844	68.88
434.066	85.88
434.287	89.88
434.509	93.88
434.731	82.88
434.953	74.88
435.175	65.88
435.397	88.88
435.618	81.88
435.84	88.88
436.062	110.88
436.284	93.88
436.505	91.88
436.727	84.88
436.949	90.88
437.17	74.88
437.392	84.88
437.614	80.88
437.835	94.88
438.057	102.88
438.278	104.88
438.5	84.88
438.721	115.88
438.943	107.88
439.165	80.88
439.386	79.88
439.608	81.88
439.829	95.88
440.05	114.88
440.272	124.88
440.493	106.88
440.715	87.88
440.936	91.88
441.158	70.88
441.379	83.88
441.6	78.88
441.822	93.88
442.043	80.88
442.264	99.88
442.486	78.88
442.707	88.88
442.928	87.88
443.149	113.88
443.371	120.88
443.592	96.88
443.813	101.88
444.034	96.88
444.255	91.88
444.476	78.88
444.698	82.88
444.919	77.88
445.14	140.88
445.361	117.88
445.582	91.88
445.803	125.88
446.024	114.88
446.245	122.88
446.466	88.88
446.687	71.88
446.908	72.88
447.129	74.88
447.35	82.88
447.571	91.88
447.792	85.88
448.013	93.88
448.234	94.88
448.455	80.88
448.675	100.88
448.896	102.88
449.117	90.88
449.338	84.88
449.559	110.88
449.779	112.88
450	88.88
450.221	75.88
450.442	68.88
450.662	89.88
450.883	103.88
451.104	89.88
451.324	86.88
451.545	78.88
451.766	94.88
451.986	90.88
452.207	83.88
452.428	85.88
452.648	94.88
452.869	97.88
453.089	92.88
453.31	109.88
453.53	92.88
453.751	78.88
453.971	93.88
454.192	104.88
454.412	99.88
454.633	70.88
454.853	87.88
455.073	73.88
455.294	70.88
455.514	96.88
455.734	86.88
455.955	76.88
456.175	90.88
456.395	72.88
456.616	89.88
456.836	84.88
457.056	82.88
457.276	75.88
457.497	68.88
457.717	75.88
457.937	91.88
458.157	83.88
458.377	85.88
458.598	88.88
458.818	128.88
459.038	117.88
459.258	101.88
459.478	77.88
459.698	76.88
459.918	91.88
460.138	67.88
460.358	82.88
460.578	68.88
460.798	83.88
461.018	72.88
461.238	79.88
461.458	76.88
461.678	64.88
461.898	89.88
462.118	79.88
462.338	79.88
462.558	80.88
462.777	91.88
462.997	91.88
463.217	79.88
463.437	79.88
463.657	94.88
463.876	86.88
464.096	83.88
464.316	84.88
464.536	103.88
464.755	88.88
464.975	88.88
465.195	149.88
465.414	131.88
465.634	75.88
465.854	73.88
466.073	79.88
466.293	78.88
466.512	75.88
466.732	88.88
466.951	80.88
467.171	78.88
467.391	90.88
467.61	102.88
467.829	80.88
468.049	74.88
468.268	87.88
468.488	87.88
468.707	78.88
468.927	80.88
469.146	89.88
469.365	95.88
469.585	76.88
469.804	84.88
470.023	92.88
470.243	85.88
470.462	81.88
470.681	90.88
470.901	80.88
471.12	71.88
471.339	78.88
471.558	72.88
471.777	87.88
471.997	84.88
472.216	86.88
472.435	98.88
472.654	102.88
472.873	91.88
473.092	71.88
473.311	67.88
473.53	79.88
473.749	82.88
473.968	78.88
474.187	93.88
474.406	99.88
474.625	90.88
474.844	83.88
475.063	70.88
475.282	82.88
475.501	83.88
475.72	92.88
475.939	88.88
476.158	77.88
476.377	93.88
476.596	84.88
476.814	93.88
477.033	78.88
477.252	88.88
477.471	85.88
477.69	92.88
477.908	83.88
478.127	85.88
478.346	89.88
478.564	85.88
478.783	83.88
479.002	100.88
479.22	84.88
479.439	93.88
479.658	91.88
479.876	86.88
480.095	79.88
480.313	83.88
480.532	72.88
480.751	93.88
480.969	95.88
481.188	103.88
481.406	102.88
481.624	89.88
481.843	74.88
482.061	82.88
482.28	82.88
482.498	99.88
482.717	86.88
482.935	82.88
483.153	95.88
483.372	89.88
483.59	87.88
483.808	84.88
484.027	77.88
484.245	98.88
484.463	85.88
484.681	84.88
484.9	83.88
485.118	89.88
485.336	88.88
485.554	79.88
485.772	98.88
485.99	90.88
486.209	99.88
486.427	104.88
486.645	118.88
486.863	111.88
487.081	96.88
487.299	86.88
487.517	96.88
487.735	91.88
487.953	98.88
488.171	78.88
488.389	78.88
488.607	110.88
488.825	97.88
489.043	92.88
489.261	86.88
489.479	83.88
489.696	104.88
489.914	106.88
490.132	86.88
490.35	88.88
490.568	84.88
490.786	85.88
491.003	78.88
491.221	88.88
491.439	80.88
491.657	82.88
491.874	89.88
492.092	95.88
492.31	86.88
492.527	80.88
492.745	84.88
492.963	80.88
493.18	77.88
493.398	78.88
493.615	78.88
493.833	76.88
494.05	91.88
494.268	92.88
494.485	89.88
494.703	84.88
494.92	91.88
495.138	83.88
495.355	80.88
495.573	79.88
495.79	83.88
496.008	102.88
496.225	93.88
496.442	93.88
496.66	91.88
496.877	88.88
497.094	92.88
497.312	75.88
497.529	79.88
497.746	86.88
497.963	78.88
498.181	80.88
498.398	80.88
498.615	106.88
498.832	92.88
499.049	78.88
499.267	84.88
499.484	84.88
499.701	87.88
499.918	85.88
500.135	89.88
500.352	87.88
500.569	81.88
500.786	99.88
501.003	78.88
501.22	86.88
501.437	89.88
501.654	99.88
501.871	104.88
502.088	100.88
502.305	88.88
502.522	83.88
502.739	82.88
502.956	103.88
503.172	88.88
503.389	87.88
503.606	113.88
503.823	93.88
504.04	83.88
504.256	91.88
504.473	92.88
504.69	99.88
504.907	82.88
505.123	94.88
505.34	84.88
505.557	87.88
505.773	78.88
505.99	76.88
506.207	91.88
506.423	75.88
506.64	93.88
506.856	88.88
507.073	84.88
507.289	101.88
507.506	85.88
507.722	95.88
507.939	99.88
508.155	109.88
508.372	95.88
508.588	79.88
508.805	87.88
509.021	86.88
509.238	88.88
509.454	101.88
509.67	96.88
509.887	116.88
510.103	124.88
510.319	191.88
510.536	622.88
510.752	1872.88
510.968	538.88
511.184	147.88
511.401	111.88
511.617	101.88
511.833	97.88
512.049	95.88
512.265	88.88
512.481	84.88
512.698	94.88
512.914	66.88
513.13	86.88
513.346	87.88
513.562	93.88
513.778	87.88
513.994	101.88
514.21	99.88
514.426	109.88
514.642	117.88
514.858	86.88
515.074	127.88
515.29	360.88
515.506	1134.88
515.721	428.88
515.937	146.88
516.153	103.88
516.369	82.88
516.585	82.88
516.801	100.88
517.016	97.88
517.232	91.88
517.448	91.88
517.664	79.88
