Data from Uncirc_1997_H10_HRD10591_00037.txt Node
Date: Wed Jan 03 11:28:38 EST 2024
User: Yrep
Spectrometer: HR+D1059
Trigger mode: 1
Integration Time (sec): 1.000000E-1
Scans to average: 1
Electric dark correction enabled: true
Nonlinearity correction enabled: false
Boxcar width: 0
XAxis mode: Wavelengths
Number of Pixels in Spectrum: 2048
>>>>>Begin Spectral Data<<<<<
223.165	-19.94
223.4	-19.94
223.635	-19.94
223.869	-6.94
224.104	-14.94
224.338	-16.94
224.573	-21.94
224.808	-22.94
225.042	5.06
225.277	-4.94
225.511	5.06
225.746	-2.94
225.98	4.06
226.215	11.06
226.449	18.06
226.683	17.06
226.918	28.06
227.152	23.06
227.387	41.06
227.621	33.06
227.856	50.06
228.09	47.06
228.324	53.06
228.559	55.06
228.793	62.06
229.027	65.06
229.262	62.06
229.496	53.06
229.73	92.06
229.964	77.06
230.199	78.06
230.433	73.06
230.667	61.06
230.901	77.06
231.136	79.06
231.37	76.06
231.604	65.06
231.838	77.06
232.072	69.06
232.306	85.06
232.541	71.06
232.775	76.06
233.009	73.06
233.243	83.06
233.477	72.06
233.711	86.06
233.945	79.06
234.179	72.06
234.413	72.06
234.647	81.06
234.881	77.06
235.115	77.06
235.349	78.06
235.583	90.06
235.817	88.06
236.051	82.06
236.285	70.06
236.519	65.06
236.753	79.06
236.987	77.06
237.221	77.06
237.455	80.06
237.689	62.06
237.922	81.06
238.156	73.06
238.39	84.06
238.624	84.06
238.858	71.06
239.091	78.06
239.325	70.06
239.559	76.06
239.793	66.06
240.027	65.06
240.26	81.06
240.494	87.06
240.728	60.06
240.961	69.06
241.195	80.06
241.429	74.06
241.662	54.06
241.896	90.06
242.13	83.06
242.363	71.06
242.597	54.06
242.83	62.06
243.064	58.06
243.298	80.06
243.531	73.06
243.765	69.06
243.998	79.06
244.232	77.06
244.465	67.06
244.699	81.06
244.932	80.06
245.166	62.06
245.399	70.06
245.633	72.06
245.866	71.06
246.099	67.06
246.333	74.06
246.566	63.06
246.8	89.06
247.033	65.06
247.266	89.06
247.5	85.06
247.733	80.06
247.966	83.06
248.2	76.06
248.433	83.06
248.666	70.06
248.899	89.06
249.133	76.06
249.366	96.06
249.599	95.06
249.832	73.06
250.066	87.06
250.299	76.06
250.532	75.06
250.765	77.06
250.998	75.06
251.231	88.06
251.465	91.06
251.698	98.06
251.931	92.06
252.164	71.06
252.397	75.06
252.63	79.06
252.863	83.06
253.096	82.06
253.329	89.06
253.562	79.06
253.795	94.06
254.028	89.06
254.261	87.06
254.494	86.06
254.727	74.06
254.96	73.06
255.193	76.06
255.426	74.06
255.659	85.06
255.892	78.06
256.124	75.06
256.357	82.06
256.59	87.06
256.823	85.06
257.056	82.06
257.289	77.06
257.521	84.06
257.754	91.06
257.987	77.06
258.22	77.06
258.452	86.06
258.685	93.06
258.918	82.06
259.151	75.06
259.383	98.06
259.616	71.06
259.849	83.06
260.081	95.06
260.314	84.06
260.547	78.06
260.779	76.06
261.012	74.06
261.244	75.06
261.477	82.06
261.71	95.06
261.942	107.06
262.175	97.06
262.407	79.06
262.64	74.06
262.872	71.06
263.105	78.06
263.337	83.06
263.57	75.06
263.802	72.06
264.035	87.06
264.267	77.06
264.499	103.06
264.732	92.06
264.964	80.06
265.197	84.06
265.429	75.06
265.661	77.06
265.894	74.06
266.126	85.06
266.358	86.06
266.591	88.06
266.823	79.06
267.055	61.06
267.287	72.06
267.52	77.06
267.752	86.06
267.984	90.06
268.216	88.06
268.448	97.06
268.681	81.06
268.913	88.06
269.145	92.06
269.377	92.06
269.609	83.06
269.841	84.06
270.073	81.06
270.306	79.06
270.538	70.06
270.77	91.06
271.002	79.06
271.234	64.06
271.466	92.06
271.698	81.06
271.93	81.06
272.162	90.06
272.394	80.06
272.626	82.06
272.858	89.06
273.09	93.06
273.322	81.06
273.553	92.06
273.785	94.06
274.017	93.06
274.249	75.06
274.481	85.06
274.713	93.06
274.945	75.06
275.176	81.06
275.408	77.06
275.64	87.06
275.872	80.06
276.104	94.06
276.335	92.06
276.567	99.06
276.799	95.06
277.031	96.06
277.262	76.06
277.494	94.06
277.726	78.06
277.957	69.06
278.189	93.06
278.421	86.06
278.652	87.06
278.884	80.06
279.115	85.06
279.347	81.06
279.579	81.06
279.81	81.06
280.042	80.06
280.273	98.06
280.505	83.06
280.736	86.06
280.968	90.06
281.199	81.06
281.431	77.06
281.662	85.06
281.894	88.06
282.125	90.06
282.356	119.06
282.588	134.06
282.819	102.06
283.051	104.06
283.282	89.06
283.513	87.06
283.745	91.06
283.976	82.06
284.207	90.06
284.439	80.06
284.67	72.06
284.901	75.06
285.132	83.06
285.364	88.06
285.595	101.06
285.826	87.06
286.057	78.06
286.288	86.06
286.52	74.06
286.751	86.06
286.982	102.06
287.213	91.06
287.444	91.06
287.675	79.06
287.906	95.06
288.138	96.06
288.369	83.06
288.6	86.06
288.831	84.06
289.062	74.06
289.293	94.06
289.524	83.06
289.755	79.06
289.986	80.06
290.217	92.06
290.448	80.06
290.679	96.06
290.91	91.06
291.141	82.06
291.371	80.06
291.602	95.06
291.833	79.06
292.064	75.06
292.295	91.06
292.526	89.06
292.757	95.06
292.987	89.06
293.218	92.06
293.449	89.06
293.68	76.06
293.91	65.06
294.141	76.06
294.372	89.06
294.603	89.06
294.833	82.06
295.064	72.06
295.295	102.06
295.525	97.06
295.756	101.06
295.987	99.06
296.217	121.06
296.448	119.06
296.679	98.06
296.909	89.06
297.14	95.06
297.37	93.06
297.601	86.06
297.831	87.06
298.062	91.06
298.292	86.06
298.523	78.06
298.753	97.06
298.984	83.06
299.214	86.06
299.445	96.06
299.675	91.06
299.905	86.06
300.136	95.06
300.366	87.06
300.597	79.06
300.827	96.06
301.057	77.06
301.288	102.06
301.518	92.06
301.748	93.06
301.979	91.06
302.209	102.06
302.439	77.06
302.669	90.06
302.9	85.06
303.13	101.06
303.36	92.06
303.59	88.06
303.82	90.06
304.051	101.06
304.281	94.06
304.511	90.06
304.741	93.06
304.971	81.06
305.201	86.06
305.431	84.06
305.661	97.06
305.891	97.06
306.121	81.06
306.352	101.06
306.582	97.06
306.812	99.06
307.042	96.06
307.272	93.06
307.502	87.06
307.731	85.06
307.961	84.06
308.191	75.06
308.421	80.06
308.651	88.06
308.881	82.06
309.111	102.06
309.341	91.06
309.571	99.06
309.8	96.06
310.03	85.06
310.26	95.06
310.49	96.06
310.72	88.06
310.949	106.06
311.179	93.06
311.409	94.06
311.639	74.06
311.868	109.06
312.098	93.06
312.328	95.06
312.557	101.06
312.787	111.06
313.017	95.06
313.246	99.06
313.476	87.06
313.706	72.06
313.935	89.06
314.165	91.06
314.394	82.06
314.624	103.06
314.853	101.06
315.083	85.06
315.312	87.06
315.542	94.06
315.771	90.06
316.001	91.06
316.23	76.06
316.46	70.06
316.689	94.06
316.919	83.06
317.148	85.06
317.377	85.06
317.607	82.06
317.836	91.06
318.065	85.06
318.295	76.06
318.524	108.06
318.753	86.06
318.983	87.06
319.212	107.06
319.441	107.06
319.67	99.06
319.9	84.06
320.129	78.06
320.358	89.06
320.587	88.06
320.816	102.06
321.046	107.06
321.275	96.06
321.504	89.06
321.733	96.06
321.962	95.06
322.191	88.06
322.42	89.06
322.649	99.06
322.878	114.06
323.108	102.06
323.337	99.06
323.566	113.06
323.795	143.06
324.024	187.06
324.253	339.06
324.482	709.06
324.71	1393.06
324.939	1828.06
325.168	681.06
325.397	218.06
325.626	127.06
325.855	115.06
326.084	118.06
326.313	112.06
326.542	139.06
326.77	213.06
326.999	406.06
327.228	811.06
327.457	1479.06
327.686	1146.06
327.914	320.06
328.143	169.06
328.372	124.06
328.6	116.06
328.829	119.06
329.058	126.06
329.287	134.06
329.515	111.06
329.744	89.06
329.972	88.06
330.201	96.06
330.43	96.06
330.658	116.06
330.887	122.06
331.115	101.06
331.344	96.06
331.572	86.06
331.801	95.06
332.03	101.06
332.258	81.06
332.486	81.06
332.715	89.06
332.943	95.06
333.172	86.06
333.4	85.06
333.629	103.06
333.857	111.06
334.085	98.06
334.314	80.06
334.542	101.06
334.771	100.06
334.999	88.06
335.227	89.06
335.455	88.06
335.684	96.06
335.912	86.06
336.14	89.06
336.369	98.06
336.597	94.06
336.825	108.06
337.053	96.06
337.281	92.06
337.51	97.06
337.738	96.06
337.966	89.06
338.194	89.06
338.422	91.06
338.65	88.06
338.878	92.06
339.106	83.06
339.334	97.06
339.562	100.06
339.79	94.06
340.018	83.06
340.246	83.06
340.474	85.06
340.702	81.06
340.93	82.06
341.158	86.06
341.386	89.06
341.614	106.06
341.842	93.06
342.07	85.06
342.298	101.06
342.526	98.06
342.754	84.06
342.981	81.06
343.209	92.06
343.437	98.06
343.665	79.06
343.893	94.06
344.12	79.06
344.348	85.06
344.576	93.06
344.804	84.06
345.031	87.06
345.259	99.06
345.487	97.06
345.714	89.06
345.942	98.06
346.17	97.06
346.397	90.06
346.625	90.06
346.853	87.06
347.08	103.06
347.308	96.06
347.535	92.06
347.763	101.06
347.99	95.06
348.218	95.06
348.445	80.06
348.673	98.06
348.9	91.06
349.128	93.06
349.355	98.06
349.583	95.06
349.81	104.06
350.037	85.06
350.265	96.06
350.492	93.06
350.72	83.06
350.947	89.06
351.174	88.06
351.402	109.06
351.629	95.06
351.856	99.06
352.083	101.06
352.311	93.06
352.538	100.06
352.765	109.06
352.992	117.06
353.22	99.06
353.447	91.06
353.674	102.06
353.901	93.06
354.128	94.06
354.355	100.06
354.583	87.06
354.81	102.06
355.037	101.06
355.264	105.06
355.491	86.06
355.718	98.06
355.945	94.06
356.172	100.06
356.399	91.06
356.626	79.06
356.853	95.06
357.08	83.06
357.307	85.06
357.534	73.06
357.761	85.06
357.988	97.06
358.215	98.06
358.441	89.06
358.668	103.06
358.895	88.06
359.122	67.06
359.349	91.06
359.576	83.06
359.802	104.06
360.029	110.06
360.256	106.06
360.483	87.06
360.709	87.06
360.936	94.06
361.163	89.06
361.39	89.06
361.616	90.06
361.843	92.06
362.07	96.06
362.296	82.06
362.523	100.06
362.749	108.06
362.976	83.06
363.203	88.06
363.429	83.06
363.656	99.06
363.882	96.06
364.109	89.06
364.335	93.06
364.562	91.06
364.788	99.06
365.015	88.06
365.241	117.06
365.468	96.06
365.694	103.06
365.92	111.06
366.147	78.06
366.373	96.06
366.599	78.06
366.826	86.06
367.052	88.06
367.278	79.06
367.505	96.06
367.731	80.06
367.957	91.06
368.184	87.06
368.41	95.06
368.636	93.06
368.862	117.06
369.089	92.06
369.315	87.06
369.541	104.06
369.767	97.06
369.993	86.06
370.219	91.06
370.445	88.06
370.672	88.06
370.898	91.06
371.124	85.06
371.35	90.06
371.576	90.06
371.802	77.06
372.028	79.06
372.254	77.06
372.48	66.06
372.706	90.06
372.932	84.06
373.158	84.06
373.384	93.06
373.61	77.06
373.835	91.06
374.061	87.06
374.287	93.06
374.513	87.06
374.739	95.06
374.965	93.06
375.191	89.06
375.416	85.06
375.642	88.06
375.868	89.06
376.094	94.06
376.319	83.06
376.545	87.06
376.771	84.06
376.997	76.06
377.222	97.06
377.448	81.06
377.674	82.06
377.899	101.06
378.125	80.06
378.35	96.06
378.576	84.06
378.802	92.06
379.027	93.06
379.253	102.06
379.478	92.06
379.704	94.06
379.929	91.06
380.155	87.06
380.38	82.06
380.606	77.06
380.831	77.06
381.057	91.06
381.282	95.06
381.507	82.06
381.733	99.06
381.958	95.06
382.184	82.06
382.409	85.06
382.634	88.06
382.86	89.06
383.085	93.06
383.31	100.06
383.535	87.06
383.761	86.06
383.986	91.06
384.211	90.06
384.436	90.06
384.662	81.06
384.887	93.06
385.112	82.06
385.337	107.06
385.562	95.06
385.787	98.06
386.013	102.06
386.238	91.06
386.463	96.06
386.688	108.06
386.913	90.06
387.138	97.06
387.363	87.06
387.588	102.06
387.813	101.06
388.038	102.06
388.263	97.06
388.488	99.06
388.713	105.06
388.938	110.06
389.163	93.06
389.387	98.06
389.612	93.06
389.837	76.06
390.062	78.06
390.287	85.06
390.512	91.06
390.736	105.06
390.961	87.06
391.186	112.06
391.411	87.06
391.636	88.06
391.86	70.06
392.085	83.06
392.31	69.06
392.534	86.06
392.759	65.06
392.984	85.06
393.208	83.06
393.433	111.06
393.658	79.06
393.882	92.06
394.107	84.06
394.331	76.06
394.556	94.06
394.78	91.06
395.005	99.06
395.229	88.06
395.454	89.06
395.678	89.06
395.903	67.06
396.127	77.06
396.352	93.06
396.576	90.06
396.801	78.06
397.025	89.06
397.249	83.06
397.474	100.06
397.698	88.06
397.922	74.06
398.147	87.06
398.371	91.06
398.595	85.06
398.82	80.06
399.044	86.06
399.268	81.06
399.492	81.06
399.717	88.06
399.941	81.06
400.165	92.06
400.389	94.06
400.613	79.06
400.837	78.06
401.062	94.06
401.286	88.06
401.51	91.06
401.734	73.06
401.958	89.06
402.182	118.06
402.406	141.06
402.63	111.06
402.854	75.06
403.078	93.06
403.302	89.06
403.526	78.06
403.75	84.06
403.974	105.06
404.198	97.06
404.422	95.06
404.645	92.06
404.869	85.06
405.093	87.06
405.317	97.06
405.541	105.06
405.765	91.06
405.988	112.06
406.212	154.06
406.436	192.06
406.66	124.06
406.883	87.06
407.107	107.06
407.331	99.06
407.555	89.06
407.778	97.06
408.002	99.06
408.226	97.06
408.449	88.06
408.673	82.06
408.896	91.06
409.12	99.06
409.344	83.06
409.567	81.06
409.791	90.06
410.014	92.06
410.238	84.06
410.461	101.06
410.685	95.06
410.908	89.06
411.132	98.06
411.355	93.06
411.578	85.06
411.802	86.06
412.025	92.06
412.249	86.06
412.472	88.06
412.695	84.06
412.919	78.06
413.142	96.06
413.365	86.06
413.589	71.06
413.812	86.06
414.035	99.06
414.258	92.06
414.482	94.06
414.705	91.06
414.928	93.06
415.151	88.06
415.374	91.06
415.597	86.06
415.821	81.06
416.044	112.06
416.267	84.06
416.49	96.06
416.713	96.06
416.936	83.06
417.159	91.06
417.382	86.06
417.605	93.06
417.828	93.06
418.051	80.06
418.274	80.06
418.497	65.06
418.72	76.06
418.943	90.06
419.166	96.06
419.389	91.06
419.611	99.06
419.834	96.06
420.057	80.06
420.28	90.06
420.503	98.06
420.726	82.06
420.948	71.06
421.171	77.06
421.394	88.06
421.617	79.06
421.839	89.06
422.062	83.06
422.285	81.06
422.507	96.06
422.73	92.06
422.953	100.06
423.175	90.06
423.398	102.06
423.621	91.06
423.843	95.06
424.066	87.06
424.288	87.06
424.511	93.06
424.733	101.06
424.956	95.06
425.178	82.06
425.401	97.06
425.623	90.06
425.846	86.06
426.068	86.06
426.291	84.06
426.513	72.06
426.735	79.06
426.958	83.06
427.18	94.06
427.402	107.06
427.625	134.06
427.847	103.06
428.069	87.06
428.292	86.06
428.514	73.06
428.736	78.06
428.958	91.06
429.181	89.06
429.403	93.06
429.625	88.06
429.847	85.06
430.069	106.06
430.292	89.06
430.514	79.06
430.736	96.06
430.958	81.06
431.18	80.06
431.402	89.06
431.624	103.06
431.846	84.06
432.068	74.06
432.29	92.06
432.512	94.06
432.734	90.06
432.956	96.06
433.178	85.06
433.4	99.06
433.622	88.06
433.844	82.06
434.066	90.06
434.287	98.06
434.509	93.06
434.731	85.06
434.953	87.06
435.175	93.06
435.397	93.06
435.618	94.06
435.84	94.06
436.062	111.06
436.284	109.06
436.505	90.06
436.727	90.06
436.949	96.06
437.17	99.06
437.392	90.06
437.614	85.06
437.835	113.06
438.057	105.06
438.278	112.06
438.5	102.06
438.721	116.06
438.943	95.06
439.165	83.06
439.386	84.06
439.608	89.06
439.829	102.06
440.05	107.06
440.272	114.06
440.493	77.06
440.715	90.06
440.936	80.06
441.158	80.06
441.379	84.06
441.6	98.06
441.822	90.06
442.043	80.06
442.264	105.06
442.486	113.06
442.707	91.06
442.928	98.06
443.149	111.06
443.371	131.06
443.592	92.06
443.813	102.06
444.034	105.06
444.255	83.06
444.476	92.06
444.698	85.06
444.919	96.06
445.14	129.06
445.361	121.06
445.582	106.06
445.803	139.06
446.024	130.06
446.245	103.06
446.466	104.06
446.687	97.06
446.908	74.06
447.129	103.06
447.35	87.06
447.571	80.06
447.792	103.06
448.013	93.06
448.234	105.06
448.455	94.06
448.675	109.06
448.896	101.06
449.117	89.06
449.338	90.06
449.559	138.06
449.779	127.06
450	87.06
450.221	89.06
450.442	79.06
450.662	91.06
450.883	98.06
451.104	94.06
451.324	113.06
451.545	88.06
451.766	79.06
451.986	79.06
452.207	90.06
452.428	76.06
452.648	94.06
452.869	118.06
453.089	109.06
453.31	120.06
453.53	88.06
453.751	96.06
453.971	103.06
454.192	96.06
454.412	87.06
454.633	93.06
454.853	81.06
455.073	81.06
455.294	90.06
455.514	104.06
455.734	71.06
455.955	86.06
456.175	89.06
456.395	86.06
456.616	81.06
456.836	94.06
457.056	93.06
457.276	86.06
457.497	74.06
457.717	92.06
457.937	73.06
458.157	75.06
458.377	89.06
458.598	94.06
458.818	122.06
459.038	145.06
459.258	112.06
459.478	88.06
459.698	84.06
459.918	82.06
460.138	93.06
460.358	82.06
460.578	93.06
460.798	94.06
461.018	94.06
461.238	95.06
461.458	82.06
461.678	70.06
461.898	87.06
462.118	73.06
462.338	79.06
462.558	83.06
462.777	92.06
462.997	83.06
463.217	85.06
463.437	76.06
463.657	86.06
463.876	84.06
464.096	91.06
464.316	98.06
464.536	79.06
464.755	82.06
464.975	97.06
465.195	134.06
465.414	142.06
465.634	98.06
465.854	94.06
466.073	98.06
466.293	85.06
466.512	88.06
466.732	89.06
466.951	93.06
467.171	90.06
467.391	94.06
467.61	98.06
467.829	89.06
468.049	93.06
468.268	77.06
468.488	76.06
468.707	89.06
468.927	90.06
469.146	77.06
469.365	86.06
469.585	94.06
469.804	98.06
470.023	93.06
470.243	79.06
470.462	109.06
470.681	97.06
470.901	84.06
471.12	89.06
471.339	85.06
471.558	95.06
471.777	82.06
471.997	96.06
472.216	86.06
472.435	87.06
472.654	97.06
472.873	95.06
473.092	77.06
473.311	77.06
473.53	82.06
473.749	92.06
473.968	89.06
474.187	92.06
474.406	82.06
474.625	87.06
474.844	95.06
475.063	63.06
475.282	87.06
475.501	79.06
475.72	74.06
475.939	84.06
476.158	92.06
476.377	87.06
476.596	90.06
476.814	91.06
477.033	86.06
477.252	85.06
477.471	96.06
477.69	77.06
477.908	86.06
478.127	78.06
478.346	80.06
478.564	85.06
478.783	80.06
479.002	91.06
479.22	77.06
479.439	94.06
479.658	103.06
479.876	103.06
480.095	96.06
480.313	89.06
480.532	77.06
480.751	85.06
480.969	95.06
481.188	113.06
481.406	91.06
481.624	84.06
481.843	77.06
482.061	80.06
482.28	82.06
482.498	97.06
482.717	91.06
482.935	77.06
483.153	83.06
483.372	81.06
483.59	87.06
483.808	101.06
484.027	95.06
484.245	80.06
484.463	86.06
484.681	80.06
484.9	87.06
485.118	90.06
485.336	95.06
485.554	92.06
485.772	104.06
485.99	103.06
486.209	101.06
486.427	108.06
486.645	116.06
486.863	117.06
487.081	97.06
487.299	95.06
487.517	93.06
487.735	83.06
487.953	79.06
488.171	87.06
488.389	92.06
488.607	79.06
488.825	85.06
489.043	93.06
489.261	91.06
489.479	109.06
489.696	91.06
489.914	86.06
490.132	95.06
490.35	103.06
490.568	79.06
490.786	83.06
491.003	98.06
491.221	97.06
491.439	77.06
491.657	84.06
491.874	97.06
492.092	87.06
492.31	89.06
492.527	90.06
492.745	89.06
492.963	97.06
493.18	103.06
493.398	107.06
493.615	93.06
493.833	81.06
494.05	79.06
494.268	90.06
494.485	100.06
494.703	86.06
494.92	98.06
495.138	87.06
495.355	87.06
495.573	91.06
495.79	80.06
496.008	83.06
496.225	89.06
496.442	87.06
496.66	97.06
496.877	97.06
497.094	97.06
497.312	89.06
497.529	92.06
497.746	95.06
497.963	91.06
498.181	83.06
498.398	78.06
498.615	83.06
498.832	98.06
499.049	78.06
499.267	92.06
499.484	96.06
499.701	85.06
499.918	85.06
500.135	101.06
500.352	79.06
500.569	92.06
500.786	96.06
501.003	94.06
501.22	105.06
501.437	88.06
501.654	112.06
501.871	112.06
502.088	73.06
502.305	76.06
502.522	81.06
502.739	81.06
502.956	96.06
503.172	87.06
503.389	100.06
503.606	101.06
503.823	96.06
504.04	105.06
504.256	95.06
504.473	85.06
504.69	95.06
504.907	94.06
505.123	95.06
505.34	81.06
505.557	79.06
505.773	89.06
505.99	76.06
506.207	93.06
506.423	81.06
506.64	88.06
506.856	92.06
507.073	93.06
507.289	98.06
507.506	92.06
507.722	87.06
507.939	101.06
508.155	90.06
508.372	90.06
508.588	106.06
508.805	81.06
509.021	81.06
509.238	115.06
509.454	98.06
509.67	95.06
509.887	100.06
510.103	118.06
510.319	195.06
510.536	634.06
510.752	1960.06
510.968	557.06
511.184	133.06
511.401	101.06
511.617	98.06
511.833	98.06
512.049	91.06
512.265	97.06
512.481	94.06
512.698	94.06
512.914	94.06
513.13	95.06
513.346	93.06
513.562	93.06
513.778	95.06
513.994	105.06
514.21	111.06
514.426	120.06
514.642	121.06
514.858	111.06
515.074	151.06
515.29	426.06
515.506	1224.06
515.721	457.06
515.937	128.06
516.153	107.06
516.369	93.06
516.585	88.06
516.801	96.06
517.016	103.06
