Data from Uncirc_1997_H10_HRD10591_00042.txt Node
Date: Wed Jan 03 11:28:39 EST 2024
User: Yrep
Spectrometer: HR+D1059
Trigger mode: 1
Integration Time (sec): 1.000000E-1
Scans to average: 1
Electric dark correction enabled: true
Nonlinearity correction enabled: false
Boxcar width: 0
XAxis mode: Wavelengths
Number of Pixels in Spectrum: 2048
>>>>>Begin Spectral Data<<<<<
223.165	-8.75
223.4	-8.75
223.635	-8.75
223.869	-16.75
224.104	-10.75
224.338	-18.75
224.573	-18.75
224.808	-6.75
225.042	-10.75
225.277	-8.75
225.511	-0.75
225.746	6.25
225.98	-4.75
226.215	10.25
226.449	10.25
226.683	15.25
226.918	33.25
227.152	30.25
227.387	48.25
227.621	43.25
227.856	38.25
228.09	39.25
228.324	49.25
228.559	69.25
228.793	58.25
229.027	68.25
229.262	61.25
229.496	66.25
229.73	88.25
229.964	80.25
230.199	61.25
230.433	73.25
230.667	81.25
230.901	80.25
231.136	65.25
231.37	64.25
231.604	78.25
231.838	90.25
232.072	76.25
232.306	74.25
232.541	86.25
232.775	79.25
233.009	82.25
233.243	96.25
233.477	92.25
233.711	85.25
233.945	85.25
234.179	81.25
234.413	78.25
234.647	84.25
234.881	82.25
235.115	87.25
235.349	75.25
235.583	89.25
235.817	74.25
236.051	73.25
236.285	83.25
236.519	76.25
236.753	80.25
236.987	85.25
237.221	79.25
237.455	70.25
237.689	67.25
237.922	81.25
238.156	72.25
238.39	73.25
238.624	64.25
238.858	68.25
239.091	81.25
239.325	68.25
239.559	72.25
239.793	89.25
240.027	81.25
240.26	70.25
240.494	63.25
240.728	72.25
240.961	73.25
241.195	63.25
241.429	90.25
241.662	72.25
241.896	90.25
242.13	68.25
242.363	67.25
242.597	82.25
242.83	76.25
243.064	65.25
243.298	82.25
243.531	72.25
243.765	77.25
243.998	70.25
244.232	80.25
244.465	68.25
244.699	82.25
244.932	88.25
245.166	73.25
245.399	66.25
245.633	87.25
245.866	79.25
246.099	73.25
246.333	75.25
246.566	92.25
246.8	72.25
247.033	72.25
247.266	65.25
247.5	74.25
247.733	86.25
247.966	75.25
248.2	85.25
248.433	72.25
248.666	74.25
248.899	92.25
249.133	84.25
249.366	92.25
249.599	94.25
249.832	81.25
250.066	92.25
250.299	74.25
250.532	71.25
250.765	70.25
250.998	77.25
251.231	80.25
251.465	69.25
251.698	86.25
251.931	72.25
252.164	81.25
252.397	64.25
252.63	75.25
252.863	75.25
253.096	68.25
253.329	81.25
253.562	80.25
253.795	76.25
254.028	69.25
254.261	90.25
254.494	82.25
254.727	80.25
254.96	85.25
255.193	80.25
255.426	80.25
255.659	71.25
255.892	99.25
256.124	87.25
256.357	89.25
256.59	77.25
256.823	71.25
257.056	66.25
257.289	76.25
257.521	71.25
257.754	64.25
257.987	74.25
258.22	80.25
258.452	68.25
258.685	94.25
258.918	73.25
259.151	87.25
259.383	87.25
259.616	96.25
259.849	84.25
260.081	79.25
260.314	85.25
260.547	97.25
260.779	71.25
261.012	73.25
261.244	79.25
261.477	87.25
261.71	81.25
261.942	92.25
262.175	110.25
262.407	78.25
262.64	89.25
262.872	81.25
263.105	80.25
263.337	93.25
263.57	82.25
263.802	83.25
264.035	83.25
264.267	79.25
264.499	84.25
264.732	81.25
264.964	74.25
265.197	71.25
265.429	87.25
265.661	77.25
265.894	82.25
266.126	80.25
266.358	69.25
266.591	91.25
266.823	78.25
267.055	72.25
267.287	68.25
267.52	81.25
267.752	72.25
267.984	74.25
268.216	79.25
268.448	65.25
268.681	79.25
268.913	72.25
269.145	98.25
269.377	90.25
269.609	70.25
269.841	78.25
270.073	88.25
270.306	84.25
270.538	75.25
270.77	90.25
271.002	82.25
271.234	91.25
271.466	89.25
271.698	85.25
271.93	90.25
272.162	93.25
272.394	91.25
272.626	89.25
272.858	88.25
273.09	76.25
273.322	75.25
273.553	87.25
273.785	86.25
274.017	80.25
274.249	91.25
274.481	91.25
274.713	79.25
274.945	73.25
275.176	77.25
275.408	80.25
275.64	82.25
275.872	96.25
276.104	88.25
276.335	85.25
276.567	85.25
276.799	106.25
277.031	104.25
277.262	96.25
277.494	89.25
277.726	93.25
277.957	96.25
278.189	75.25
278.421	88.25
278.652	87.25
278.884	86.25
279.115	84.25
279.347	72.25
279.579	83.25
279.81	90.25
280.042	81.25
280.273	76.25
280.505	89.25
280.736	74.25
280.968	91.25
281.199	80.25
281.431	83.25
281.662	57.25
281.894	95.25
282.125	78.25
282.356	98.25
282.588	123.25
282.819	96.25
283.051	85.25
283.282	79.25
283.513	78.25
283.745	75.25
283.976	93.25
284.207	85.25
284.439	73.25
284.67	93.25
284.901	80.25
285.132	75.25
285.364	93.25
285.595	90.25
285.826	82.25
286.057	83.25
286.288	73.25
286.52	85.25
286.751	91.25
286.982	77.25
287.213	80.25
287.444	78.25
287.675	75.25
287.906	80.25
288.138	96.25
288.369	89.25
288.6	89.25
288.831	75.25
289.062	72.25
289.293	90.25
289.524	65.25
289.755	82.25
289.986	97.25
290.217	87.25
290.448	75.25
290.679	86.25
290.91	91.25
291.141	75.25
291.371	93.25
291.602	86.25
291.833	76.25
292.064	84.25
292.295	91.25
292.526	89.25
292.757	91.25
292.987	85.25
293.218	59.25
293.449	89.25
293.68	91.25
293.91	78.25
294.141	65.25
294.372	85.25
294.603	97.25
294.833	76.25
295.064	92.25
295.295	105.25
295.525	80.25
295.756	86.25
295.987	103.25
296.217	122.25
296.448	122.25
296.679	83.25
296.909	87.25
297.14	76.25
297.37	87.25
297.601	86.25
297.831	89.25
298.062	98.25
298.292	81.25
298.523	95.25
298.753	93.25
298.984	82.25
299.214	87.25
299.445	103.25
299.675	84.25
299.905	96.25
300.136	88.25
300.366	99.25
300.597	94.25
300.827	87.25
301.057	95.25
301.288	90.25
301.518	92.25
301.748	89.25
301.979	94.25
302.209	82.25
302.439	79.25
302.669	95.25
302.9	85.25
303.13	80.25
303.36	88.25
303.59	89.25
303.82	103.25
304.051	97.25
304.281	92.25
304.511	90.25
304.741	82.25
304.971	89.25
305.201	104.25
305.431	94.25
305.661	77.25
305.891	82.25
306.121	81.25
306.352	85.25
306.582	104.25
306.812	86.25
307.042	92.25
307.272	76.25
307.502	74.25
307.731	74.25
307.961	81.25
308.191	96.25
308.421	93.25
308.651	101.25
308.881	87.25
309.111	95.25
309.341	77.25
309.571	88.25
309.8	91.25
310.03	97.25
310.26	102.25
310.49	83.25
310.72	103.25
310.949	91.25
311.179	94.25
311.409	77.25
311.639	74.25
311.868	94.25
312.098	92.25
312.328	90.25
312.557	88.25
312.787	81.25
313.017	86.25
313.246	104.25
313.476	98.25
313.706	84.25
313.935	101.25
314.165	104.25
314.394	88.25
314.624	73.25
314.853	107.25
315.083	94.25
315.312	95.25
315.542	98.25
315.771	89.25
316.001	88.25
316.23	93.25
316.46	80.25
316.689	89.25
316.919	104.25
317.148	95.25
317.377	92.25
317.607	87.25
317.836	91.25
318.065	90.25
318.295	84.25
318.524	96.25
318.753	97.25
318.983	93.25
319.212	97.25
319.441	105.25
319.67	107.25
319.9	85.25
320.129	94.25
320.358	96.25
320.587	87.25
320.816	106.25
321.046	95.25
321.275	80.25
321.504	98.25
321.733	94.25
321.962	87.25
322.191	101.25
322.42	93.25
322.649	116.25
322.878	110.25
323.108	103.25
323.337	110.25
323.566	120.25
323.795	141.25
324.024	180.25
324.253	350.25
324.482	728.25
324.71	1465.25
324.939	1985.25
325.168	714.25
325.397	221.25
325.626	152.25
325.855	122.25
326.084	129.25
326.313	116.25
326.542	138.25
326.77	206.25
326.999	397.25
327.228	808.25
327.457	1501.25
327.686	1208.25
327.914	327.25
328.143	172.25
328.372	141.25
328.6	137.25
328.829	105.25
329.058	129.25
329.287	116.25
329.515	101.25
329.744	93.25
329.972	95.25
330.201	100.25
330.43	108.25
330.658	119.25
330.887	125.25
331.115	119.25
331.344	90.25
331.572	96.25
331.801	85.25
332.03	95.25
332.258	97.25
332.486	93.25
332.715	89.25
332.943	86.25
333.172	93.25
333.4	101.25
333.629	97.25
333.857	105.25
334.085	112.25
334.314	88.25
334.542	97.25
334.771	88.25
334.999	86.25
335.227	91.25
335.455	97.25
335.684	88.25
335.912	103.25
336.14	73.25
336.369	94.25
336.597	86.25
336.825	103.25
337.053	81.25
337.281	85.25
337.51	85.25
337.738	89.25
337.966	94.25
338.194	105.25
338.422	100.25
338.65	93.25
338.878	89.25
339.106	82.25
339.334	83.25
339.562	86.25
339.79	84.25
340.018	97.25
340.246	101.25
340.474	88.25
340.702	85.25
340.93	95.25
341.158	84.25
341.386	89.25
341.614	92.25
341.842	105.25
342.07	77.25
342.298	82.25
342.526	93.25
342.754	90.25
342.981	90.25
343.209	82.25
343.437	77.25
343.665	90.25
343.893	95.25
344.12	93.25
344.348	76.25
344.576	82.25
344.804	77.25
345.031	89.25
345.259	103.25
345.487	94.25
345.714	88.25
345.942	101.25
346.17	90.25
346.397	94.25
346.625	84.25
346.853	82.25
347.08	92.25
347.308	95.25
347.535	87.25
347.763	94.25
347.99	98.25
348.218	86.25
348.445	108.25
348.673	108.25
348.9	98.25
349.128	88.25
349.355	111.25
349.583	97.25
349.81	97.25
350.037	91.25
350.265	88.25
350.492	101.25
350.72	97.25
350.947	98.25
351.174	111.25
351.402	112.25
351.629	97.25
351.856	96.25
352.083	89.25
352.311	98.25
352.538	109.25
352.765	107.25
352.992	111.25
353.22	102.25
353.447	106.25
353.674	98.25
353.901	89.25
354.128	94.25
354.355	95.25
354.583	102.25
354.81	88.25
355.037	91.25
355.264	75.25
355.491	98.25
355.718	82.25
355.945	96.25
356.172	96.25
356.399	83.25
356.626	94.25
356.853	80.25
357.08	101.25
357.307	88.25
357.534	88.25
357.761	101.25
357.988	82.25
358.215	100.25
358.441	94.25
358.668	92.25
358.895	88.25
359.122	85.25
359.349	79.25
359.576	93.25
359.802	88.25
360.029	119.25
360.256	105.25
360.483	93.25
360.709	86.25
360.936	92.25
361.163	79.25
361.39	85.25
361.616	89.25
361.843	89.25
362.07	82.25
362.296	83.25
362.523	91.25
362.749	84.25
362.976	82.25
363.203	72.25
363.429	77.25
363.656	87.25
363.882	99.25
364.109	97.25
364.335	87.25
364.562	98.25
364.788	86.25
365.015	97.25
365.241	89.25
365.468	89.25
365.694	100.25
365.92	92.25
366.147	88.25
366.373	91.25
366.599	80.25
366.826	89.25
367.052	92.25
367.278	87.25
367.505	95.25
367.731	95.25
367.957	96.25
368.184	107.25
368.41	101.25
368.636	124.25
368.862	112.25
369.089	111.25
369.315	85.25
369.541	82.25
369.767	72.25
369.993	100.25
370.219	93.25
370.445	93.25
370.672	89.25
370.898	82.25
371.124	86.25
371.35	92.25
371.576	73.25
371.802	89.25
372.028	101.25
372.254	94.25
372.48	96.25
372.706	97.25
372.932	89.25
373.158	85.25
373.384	87.25
373.61	94.25
373.835	70.25
374.061	90.25
374.287	77.25
374.513	96.25
374.739	101.25
374.965	96.25
375.191	100.25
375.416	89.25
375.642	102.25
375.868	88.25
376.094	90.25
376.319	86.25
376.545	71.25
376.771	93.25
376.997	92.25
377.222	89.25
377.448	79.25
377.674	100.25
377.899	89.25
378.125	91.25
378.35	82.25
378.576	89.25
378.802	100.25
379.027	97.25
379.253	91.25
379.478	83.25
379.704	79.25
379.929	102.25
380.155	106.25
380.38	106.25
380.606	104.25
380.831	83.25
381.057	90.25
381.282	88.25
381.507	87.25
381.733	102.25
381.958	85.25
382.184	97.25
382.409	90.25
382.634	90.25
382.86	98.25
383.085	91.25
383.31	86.25
383.535	97.25
383.761	85.25
383.986	84.25
384.211	75.25
384.436	103.25
384.662	93.25
384.887	105.25
385.112	90.25
385.337	96.25
385.562	94.25
385.787	116.25
386.013	107.25
386.238	85.25
386.463	84.25
386.688	97.25
386.913	80.25
387.138	90.25
387.363	97.25
387.588	101.25
387.813	90.25
388.038	97.25
388.263	108.25
388.488	98.25
388.713	101.25
388.938	69.25
389.163	92.25
389.387	98.25
389.612	86.25
389.837	101.25
390.062	103.25
390.287	93.25
390.512	94.25
390.736	87.25
390.961	95.25
391.186	97.25
391.411	99.25
391.636	85.25
391.86	81.25
392.085	85.25
392.31	86.25
392.534	83.25
392.759	93.25
392.984	90.25
393.208	89.25
393.433	88.25
393.658	97.25
393.882	89.25
394.107	95.25
394.331	83.25
394.556	85.25
394.78	92.25
395.005	78.25
395.229	91.25
395.454	69.25
395.678	77.25
395.903	70.25
396.127	85.25
396.352	95.25
396.576	74.25
396.801	81.25
397.025	93.25
397.249	90.25
397.474	106.25
397.698	88.25
397.922	88.25
398.147	80.25
398.371	97.25
398.595	90.25
398.82	80.25
399.044	83.25
399.268	102.25
399.492	75.25
399.717	98.25
399.941	92.25
400.165	83.25
400.389	97.25
400.613	81.25
400.837	75.25
401.062	83.25
401.286	87.25
401.51	90.25
401.734	101.25
401.958	103.25
402.182	117.25
402.406	130.25
402.63	107.25
402.854	88.25
403.078	93.25
403.302	87.25
403.526	84.25
403.75	80.25
403.974	94.25
404.198	83.25
404.422	89.25
404.645	77.25
404.869	89.25
405.093	99.25
405.317	110.25
405.541	105.25
405.765	103.25
405.988	111.25
406.212	155.25
406.436	204.25
406.66	137.25
406.883	93.25
407.107	83.25
407.331	98.25
407.555	90.25
407.778	91.25
408.002	78.25
408.226	84.25
408.449	93.25
408.673	82.25
408.896	102.25
409.12	92.25
409.344	83.25
409.567	90.25
409.791	86.25
410.014	96.25
410.238	105.25
410.461	91.25
410.685	83.25
410.908	109.25
411.132	98.25
411.355	95.25
411.578	98.25
411.802	84.25
412.025	77.25
412.249	90.25
412.472	95.25
412.695	86.25
412.919	91.25
413.142	95.25
413.365	77.25
413.589	93.25
413.812	86.25
414.035	86.25
414.258	84.25
414.482	98.25
414.705	96.25
414.928	84.25
415.151	94.25
415.374	106.25
415.597	89.25
415.821	87.25
416.044	85.25
416.267	76.25
416.49	94.25
416.713	80.25
416.936	81.25
417.159	87.25
417.382	90.25
417.605	86.25
417.828	77.25
418.051	90.25
418.274	85.25
418.497	87.25
418.72	78.25
418.943	65.25
419.166	86.25
419.389	85.25
419.611	101.25
419.834	81.25
420.057	85.25
420.28	76.25
420.503	74.25
420.726	86.25
420.948	82.25
421.171	92.25
421.394	98.25
421.617	86.25
421.839	88.25
422.062	84.25
422.285	90.25
422.507	88.25
422.73	99.25
422.953	96.25
423.175	95.25
423.398	81.25
423.621	85.25
423.843	85.25
424.066	87.25
424.288	88.25
424.511	93.25
424.733	97.25
424.956	102.25
425.178	98.25
425.401	98.25
425.623	97.25
425.846	79.25
426.068	78.25
426.291	94.25
426.513	94.25
426.735	108.25
426.958	85.25
427.18	101.25
427.402	127.25
427.625	131.25
427.847	121.25
428.069	87.25
428.292	95.25
428.514	69.25
428.736	84.25
428.958	97.25
429.181	80.25
429.403	86.25
429.625	86.25
429.847	76.25
430.069	89.25
430.292	80.25
430.514	74.25
430.736	74.25
430.958	86.25
431.18	91.25
431.402	95.25
431.624	76.25
431.846	82.25
432.068	87.25
432.29	84.25
432.512	87.25
432.734	96.25
432.956	83.25
433.178	98.25
433.4	96.25
433.622	100.25
433.844	88.25
434.066	103.25
434.287	89.25
434.509	81.25
434.731	89.25
434.953	89.25
435.175	84.25
435.397	97.25
435.618	105.25
435.84	87.25
436.062	112.25
436.284	126.25
436.505	93.25
436.727	98.25
436.949	75.25
437.17	81.25
437.392	88.25
437.614	99.25
437.835	98.25
438.057	105.25
438.278	98.25
438.5	110.25
438.721	97.25
438.943	96.25
439.165	85.25
439.386	96.25
439.608	84.25
439.829	107.25
440.05	109.25
440.272	127.25
440.493	116.25
440.715	90.25
440.936	94.25
441.158	89.25
441.379	94.25
441.6	100.25
441.822	90.25
442.043	92.25
442.264	102.25
442.486	107.25
442.707	74.25
442.928	98.25
443.149	117.25
443.371	134.25
443.592	104.25
443.813	89.25
444.034	102.25
444.255	79.25
444.476	90.25
444.698	74.25
444.919	90.25
445.14	114.25
445.361	103.25
445.582	107.25
445.803	109.25
446.024	111.25
446.245	129.25
446.466	93.25
446.687	100.25
446.908	86.25
447.129	94.25
447.35	71.25
447.571	90.25
447.792	91.25
448.013	93.25
448.234	95.25
448.455	101.25
448.675	98.25
448.896	118.25
449.117	97.25
449.338	80.25
449.559	108.25
449.779	117.25
450	86.25
450.221	88.25
450.442	97.25
450.662	96.25
450.883	102.25
451.104	102.25
451.324	86.25
451.545	86.25
451.766	78.25
451.986	80.25
452.207	88.25
452.428	96.25
452.648	76.25
452.869	96.25
453.089	106.25
453.31	136.25
453.53	110.25
453.751	89.25
453.971	105.25
454.192	102.25
454.412	80.25
454.633	68.25
454.853	79.25
455.073	96.25
455.294	104.25
455.514	105.25
455.734	94.25
455.955	82.25
456.175	83.25
456.395	83.25
456.616	77.25
456.836	74.25
457.056	73.25
457.276	90.25
457.497	86.25
457.717	86.25
457.937	86.25
458.157	78.25
458.377	96.25
458.598	93.25
458.818	132.25
459.038	131.25
459.258	109.25
459.478	96.25
459.698	98.25
459.918	96.25
460.138	80.25
460.358	90.25
460.578	75.25
460.798	85.25
461.018	87.25
461.238	83.25
461.458	80.25
461.678	91.25
461.898	88.25
462.118	83.25
462.338	87.25
462.558	85.25
462.777	87.25
462.997	88.25
463.217	79.25
463.437	89.25
463.657	75.25
463.876	94.25
464.096	80.25
464.316	86.25
464.536	85.25
464.755	90.25
464.975	91.25
465.195	139.25
465.414	143.25
465.634	90.25
465.854	75.25
466.073	95.25
466.293	80.25
466.512	81.25
466.732	86.25
466.951	84.25
467.171	85.25
467.391	98.25
467.61	105.25
467.829	88.25
468.049	80.25
468.268	80.25
468.488	93.25
468.707	84.25
468.927	81.25
469.146	84.25
469.365	85.25
469.585	97.25
469.804	98.25
470.023	81.25
470.243	93.25
470.462	97.25
470.681	105.25
470.901	91.25
471.12	82.25
471.339	80.25
471.558	90.25
471.777	84.25
471.997	87.25
472.216	81.25
472.435	93.25
472.654	78.25
472.873	92.25
473.092	94.25
473.311	95.25
473.53	94.25
473.749	93.25
473.968	97.25
474.187	105.25
474.406	89.25
474.625	88.25
474.844	88.25
475.063	85.25
475.282	97.25
475.501	84.25
475.72	82.25
475.939	81.25
476.158	72.25
476.377	85.25
476.596	84.25
476.814	94.25
477.033	96.25
477.252	97.25
477.471	85.25
477.69	85.25
477.908	81.25
478.127	80.25
478.346	80.25
478.564	81.25
478.783	99.25
479.002	94.25
479.22	97.25
479.439	98.25
479.658	83.25
479.876	87.25
480.095	89.25
480.313	93.25
480.532	90.25
480.751	99.25
480.969	89.25
481.188	106.25
481.406	112.25
481.624	83.25
481.843	74.25
482.061	81.25
482.28	70.25
482.498	78.25
482.717	93.25
482.935	80.25
483.153	94.25
483.372	83.25
483.59	82.25
483.808	92.25
484.027	81.25
484.245	88.25
484.463	104.25
484.681	93.25
484.9	89.25
485.118	90.25
485.336	92.25
485.554	97.25
485.772	93.25
485.99	85.25
486.209	96.25
486.427	100.25
486.645	102.25
486.863	81.25
487.081	92.25
487.299	86.25
487.517	66.25
487.735	81.25
487.953	91.25
488.171	96.25
488.389	97.25
488.607	100.25
488.825	77.25
489.043	90.25
489.261	84.25
489.479	90.25
489.696	81.25
489.914	77.25
490.132	78.25
490.35	96.25
490.568	77.25
490.786	94.25
491.003	85.25
491.221	91.25
491.439	85.25
491.657	83.25
491.874	78.25
492.092	95.25
492.31	81.25
492.527	88.25
492.745	86.25
492.963	94.25
493.18	74.25
493.398	85.25
493.615	93.25
493.833	86.25
494.05	83.25
494.268	98.25
494.485	103.25
494.703	93.25
494.92	77.25
495.138	87.25
495.355	93.25
495.573	77.25
495.79	85.25
496.008	88.25
496.225	80.25
496.442	84.25
496.66	87.25
496.877	81.25
497.094	96.25
497.312	90.25
497.529	87.25
497.746	84.25
497.963	84.25
498.181	82.25
498.398	96.25
498.615	112.25
498.832	109.25
499.049	94.25
499.267	81.25
499.484	91.25
499.701	104.25
499.918	92.25
500.135	97.25
500.352	83.25
500.569	86.25
500.786	101.25
501.003	88.25
501.22	84.25
501.437	78.25
501.654	81.25
501.871	94.25
502.088	91.25
502.305	78.25
502.522	90.25
502.739	89.25
502.956	81.25
503.172	88.25
503.389	96.25
503.606	105.25
503.823	101.25
504.04	81.25
504.256	86.25
504.473	80.25
504.69	74.25
504.907	86.25
505.123	89.25
505.34	87.25
505.557	96.25
505.773	86.25
505.99	77.25
506.207	79.25
506.423	88.25
506.64	92.25
506.856	91.25
507.073	86.25
507.289	98.25
507.506	96.25
507.722	118.25
507.939	94.25
508.155	104.25
508.372	72.25
508.588	87.25
508.805	83.25
509.021	95.25
509.238	87.25
509.454	100.25
509.67	102.25
509.887	91.25
510.103	123.25
510.319	188.25
510.536	679.25
510.752	2081.25
510.968	592.25
511.184	134.25
511.401	113.25
511.617	98.25
511.833	71.25
512.049	87.25
512.265	96.25
512.481	83.25
512.698	88.25
512.914	96.25
513.13	97.25
513.346	99.25
513.562	91.25
513.778	104.25
513.994	95.25
514.21	93.25
514.426	109.25
514.642	116.25
514.858	114.25
515.074	145.25
515.29	422.25
515.506	1325.25
515.721	504.25
515.937	138.25
516.153	114.25
516.369	102.25
516.585	104.25
516.801	102.25
517.016	89.25
