Data from Uncirc_1997_H10_HRD10591_00098.txt Node
Date: Wed Jan 03 11:28:50 EST 2024
User: Yrep
Spectrometer: HR+D1059
Trigger mode: 1
Integration Time (sec): 1.000000E-1
Scans to average: 1
Electric dark correction enabled: true
Nonlinearity correction enabled: false
Boxcar width: 0
XAxis mode: Wavelengths
Number of Pixels in Spectrum: 2048
>>>>>Begin Spectral Data<<<<<
223.165	-16.19
223.4	-16.19
223.635	-16.19
223.869	-10.19
224.104	-11.19
224.338	-14.19
224.573	-17.19
224.808	-3.19
225.042	-13.19
225.277	-1.19
225.511	-5.19
225.746	5.81
225.98	13.81
226.215	12.81
226.449	6.81
226.683	15.81
226.918	21.81
227.152	14.81
227.387	43.81
227.621	36.81
227.856	34.81
228.09	54.81
228.324	43.81
228.559	60.81
228.793	53.81
229.027	54.81
229.262	62.81
229.496	73.81
229.73	69.81
229.964	71.81
230.199	72.81
230.433	70.81
230.667	72.81
230.901	79.81
231.136	81.81
231.37	77.81
231.604	91.81
231.838	80.81
232.072	80.81
232.306	74.81
232.541	66.81
232.775	71.81
233.009	81.81
233.243	77.81
233.477	72.81
233.711	72.81
233.945	66.81
234.179	67.81
234.413	66.81
234.647	87.81
234.881	81.81
235.115	80.81
235.349	83.81
235.583	80.81
235.817	79.81
236.051	72.81
236.285	59.81
236.519	82.81
236.753	81.81
236.987	65.81
237.221	82.81
237.455	85.81
237.689	77.81
237.922	67.81
238.156	66.81
238.39	69.81
238.624	69.81
238.858	81.81
239.091	77.81
239.325	76.81
239.559	81.81
239.793	86.81
240.027	85.81
240.26	82.81
240.494	71.81
240.728	75.81
240.961	84.81
241.195	80.81
241.429	84.81
241.662	72.81
241.896	83.81
242.13	66.81
242.363	60.81
242.597	74.81
242.83	82.81
243.064	74.81
243.298	69.81
243.531	52.81
243.765	63.81
243.998	86.81
244.232	90.81
244.465	69.81
244.699	74.81
244.932	80.81
245.166	89.81
245.399	68.81
245.633	88.81
245.866	67.81
246.099	85.81
246.333	76.81
246.566	78.81
246.8	82.81
247.033	71.81
247.266	86.81
247.5	74.81
247.733	74.81
247.966	78.81
248.2	84.81
248.433	77.81
248.666	72.81
248.899	86.81
249.133	83.81
249.366	85.81
249.599	94.81
249.832	75.81
250.066	89.81
250.299	77.81
250.532	65.81
250.765	85.81
250.998	75.81
251.231	69.81
251.465	72.81
251.698	95.81
251.931	83.81
252.164	82.81
252.397	81.81
252.63	82.81
252.863	84.81
253.096	78.81
253.329	87.81
253.562	81.81
253.795	89.81
254.028	89.81
254.261	66.81
254.494	93.81
254.727	81.81
254.96	81.81
255.193	91.81
255.426	77.81
255.659	77.81
255.892	83.81
256.124	83.81
256.357	82.81
256.59	80.81
256.823	77.81
257.056	80.81
257.289	72.81
257.521	75.81
257.754	67.81
257.987	91.81
258.22	88.81
258.452	69.81
258.685	77.81
258.918	84.81
259.151	71.81
259.383	79.81
259.616	79.81
259.849	77.81
260.081	91.81
260.314	81.81
260.547	80.81
260.779	88.81
261.012	93.81
261.244	79.81
261.477	87.81
261.71	86.81
261.942	113.81
262.175	105.81
262.407	95.81
262.64	85.81
262.872	83.81
263.105	79.81
263.337	85.81
263.57	88.81
263.802	77.81
264.035	82.81
264.267	79.81
264.499	87.81
264.732	64.81
264.964	73.81
265.197	83.81
265.429	79.81
265.661	91.81
265.894	79.81
266.126	84.81
266.358	83.81
266.591	78.81
266.823	82.81
267.055	81.81
267.287	74.81
267.52	75.81
267.752	73.81
267.984	82.81
268.216	70.81
268.448	85.81
268.681	78.81
268.913	80.81
269.145	74.81
269.377	80.81
269.609	96.81
269.841	77.81
270.073	89.81
270.306	81.81
270.538	78.81
270.77	90.81
271.002	85.81
271.234	78.81
271.466	77.81
271.698	83.81
271.93	88.81
272.162	81.81
272.394	82.81
272.626	95.81
272.858	81.81
273.09	81.81
273.322	83.81
273.553	77.81
273.785	65.81
274.017	77.81
274.249	101.81
274.481	77.81
274.713	85.81
274.945	91.81
275.176	90.81
275.408	89.81
275.64	91.81
275.872	90.81
276.104	88.81
276.335	91.81
276.567	98.81
276.799	100.81
277.031	76.81
277.262	75.81
277.494	88.81
277.726	97.81
277.957	88.81
278.189	89.81
278.421	69.81
278.652	75.81
278.884	78.81
279.115	87.81
279.347	88.81
279.579	89.81
279.81	80.81
280.042	98.81
280.273	80.81
280.505	89.81
280.736	81.81
280.968	75.81
281.199	69.81
281.431	85.81
281.662	79.81
281.894	93.81
282.125	105.81
282.356	107.81
282.588	127.81
282.819	113.81
283.051	89.81
283.282	93.81
283.513	100.81
283.745	86.81
283.976	90.81
284.207	82.81
284.439	85.81
284.67	84.81
284.901	87.81
285.132	95.81
285.364	93.81
285.595	86.81
285.826	79.81
286.057	79.81
286.288	82.81
286.52	85.81
286.751	88.81
286.982	93.81
287.213	85.81
287.444	87.81
287.675	91.81
287.906	91.81
288.138	86.81
288.369	86.81
288.6	79.81
288.831	88.81
289.062	89.81
289.293	94.81
289.524	87.81
289.755	90.81
289.986	89.81
290.217	77.81
290.448	94.81
290.679	77.81
290.91	82.81
291.141	88.81
291.371	92.81
291.602	81.81
291.833	89.81
292.064	85.81
292.295	102.81
292.526	88.81
292.757	89.81
292.987	78.81
293.218	88.81
293.449	67.81
293.68	78.81
293.91	94.81
294.141	81.81
294.372	85.81
294.603	97.81
294.833	108.81
295.064	75.81
295.295	87.81
295.525	93.81
295.756	94.81
295.987	83.81
296.217	106.81
296.448	111.81
296.679	85.81
296.909	88.81
297.14	83.81
297.37	83.81
297.601	72.81
297.831	82.81
298.062	91.81
298.292	85.81
298.523	95.81
298.753	69.81
298.984	81.81
299.214	86.81
299.445	82.81
299.675	77.81
299.905	86.81
300.136	84.81
300.366	102.81
300.597	92.81
300.827	99.81
301.057	101.81
301.288	96.81
301.518	82.81
301.748	92.81
301.979	107.81
302.209	87.81
302.439	94.81
302.669	70.81
302.9	90.81
303.13	88.81
303.36	72.81
303.59	111.81
303.82	102.81
304.051	94.81
304.281	81.81
304.511	91.81
304.741	91.81
304.971	88.81
305.201	90.81
305.431	82.81
305.661	106.81
305.891	99.81
306.121	96.81
306.352	98.81
306.582	112.81
306.812	92.81
307.042	85.81
307.272	78.81
307.502	84.81
307.731	85.81
307.961	90.81
308.191	79.81
308.421	76.81
308.651	88.81
308.881	79.81
309.111	83.81
309.341	98.81
309.571	87.81
309.8	87.81
310.03	95.81
310.26	109.81
310.49	89.81
310.72	91.81
310.949	102.81
311.179	98.81
311.409	105.81
311.639	85.81
311.868	80.81
312.098	87.81
312.328	98.81
312.557	98.81
312.787	114.81
313.017	89.81
313.246	97.81
313.476	86.81
313.706	107.81
313.935	89.81
314.165	111.81
314.394	97.81
314.624	94.81
314.853	98.81
315.083	97.81
315.312	83.81
315.542	86.81
315.771	88.81
316.001	80.81
316.23	84.81
316.46	94.81
316.689	90.81
316.919	87.81
317.148	89.81
317.377	85.81
317.607	93.81
317.836	102.81
318.065	84.81
318.295	89.81
318.524	94.81
318.753	97.81
318.983	91.81
319.212	86.81
319.441	95.81
319.67	117.81
319.9	99.81
320.129	108.81
320.358	98.81
320.587	93.81
320.816	85.81
321.046	87.81
321.275	82.81
321.504	94.81
321.733	93.81
321.962	90.81
322.191	103.81
322.42	104.81
322.649	93.81
322.878	112.81
323.108	126.81
323.337	121.81
323.566	121.81
323.795	133.81
324.024	190.81
324.253	346.81
324.482	759.81
324.71	1534.81
324.939	1978.81
325.168	730.81
325.397	232.81
325.626	134.81
325.855	127.81
326.084	134.81
326.313	120.81
326.542	134.81
326.77	214.81
326.999	437.81
327.228	845.81
327.457	1526.81
327.686	1206.81
327.914	339.81
328.143	175.81
328.372	120.81
328.6	117.81
328.829	102.81
329.058	106.81
329.287	102.81
329.515	106.81
329.744	94.81
329.972	90.81
330.201	112.81
330.43	105.81
330.658	114.81
330.887	123.81
331.115	106.81
331.344	100.81
331.572	105.81
331.801	87.81
332.03	100.81
332.258	97.81
332.486	103.81
332.715	104.81
332.943	82.81
333.172	95.81
333.4	92.81
333.629	99.81
333.857	113.81
334.085	102.81
334.314	105.81
334.542	77.81
334.771	91.81
334.999	91.81
335.227	83.81
335.455	81.81
335.684	96.81
335.912	91.81
336.14	105.81
336.369	102.81
336.597	102.81
336.825	86.81
337.053	97.81
337.281	92.81
337.51	84.81
337.738	78.81
337.966	91.81
338.194	86.81
338.422	102.81
338.65	90.81
338.878	95.81
339.106	75.81
339.334	93.81
339.562	95.81
339.79	88.81
340.018	96.81
340.246	91.81
340.474	82.81
340.702	95.81
340.93	84.81
341.158	89.81
341.386	88.81
341.614	100.81
341.842	96.81
342.07	95.81
342.298	86.81
342.526	70.81
342.754	77.81
342.981	90.81
343.209	84.81
343.437	95.81
343.665	88.81
343.893	82.81
344.12	90.81
344.348	93.81
344.576	90.81
344.804	92.81
345.031	98.81
345.259	91.81
345.487	80.81
345.714	89.81
345.942	82.81
346.17	88.81
346.397	90.81
346.625	106.81
346.853	91.81
347.08	79.81
347.308	90.81
347.535	90.81
347.763	96.81
347.99	86.81
348.218	90.81
348.445	92.81
348.673	95.81
348.9	95.81
349.128	94.81
349.355	81.81
349.583	82.81
349.81	94.81
350.037	87.81
350.265	91.81
350.492	91.81
350.72	107.81
350.947	107.81
351.174	107.81
351.402	107.81
351.629	110.81
351.856	102.81
352.083	94.81
352.311	105.81
352.538	115.81
352.765	100.81
352.992	114.81
353.22	106.81
353.447	84.81
353.674	92.81
353.901	90.81
354.128	101.81
354.355	89.81
354.583	91.81
354.81	98.81
355.037	86.81
355.264	90.81
355.491	92.81
355.718	99.81
355.945	78.81
356.172	86.81
356.399	95.81
356.626	91.81
356.853	86.81
357.08	81.81
357.307	104.81
357.534	103.81
357.761	89.81
357.988	99.81
358.215	98.81
358.441	90.81
358.668	97.81
358.895	79.81
359.122	84.81
359.349	96.81
359.576	92.81
359.802	86.81
360.029	112.81
360.256	107.81
360.483	104.81
360.709	82.81
360.936	93.81
361.163	73.81
361.39	102.81
361.616	104.81
361.843	91.81
362.07	93.81
362.296	92.81
362.523	90.81
362.749	94.81
362.976	78.81
363.203	102.81
363.429	92.81
363.656	90.81
363.882	91.81
364.109	94.81
364.335	95.81
364.562	82.81
364.788	86.81
365.015	90.81
365.241	91.81
365.468	98.81
365.694	91.81
365.92	92.81
366.147	95.81
366.373	89.81
366.599	81.81
366.826	87.81
367.052	86.81
367.278	101.81
367.505	90.81
367.731	91.81
367.957	101.81
368.184	99.81
368.41	107.81
368.636	106.81
368.862	118.81
369.089	108.81
369.315	88.81
369.541	103.81
369.767	93.81
369.993	97.81
370.219	86.81
370.445	92.81
370.672	93.81
370.898	77.81
371.124	87.81
371.35	91.81
371.576	89.81
371.802	86.81
372.028	95.81
372.254	75.81
372.48	93.81
372.706	91.81
372.932	90.81
373.158	91.81
373.384	88.81
373.61	81.81
373.835	89.81
374.061	104.81
374.287	95.81
374.513	81.81
374.739	97.81
374.965	83.81
375.191	94.81
375.416	88.81
375.642	89.81
375.868	80.81
376.094	89.81
376.319	82.81
376.545	82.81
376.771	85.81
376.997	89.81
377.222	78.81
377.448	87.81
377.674	87.81
377.899	99.81
378.125	77.81
378.35	95.81
378.576	80.81
378.802	86.81
379.027	75.81
379.253	99.81
379.478	89.81
379.704	82.81
379.929	94.81
380.155	97.81
380.38	90.81
380.606	106.81
380.831	96.81
381.057	89.81
381.282	95.81
381.507	103.81
381.733	96.81
381.958	73.81
382.184	98.81
382.409	96.81
382.634	98.81
382.86	100.81
383.085	89.81
383.31	105.81
383.535	87.81
383.761	94.81
383.986	103.81
384.211	96.81
384.436	79.81
384.662	92.81
384.887	97.81
385.112	97.81
385.337	88.81
385.562	96.81
385.787	103.81
386.013	85.81
386.238	97.81
386.463	89.81
386.688	114.81
386.913	103.81
387.138	98.81
387.363	103.81
387.588	99.81
387.813	90.81
388.038	89.81
388.263	107.81
388.488	108.81
388.713	99.81
388.938	99.81
389.163	101.81
389.387	99.81
389.612	90.81
389.837	101.81
390.062	91.81
390.287	92.81
390.512	103.81
390.736	95.81
390.961	94.81
391.186	88.81
391.411	93.81
391.636	87.81
391.86	76.81
392.085	94.81
392.31	87.81
392.534	87.81
392.759	86.81
392.984	76.81
393.208	90.81
393.433	89.81
393.658	82.81
393.882	98.81
394.107	82.81
394.331	90.81
394.556	77.81
394.78	83.81
395.005	75.81
395.229	87.81
395.454	78.81
395.678	97.81
395.903	90.81
396.127	88.81
396.352	90.81
396.576	82.81
396.801	81.81
397.025	94.81
397.249	82.81
397.474	85.81
397.698	97.81
397.922	79.81
398.147	88.81
398.371	80.81
398.595	81.81
398.82	91.81
399.044	82.81
399.268	91.81
399.492	100.81
399.717	91.81
399.941	89.81
400.165	99.81
400.389	87.81
400.613	99.81
400.837	98.81
401.062	82.81
401.286	91.81
401.51	89.81
401.734	98.81
401.958	90.81
402.182	118.81
402.406	151.81
402.63	111.81
402.854	89.81
403.078	98.81
403.302	83.81
403.526	92.81
403.75	93.81
403.974	86.81
404.198	95.81
404.422	89.81
404.645	83.81
404.869	92.81
405.093	79.81
405.317	89.81
405.541	91.81
405.765	101.81
405.988	106.81
406.212	162.81
406.436	215.81
406.66	133.81
406.883	100.81
407.107	111.81
407.331	105.81
407.555	110.81
407.778	99.81
408.002	82.81
408.226	95.81
408.449	95.81
408.673	97.81
408.896	86.81
409.12	92.81
409.344	85.81
409.567	91.81
409.791	107.81
410.014	75.81
410.238	95.81
410.461	72.81
410.685	97.81
410.908	99.81
411.132	103.81
411.355	87.81
411.578	93.81
411.802	80.81
412.025	87.81
412.249	90.81
412.472	94.81
412.695	91.81
412.919	94.81
413.142	82.81
413.365	73.81
413.589	84.81
413.812	73.81
414.035	96.81
414.258	92.81
414.482	90.81
414.705	96.81
414.928	90.81
415.151	87.81
415.374	98.81
415.597	82.81
415.821	72.81
416.044	89.81
416.267	85.81
416.49	69.81
416.713	88.81
416.936	101.81
417.159	77.81
417.382	95.81
417.605	90.81
417.828	90.81
418.051	96.81
418.274	97.81
418.497	82.81
418.72	89.81
418.943	91.81
419.166	96.81
419.389	81.81
419.611	96.81
419.834	83.81
420.057	83.81
420.28	77.81
420.503	85.81
420.726	89.81
420.948	92.81
421.171	106.81
421.394	93.81
421.617	86.81
421.839	83.81
422.062	95.81
422.285	87.81
422.507	98.81
422.73	96.81
422.953	96.81
423.175	85.81
423.398	95.81
423.621	89.81
423.843	87.81
424.066	84.81
424.288	79.81
424.511	78.81
424.733	89.81
424.956	104.81
425.178	90.81
425.401	106.81
425.623	92.81
425.846	104.81
426.068	98.81
426.291	89.81
426.513	83.81
426.735	81.81
426.958	97.81
427.18	110.81
427.402	139.81
427.625	154.81
427.847	122.81
428.069	104.81
428.292	82.81
428.514	84.81
428.736	93.81
428.958	104.81
429.181	97.81
429.403	86.81
429.625	85.81
429.847	89.81
430.069	98.81
430.292	88.81
430.514	90.81
430.736	89.81
430.958	85.81
431.18	86.81
431.402	102.81
431.624	82.81
431.846	79.81
432.068	81.81
432.29	91.81
432.512	93.81
432.734	91.81
432.956	84.81
433.178	98.81
433.4	106.81
433.622	71.81
433.844	94.81
434.066	94.81
434.287	80.81
434.509	86.81
434.731	85.81
434.953	88.81
435.175	73.81
435.397	78.81
435.618	81.81
435.84	94.81
436.062	116.81
436.284	107.81
436.505	93.81
436.727	94.81
436.949	93.81
437.17	86.81
437.392	85.81
437.614	70.81
437.835	102.81
438.057	120.81
438.278	102.81
438.5	98.81
438.721	98.81
438.943	96.81
439.165	86.81
439.386	92.81
439.608	87.81
439.829	96.81
440.05	102.81
440.272	135.81
440.493	93.81
440.715	93.81
440.936	71.81
441.158	82.81
441.379	77.81
441.6	93.81
441.822	91.81
442.043	88.81
442.264	105.81
442.486	101.81
442.707	92.81
442.928	93.81
443.149	119.81
443.371	131.81
443.592	96.81
443.813	96.81
444.034	99.81
444.255	83.81
444.476	90.81
444.698	84.81
444.919	88.81
445.14	128.81
445.361	130.81
445.582	107.81
445.803	127.81
446.024	126.81
446.245	134.81
446.466	101.81
446.687	86.81
446.908	91.81
447.129	80.81
447.35	81.81
447.571	94.81
447.792	107.81
448.013	96.81
448.234	104.81
448.455	89.81
448.675	101.81
448.896	106.81
449.117	107.81
449.338	95.81
449.559	119.81
449.779	123.81
450	97.81
450.221	94.81
450.442	109.81
450.662	87.81
450.883	105.81
451.104	98.81
451.324	78.81
451.545	87.81
451.766	91.81
451.986	86.81
452.207	95.81
452.428	93.81
452.648	100.81
452.869	93.81
453.089	106.81
453.31	118.81
453.53	86.81
453.751	84.81
453.971	101.81
454.192	110.81
454.412	90.81
454.633	84.81
454.853	85.81
455.073	70.81
455.294	83.81
455.514	83.81
455.734	105.81
455.955	90.81
456.175	86.81
456.395	80.81
456.616	73.81
456.836	94.81
457.056	79.81
457.276	95.81
457.497	100.81
457.717	92.81
457.937	81.81
458.157	67.81
458.377	83.81
458.598	111.81
458.818	146.81
459.038	159.81
459.258	106.81
459.478	85.81
459.698	97.81
459.918	83.81
460.138	87.81
460.358	77.81
460.578	81.81
460.798	95.81
461.018	94.81
461.238	89.81
461.458	85.81
461.678	67.81
461.898	95.81
462.118	81.81
462.338	89.81
462.558	96.81
462.777	99.81
462.997	84.81
463.217	74.81
463.437	87.81
463.657	102.81
463.876	83.81
464.096	94.81
464.316	80.81
464.536	74.81
464.755	94.81
464.975	86.81
465.195	153.81
465.414	146.81
465.634	89.81
465.854	92.81
466.073	92.81
466.293	65.81
466.512	84.81
466.732	88.81
466.951	84.81
467.171	85.81
467.391	90.81
467.61	102.81
467.829	100.81
468.049	101.81
468.268	88.81
468.488	64.81
468.707	82.81
468.927	81.81
469.146	83.81
469.365	89.81
469.585	83.81
469.804	89.81
470.023	84.81
470.243	99.81
470.462	96.81
470.681	94.81
470.901	88.81
471.12	87.81
471.339	81.81
471.558	77.81
471.777	79.81
471.997	85.81
472.216	93.81
472.435	91.81
472.654	92.81
472.873	101.81
473.092	87.81
473.311	89.81
473.53	97.81
473.749	93.81
473.968	80.81
474.187	97.81
474.406	105.81
474.625	92.81
474.844	91.81
475.063	78.81
475.282	97.81
475.501	91.81
475.72	89.81
475.939	94.81
476.158	76.81
476.377	81.81
476.596	85.81
476.814	84.81
477.033	88.81
477.252	92.81
477.471	95.81
477.69	102.81
477.908	88.81
478.127	89.81
478.346	81.81
478.564	94.81
478.783	93.81
479.002	78.81
479.22	84.81
479.439	75.81
479.658	101.81
479.876	93.81
480.095	90.81
480.313	77.81
480.532	83.81
480.751	95.81
480.969	91.81
481.188	107.81
481.406	110.81
481.624	79.81
481.843	58.81
482.061	77.81
482.28	87.81
482.498	105.81
482.717	67.81
482.935	82.81
483.153	87.81
483.372	92.81
483.59	85.81
483.808	77.81
484.027	94.81
484.245	82.81
484.463	90.81
484.681	86.81
484.9	83.81
485.118	95.81
485.336	81.81
485.554	93.81
485.772	101.81
485.99	98.81
486.209	110.81
486.427	124.81
486.645	103.81
486.863	106.81
487.081	98.81
487.299	97.81
487.517	89.81
487.735	82.81
487.953	86.81
488.171	96.81
488.389	83.81
488.607	84.81
488.825	98.81
489.043	82.81
489.261	86.81
489.479	90.81
489.696	83.81
489.914	96.81
490.132	95.81
490.35	88.81
490.568	101.81
490.786	74.81
491.003	95.81
491.221	84.81
491.439	99.81
491.657	78.81
491.874	93.81
492.092	88.81
492.31	85.81
492.527	85.81
492.745	97.81
492.963	96.81
493.18	87.81
493.398	89.81
493.615	98.81
493.833	112.81
494.05	82.81
494.268	94.81
494.485	80.81
494.703	91.81
494.92	86.81
495.138	74.81
495.355	77.81
495.573	86.81
495.79	85.81
496.008	95.81
496.225	85.81
496.442	92.81
496.66	79.81
496.877	80.81
497.094	98.81
497.312	91.81
497.529	88.81
497.746	83.81
497.963	94.81
498.181	109.81
498.398	109.81
498.615	95.81
498.832	92.81
499.049	96.81
499.267	85.81
499.484	91.81
499.701	93.81
499.918	82.81
500.135	83.81
500.352	93.81
500.569	91.81
500.786	94.81
501.003	102.81
501.22	78.81
501.437	69.81
501.654	92.81
501.871	97.81
502.088	86.81
502.305	80.81
502.522	98.81
502.739	94.81
502.956	87.81
503.172	73.81
503.389	90.81
503.606	95.81
503.823	105.81
504.04	97.81
504.256	87.81
504.473	75.81
504.69	78.81
504.907	81.81
505.123	93.81
505.34	84.81
505.557	81.81
505.773	88.81
505.99	80.81
506.207	89.81
506.423	84.81
506.64	90.81
506.856	81.81
507.073	90.81
507.289	93.81
507.506	91.81
507.722	112.81
507.939	103.81
508.155	103.81
508.372	89.81
508.588	87.81
508.805	95.81
509.021	99.81
509.238	83.81
509.454	101.81
509.67	96.81
509.887	104.81
510.103	134.81
510.319	203.81
510.536	725.81
510.752	2123.81
510.968	611.81
511.184	156.81
511.401	109.81
511.617	103.81
511.833	97.81
512.049	97.81
512.265	88.81
512.481	91.81
512.698	109.81
512.914	89.81
513.13	96.81
513.346	109.81
513.562	90.81
513.778	98.81
513.994	100.81
514.21	104.81
514.426	120.81
514.642	129.81
514.858	105.81
515.074	146.81
515.29	423.81
515.506	1365.81
515.721	491.81
515.937	159.81
516.153	101.81
516.369	90.81
516.585	82.81
