Data from Uncirc_1997_H10_HRD10591_00100.txt Node
Date: Wed Jan 03 11:28:50 EST 2024
User: Yrep
Spectrometer: HR+D1059
Trigger mode: 1
Integration Time (sec): 1.000000E-1
Scans to average: 1
Electric dark correction enabled: true
Nonlinearity correction enabled: false
Boxcar width: 0
XAxis mode: Wavelengths
Number of Pixels in Spectrum: 2048
>>>>>Begin Spectral Data<<<<<
223.165	-16.5
223.4	-16.5
223.635	-16.5
223.869	-34.5
224.104	-19.5
224.338	-6.5
224.573	-2.5
224.808	-8.5
225.042	-13.5
225.277	-15.5
225.511	-7.5
225.746	-2.5
225.98	13.5
226.215	17.5
226.449	15.5
226.683	22.5
226.918	31.5
227.152	26.5
227.387	33.5
227.621	53.5
227.856	40.5
228.09	44.5
228.324	60.5
228.559	65.5
228.793	67.5
229.027	77.5
229.262	52.5
229.496	78.5
229.73	90.5
229.964	83.5
230.199	76.5
230.433	76.5
230.667	89.5
230.901	88.5
231.136	84.5
231.37	86.5
231.604	82.5
231.838	89.5
232.072	77.5
232.306	88.5
232.541	88.5
232.775	82.5
233.009	98.5
233.243	69.5
233.477	82.5
233.711	75.5
233.945	78.5
234.179	81.5
234.413	80.5
234.647	64.5
234.881	74.5
235.115	86.5
235.349	78.5
235.583	86.5
235.817	85.5
236.051	78.5
236.285	76.5
236.519	80.5
236.753	75.5
236.987	78.5
237.221	80.5
237.455	90.5
237.689	82.5
237.922	75.5
238.156	85.5
238.39	74.5
238.624	76.5
238.858	75.5
239.091	72.5
239.325	64.5
239.559	98.5
239.793	84.5
240.027	80.5
240.26	79.5
240.494	73.5
240.728	72.5
240.961	54.5
241.195	79.5
241.429	92.5
241.662	62.5
241.896	79.5
242.13	85.5
242.363	78.5
242.597	80.5
242.83	86.5
243.064	88.5
243.298	81.5
243.531	93.5
243.765	68.5
243.998	76.5
244.232	78.5
244.465	89.5
244.699	85.5
244.932	72.5
245.166	92.5
245.399	84.5
245.633	92.5
245.866	75.5
246.099	64.5
246.333	93.5
246.566	93.5
246.8	66.5
247.033	81.5
247.266	83.5
247.5	82.5
247.733	85.5
247.966	78.5
248.2	85.5
248.433	88.5
248.666	76.5
248.899	88.5
249.133	91.5
249.366	97.5
249.599	80.5
249.832	87.5
250.066	92.5
250.299	61.5
250.532	76.5
250.765	70.5
250.998	95.5
251.231	85.5
251.465	76.5
251.698	79.5
251.931	71.5
252.164	90.5
252.397	74.5
252.63	83.5
252.863	84.5
253.096	86.5
253.329	67.5
253.562	83.5
253.795	85.5
254.028	89.5
254.261	68.5
254.494	61.5
254.727	89.5
254.96	85.5
255.193	78.5
255.426	89.5
255.659	84.5
255.892	79.5
256.124	80.5
256.357	70.5
256.59	69.5
256.823	82.5
257.056	85.5
257.289	90.5
257.521	83.5
257.754	82.5
257.987	88.5
258.22	88.5
258.452	86.5
258.685	105.5
258.918	94.5
259.151	76.5
259.383	70.5
259.616	83.5
259.849	80.5
260.081	77.5
260.314	92.5
260.547	93.5
260.779	75.5
261.012	87.5
261.244	98.5
261.477	90.5
261.71	97.5
261.942	98.5
262.175	105.5
262.407	92.5
262.64	80.5
262.872	87.5
263.105	88.5
263.337	100.5
263.57	88.5
263.802	96.5
264.035	84.5
264.267	74.5
264.499	89.5
264.732	99.5
264.964	91.5
265.197	80.5
265.429	92.5
265.661	81.5
265.894	96.5
266.126	96.5
266.358	83.5
266.591	84.5
266.823	81.5
267.055	89.5
267.287	97.5
267.52	85.5
267.752	76.5
267.984	98.5
268.216	79.5
268.448	85.5
268.681	91.5
268.913	101.5
269.145	81.5
269.377	88.5
269.609	90.5
269.841	82.5
270.073	88.5
270.306	90.5
270.538	64.5
270.77	81.5
271.002	81.5
271.234	94.5
271.466	85.5
271.698	85.5
271.93	82.5
272.162	93.5
272.394	84.5
272.626	82.5
272.858	88.5
273.09	86.5
273.322	94.5
273.553	80.5
273.785	90.5
274.017	80.5
274.249	83.5
274.481	97.5
274.713	86.5
274.945	93.5
275.176	82.5
275.408	92.5
275.64	89.5
275.872	84.5
276.104	88.5
276.335	83.5
276.567	108.5
276.799	97.5
277.031	75.5
277.262	82.5
277.494	85.5
277.726	93.5
277.957	81.5
278.189	89.5
278.421	78.5
278.652	91.5
278.884	81.5
279.115	86.5
279.347	91.5
279.579	89.5
279.81	90.5
280.042	88.5
280.273	86.5
280.505	80.5
280.736	88.5
280.968	83.5
281.199	81.5
281.431	88.5
281.662	94.5
281.894	85.5
282.125	97.5
282.356	112.5
282.588	139.5
282.819	110.5
283.051	98.5
283.282	101.5
283.513	89.5
283.745	100.5
283.976	96.5
284.207	80.5
284.439	89.5
284.67	90.5
284.901	90.5
285.132	89.5
285.364	77.5
285.595	97.5
285.826	92.5
286.057	77.5
286.288	77.5
286.52	82.5
286.751	87.5
286.982	96.5
287.213	94.5
287.444	104.5
287.675	89.5
287.906	83.5
288.138	96.5
288.369	101.5
288.6	86.5
288.831	87.5
289.062	78.5
289.293	91.5
289.524	74.5
289.755	85.5
289.986	99.5
290.217	97.5
290.448	72.5
290.679	69.5
290.91	95.5
291.141	94.5
291.371	104.5
291.602	88.5
291.833	92.5
292.064	94.5
292.295	100.5
292.526	101.5
292.757	93.5
292.987	97.5
293.218	85.5
293.449	81.5
293.68	100.5
293.91	83.5
294.141	90.5
294.372	91.5
294.603	80.5
294.833	75.5
295.064	94.5
295.295	86.5
295.525	95.5
295.756	109.5
295.987	113.5
296.217	138.5
296.448	124.5
296.679	90.5
296.909	80.5
297.14	98.5
297.37	107.5
297.601	100.5
297.831	97.5
298.062	94.5
298.292	100.5
298.523	90.5
298.753	81.5
298.984	98.5
299.214	84.5
299.445	94.5
299.675	95.5
299.905	92.5
300.136	100.5
300.366	91.5
300.597	99.5
300.827	97.5
301.057	95.5
301.288	105.5
301.518	90.5
301.748	85.5
301.979	84.5
302.209	88.5
302.439	103.5
302.669	96.5
302.9	92.5
303.13	95.5
303.36	93.5
303.59	113.5
303.82	105.5
304.051	111.5
304.281	102.5
304.511	99.5
304.741	91.5
304.971	101.5
305.201	89.5
305.431	94.5
305.661	75.5
305.891	100.5
306.121	107.5
306.352	106.5
306.582	108.5
306.812	91.5
307.042	94.5
307.272	90.5
307.502	97.5
307.731	101.5
307.961	95.5
308.191	97.5
308.421	102.5
308.651	96.5
308.881	100.5
309.111	97.5
309.341	106.5
309.571	85.5
309.8	96.5
310.03	103.5
310.26	89.5
310.49	114.5
310.72	108.5
310.949	110.5
311.179	97.5
311.409	101.5
311.639	108.5
311.868	88.5
312.098	104.5
312.328	94.5
312.557	100.5
312.787	105.5
313.017	109.5
313.246	99.5
313.476	96.5
313.706	105.5
313.935	82.5
314.165	105.5
314.394	107.5
314.624	96.5
314.853	102.5
315.083	107.5
315.312	101.5
315.542	99.5
315.771	92.5
316.001	102.5
316.23	93.5
316.46	84.5
316.689	88.5
316.919	88.5
317.148	97.5
317.377	79.5
317.607	98.5
317.836	90.5
318.065	91.5
318.295	93.5
318.524	94.5
318.753	93.5
318.983	91.5
319.212	109.5
319.441	102.5
319.67	112.5
319.9	99.5
320.129	107.5
320.358	102.5
320.587	102.5
320.816	95.5
321.046	100.5
321.275	100.5
321.504	94.5
321.733	104.5
321.962	110.5
322.191	97.5
322.42	100.5
322.649	101.5
322.878	115.5
323.108	121.5
323.337	114.5
323.566	139.5
323.795	151.5
324.024	189.5
324.253	370.5
324.482	754.5
324.71	1575.5
324.939	2052.5
325.168	720.5
325.397	219.5
325.626	156.5
325.855	121.5
326.084	130.5
326.313	130.5
326.542	144.5
326.77	227.5
326.999	420.5
327.228	893.5
327.457	1597.5
327.686	1252.5
327.914	334.5
328.143	193.5
328.372	142.5
328.6	130.5
328.829	120.5
329.058	129.5
329.287	128.5
329.515	114.5
329.744	106.5
329.972	103.5
330.201	97.5
330.43	130.5
330.658	116.5
330.887	115.5
331.115	116.5
331.344	94.5
331.572	110.5
331.801	105.5
332.03	115.5
332.258	96.5
332.486	96.5
332.715	88.5
332.943	97.5
333.172	102.5
333.4	102.5
333.629	92.5
333.857	115.5
334.085	110.5
334.314	100.5
334.542	102.5
334.771	81.5
334.999	100.5
335.227	97.5
335.455	93.5
335.684	93.5
335.912	103.5
336.14	126.5
336.369	92.5
336.597	95.5
336.825	88.5
337.053	110.5
337.281	92.5
337.51	90.5
337.738	105.5
337.966	113.5
338.194	107.5
338.422	110.5
338.65	97.5
338.878	85.5
339.106	89.5
339.334	93.5
339.562	94.5
339.79	98.5
340.018	94.5
340.246	92.5
340.474	90.5
340.702	106.5
340.93	89.5
341.158	96.5
341.386	100.5
341.614	98.5
341.842	100.5
342.07	93.5
342.298	93.5
342.526	91.5
342.754	91.5
342.981	88.5
343.209	84.5
343.437	94.5
343.665	100.5
343.893	101.5
344.12	98.5
344.348	85.5
344.576	92.5
344.804	90.5
345.031	93.5
345.259	103.5
345.487	95.5
345.714	99.5
345.942	89.5
346.17	101.5
346.397	102.5
346.625	105.5
346.853	96.5
347.08	99.5
347.308	88.5
347.535	106.5
347.763	96.5
347.99	96.5
348.218	113.5
348.445	101.5
348.673	105.5
348.9	102.5
349.128	99.5
349.355	89.5
349.583	104.5
349.81	96.5
350.037	96.5
350.265	91.5
350.492	92.5
350.72	104.5
350.947	102.5
351.174	101.5
351.402	112.5
351.629	102.5
351.856	96.5
352.083	93.5
352.311	104.5
352.538	107.5
352.765	101.5
352.992	104.5
353.22	102.5
353.447	104.5
353.674	108.5
353.901	93.5
354.128	99.5
354.355	99.5
354.583	100.5
354.81	102.5
355.037	96.5
355.264	100.5
355.491	85.5
355.718	94.5
355.945	82.5
356.172	112.5
356.399	110.5
356.626	89.5
356.853	105.5
357.08	92.5
357.307	90.5
357.534	97.5
357.761	103.5
357.988	93.5
358.215	110.5
358.441	101.5
358.668	93.5
358.895	103.5
359.122	97.5
359.349	90.5
359.576	86.5
359.802	105.5
360.029	108.5
360.256	105.5
360.483	96.5
360.709	83.5
360.936	99.5
361.163	93.5
361.39	90.5
361.616	92.5
361.843	93.5
362.07	91.5
362.296	89.5
362.523	90.5
362.749	74.5
362.976	97.5
363.203	78.5
363.429	84.5
363.656	106.5
363.882	87.5
364.109	89.5
364.335	98.5
364.562	98.5
364.788	87.5
365.015	92.5
365.241	105.5
365.468	111.5
365.694	107.5
365.92	100.5
366.147	99.5
366.373	94.5
366.599	92.5
366.826	93.5
367.052	98.5
367.278	77.5
367.505	101.5
367.731	101.5
367.957	95.5
368.184	94.5
368.41	86.5
368.636	108.5
368.862	121.5
369.089	102.5
369.315	97.5
369.541	85.5
369.767	94.5
369.993	99.5
370.219	99.5
370.445	90.5
370.672	80.5
370.898	98.5
371.124	101.5
371.35	86.5
371.576	106.5
371.802	96.5
372.028	100.5
372.254	96.5
372.48	87.5
372.706	97.5
372.932	85.5
373.158	89.5
373.384	96.5
373.61	88.5
373.835	88.5
374.061	97.5
374.287	97.5
374.513	100.5
374.739	91.5
374.965	80.5
375.191	96.5
375.416	82.5
375.642	96.5
375.868	100.5
376.094	83.5
376.319	93.5
376.545	76.5
376.771	82.5
376.997	86.5
377.222	89.5
377.448	80.5
377.674	104.5
377.899	84.5
378.125	98.5
378.35	108.5
378.576	96.5
378.802	107.5
379.027	91.5
379.253	89.5
379.478	101.5
379.704	96.5
379.929	89.5
380.155	87.5
380.38	90.5
380.606	102.5
380.831	95.5
381.057	93.5
381.282	90.5
381.507	93.5
381.733	96.5
381.958	95.5
382.184	98.5
382.409	107.5
382.634	113.5
382.86	105.5
383.085	101.5
383.31	97.5
383.535	86.5
383.761	94.5
383.986	100.5
384.211	101.5
384.436	104.5
384.662	85.5
384.887	103.5
385.112	107.5
385.337	95.5
385.562	92.5
385.787	113.5
386.013	98.5
386.238	107.5
386.463	88.5
386.688	102.5
386.913	90.5
387.138	96.5
387.363	100.5
387.588	101.5
387.813	93.5
388.038	93.5
388.263	113.5
388.488	118.5
388.713	95.5
388.938	104.5
389.163	96.5
389.387	97.5
389.612	90.5
389.837	91.5
390.062	97.5
390.287	99.5
390.512	109.5
390.736	101.5
390.961	96.5
391.186	90.5
391.411	101.5
391.636	89.5
391.86	89.5
392.085	83.5
392.31	81.5
392.534	90.5
392.759	92.5
392.984	90.5
393.208	89.5
393.433	84.5
393.658	90.5
393.882	85.5
394.107	76.5
394.331	86.5
394.556	96.5
394.78	93.5
395.005	91.5
395.229	93.5
395.454	91.5
395.678	84.5
395.903	76.5
396.127	97.5
396.352	84.5
396.576	85.5
396.801	91.5
397.025	94.5
397.249	73.5
397.474	100.5
397.698	108.5
397.922	87.5
398.147	86.5
398.371	80.5
398.595	94.5
398.82	92.5
399.044	94.5
399.268	90.5
399.492	90.5
399.717	86.5
399.941	81.5
400.165	98.5
400.389	93.5
400.613	79.5
400.837	88.5
401.062	97.5
401.286	86.5
401.51	86.5
401.734	89.5
401.958	102.5
402.182	127.5
402.406	150.5
402.63	115.5
402.854	98.5
403.078	93.5
403.302	95.5
403.526	83.5
403.75	99.5
403.974	91.5
404.198	98.5
404.422	84.5
404.645	82.5
404.869	92.5
405.093	101.5
405.317	98.5
405.541	80.5
405.765	94.5
405.988	106.5
406.212	160.5
406.436	208.5
406.66	141.5
406.883	105.5
407.107	106.5
407.331	97.5
407.555	104.5
407.778	104.5
408.002	85.5
408.226	96.5
408.449	98.5
408.673	88.5
408.896	99.5
409.12	90.5
409.344	91.5
409.567	94.5
409.791	102.5
410.014	79.5
410.238	108.5
410.461	98.5
410.685	92.5
410.908	75.5
411.132	104.5
411.355	108.5
411.578	85.5
411.802	92.5
412.025	90.5
412.249	97.5
412.472	88.5
412.695	97.5
412.919	84.5
413.142	104.5
413.365	86.5
413.589	84.5
413.812	96.5
414.035	98.5
414.258	89.5
414.482	95.5
414.705	78.5
414.928	82.5
415.151	100.5
415.374	91.5
415.597	91.5
415.821	88.5
416.044	96.5
416.267	90.5
416.49	73.5
416.713	102.5
416.936	95.5
417.159	97.5
417.382	103.5
417.605	84.5
417.828	105.5
418.051	100.5
418.274	98.5
418.497	107.5
418.72	85.5
418.943	92.5
419.166	84.5
419.389	83.5
419.611	78.5
419.834	92.5
420.057	110.5
420.28	93.5
420.503	99.5
420.726	85.5
420.948	83.5
421.171	90.5
421.394	90.5
421.617	90.5
421.839	86.5
422.062	78.5
422.285	100.5
422.507	100.5
422.73	95.5
422.953	94.5
423.175	93.5
423.398	94.5
423.621	90.5
423.843	79.5
424.066	90.5
424.288	99.5
424.511	87.5
424.733	94.5
424.956	101.5
425.178	106.5
425.401	119.5
425.623	97.5
425.846	102.5
426.068	99.5
426.291	85.5
426.513	94.5
426.735	79.5
426.958	79.5
427.18	97.5
427.402	139.5
427.625	138.5
427.847	124.5
428.069	100.5
428.292	80.5
428.514	84.5
428.736	102.5
428.958	85.5
429.181	94.5
429.403	94.5
429.625	90.5
429.847	89.5
430.069	99.5
430.292	97.5
430.514	105.5
430.736	84.5
430.958	93.5
431.18	88.5
431.402	84.5
431.624	79.5
431.846	79.5
432.068	91.5
432.29	85.5
432.512	101.5
432.734	98.5
432.956	88.5
433.178	92.5
433.4	101.5
433.622	89.5
433.844	101.5
434.066	101.5
434.287	90.5
434.509	91.5
434.731	82.5
434.953	102.5
435.175	92.5
435.397	95.5
435.618	84.5
435.84	97.5
436.062	125.5
436.284	118.5
436.505	100.5
436.727	105.5
436.949	88.5
437.17	80.5
437.392	87.5
437.614	83.5
437.835	100.5
438.057	116.5
438.278	98.5
438.5	101.5
438.721	127.5
438.943	100.5
439.165	89.5
439.386	92.5
439.608	98.5
439.829	103.5
440.05	116.5
440.272	137.5
440.493	94.5
440.715	74.5
440.936	85.5
441.158	100.5
441.379	94.5
441.6	105.5
441.822	88.5
442.043	99.5
442.264	99.5
442.486	100.5
442.707	91.5
442.928	104.5
443.149	123.5
443.371	125.5
443.592	113.5
443.813	101.5
444.034	100.5
444.255	100.5
444.476	86.5
444.698	83.5
444.919	92.5
445.14	113.5
445.361	120.5
445.582	107.5
445.803	141.5
446.024	121.5
446.245	128.5
446.466	117.5
446.687	92.5
446.908	101.5
447.129	86.5
447.35	96.5
447.571	92.5
447.792	108.5
448.013	101.5
448.234	111.5
448.455	83.5
448.675	104.5
448.896	117.5
449.117	98.5
449.338	97.5
449.559	129.5
449.779	125.5
450	99.5
450.221	75.5
450.442	87.5
450.662	88.5
450.883	108.5
451.104	103.5
451.324	95.5
451.545	85.5
451.766	83.5
451.986	97.5
452.207	100.5
452.428	90.5
452.648	101.5
452.869	113.5
453.089	91.5
453.31	109.5
453.53	86.5
453.751	94.5
453.971	98.5
454.192	104.5
454.412	86.5
454.633	100.5
454.853	89.5
455.073	78.5
455.294	76.5
455.514	87.5
455.734	85.5
455.955	91.5
456.175	89.5
456.395	87.5
456.616	85.5
456.836	76.5
457.056	73.5
457.276	90.5
457.497	88.5
457.717	92.5
457.937	87.5
458.157	78.5
458.377	96.5
458.598	93.5
458.818	136.5
459.038	144.5
459.258	107.5
459.478	101.5
459.698	96.5
459.918	93.5
460.138	80.5
460.358	84.5
460.578	94.5
460.798	98.5
461.018	97.5
461.238	86.5
461.458	79.5
461.678	92.5
461.898	96.5
462.118	97.5
462.338	97.5
462.558	99.5
462.777	103.5
462.997	82.5
463.217	85.5
463.437	80.5
463.657	92.5
463.876	107.5
464.096	95.5
464.316	93.5
464.536	90.5
464.755	100.5
464.975	87.5
465.195	164.5
465.414	148.5
465.634	88.5
465.854	86.5
466.073	90.5
466.293	85.5
466.512	76.5
466.732	68.5
466.951	87.5
467.171	95.5
467.391	91.5
467.61	93.5
467.829	94.5
468.049	98.5
468.268	99.5
468.488	86.5
468.707	81.5
468.927	91.5
469.146	92.5
469.365	89.5
469.585	91.5
469.804	97.5
470.023	94.5
470.243	98.5
470.462	106.5
470.681	102.5
470.901	88.5
471.12	89.5
471.339	81.5
471.558	76.5
471.777	98.5
471.997	97.5
472.216	96.5
472.435	107.5
472.654	91.5
472.873	87.5
473.092	92.5
473.311	88.5
473.53	88.5
473.749	80.5
473.968	97.5
474.187	110.5
474.406	116.5
474.625	101.5
474.844	96.5
475.063	97.5
475.282	84.5
475.501	64.5
475.72	86.5
475.939	94.5
476.158	86.5
476.377	94.5
476.596	104.5
476.814	83.5
477.033	107.5
477.252	94.5
477.471	84.5
477.69	102.5
477.908	105.5
478.127	104.5
478.346	101.5
478.564	95.5
478.783	108.5
479.002	101.5
479.22	95.5
479.439	99.5
479.658	91.5
479.876	91.5
480.095	94.5
480.313	92.5
480.532	89.5
480.751	85.5
480.969	93.5
481.188	107.5
481.406	88.5
481.624	93.5
481.843	88.5
482.061	96.5
482.28	83.5
482.498	87.5
482.717	84.5
482.935	94.5
483.153	92.5
483.372	93.5
483.59	97.5
483.808	85.5
484.027	96.5
484.245	93.5
484.463	92.5
484.681	91.5
484.9	106.5
485.118	92.5
485.336	104.5
485.554	94.5
485.772	102.5
485.99	92.5
486.209	94.5
486.427	105.5
486.645	116.5
486.863	92.5
487.081	96.5
487.299	94.5
487.517	80.5
487.735	85.5
487.953	100.5
488.171	89.5
488.389	102.5
488.607	95.5
488.825	84.5
489.043	88.5
489.261	94.5
489.479	98.5
489.696	92.5
489.914	89.5
490.132	77.5
490.35	88.5
490.568	82.5
490.786	81.5
491.003	99.5
491.221	86.5
491.439	94.5
491.657	91.5
491.874	78.5
492.092	93.5
492.31	90.5
492.527	84.5
492.745	92.5
492.963	95.5
493.18	97.5
493.398	99.5
493.615	87.5
493.833	95.5
494.05	93.5
494.268	100.5
494.485	78.5
494.703	74.5
494.92	82.5
495.138	94.5
495.355	88.5
495.573	85.5
495.79	93.5
496.008	103.5
496.225	92.5
496.442	91.5
496.66	94.5
496.877	88.5
497.094	104.5
497.312	98.5
497.529	96.5
497.746	97.5
497.963	85.5
498.181	97.5
498.398	93.5
498.615	108.5
498.832	107.5
499.049	110.5
499.267	96.5
499.484	101.5
499.701	91.5
499.918	94.5
500.135	103.5
500.352	97.5
500.569	95.5
500.786	91.5
501.003	86.5
501.22	98.5
501.437	107.5
501.654	105.5
501.871	107.5
502.088	97.5
502.305	97.5
502.522	90.5
502.739	94.5
502.956	96.5
503.172	86.5
503.389	111.5
503.606	106.5
503.823	94.5
504.04	94.5
504.256	81.5
504.473	89.5
504.69	97.5
504.907	86.5
505.123	94.5
505.34	92.5
505.557	91.5
505.773	113.5
505.99	77.5
506.207	92.5
506.423	83.5
506.64	96.5
506.856	105.5
507.073	88.5
507.289	99.5
507.506	93.5
507.722	107.5
507.939	97.5
508.155	107.5
508.372	100.5
508.588	102.5
508.805	99.5
509.021	90.5
509.238	95.5
509.454	93.5
509.67	102.5
509.887	94.5
510.103	120.5
510.319	196.5
510.536	676.5
510.752	2126.5
510.968	600.5
511.184	136.5
511.401	107.5
511.617	104.5
511.833	108.5
512.049	96.5
512.265	85.5
512.481	85.5
512.698	91.5
512.914	92.5
513.13	103.5
513.346	96.5
513.562	95.5
513.778	105.5
513.994	101.5
514.21	105.5
514.426	125.5
514.642	151.5
514.858	129.5
515.074	161.5
515.29	433.5
515.506	1316.5
515.721	467.5
515.937	140.5
516.153	96.5
516.369	100.5
516.585	93.5
516.801	93.5
517.016	97.5
517.232	99.5
517.448	85.5
517.664	84.5
517.879	91.5
518.095	77.5
518.311	99.5
518.527	101.5
518.742	93.5
518.958	102.5
519.173	98.5
519.389	95.5
519.605	102.5
519.82	85.5
520.036	115.5
520.251	129.5
520.467	120.5
520.682	114.5
520.898	94.5
521.113	117.5
521.329	124.5
521.544	184.5
521.76	490.5
521.975	2168.5
522.19	1323.5
522.406	291.5
522.621	113.5
522.836	102.5
523.052	82.5
523.267	97.5
523.482	100.5
523.698	105.5
523.913	121.5
524.128	111.5
524.343	97.5
524.559	94.5
524.774	82.5
524.989	105.5
525.204	97.5
525.419	109.5
525.634	101.5
525.849	104.5
526.064	100.5
526.28	98.5
526.495	98.5
526.71	91.5
526.925	102.5
527.14	99.5
527.355	102.5
527.57	92.5
527.785	88.5
527.999	96.5
528.214	90.5
528.429	105.5
528.644	107.5
528.859	92.5
529.074	92.5
529.289	130.5
529.503	168.5
529.718	112.5
529.933	102.5
530.148	92.5
530.363	110.5
530.577	99.5
530.792	84.5
531.007	100.5
531.221	87.5
531.436	80.5
531.651	81.5
531.865	86.5
532.08	109.5
532.295	90.5
532.509	106.5
532.724	96.5
532.938	100.5
533.153	92.5
533.367	93.5
533.582	88.5
533.796	93.5
534.011	88.5
534.225	92.5
