Data from Uncirc_1997_H10_HRD10591_00083.txt Node
Date: Wed Jan 03 11:28:47 EST 2024
User: Yrep
Spectrometer: HR+D1059
Trigger mode: 1
Integration Time (sec): 1.000000E-1
Scans to average: 1
Electric dark correction enabled: true
Nonlinearity correction enabled: false
Boxcar width: 0
XAxis mode: Wavelengths
Number of Pixels in Spectrum: 2048
>>>>>Begin Spectral Data<<<<<
223.165	-28.94
223.4	-28.94
223.635	-28.94
223.869	-21.94
224.104	-26.94
224.338	-24.94
224.573	-6.94
224.808	-17.94
225.042	-8.94
225.277	-8.94
225.511	0.06
225.746	0.06
225.98	-1.94
226.215	21.06
226.449	33.06
226.683	37.06
226.918	29.06
227.152	27.06
227.387	36.06
227.621	54.06
227.856	47.06
228.09	46.06
228.324	51.06
228.559	64.06
228.793	61.06
229.027	63.06
229.262	69.06
229.496	76.06
229.73	86.06
229.964	88.06
230.199	85.06
230.433	97.06
230.667	90.06
230.901	87.06
231.136	84.06
231.37	88.06
231.604	87.06
231.838	87.06
232.072	83.06
232.306	82.06
232.541	80.06
232.775	91.06
233.009	84.06
233.243	99.06
233.477	96.06
233.711	96.06
233.945	89.06
234.179	88.06
234.413	82.06
234.647	86.06
234.881	82.06
235.115	77.06
235.349	75.06
235.583	94.06
235.817	90.06
236.051	92.06
236.285	86.06
236.519	90.06
236.753	87.06
236.987	81.06
237.221	86.06
237.455	81.06
237.689	70.06
237.922	82.06
238.156	74.06
238.39	90.06
238.624	75.06
238.858	74.06
239.091	81.06
239.325	76.06
239.559	97.06
239.793	86.06
240.027	79.06
240.26	92.06
240.494	85.06
240.728	93.06
240.961	78.06
241.195	86.06
241.429	88.06
241.662	82.06
241.896	79.06
242.13	80.06
242.363	79.06
242.597	55.06
242.83	78.06
243.064	78.06
243.298	79.06
243.531	84.06
243.765	85.06
243.998	81.06
244.232	81.06
244.465	99.06
244.699	94.06
244.932	93.06
245.166	84.06
245.399	86.06
245.633	87.06
245.866	91.06
246.099	83.06
246.333	98.06
246.566	67.06
246.8	83.06
247.033	79.06
247.266	68.06
247.5	82.06
247.733	99.06
247.966	80.06
248.2	79.06
248.433	84.06
248.666	75.06
248.899	69.06
249.133	91.06
249.366	88.06
249.599	94.06
249.832	87.06
250.066	100.06
250.299	76.06
250.532	83.06
250.765	82.06
250.998	74.06
251.231	74.06
251.465	87.06
251.698	80.06
251.931	86.06
252.164	86.06
252.397	89.06
252.63	102.06
252.863	75.06
253.096	90.06
253.329	82.06
253.562	69.06
253.795	88.06
254.028	97.06
254.261	92.06
254.494	67.06
254.727	94.06
254.96	84.06
255.193	98.06
255.426	100.06
255.659	84.06
255.892	80.06
256.124	79.06
256.357	69.06
256.59	80.06
256.823	92.06
257.056	86.06
257.289	91.06
257.521	82.06
257.754	76.06
257.987	79.06
258.22	86.06
258.452	89.06
258.685	82.06
258.918	72.06
259.151	80.06
259.383	89.06
259.616	91.06
259.849	84.06
260.081	85.06
260.314	86.06
260.547	71.06
260.779	67.06
261.012	90.06
261.244	86.06
261.477	107.06
261.71	97.06
261.942	118.06
262.175	112.06
262.407	92.06
262.64	84.06
262.872	92.06
263.105	69.06
263.337	87.06
263.57	99.06
263.802	80.06
264.035	100.06
264.267	89.06
264.499	87.06
264.732	78.06
264.964	85.06
265.197	85.06
265.429	87.06
265.661	92.06
265.894	68.06
266.126	94.06
266.358	79.06
266.591	86.06
266.823	90.06
267.055	80.06
267.287	91.06
267.52	91.06
267.752	95.06
267.984	92.06
268.216	82.06
268.448	76.06
268.681	99.06
268.913	108.06
269.145	79.06
269.377	92.06
269.609	97.06
269.841	85.06
270.073	104.06
270.306	92.06
270.538	87.06
270.77	75.06
271.002	80.06
271.234	88.06
271.466	101.06
271.698	82.06
271.93	103.06
272.162	99.06
272.394	87.06
272.626	90.06
272.858	92.06
273.09	94.06
273.322	87.06
273.553	79.06
273.785	103.06
274.017	95.06
274.249	101.06
274.481	87.06
274.713	83.06
274.945	99.06
275.176	99.06
275.408	100.06
275.64	83.06
275.872	85.06
276.104	104.06
276.335	92.06
276.567	93.06
276.799	114.06
277.031	96.06
277.262	93.06
277.494	88.06
277.726	85.06
277.957	86.06
278.189	91.06
278.421	79.06
278.652	88.06
278.884	93.06
279.115	83.06
279.347	88.06
279.579	96.06
279.81	95.06
280.042	93.06
280.273	80.06
280.505	85.06
280.736	106.06
280.968	84.06
281.199	84.06
281.431	88.06
281.662	91.06
281.894	85.06
282.125	88.06
282.356	125.06
282.588	127.06
282.819	111.06
283.051	93.06
283.282	104.06
283.513	94.06
283.745	86.06
283.976	91.06
284.207	94.06
284.439	82.06
284.67	84.06
284.901	82.06
285.132	89.06
285.364	92.06
285.595	84.06
285.826	80.06
286.057	86.06
286.288	92.06
286.52	77.06
286.751	94.06
286.982	89.06
287.213	95.06
287.444	98.06
287.675	91.06
287.906	103.06
288.138	100.06
288.369	87.06
288.6	98.06
288.831	84.06
289.062	95.06
289.293	98.06
289.524	91.06
289.755	101.06
289.986	86.06
290.217	97.06
290.448	94.06
290.679	99.06
290.91	96.06
291.141	67.06
291.371	101.06
291.602	99.06
291.833	86.06
292.064	79.06
292.295	95.06
292.526	96.06
292.757	84.06
292.987	92.06
293.218	95.06
293.449	94.06
293.68	94.06
293.91	82.06
294.141	116.06
294.372	85.06
294.603	94.06
294.833	84.06
295.064	100.06
295.295	99.06
295.525	81.06
295.756	91.06
295.987	109.06
296.217	131.06
296.448	121.06
296.679	119.06
296.909	93.06
297.14	86.06
297.37	89.06
297.601	97.06
297.831	92.06
298.062	91.06
298.292	95.06
298.523	88.06
298.753	83.06
298.984	83.06
299.214	103.06
299.445	102.06
299.675	98.06
299.905	106.06
300.136	94.06
300.366	99.06
300.597	102.06
300.827	93.06
301.057	94.06
301.288	103.06
301.518	100.06
301.748	93.06
301.979	94.06
302.209	84.06
302.439	80.06
302.669	96.06
302.9	85.06
303.13	103.06
303.36	92.06
303.59	99.06
303.82	103.06
304.051	108.06
304.281	92.06
304.511	101.06
304.741	100.06
304.971	83.06
305.201	82.06
305.431	84.06
305.661	88.06
305.891	99.06
306.121	102.06
306.352	114.06
306.582	98.06
306.812	77.06
307.042	77.06
307.272	95.06
307.502	111.06
307.731	96.06
307.961	94.06
308.191	100.06
308.421	89.06
308.651	86.06
308.881	97.06
309.111	96.06
309.341	86.06
309.571	102.06
309.8	102.06
310.03	91.06
310.26	102.06
310.49	101.06
310.72	101.06
310.949	112.06
311.179	104.06
311.409	90.06
311.639	94.06
311.868	96.06
312.098	87.06
312.328	85.06
312.557	110.06
312.787	111.06
313.017	104.06
313.246	102.06
313.476	90.06
313.706	90.06
313.935	101.06
314.165	95.06
314.394	98.06
314.624	114.06
314.853	106.06
315.083	101.06
315.312	88.06
315.542	92.06
315.771	98.06
316.001	96.06
316.23	80.06
316.46	92.06
316.689	103.06
316.919	97.06
317.148	97.06
317.377	100.06
317.607	92.06
317.836	101.06
318.065	90.06
318.295	100.06
318.524	96.06
318.753	94.06
318.983	96.06
319.212	96.06
319.441	115.06
319.67	106.06
319.9	99.06
320.129	94.06
320.358	94.06
320.587	110.06
320.816	107.06
321.046	103.06
321.275	102.06
321.504	102.06
321.733	87.06
321.962	99.06
322.191	100.06
322.42	115.06
322.649	103.06
322.878	107.06
323.108	117.06
323.337	128.06
323.566	119.06
323.795	138.06
324.024	204.06
324.253	334.06
324.482	716.06
324.71	1391.06
324.939	1878.06
325.168	710.06
325.397	217.06
325.626	146.06
325.855	129.06
326.084	121.06
326.313	126.06
326.542	148.06
326.77	217.06
326.999	418.06
327.228	794.06
327.457	1414.06
327.686	1146.06
327.914	311.06
328.143	180.06
328.372	131.06
328.6	126.06
328.829	122.06
329.058	116.06
329.287	132.06
329.515	102.06
329.744	124.06
329.972	97.06
330.201	116.06
330.43	103.06
330.658	119.06
330.887	130.06
331.115	122.06
331.344	100.06
331.572	84.06
331.801	99.06
332.03	111.06
332.258	85.06
332.486	95.06
332.715	104.06
332.943	94.06
333.172	99.06
333.4	104.06
333.629	101.06
333.857	126.06
334.085	110.06
334.314	98.06
334.542	96.06
334.771	95.06
334.999	95.06
335.227	90.06
335.455	82.06
335.684	115.06
335.912	110.06
336.14	96.06
336.369	93.06
336.597	82.06
336.825	93.06
337.053	96.06
337.281	85.06
337.51	92.06
337.738	97.06
337.966	96.06
338.194	85.06
338.422	99.06
338.65	102.06
338.878	91.06
339.106	89.06
339.334	100.06
339.562	92.06
339.79	97.06
340.018	102.06
340.246	84.06
340.474	88.06
340.702	104.06
340.93	101.06
341.158	84.06
341.386	91.06
341.614	103.06
341.842	96.06
342.07	96.06
342.298	101.06
342.526	107.06
342.754	83.06
342.981	94.06
343.209	88.06
343.437	103.06
343.665	100.06
343.893	99.06
344.12	97.06
344.348	96.06
344.576	101.06
344.804	96.06
345.031	108.06
345.259	99.06
345.487	92.06
345.714	104.06
345.942	109.06
346.17	92.06
346.397	86.06
346.625	96.06
346.853	99.06
347.08	96.06
347.308	102.06
347.535	106.06
347.763	108.06
347.99	106.06
348.218	103.06
348.445	95.06
348.673	84.06
348.9	111.06
349.128	95.06
349.355	108.06
349.583	105.06
349.81	92.06
350.037	107.06
350.265	109.06
350.492	102.06
350.72	99.06
350.947	96.06
351.174	114.06
351.402	105.06
351.629	104.06
351.856	103.06
352.083	104.06
352.311	108.06
352.538	103.06
352.765	120.06
352.992	111.06
353.22	101.06
353.447	114.06
353.674	108.06
353.901	103.06
354.128	103.06
354.355	97.06
354.583	115.06
354.81	94.06
355.037	98.06
355.264	104.06
355.491	92.06
355.718	83.06
355.945	96.06
356.172	96.06
356.399	103.06
356.626	98.06
356.853	93.06
357.08	101.06
357.307	94.06
357.534	83.06
357.761	88.06
357.988	101.06
358.215	91.06
358.441	87.06
358.668	98.06
358.895	100.06
359.122	98.06
359.349	88.06
359.576	82.06
359.802	103.06
360.029	105.06
360.256	108.06
360.483	104.06
360.709	103.06
360.936	91.06
361.163	106.06
361.39	92.06
361.616	113.06
361.843	92.06
362.07	95.06
362.296	94.06
362.523	112.06
362.749	93.06
362.976	91.06
363.203	102.06
363.429	96.06
363.656	81.06
363.882	85.06
364.109	102.06
364.335	101.06
364.562	83.06
364.788	95.06
365.015	95.06
365.241	110.06
365.468	108.06
365.694	103.06
365.92	99.06
366.147	90.06
366.373	86.06
366.599	95.06
366.826	83.06
367.052	98.06
367.278	77.06
367.505	105.06
367.731	112.06
367.957	85.06
368.184	100.06
368.41	101.06
368.636	108.06
368.862	107.06
369.089	107.06
369.315	110.06
369.541	94.06
369.767	87.06
369.993	85.06
370.219	92.06
370.445	96.06
370.672	98.06
370.898	85.06
371.124	72.06
371.35	82.06
371.576	98.06
371.802	93.06
372.028	91.06
372.254	98.06
372.48	90.06
372.706	86.06
372.932	96.06
373.158	93.06
373.384	91.06
373.61	97.06
373.835	93.06
374.061	101.06
374.287	96.06
374.513	96.06
374.739	93.06
374.965	102.06
375.191	89.06
375.416	76.06
375.642	91.06
375.868	70.06
376.094	108.06
376.319	95.06
376.545	96.06
376.771	102.06
376.997	91.06
377.222	87.06
377.448	98.06
377.674	93.06
377.899	103.06
378.125	82.06
378.35	93.06
378.576	87.06
378.802	95.06
379.027	81.06
379.253	92.06
379.478	99.06
379.704	81.06
379.929	94.06
380.155	90.06
380.38	100.06
380.606	94.06
380.831	97.06
381.057	108.06
381.282	92.06
381.507	95.06
381.733	86.06
381.958	100.06
382.184	91.06
382.409	93.06
382.634	91.06
382.86	103.06
383.085	92.06
383.31	101.06
383.535	97.06
383.761	103.06
383.986	97.06
384.211	101.06
384.436	111.06
384.662	88.06
384.887	88.06
385.112	121.06
385.337	100.06
385.562	103.06
385.787	109.06
386.013	109.06
386.238	107.06
386.463	111.06
386.688	100.06
386.913	86.06
387.138	109.06
387.363	108.06
387.588	116.06
387.813	103.06
388.038	110.06
388.263	107.06
388.488	108.06
388.713	100.06
388.938	95.06
389.163	78.06
389.387	97.06
389.612	93.06
389.837	92.06
390.062	106.06
390.287	90.06
390.512	82.06
390.736	79.06
390.961	94.06
391.186	89.06
391.411	106.06
391.636	95.06
391.86	89.06
392.085	102.06
392.31	98.06
392.534	94.06
392.759	98.06
392.984	88.06
393.208	94.06
393.433	96.06
393.658	91.06
393.882	93.06
394.107	95.06
394.331	93.06
394.556	87.06
394.78	76.06
395.005	91.06
395.229	86.06
395.454	74.06
395.678	80.06
395.903	93.06
396.127	87.06
396.352	92.06
396.576	92.06
396.801	88.06
397.025	86.06
397.249	80.06
397.474	96.06
397.698	88.06
397.922	95.06
398.147	93.06
398.371	86.06
398.595	83.06
398.82	88.06
399.044	92.06
399.268	80.06
399.492	86.06
399.717	107.06
399.941	105.06
400.165	110.06
400.389	106.06
400.613	98.06
400.837	84.06
401.062	98.06
401.286	102.06
401.51	93.06
401.734	92.06
401.958	101.06
402.182	126.06
402.406	160.06
402.63	110.06
402.854	100.06
403.078	103.06
403.302	88.06
403.526	96.06
403.75	95.06
403.974	93.06
404.198	91.06
404.422	99.06
404.645	93.06
404.869	95.06
405.093	85.06
405.317	94.06
405.541	91.06
405.765	90.06
405.988	103.06
406.212	165.06
406.436	196.06
406.66	139.06
406.883	100.06
407.107	94.06
407.331	100.06
407.555	93.06
407.778	93.06
408.002	88.06
408.226	87.06
408.449	94.06
408.673	92.06
408.896	100.06
409.12	111.06
409.344	88.06
409.567	91.06
409.791	99.06
410.014	99.06
410.238	89.06
410.461	104.06
410.685	97.06
410.908	110.06
411.132	120.06
411.355	101.06
411.578	93.06
411.802	95.06
412.025	90.06
412.249	95.06
412.472	89.06
412.695	94.06
412.919	91.06
413.142	96.06
413.365	91.06
413.589	91.06
413.812	91.06
414.035	85.06
414.258	101.06
414.482	95.06
414.705	90.06
414.928	86.06
415.151	98.06
415.374	93.06
415.597	92.06
415.821	100.06
416.044	87.06
416.267	102.06
416.49	88.06
416.713	94.06
416.936	85.06
417.159	110.06
417.382	92.06
417.605	104.06
417.828	81.06
418.051	98.06
418.274	79.06
418.497	98.06
418.72	94.06
418.943	91.06
419.166	79.06
419.389	84.06
419.611	93.06
419.834	108.06
420.057	91.06
420.28	91.06
420.503	76.06
420.726	104.06
420.948	88.06
421.171	86.06
421.394	88.06
421.617	99.06
421.839	89.06
422.062	92.06
422.285	92.06
422.507	92.06
422.73	103.06
422.953	87.06
423.175	97.06
423.398	92.06
423.621	94.06
423.843	76.06
424.066	95.06
424.288	87.06
424.511	82.06
424.733	95.06
424.956	109.06
425.178	95.06
425.401	109.06
425.623	103.06
425.846	96.06
426.068	89.06
426.291	95.06
426.513	90.06
426.735	99.06
426.958	104.06
427.18	90.06
427.402	113.06
427.625	151.06
427.847	108.06
428.069	111.06
428.292	91.06
428.514	86.06
428.736	95.06
428.958	92.06
429.181	92.06
429.403	88.06
429.625	98.06
429.847	88.06
430.069	91.06
430.292	85.06
430.514	81.06
430.736	83.06
430.958	84.06
431.18	83.06
431.402	82.06
431.624	96.06
431.846	86.06
432.068	75.06
432.29	90.06
432.512	75.06
432.734	94.06
432.956	88.06
433.178	104.06
433.4	94.06
433.622	78.06
433.844	86.06
434.066	89.06
434.287	97.06
434.509	108.06
434.731	90.06
434.953	89.06
435.175	93.06
435.397	97.06
435.618	99.06
435.84	110.06
436.062	129.06
436.284	106.06
436.505	103.06
436.727	100.06
436.949	96.06
437.17	90.06
437.392	93.06
437.614	79.06
437.835	109.06
438.057	111.06
438.278	103.06
438.5	103.06
438.721	105.06
438.943	102.06
439.165	102.06
439.386	91.06
439.608	100.06
439.829	120.06
440.05	104.06
440.272	126.06
440.493	88.06
440.715	94.06
440.936	88.06
441.158	80.06
441.379	96.06
441.6	98.06
441.822	88.06
442.043	100.06
442.264	106.06
442.486	110.06
442.707	88.06
442.928	107.06
443.149	132.06
443.371	116.06
443.592	104.06
443.813	94.06
444.034	101.06
444.255	99.06
444.476	76.06
444.698	91.06
444.919	79.06
445.14	121.06
445.361	101.06
445.582	102.06
445.803	122.06
446.024	132.06
446.245	123.06
446.466	115.06
446.687	102.06
446.908	98.06
447.129	95.06
447.35	98.06
447.571	92.06
447.792	107.06
448.013	90.06
448.234	110.06
448.455	104.06
448.675	122.06
448.896	117.06
449.117	104.06
449.338	103.06
449.559	133.06
449.779	112.06
450	99.06
450.221	99.06
450.442	103.06
450.662	75.06
450.883	118.06
451.104	103.06
451.324	101.06
451.545	95.06
451.766	91.06
451.986	79.06
452.207	90.06
452.428	105.06
452.648	105.06
452.869	104.06
453.089	107.06
453.31	122.06
453.53	94.06
453.751	105.06
453.971	108.06
454.192	110.06
454.412	104.06
454.633	96.06
454.853	79.06
455.073	100.06
455.294	84.06
455.514	102.06
455.734	87.06
455.955	84.06
456.175	85.06
456.395	75.06
456.616	96.06
456.836	87.06
457.056	90.06
457.276	87.06
457.497	101.06
457.717	87.06
457.937	106.06
458.157	95.06
458.377	103.06
458.598	123.06
458.818	139.06
459.038	144.06
459.258	123.06
459.478	105.06
459.698	99.06
459.918	96.06
460.138	84.06
460.358	79.06
460.578	96.06
460.798	84.06
461.018	87.06
461.238	96.06
461.458	101.06
461.678	84.06
461.898	104.06
462.118	87.06
462.338	101.06
462.558	98.06
462.777	73.06
462.997	81.06
463.217	88.06
463.437	102.06
463.657	93.06
463.876	96.06
464.096	84.06
464.316	90.06
464.536	94.06
464.755	94.06
464.975	95.06
465.195	151.06
465.414	143.06
465.634	97.06
465.854	96.06
466.073	94.06
466.293	98.06
466.512	86.06
466.732	87.06
466.951	97.06
467.171	104.06
467.391	109.06
467.61	96.06
467.829	98.06
468.049	92.06
468.268	75.06
468.488	85.06
468.707	98.06
468.927	98.06
469.146	91.06
469.365	91.06
469.585	96.06
469.804	88.06
470.023	91.06
470.243	92.06
470.462	110.06
470.681	106.06
470.901	70.06
471.12	82.06
471.339	97.06
471.558	98.06
471.777	96.06
471.997	98.06
472.216	81.06
472.435	105.06
472.654	96.06
472.873	99.06
473.092	82.06
473.311	104.06
473.53	83.06
473.749	77.06
473.968	90.06
474.187	98.06
474.406	90.06
474.625	93.06
474.844	94.06
475.063	82.06
475.282	87.06
475.501	104.06
475.72	91.06
475.939	97.06
476.158	92.06
476.377	87.06
476.596	102.06
476.814	92.06
477.033	92.06
477.252	97.06
477.471	97.06
477.69	97.06
477.908	104.06
478.127	99.06
478.346	87.06
478.564	100.06
478.783	93.06
479.002	78.06
479.22	97.06
479.439	92.06
479.658	104.06
479.876	102.06
480.095	111.06
480.313	93.06
480.532	99.06
480.751	92.06
480.969	107.06
481.188	107.06
481.406	101.06
481.624	98.06
481.843	86.06
482.061	99.06
482.28	92.06
482.498	97.06
482.717	91.06
482.935	83.06
483.153	75.06
483.372	91.06
483.59	82.06
483.808	98.06
484.027	89.06
484.245	93.06
484.463	83.06
484.681	103.06
484.9	93.06
485.118	103.06
485.336	99.06
485.554	93.06
485.772	100.06
485.99	99.06
486.209	114.06
486.427	108.06
486.645	107.06
486.863	95.06
487.081	107.06
487.299	94.06
487.517	104.06
487.735	94.06
487.953	99.06
488.171	92.06
488.389	89.06
488.607	108.06
488.825	95.06
489.043	95.06
489.261	87.06
489.479	90.06
489.696	78.06
489.914	104.06
490.132	81.06
490.35	106.06
490.568	85.06
490.786	87.06
491.003	92.06
491.221	90.06
491.439	94.06
491.657	108.06
491.874	96.06
492.092	107.06
492.31	94.06
492.527	93.06
492.745	103.06
492.963	84.06
493.18	109.06
493.398	80.06
493.615	104.06
493.833	99.06
494.05	98.06
494.268	88.06
494.485	96.06
494.703	83.06
494.92	90.06
495.138	92.06
495.355	96.06
495.573	101.06
495.79	92.06
496.008	94.06
496.225	95.06
496.442	92.06
496.66	101.06
496.877	91.06
497.094	89.06
497.312	92.06
497.529	95.06
497.746	100.06
497.963	101.06
498.181	99.06
498.398	93.06
498.615	101.06
498.832	107.06
499.049	81.06
499.267	95.06
499.484	98.06
499.701	96.06
499.918	73.06
500.135	85.06
500.352	86.06
500.569	96.06
500.786	94.06
501.003	100.06
501.22	87.06
501.437	94.06
501.654	95.06
501.871	110.06
502.088	96.06
502.305	100.06
502.522	100.06
502.739	79.06
502.956	76.06
503.172	90.06
503.389	108.06
503.606	103.06
503.823	112.06
504.04	84.06
504.256	99.06
504.473	100.06
504.69	99.06
504.907	108.06
505.123	99.06
505.34	82.06
505.557	91.06
505.773	98.06
505.99	94.06
506.207	83.06
506.423	95.06
506.64	88.06
506.856	87.06
507.073	96.06
507.289	88.06
507.506	91.06
507.722	113.06
507.939	114.06
508.155	103.06
508.372	100.06
508.588	98.06
508.805	93.06
509.021	100.06
509.238	102.06
509.454	86.06
509.67	104.06
509.887	113.06
510.103	139.06
510.319	204.06
510.536	657.06
510.752	2075.06
510.968	588.06
511.184	135.06
511.401	104.06
511.617	96.06
511.833	103.06
512.049	84.06
512.265	99.06
512.481	90.06
512.698	114.06
512.914	91.06
513.13	96.06
513.346	98.06
513.562	82.06
513.778	105.06
513.994	93.06
514.21	98.06
514.426	110.06
