Data from Uncirc_1997_H10_HRD10591_00073.txt Node
Date: Wed Jan 03 11:28:45 EST 2024
User: Yrep
Spectrometer: HR+D1059
Trigger mode: 1
Integration Time (sec): 1.000000E-1
Scans to average: 1
Electric dark correction enabled: true
Nonlinearity correction enabled: false
Boxcar width: 0
XAxis mode: Wavelengths
Number of Pixels in Spectrum: 2048
>>>>>Begin Spectral Data<<<<<
223.165	-13.5
223.4	-13.5
223.635	-13.5
223.869	-12.5
224.104	-33.5
224.338	-4.5
224.573	-19.5
224.808	-6.5
225.042	-4.5
225.277	-1.5
225.511	1.5
225.746	-4.5
225.98	-5.5
226.215	16.5
226.449	10.5
226.683	19.5
226.918	24.5
227.152	33.5
227.387	30.5
227.621	37.5
227.856	45.5
228.09	36.5
228.324	55.5
228.559	46.5
228.793	40.5
229.027	55.5
229.262	73.5
229.496	62.5
229.73	75.5
229.964	66.5
230.199	53.5
230.433	73.5
230.667	83.5
230.901	73.5
231.136	82.5
231.37	70.5
231.604	70.5
231.838	82.5
232.072	83.5
232.306	78.5
232.541	89.5
232.775	83.5
233.009	92.5
233.243	75.5
233.477	80.5
233.711	86.5
233.945	71.5
234.179	90.5
234.413	79.5
234.647	70.5
234.881	60.5
235.115	69.5
235.349	69.5
235.583	75.5
235.817	94.5
236.051	70.5
236.285	75.5
236.519	63.5
236.753	64.5
236.987	77.5
237.221	72.5
237.455	90.5
237.689	66.5
237.922	77.5
238.156	69.5
238.39	61.5
238.624	61.5
238.858	70.5
239.091	80.5
239.325	76.5
239.559	87.5
239.793	81.5
240.027	80.5
240.26	77.5
240.494	79.5
240.728	70.5
240.961	78.5
241.195	69.5
241.429	71.5
241.662	72.5
241.896	78.5
242.13	80.5
242.363	74.5
242.597	75.5
242.83	74.5
243.064	66.5
243.298	74.5
243.531	81.5
243.765	83.5
243.998	64.5
244.232	90.5
244.465	83.5
244.699	55.5
244.932	82.5
245.166	82.5
245.399	88.5
245.633	80.5
245.866	80.5
246.099	75.5
246.333	71.5
246.566	66.5
246.8	71.5
247.033	73.5
247.266	87.5
247.5	81.5
247.733	78.5
247.966	86.5
248.2	82.5
248.433	85.5
248.666	73.5
248.899	58.5
249.133	82.5
249.366	92.5
249.599	78.5
249.832	89.5
250.066	93.5
250.299	65.5
250.532	74.5
250.765	70.5
250.998	79.5
251.231	88.5
251.465	81.5
251.698	90.5
251.931	88.5
252.164	88.5
252.397	74.5
252.63	80.5
252.863	91.5
253.096	72.5
253.329	91.5
253.562	69.5
253.795	74.5
254.028	83.5
254.261	75.5
254.494	81.5
254.727	77.5
254.96	78.5
255.193	92.5
255.426	79.5
255.659	62.5
255.892	81.5
256.124	81.5
256.357	76.5
256.59	76.5
256.823	76.5
257.056	70.5
257.289	71.5
257.521	77.5
257.754	92.5
257.987	83.5
258.22	83.5
258.452	80.5
258.685	76.5
258.918	70.5
259.151	79.5
259.383	80.5
259.616	83.5
259.849	77.5
260.081	87.5
260.314	75.5
260.547	73.5
260.779	87.5
261.012	62.5
261.244	77.5
261.477	82.5
261.71	90.5
261.942	106.5
262.175	103.5
262.407	84.5
262.64	90.5
262.872	85.5
263.105	74.5
263.337	71.5
263.57	83.5
263.802	77.5
264.035	81.5
264.267	74.5
264.499	82.5
264.732	81.5
264.964	74.5
265.197	89.5
265.429	98.5
265.661	68.5
265.894	89.5
266.126	78.5
266.358	93.5
266.591	74.5
266.823	79.5
267.055	79.5
267.287	85.5
267.52	77.5
267.752	63.5
267.984	81.5
268.216	80.5
268.448	85.5
268.681	83.5
268.913	80.5
269.145	75.5
269.377	76.5
269.609	74.5
269.841	67.5
270.073	76.5
270.306	87.5
270.538	88.5
270.77	86.5
271.002	85.5
271.234	86.5
271.466	94.5
271.698	83.5
271.93	93.5
272.162	76.5
272.394	82.5
272.626	96.5
272.858	80.5
273.09	80.5
273.322	76.5
273.553	76.5
273.785	74.5
274.017	67.5
274.249	87.5
274.481	86.5
274.713	81.5
274.945	78.5
275.176	96.5
275.408	95.5
275.64	91.5
275.872	85.5
276.104	88.5
276.335	108.5
276.567	97.5
276.799	99.5
277.031	84.5
277.262	92.5
277.494	81.5
277.726	82.5
277.957	98.5
278.189	84.5
278.421	85.5
278.652	91.5
278.884	88.5
279.115	93.5
279.347	83.5
279.579	89.5
279.81	80.5
280.042	94.5
280.273	87.5
280.505	91.5
280.736	71.5
280.968	83.5
281.199	85.5
281.431	83.5
281.662	83.5
281.894	86.5
282.125	90.5
282.356	114.5
282.588	132.5
282.819	110.5
283.051	91.5
283.282	93.5
283.513	81.5
283.745	85.5
283.976	83.5
284.207	75.5
284.439	79.5
284.67	90.5
284.901	85.5
285.132	106.5
285.364	90.5
285.595	89.5
285.826	73.5
286.057	80.5
286.288	69.5
286.52	90.5
286.751	83.5
286.982	97.5
287.213	81.5
287.444	89.5
287.675	82.5
287.906	96.5
288.138	93.5
288.369	101.5
288.6	94.5
288.831	83.5
289.062	96.5
289.293	100.5
289.524	93.5
289.755	77.5
289.986	76.5
290.217	85.5
290.448	82.5
290.679	94.5
290.91	88.5
291.141	84.5
291.371	85.5
291.602	92.5
291.833	82.5
292.064	91.5
292.295	74.5
292.526	90.5
292.757	81.5
292.987	85.5
293.218	93.5
293.449	88.5
293.68	81.5
293.91	88.5
294.141	74.5
294.372	98.5
294.603	93.5
294.833	84.5
295.064	73.5
295.295	91.5
295.525	90.5
295.756	82.5
295.987	106.5
296.217	122.5
296.448	103.5
296.679	105.5
296.909	91.5
297.14	90.5
297.37	85.5
297.601	73.5
297.831	87.5
298.062	96.5
298.292	87.5
298.523	78.5
298.753	98.5
298.984	99.5
299.214	83.5
299.445	99.5
299.675	90.5
299.905	83.5
300.136	78.5
300.366	82.5
300.597	80.5
300.827	97.5
301.057	92.5
301.288	99.5
301.518	102.5
301.748	90.5
301.979	92.5
302.209	91.5
302.439	86.5
302.669	96.5
302.9	87.5
303.13	76.5
303.36	85.5
303.59	86.5
303.82	99.5
304.051	91.5
304.281	82.5
304.511	93.5
304.741	93.5
304.971	75.5
305.201	81.5
305.431	90.5
305.661	79.5
305.891	88.5
306.121	94.5
306.352	97.5
306.582	94.5
306.812	94.5
307.042	103.5
307.272	97.5
307.502	85.5
307.731	85.5
307.961	93.5
308.191	87.5
308.421	95.5
308.651	91.5
308.881	87.5
309.111	93.5
309.341	92.5
309.571	92.5
309.8	97.5
310.03	82.5
310.26	103.5
310.49	90.5
310.72	96.5
310.949	94.5
311.179	99.5
311.409	98.5
311.639	81.5
311.868	100.5
312.098	90.5
312.328	98.5
312.557	100.5
312.787	105.5
313.017	101.5
313.246	85.5
313.476	82.5
313.706	90.5
313.935	90.5
314.165	85.5
314.394	102.5
314.624	94.5
314.853	89.5
315.083	79.5
315.312	94.5
315.542	90.5
315.771	88.5
316.001	82.5
316.23	96.5
316.46	79.5
316.689	91.5
316.919	88.5
317.148	99.5
317.377	99.5
317.607	97.5
317.836	84.5
318.065	92.5
318.295	92.5
318.524	95.5
318.753	92.5
318.983	87.5
319.212	94.5
319.441	101.5
319.67	104.5
319.9	97.5
320.129	93.5
320.358	101.5
320.587	93.5
320.816	99.5
321.046	99.5
321.275	99.5
321.504	86.5
321.733	108.5
321.962	105.5
322.191	107.5
322.42	110.5
322.649	89.5
322.878	115.5
323.108	109.5
323.337	117.5
323.566	127.5
323.795	146.5
324.024	176.5
324.253	353.5
324.482	728.5
324.71	1421.5
324.939	1898.5
325.168	703.5
325.397	215.5
325.626	135.5
325.855	111.5
326.084	124.5
326.313	123.5
326.542	147.5
326.77	211.5
326.999	410.5
327.228	825.5
327.457	1483.5
327.686	1162.5
327.914	319.5
328.143	171.5
328.372	137.5
328.6	117.5
328.829	121.5
329.058	135.5
329.287	109.5
329.515	110.5
329.744	101.5
329.972	91.5
330.201	99.5
330.43	114.5
330.658	111.5
330.887	129.5
331.115	107.5
331.344	108.5
331.572	101.5
331.801	89.5
332.03	89.5
332.258	105.5
332.486	94.5
332.715	89.5
332.943	92.5
333.172	112.5
333.4	81.5
333.629	122.5
333.857	95.5
334.085	99.5
334.314	104.5
334.542	97.5
334.771	92.5
334.999	96.5
335.227	92.5
335.455	88.5
335.684	106.5
335.912	92.5
336.14	103.5
336.369	107.5
336.597	86.5
336.825	83.5
337.053	101.5
337.281	79.5
337.51	72.5
337.738	97.5
337.966	99.5
338.194	92.5
338.422	94.5
338.65	108.5
338.878	107.5
339.106	98.5
339.334	92.5
339.562	80.5
339.79	105.5
340.018	94.5
340.246	99.5
340.474	94.5
340.702	86.5
340.93	96.5
341.158	97.5
341.386	94.5
341.614	71.5
341.842	93.5
342.07	90.5
342.298	89.5
342.526	94.5
342.754	91.5
342.981	88.5
343.209	89.5
343.437	88.5
343.665	82.5
343.893	103.5
344.12	93.5
344.348	87.5
344.576	81.5
344.804	104.5
345.031	91.5
345.259	96.5
345.487	86.5
345.714	86.5
345.942	97.5
346.17	82.5
346.397	104.5
346.625	94.5
346.853	95.5
347.08	99.5
347.308	94.5
347.535	86.5
347.763	97.5
347.99	99.5
348.218	84.5
348.445	94.5
348.673	86.5
348.9	98.5
349.128	75.5
349.355	89.5
349.583	106.5
349.81	83.5
350.037	99.5
350.265	78.5
350.492	93.5
350.72	94.5
350.947	103.5
351.174	109.5
351.402	106.5
351.629	108.5
351.856	96.5
352.083	112.5
352.311	83.5
352.538	107.5
352.765	97.5
352.992	101.5
353.22	115.5
353.447	98.5
353.674	95.5
353.901	97.5
354.128	96.5
354.355	90.5
354.583	96.5
354.81	99.5
355.037	86.5
355.264	103.5
355.491	102.5
355.718	95.5
355.945	95.5
356.172	99.5
356.399	101.5
356.626	95.5
356.853	92.5
357.08	105.5
357.307	100.5
357.534	97.5
357.761	88.5
357.988	103.5
358.215	77.5
358.441	77.5
358.668	90.5
358.895	86.5
359.122	82.5
359.349	76.5
359.576	97.5
359.802	89.5
360.029	95.5
360.256	95.5
360.483	93.5
360.709	95.5
360.936	90.5
361.163	86.5
361.39	94.5
361.616	82.5
361.843	97.5
362.07	99.5
362.296	89.5
362.523	72.5
362.749	91.5
362.976	80.5
363.203	87.5
363.429	95.5
363.656	91.5
363.882	82.5
364.109	74.5
364.335	81.5
364.562	89.5
364.788	76.5
365.015	83.5
365.241	95.5
365.468	114.5
365.694	114.5
365.92	85.5
366.147	94.5
366.373	86.5
366.599	89.5
366.826	107.5
367.052	93.5
367.278	86.5
367.505	88.5
367.731	85.5
367.957	87.5
368.184	83.5
368.41	102.5
368.636	108.5
368.862	102.5
369.089	114.5
369.315	83.5
369.541	88.5
369.767	94.5
369.993	93.5
370.219	89.5
370.445	90.5
370.672	84.5
370.898	85.5
371.124	91.5
371.35	78.5
371.576	97.5
371.802	85.5
372.028	80.5
372.254	87.5
372.48	90.5
372.706	91.5
372.932	90.5
373.158	86.5
373.384	75.5
373.61	79.5
373.835	85.5
374.061	98.5
374.287	88.5
374.513	88.5
374.739	97.5
374.965	79.5
375.191	82.5
375.416	68.5
375.642	78.5
375.868	92.5
376.094	103.5
376.319	71.5
376.545	86.5
376.771	86.5
376.997	81.5
377.222	78.5
377.448	81.5
377.674	80.5
377.899	81.5
378.125	93.5
378.35	91.5
378.576	90.5
378.802	90.5
379.027	87.5
379.253	94.5
379.478	92.5
379.704	82.5
379.929	97.5
380.155	101.5
380.38	80.5
380.606	92.5
380.831	110.5
381.057	104.5
381.282	79.5
381.507	90.5
381.733	83.5
381.958	99.5
382.184	90.5
382.409	107.5
382.634	86.5
382.86	94.5
383.085	83.5
383.31	95.5
383.535	96.5
383.761	78.5
383.986	92.5
384.211	94.5
384.436	91.5
384.662	96.5
384.887	93.5
385.112	100.5
385.337	106.5
385.562	111.5
385.787	89.5
386.013	104.5
386.238	106.5
386.463	95.5
386.688	103.5
386.913	106.5
387.138	91.5
387.363	100.5
387.588	105.5
387.813	88.5
388.038	104.5
388.263	96.5
388.488	112.5
388.713	96.5
388.938	98.5
389.163	93.5
389.387	88.5
389.612	94.5
389.837	93.5
390.062	84.5
390.287	93.5
390.512	101.5
390.736	93.5
390.961	95.5
391.186	85.5
391.411	84.5
391.636	93.5
391.86	96.5
392.085	85.5
392.31	75.5
392.534	84.5
392.759	77.5
392.984	102.5
393.208	82.5
393.433	81.5
393.658	94.5
393.882	99.5
394.107	90.5
394.331	90.5
394.556	82.5
394.78	89.5
395.005	92.5
395.229	91.5
395.454	86.5
395.678	90.5
395.903	94.5
396.127	85.5
396.352	77.5
396.576	98.5
396.801	99.5
397.025	91.5
397.249	90.5
397.474	113.5
397.698	83.5
397.922	88.5
398.147	81.5
398.371	89.5
398.595	100.5
398.82	88.5
399.044	83.5
399.268	95.5
399.492	92.5
399.717	102.5
399.941	89.5
400.165	88.5
400.389	91.5
400.613	81.5
400.837	85.5
401.062	88.5
401.286	87.5
401.51	97.5
401.734	88.5
401.958	91.5
402.182	125.5
402.406	140.5
402.63	105.5
402.854	79.5
403.078	99.5
403.302	70.5
403.526	86.5
403.75	78.5
403.974	82.5
404.198	80.5
404.422	88.5
404.645	86.5
404.869	86.5
405.093	91.5
405.317	97.5
405.541	87.5
405.765	103.5
405.988	118.5
406.212	161.5
406.436	173.5
406.66	120.5
406.883	98.5
407.107	88.5
407.331	99.5
407.555	100.5
407.778	86.5
408.002	89.5
408.226	81.5
408.449	101.5
408.673	97.5
408.896	100.5
409.12	85.5
409.344	89.5
409.567	87.5
409.791	95.5
410.014	94.5
410.238	90.5
410.461	80.5
410.685	94.5
410.908	109.5
411.132	96.5
411.355	93.5
411.578	78.5
411.802	86.5
412.025	95.5
412.249	95.5
412.472	83.5
412.695	94.5
412.919	77.5
413.142	95.5
413.365	89.5
413.589	80.5
413.812	93.5
414.035	106.5
414.258	87.5
414.482	91.5
414.705	92.5
414.928	86.5
415.151	90.5
415.374	118.5
415.597	85.5
415.821	78.5
416.044	81.5
416.267	79.5
416.49	85.5
416.713	89.5
416.936	80.5
417.159	86.5
417.382	85.5
417.605	86.5
417.828	84.5
418.051	88.5
418.274	102.5
418.497	72.5
418.72	83.5
418.943	80.5
419.166	81.5
419.389	76.5
419.611	95.5
419.834	88.5
420.057	82.5
420.28	89.5
420.503	88.5
420.726	87.5
420.948	82.5
421.171	92.5
421.394	81.5
421.617	85.5
421.839	90.5
422.062	95.5
422.285	87.5
422.507	91.5
422.73	87.5
422.953	90.5
423.175	98.5
423.398	95.5
423.621	87.5
423.843	81.5
424.066	85.5
424.288	86.5
424.511	81.5
424.733	83.5
424.956	96.5
425.178	93.5
425.401	96.5
425.623	112.5
425.846	97.5
426.068	92.5
426.291	99.5
426.513	91.5
426.735	101.5
426.958	95.5
427.18	108.5
427.402	120.5
427.625	141.5
427.847	108.5
428.069	101.5
428.292	85.5
428.514	100.5
428.736	83.5
428.958	94.5
429.181	96.5
429.403	78.5
429.625	97.5
429.847	96.5
430.069	122.5
430.292	109.5
430.514	86.5
430.736	82.5
430.958	88.5
431.18	75.5
431.402	89.5
431.624	106.5
431.846	86.5
432.068	70.5
432.29	85.5
432.512	89.5
432.734	82.5
432.956	99.5
433.178	99.5
433.4	90.5
433.622	98.5
433.844	85.5
434.066	75.5
434.287	93.5
434.509	101.5
434.731	94.5
434.953	73.5
435.175	87.5
435.397	97.5
435.618	79.5
435.84	91.5
436.062	99.5
436.284	106.5
436.505	101.5
436.727	95.5
436.949	94.5
437.17	90.5
437.392	94.5
437.614	84.5
437.835	98.5
438.057	104.5
438.278	120.5
438.5	102.5
438.721	116.5
438.943	90.5
439.165	84.5
439.386	89.5
439.608	98.5
439.829	90.5
440.05	102.5
440.272	118.5
440.493	94.5
440.715	87.5
440.936	94.5
441.158	90.5
441.379	87.5
441.6	80.5
441.822	101.5
442.043	103.5
442.264	94.5
442.486	91.5
442.707	95.5
442.928	105.5
443.149	106.5
443.371	121.5
443.592	115.5
443.813	115.5
444.034	95.5
444.255	87.5
444.476	92.5
444.698	77.5
444.919	81.5
445.14	139.5
445.361	106.5
445.582	99.5
445.803	122.5
446.024	117.5
446.245	123.5
446.466	115.5
446.687	96.5
446.908	80.5
447.129	81.5
447.35	87.5
447.571	88.5
447.792	91.5
448.013	88.5
448.234	103.5
448.455	93.5
448.675	109.5
448.896	118.5
449.117	94.5
449.338	95.5
449.559	128.5
449.779	117.5
450	86.5
450.221	88.5
450.442	89.5
450.662	92.5
450.883	95.5
451.104	98.5
451.324	76.5
451.545	80.5
451.766	86.5
451.986	95.5
452.207	74.5
452.428	74.5
452.648	102.5
452.869	95.5
453.089	112.5
453.31	111.5
453.53	97.5
453.751	94.5
453.971	99.5
454.192	99.5
454.412	91.5
454.633	80.5
454.853	95.5
455.073	88.5
455.294	82.5
455.514	89.5
455.734	88.5
455.955	97.5
456.175	93.5
456.395	81.5
456.616	74.5
456.836	82.5
457.056	81.5
457.276	83.5
457.497	80.5
457.717	94.5
457.937	89.5
458.157	81.5
458.377	76.5
458.598	107.5
458.818	128.5
459.038	136.5
459.258	101.5
459.478	85.5
459.698	85.5
459.918	84.5
460.138	98.5
460.358	81.5
460.578	74.5
460.798	96.5
461.018	87.5
461.238	96.5
461.458	86.5
461.678	77.5
461.898	90.5
462.118	86.5
462.338	75.5
462.558	81.5
462.777	99.5
462.997	75.5
463.217	71.5
463.437	86.5
463.657	91.5
463.876	94.5
464.096	93.5
464.316	93.5
464.536	91.5
464.755	95.5
464.975	102.5
465.195	133.5
465.414	136.5
465.634	89.5
465.854	93.5
466.073	89.5
466.293	99.5
466.512	79.5
466.732	77.5
466.951	82.5
467.171	85.5
467.391	81.5
467.61	101.5
467.829	89.5
468.049	93.5
468.268	92.5
468.488	75.5
468.707	80.5
468.927	93.5
469.146	80.5
469.365	87.5
469.585	81.5
469.804	79.5
470.023	99.5
470.243	90.5
470.462	96.5
470.681	106.5
470.901	90.5
471.12	89.5
471.339	82.5
471.558	73.5
471.777	89.5
471.997	95.5
472.216	101.5
472.435	101.5
472.654	85.5
472.873	82.5
473.092	91.5
473.311	87.5
473.53	88.5
473.749	84.5
473.968	110.5
474.187	99.5
474.406	94.5
474.625	96.5
474.844	82.5
475.063	96.5
475.282	91.5
475.501	88.5
475.72	92.5
475.939	83.5
476.158	80.5
476.377	74.5
476.596	80.5
476.814	96.5
477.033	94.5
477.252	86.5
477.471	89.5
477.69	83.5
477.908	93.5
478.127	75.5
478.346	89.5
478.564	94.5
478.783	97.5
479.002	98.5
479.22	85.5
479.439	94.5
479.658	101.5
479.876	81.5
480.095	85.5
480.313	92.5
480.532	80.5
480.751	77.5
480.969	96.5
481.188	99.5
481.406	95.5
481.624	89.5
481.843	63.5
482.061	89.5
482.28	69.5
482.498	87.5
482.717	97.5
482.935	86.5
483.153	82.5
483.372	86.5
483.59	81.5
483.808	87.5
484.027	87.5
484.245	92.5
484.463	81.5
484.681	89.5
484.9	91.5
485.118	98.5
485.336	107.5
485.554	109.5
485.772	94.5
485.99	99.5
486.209	101.5
486.427	101.5
486.645	106.5
486.863	112.5
487.081	97.5
487.299	87.5
487.517	78.5
487.735	90.5
487.953	94.5
488.171	95.5
488.389	86.5
488.607	100.5
488.825	109.5
489.043	94.5
489.261	96.5
489.479	96.5
489.696	74.5
489.914	96.5
490.132	91.5
490.35	102.5
490.568	107.5
490.786	89.5
491.003	87.5
491.221	84.5
491.439	92.5
491.657	80.5
491.874	82.5
492.092	98.5
492.31	97.5
492.527	87.5
492.745	87.5
492.963	94.5
493.18	92.5
493.398	91.5
493.615	101.5
493.833	105.5
494.05	90.5
494.268	86.5
494.485	83.5
494.703	87.5
494.92	97.5
495.138	97.5
495.355	81.5
495.573	81.5
495.79	77.5
496.008	89.5
496.225	81.5
496.442	75.5
496.66	87.5
496.877	97.5
497.094	98.5
497.312	81.5
497.529	77.5
497.746	89.5
497.963	82.5
498.181	93.5
498.398	93.5
498.615	103.5
498.832	85.5
499.049	79.5
499.267	93.5
499.484	98.5
499.701	81.5
499.918	90.5
500.135	89.5
500.352	82.5
500.569	94.5
500.786	100.5
501.003	89.5
501.22	92.5
501.437	96.5
501.654	111.5
501.871	97.5
502.088	93.5
502.305	84.5
502.522	92.5
502.739	87.5
502.956	69.5
503.172	77.5
503.389	103.5
503.606	102.5
503.823	86.5
504.04	93.5
504.256	86.5
504.473	85.5
504.69	111.5
504.907	76.5
505.123	85.5
505.34	81.5
505.557	82.5
505.773	102.5
505.99	84.5
506.207	91.5
506.423	88.5
506.64	88.5
506.856	98.5
507.073	91.5
507.289	101.5
507.506	105.5
507.722	106.5
507.939	98.5
508.155	83.5
508.372	91.5
508.588	82.5
508.805	97.5
509.021	100.5
509.238	108.5
509.454	105.5
509.67	103.5
509.887	114.5
510.103	120.5
510.319	197.5
510.536	619.5
510.752	1926.5
510.968	554.5
511.184	134.5
511.401	102.5
511.617	95.5
511.833	94.5
512.049	107.5
512.265	91.5
512.481	91.5
512.698	76.5
512.914	93.5
513.13	79.5
513.346	88.5
513.562	93.5
513.778	91.5
513.994	100.5
514.21	101.5
514.426	114.5
514.642	124.5
514.858	111.5
515.074	142.5
515.29	367.5
515.506	1209.5
515.721	463.5
515.937	144.5
516.153	99.5
516.369	97.5
516.585	78.5
516.801	96.5
517.016	103.5
517.232	80.5
517.448	101.5
517.664	91.5
517.879	109.5
518.095	96.5
518.311	85.5
518.527	97.5
518.742	93.5
518.958	88.5
519.173	100.5
519.389	91.5
519.605	99.5
519.82	94.5
520.036	104.5
520.251	105.5
520.467	110.5
520.682	96.5
520.898	104.5
521.113	116.5
521.329	126.5
521.544	191.5
521.76	467.5
521.975	1941.5
522.19	1197.5
522.406	281.5
522.621	124.5
522.836	93.5
523.052	85.5
523.267	86.5
523.482	92.5
523.698	102.5
523.913	107.5
524.128	83.5
524.343	101.5
524.559	106.5
524.774	91.5
524.989	103.5
525.204	109.5
525.419	94.5
525.634	93.5
525.849	75.5
526.064	102.5
526.28	92.5
526.495	104.5
526.71	90.5
526.925	87.5
527.14	86.5
527.355	84.5
527.57	94.5
527.785	94.5
527.999	84.5
528.214	98.5
528.429	96.5
528.644	87.5
528.859	108.5
529.074	88.5
529.289	111.5
529.503	148.5
529.718	108.5
529.933	91.5
530.148	91.5
530.363	95.5
530.577	81.5
530.792	82.5
531.007	92.5
531.221	96.5
531.436	79.5
531.651	89.5
531.865	87.5
532.08	77.5
532.295	95.5
532.509	94.5
532.724	92.5
532.938	91.5
533.153	96.5
533.367	82.5
533.582	89.5
533.796	107.5
534.011	90.5
534.225	105.5
534.44	88.5
534.654	93.5
534.868	82.5
535.083	83.5
535.297	91.5
535.511	114.5
535.726	97.5
535.94	92.5
536.154	95.5
536.369	94.5
