Data from Uncirc_1997_H10_HRD10591_00035.txt Node
Date: Wed Jan 03 11:28:37 EST 2024
User: Yrep
Spectrometer: HR+D1059
Trigger mode: 1
Integration Time (sec): 1.000000E-1
Scans to average: 1
Electric dark correction enabled: true
Nonlinearity correction enabled: false
Boxcar width: 0
XAxis mode: Wavelengths
Number of Pixels in Spectrum: 2048
>>>>>Begin Spectral Data<<<<<
223.165	-36.88
223.4	-36.88
223.635	-36.88
223.869	-9.88
224.104	-13.88
224.338	-1.88
224.573	-19.88
224.808	-26.88
225.042	-6.88
225.277	2.12
225.511	0.12
225.746	13.12
225.98	3.12
226.215	19.12
226.449	16.12
226.683	12.12
226.918	20.12
227.152	30.12
227.387	39.12
227.621	33.12
227.856	40.12
228.09	36.12
228.324	45.12
228.559	59.12
228.793	64.12
229.027	62.12
229.262	68.12
229.496	60.12
229.73	92.12
229.964	91.12
230.199	85.12
230.433	78.12
230.667	84.12
230.901	78.12
231.136	70.12
231.37	78.12
231.604	63.12
231.838	81.12
232.072	84.12
232.306	95.12
232.541	83.12
232.775	87.12
233.009	91.12
233.243	74.12
233.477	73.12
233.711	83.12
233.945	84.12
234.179	77.12
234.413	91.12
234.647	87.12
234.881	75.12
235.115	92.12
235.349	90.12
235.583	84.12
235.817	78.12
236.051	87.12
236.285	90.12
236.519	78.12
236.753	81.12
236.987	82.12
237.221	82.12
237.455	89.12
237.689	100.12
237.922	79.12
238.156	58.12
238.39	74.12
238.624	76.12
238.858	57.12
239.091	82.12
239.325	69.12
239.559	65.12
239.793	78.12
240.027	84.12
240.26	61.12
240.494	77.12
240.728	77.12
240.961	77.12
241.195	74.12
241.429	85.12
241.662	81.12
241.896	61.12
242.13	93.12
242.363	74.12
242.597	82.12
242.83	95.12
243.064	78.12
243.298	84.12
243.531	74.12
243.765	81.12
243.998	89.12
244.232	92.12
244.465	79.12
244.699	82.12
244.932	81.12
245.166	79.12
245.399	79.12
245.633	85.12
245.866	91.12
246.099	83.12
246.333	91.12
246.566	82.12
246.8	79.12
247.033	90.12
247.266	81.12
247.5	76.12
247.733	95.12
247.966	79.12
248.2	77.12
248.433	82.12
248.666	84.12
248.899	84.12
249.133	90.12
249.366	83.12
249.599	99.12
249.832	76.12
250.066	81.12
250.299	77.12
250.532	81.12
250.765	91.12
250.998	80.12
251.231	94.12
251.465	84.12
251.698	77.12
251.931	91.12
252.164	81.12
252.397	84.12
252.63	76.12
252.863	76.12
253.096	98.12
253.329	85.12
253.562	83.12
253.795	89.12
254.028	83.12
254.261	84.12
254.494	86.12
254.727	85.12
254.96	83.12
255.193	71.12
255.426	92.12
255.659	75.12
255.892	86.12
256.124	89.12
256.357	79.12
256.59	101.12
256.823	89.12
257.056	80.12
257.289	81.12
257.521	89.12
257.754	85.12
257.987	87.12
258.22	84.12
258.452	71.12
258.685	86.12
258.918	78.12
259.151	90.12
259.383	89.12
259.616	73.12
259.849	78.12
260.081	91.12
260.314	97.12
260.547	83.12
260.779	79.12
261.012	95.12
261.244	89.12
261.477	87.12
261.71	82.12
261.942	105.12
262.175	107.12
262.407	86.12
262.64	95.12
262.872	85.12
263.105	84.12
263.337	95.12
263.57	88.12
263.802	87.12
264.035	88.12
264.267	93.12
264.499	89.12
264.732	95.12
264.964	70.12
265.197	85.12
265.429	97.12
265.661	77.12
265.894	80.12
266.126	93.12
266.358	79.12
266.591	85.12
266.823	91.12
267.055	89.12
267.287	73.12
267.52	90.12
267.752	76.12
267.984	85.12
268.216	91.12
268.448	80.12
268.681	82.12
268.913	93.12
269.145	86.12
269.377	88.12
269.609	77.12
269.841	100.12
270.073	85.12
270.306	82.12
270.538	87.12
270.77	80.12
271.002	90.12
271.234	98.12
271.466	85.12
271.698	81.12
271.93	81.12
272.162	84.12
272.394	81.12
272.626	82.12
272.858	89.12
273.09	91.12
273.322	90.12
273.553	80.12
273.785	74.12
274.017	86.12
274.249	95.12
274.481	86.12
274.713	77.12
274.945	81.12
275.176	87.12
275.408	90.12
275.64	85.12
275.872	95.12
276.104	98.12
276.335	100.12
276.567	100.12
276.799	100.12
277.031	94.12
277.262	86.12
277.494	81.12
277.726	81.12
277.957	82.12
278.189	94.12
278.421	83.12
278.652	91.12
278.884	98.12
279.115	93.12
279.347	82.12
279.579	97.12
279.81	91.12
280.042	79.12
280.273	91.12
280.505	94.12
280.736	80.12
280.968	103.12
281.199	94.12
281.431	88.12
281.662	96.12
281.894	92.12
282.125	93.12
282.356	107.12
282.588	118.12
282.819	103.12
283.051	85.12
283.282	93.12
283.513	98.12
283.745	93.12
283.976	86.12
284.207	86.12
284.439	82.12
284.67	92.12
284.901	92.12
285.132	107.12
285.364	84.12
285.595	101.12
285.826	90.12
286.057	102.12
286.288	85.12
286.52	91.12
286.751	77.12
286.982	94.12
287.213	81.12
287.444	99.12
287.675	98.12
287.906	90.12
288.138	86.12
288.369	91.12
288.6	84.12
288.831	93.12
289.062	66.12
289.293	93.12
289.524	92.12
289.755	95.12
289.986	84.12
290.217	91.12
290.448	94.12
290.679	86.12
290.91	91.12
291.141	81.12
291.371	63.12
291.602	83.12
291.833	74.12
292.064	100.12
292.295	83.12
292.526	82.12
292.757	102.12
292.987	92.12
293.218	86.12
293.449	85.12
293.68	98.12
293.91	81.12
294.141	96.12
294.372	87.12
294.603	80.12
294.833	81.12
295.064	94.12
295.295	84.12
295.525	95.12
295.756	97.12
295.987	100.12
296.217	125.12
296.448	129.12
296.679	85.12
296.909	87.12
297.14	97.12
297.37	83.12
297.601	93.12
297.831	89.12
298.062	103.12
298.292	99.12
298.523	95.12
298.753	80.12
298.984	85.12
299.214	85.12
299.445	101.12
299.675	105.12
299.905	83.12
300.136	92.12
300.366	93.12
300.597	102.12
300.827	92.12
301.057	100.12
301.288	111.12
301.518	86.12
301.748	91.12
301.979	105.12
302.209	107.12
302.439	93.12
302.669	91.12
302.9	97.12
303.13	95.12
303.36	87.12
303.59	107.12
303.82	98.12
304.051	102.12
304.281	97.12
304.511	98.12
304.741	98.12
304.971	90.12
305.201	99.12
305.431	90.12
305.661	93.12
305.891	82.12
306.121	81.12
306.352	88.12
306.582	97.12
306.812	86.12
307.042	99.12
307.272	78.12
307.502	87.12
307.731	104.12
307.961	97.12
308.191	110.12
308.421	89.12
308.651	89.12
308.881	95.12
309.111	89.12
309.341	108.12
309.571	103.12
309.8	100.12
310.03	101.12
310.26	89.12
310.49	91.12
310.72	101.12
310.949	104.12
311.179	101.12
311.409	99.12
311.639	94.12
311.868	106.12
312.098	102.12
312.328	102.12
312.557	90.12
312.787	93.12
313.017	110.12
313.246	110.12
313.476	87.12
313.706	96.12
313.935	99.12
314.165	97.12
314.394	80.12
314.624	109.12
314.853	85.12
315.083	87.12
315.312	106.12
315.542	91.12
315.771	78.12
316.001	93.12
316.23	99.12
316.46	87.12
316.689	90.12
316.919	98.12
317.148	92.12
317.377	110.12
317.607	93.12
317.836	91.12
318.065	100.12
318.295	98.12
318.524	101.12
318.753	81.12
318.983	97.12
319.212	117.12
319.441	106.12
319.67	114.12
319.9	100.12
320.129	92.12
320.358	87.12
320.587	100.12
320.816	106.12
321.046	91.12
321.275	92.12
321.504	95.12
321.733	99.12
321.962	94.12
322.191	99.12
322.42	104.12
322.649	121.12
322.878	108.12
323.108	106.12
323.337	113.12
323.566	123.12
323.795	133.12
324.024	181.12
324.253	319.12
324.482	668.12
324.71	1276.12
324.939	1678.12
325.168	619.12
325.397	204.12
325.626	130.12
325.855	130.12
326.084	116.12
326.313	117.12
326.542	145.12
326.77	205.12
326.999	370.12
327.228	757.12
327.457	1366.12
327.686	1030.12
327.914	306.12
328.143	167.12
328.372	117.12
328.6	111.12
328.829	119.12
329.058	113.12
329.287	119.12
329.515	101.12
329.744	94.12
329.972	93.12
330.201	107.12
330.43	115.12
330.658	114.12
330.887	129.12
331.115	111.12
331.344	104.12
331.572	105.12
331.801	103.12
332.03	98.12
332.258	91.12
332.486	78.12
332.715	89.12
332.943	90.12
333.172	93.12
333.4	102.12
333.629	113.12
333.857	109.12
334.085	110.12
334.314	106.12
334.542	100.12
334.771	106.12
334.999	92.12
335.227	96.12
335.455	97.12
335.684	104.12
335.912	101.12
336.14	104.12
336.369	103.12
336.597	85.12
336.825	102.12
337.053	89.12
337.281	103.12
337.51	91.12
337.738	89.12
337.966	94.12
338.194	104.12
338.422	91.12
338.65	90.12
338.878	119.12
339.106	93.12
339.334	100.12
339.562	95.12
339.79	106.12
340.018	90.12
340.246	97.12
340.474	100.12
340.702	80.12
340.93	82.12
341.158	89.12
341.386	103.12
341.614	99.12
341.842	79.12
342.07	84.12
342.298	95.12
342.526	91.12
342.754	102.12
342.981	91.12
343.209	78.12
343.437	102.12
343.665	87.12
343.893	93.12
344.12	87.12
344.348	86.12
344.576	86.12
344.804	92.12
345.031	86.12
345.259	103.12
345.487	92.12
345.714	100.12
345.942	90.12
346.17	106.12
346.397	97.12
346.625	77.12
346.853	96.12
347.08	100.12
347.308	92.12
347.535	105.12
347.763	101.12
347.99	102.12
348.218	102.12
348.445	96.12
348.673	90.12
348.9	103.12
349.128	96.12
349.355	87.12
349.583	97.12
349.81	105.12
350.037	92.12
350.265	78.12
350.492	84.12
350.72	100.12
350.947	88.12
351.174	95.12
351.402	110.12
351.629	103.12
351.856	91.12
352.083	81.12
352.311	95.12
352.538	91.12
352.765	108.12
352.992	89.12
353.22	107.12
353.447	109.12
353.674	98.12
353.901	97.12
354.128	101.12
354.355	101.12
354.583	107.12
354.81	105.12
355.037	106.12
355.264	99.12
355.491	111.12
355.718	102.12
355.945	76.12
356.172	91.12
356.399	101.12
356.626	101.12
356.853	84.12
357.08	95.12
357.307	99.12
357.534	87.12
357.761	115.12
357.988	94.12
358.215	99.12
358.441	85.12
358.668	74.12
358.895	105.12
359.122	98.12
359.349	101.12
359.576	95.12
359.802	93.12
360.029	93.12
360.256	97.12
360.483	94.12
360.709	83.12
360.936	99.12
361.163	96.12
361.39	90.12
361.616	91.12
361.843	96.12
362.07	84.12
362.296	86.12
362.523	99.12
362.749	93.12
362.976	87.12
363.203	103.12
363.429	83.12
363.656	87.12
363.882	99.12
364.109	89.12
364.335	89.12
364.562	96.12
364.788	89.12
365.015	94.12
365.241	91.12
365.468	102.12
365.694	87.12
365.92	96.12
366.147	100.12
366.373	100.12
366.599	98.12
366.826	92.12
367.052	87.12
367.278	90.12
367.505	94.12
367.731	93.12
367.957	94.12
368.184	91.12
368.41	95.12
368.636	103.12
368.862	110.12
369.089	98.12
369.315	95.12
369.541	96.12
369.767	86.12
369.993	90.12
370.219	84.12
370.445	100.12
370.672	93.12
370.898	84.12
371.124	105.12
371.35	88.12
371.576	84.12
371.802	84.12
372.028	84.12
372.254	87.12
372.48	91.12
372.706	97.12
372.932	98.12
373.158	85.12
373.384	88.12
373.61	97.12
373.835	93.12
374.061	94.12
374.287	92.12
374.513	77.12
374.739	97.12
374.965	85.12
375.191	100.12
375.416	86.12
375.642	100.12
375.868	95.12
376.094	89.12
376.319	86.12
376.545	96.12
376.771	94.12
376.997	94.12
377.222	83.12
377.448	87.12
377.674	97.12
377.899	82.12
378.125	72.12
378.35	93.12
378.576	92.12
378.802	82.12
379.027	109.12
379.253	102.12
379.478	103.12
379.704	95.12
379.929	104.12
380.155	103.12
380.38	93.12
380.606	107.12
380.831	90.12
381.057	93.12
381.282	78.12
381.507	97.12
381.733	86.12
381.958	94.12
382.184	93.12
382.409	92.12
382.634	96.12
382.86	100.12
383.085	99.12
383.31	95.12
383.535	112.12
383.761	93.12
383.986	96.12
384.211	95.12
384.436	94.12
384.662	124.12
384.887	96.12
385.112	100.12
385.337	83.12
385.562	95.12
385.787	94.12
386.013	94.12
386.238	114.12
386.463	100.12
386.688	108.12
386.913	92.12
387.138	107.12
387.363	91.12
387.588	100.12
387.813	89.12
388.038	107.12
388.263	109.12
388.488	110.12
388.713	100.12
388.938	94.12
389.163	95.12
389.387	103.12
389.612	83.12
389.837	83.12
390.062	99.12
390.287	93.12
390.512	79.12
390.736	83.12
390.961	103.12
391.186	107.12
391.411	100.12
391.636	99.12
391.86	82.12
392.085	87.12
392.31	89.12
392.534	83.12
392.759	97.12
392.984	99.12
393.208	73.12
393.433	91.12
393.658	97.12
393.882	91.12
394.107	87.12
394.331	89.12
394.556	89.12
394.78	89.12
395.005	101.12
395.229	83.12
395.454	83.12
395.678	78.12
395.903	97.12
396.127	102.12
396.352	78.12
396.576	93.12
396.801	96.12
397.025	97.12
397.249	99.12
397.474	99.12
397.698	100.12
397.922	89.12
398.147	85.12
398.371	73.12
398.595	97.12
398.82	90.12
399.044	92.12
399.268	95.12
399.492	101.12
399.717	86.12
399.941	79.12
400.165	86.12
400.389	80.12
400.613	82.12
400.837	81.12
401.062	97.12
401.286	68.12
401.51	83.12
401.734	83.12
401.958	103.12
402.182	99.12
402.406	129.12
402.63	117.12
402.854	87.12
403.078	84.12
403.302	88.12
403.526	82.12
403.75	93.12
403.974	87.12
404.198	89.12
404.422	83.12
404.645	87.12
404.869	79.12
405.093	94.12
405.317	94.12
405.541	70.12
405.765	94.12
405.988	123.12
406.212	134.12
406.436	167.12
406.66	134.12
406.883	80.12
407.107	88.12
407.331	97.12
407.555	84.12
407.778	110.12
408.002	84.12
408.226	91.12
408.449	81.12
408.673	99.12
408.896	87.12
409.12	92.12
409.344	98.12
409.567	93.12
409.791	105.12
410.014	91.12
410.238	95.12
410.461	94.12
410.685	105.12
410.908	90.12
411.132	98.12
411.355	98.12
411.578	95.12
411.802	91.12
412.025	95.12
412.249	106.12
412.472	99.12
412.695	85.12
412.919	97.12
413.142	94.12
413.365	89.12
413.589	89.12
413.812	93.12
414.035	93.12
414.258	87.12
414.482	101.12
414.705	109.12
414.928	99.12
415.151	102.12
415.374	93.12
415.597	83.12
415.821	69.12
416.044	89.12
416.267	74.12
416.49	78.12
416.713	87.12
416.936	107.12
417.159	90.12
417.382	104.12
417.605	81.12
417.828	109.12
418.051	105.12
418.274	92.12
418.497	96.12
418.72	86.12
418.943	92.12
419.166	95.12
419.389	81.12
419.611	86.12
419.834	95.12
420.057	90.12
420.28	101.12
420.503	93.12
420.726	87.12
420.948	98.12
421.171	85.12
421.394	90.12
421.617	78.12
421.839	97.12
422.062	97.12
422.285	102.12
422.507	98.12
422.73	101.12
422.953	91.12
423.175	89.12
423.398	84.12
423.621	93.12
423.843	87.12
424.066	95.12
424.288	90.12
424.511	90.12
424.733	93.12
424.956	118.12
425.178	95.12
425.401	115.12
425.623	102.12
425.846	88.12
426.068	96.12
426.291	92.12
426.513	94.12
426.735	103.12
426.958	99.12
427.18	91.12
427.402	138.12
427.625	129.12
427.847	91.12
428.069	88.12
428.292	83.12
428.514	92.12
428.736	75.12
428.958	86.12
429.181	76.12
429.403	84.12
429.625	82.12
429.847	100.12
430.069	98.12
430.292	103.12
430.514	106.12
430.736	95.12
430.958	94.12
431.18	96.12
431.402	93.12
431.624	85.12
431.846	89.12
432.068	86.12
432.29	85.12
432.512	84.12
432.734	78.12
432.956	98.12
433.178	101.12
433.4	100.12
433.622	89.12
433.844	98.12
434.066	91.12
434.287	90.12
434.509	85.12
434.731	93.12
434.953	89.12
435.175	88.12
435.397	107.12
435.618	89.12
435.84	89.12
436.062	111.12
436.284	120.12
436.505	101.12
436.727	95.12
436.949	96.12
437.17	102.12
437.392	80.12
437.614	84.12
437.835	95.12
438.057	109.12
438.278	119.12
438.5	95.12
438.721	107.12
438.943	93.12
439.165	97.12
439.386	84.12
439.608	82.12
439.829	89.12
440.05	112.12
440.272	122.12
440.493	88.12
440.715	98.12
440.936	97.12
441.158	81.12
441.379	93.12
441.6	93.12
441.822	94.12
442.043	101.12
442.264	92.12
442.486	93.12
442.707	81.12
442.928	100.12
443.149	102.12
443.371	125.12
443.592	100.12
443.813	102.12
444.034	103.12
444.255	93.12
444.476	93.12
444.698	82.12
444.919	84.12
445.14	127.12
445.361	123.12
445.582	106.12
445.803	125.12
446.024	111.12
446.245	102.12
446.466	120.12
446.687	87.12
446.908	77.12
447.129	82.12
447.35	81.12
447.571	82.12
447.792	95.12
448.013	114.12
448.234	101.12
448.455	102.12
448.675	104.12
448.896	93.12
449.117	90.12
449.338	101.12
449.559	138.12
449.779	121.12
450	90.12
450.221	91.12
450.442	93.12
450.662	104.12
450.883	97.12
451.104	105.12
451.324	99.12
451.545	100.12
451.766	86.12
451.986	90.12
452.207	79.12
452.428	91.12
452.648	89.12
452.869	91.12
453.089	107.12
453.31	100.12
453.53	92.12
453.751	99.12
453.971	100.12
454.192	86.12
454.412	98.12
454.633	86.12
454.853	93.12
455.073	84.12
455.294	87.12
455.514	96.12
455.734	94.12
455.955	90.12
456.175	83.12
456.395	98.12
456.616	91.12
456.836	91.12
457.056	106.12
457.276	85.12
457.497	82.12
457.717	83.12
457.937	99.12
458.157	92.12
458.377	103.12
458.598	100.12
458.818	113.12
459.038	136.12
459.258	97.12
459.478	99.12
459.698	81.12
459.918	86.12
460.138	75.12
460.358	92.12
460.578	86.12
460.798	85.12
461.018	81.12
461.238	92.12
461.458	86.12
461.678	84.12
461.898	95.12
462.118	99.12
462.338	82.12
462.558	103.12
462.777	82.12
462.997	98.12
463.217	82.12
463.437	83.12
463.657	81.12
463.876	95.12
464.096	83.12
464.316	91.12
464.536	105.12
464.755	86.12
464.975	99.12
465.195	130.12
465.414	122.12
465.634	94.12
465.854	84.12
466.073	92.12
466.293	90.12
466.512	100.12
466.732	85.12
466.951	92.12
467.171	103.12
467.391	96.12
467.61	86.12
467.829	98.12
468.049	91.12
468.268	85.12
468.488	88.12
468.707	76.12
468.927	92.12
469.146	91.12
469.365	85.12
469.585	81.12
469.804	107.12
470.023	102.12
470.243	84.12
470.462	97.12
470.681	92.12
470.901	95.12
471.12	90.12
471.339	90.12
471.558	78.12
471.777	96.12
471.997	84.12
472.216	86.12
472.435	83.12
472.654	94.12
472.873	87.12
473.092	87.12
473.311	78.12
473.53	87.12
473.749	101.12
473.968	84.12
474.187	96.12
474.406	92.12
474.625	90.12
474.844	93.12
475.063	76.12
475.282	86.12
475.501	83.12
475.72	91.12
475.939	91.12
476.158	78.12
476.377	94.12
476.596	92.12
476.814	91.12
477.033	86.12
477.252	91.12
477.471	95.12
477.69	97.12
477.908	110.12
478.127	89.12
478.346	94.12
478.564	76.12
478.783	94.12
479.002	97.12
479.22	96.12
479.439	92.12
479.658	77.12
479.876	107.12
480.095	94.12
480.313	99.12
480.532	92.12
480.751	89.12
480.969	91.12
481.188	115.12
481.406	94.12
481.624	89.12
481.843	98.12
482.061	83.12
482.28	90.12
482.498	99.12
482.717	89.12
482.935	89.12
483.153	84.12
483.372	110.12
483.59	84.12
483.808	87.12
484.027	103.12
484.245	100.12
484.463	97.12
484.681	102.12
484.9	89.12
485.118	94.12
485.336	94.12
485.554	89.12
485.772	108.12
485.99	101.12
486.209	106.12
486.427	97.12
486.645	114.12
486.863	101.12
487.081	103.12
487.299	96.12
487.517	107.12
487.735	88.12
487.953	99.12
488.171	83.12
488.389	97.12
488.607	103.12
488.825	97.12
489.043	97.12
489.261	96.12
489.479	96.12
489.696	99.12
489.914	94.12
490.132	92.12
490.35	99.12
490.568	92.12
490.786	91.12
491.003	83.12
491.221	86.12
491.439	91.12
491.657	96.12
491.874	97.12
492.092	109.12
492.31	84.12
492.527	100.12
492.745	88.12
492.963	89.12
493.18	92.12
493.398	97.12
493.615	109.12
493.833	96.12
494.05	105.12
494.268	92.12
494.485	88.12
494.703	92.12
494.92	94.12
495.138	91.12
495.355	94.12
495.573	79.12
495.79	91.12
496.008	103.12
496.225	87.12
496.442	99.12
496.66	93.12
496.877	89.12
497.094	85.12
497.312	93.12
497.529	108.12
497.746	96.12
497.963	100.12
498.181	84.12
498.398	97.12
498.615	99.12
498.832	101.12
499.049	93.12
499.267	85.12
499.484	89.12
499.701	85.12
499.918	89.12
500.135	86.12
500.352	94.12
500.569	114.12
500.786	88.12
501.003	90.12
501.22	97.12
501.437	103.12
501.654	92.12
501.871	95.12
502.088	99.12
502.305	98.12
502.522	89.12
502.739	88.12
502.956	104.12
503.172	98.12
503.389	99.12
503.606	102.12
503.823	106.12
504.04	102.12
504.256	94.12
504.473	98.12
504.69	89.12
504.907	86.12
505.123	97.12
505.34	90.12
505.557	91.12
505.773	81.12
505.99	85.12
506.207	96.12
506.423	94.12
506.64	87.12
506.856	76.12
507.073	101.12
507.289	102.12
507.506	100.12
507.722	98.12
507.939	101.12
508.155	105.12
508.372	109.12
508.588	97.12
508.805	104.12
509.021	85.12
509.238	96.12
509.454	89.12
509.67	87.12
509.887	100.12
510.103	110.12
510.319	186.12
510.536	565.12
510.752	1656.12
510.968	477.12
511.184	128.12
511.401	112.12
511.617	96.12
511.833	100.12
512.049	86.12
512.265	96.12
512.481	95.12
512.698	93.12
512.914	97.12
513.13	97.12
513.346	90.12
513.562	107.12
513.778	93.12
513.994	92.12
514.21	109.12
514.426	107.12
514.642	105.12
514.858	115.12
515.074	139.12
515.29	314.12
515.506	956.12
