Data from Uncirc_1997_H10_HRD10591_00019.txt Node
Date: Wed Jan 03 11:28:34 EST 2024
User: Yrep
Spectrometer: HR+D1059
Trigger mode: 1
Integration Time (sec): 1.000000E-1
Scans to average: 1
Electric dark correction enabled: true
Nonlinearity correction enabled: false
Boxcar width: 0
XAxis mode: Wavelengths
Number of Pixels in Spectrum: 2048
>>>>>Begin Spectral Data<<<<<
223.165	-27.62
223.4	-27.62
223.635	-27.62
223.869	-8.62
224.104	-16.62
224.338	-6.62
224.573	-12.62
224.808	-7.62
225.042	-22.62
225.277	-14.62
225.511	-4.62
225.746	9.38
225.98	-6.62
226.215	13.38
226.449	25.38
226.683	14.38
226.918	27.38
227.152	38.38
227.387	35.38
227.621	32.38
227.856	41.38
228.09	38.38
228.324	54.38
228.559	65.38
228.793	57.38
229.027	63.38
229.262	65.38
229.496	72.38
229.73	89.38
229.964	62.38
230.199	54.38
230.433	60.38
230.667	69.38
230.901	75.38
231.136	74.38
231.37	73.38
231.604	86.38
231.838	71.38
232.072	68.38
232.306	84.38
232.541	72.38
232.775	82.38
233.009	71.38
233.243	70.38
233.477	77.38
233.711	76.38
233.945	68.38
234.179	88.38
234.413	77.38
234.647	91.38
234.881	75.38
235.115	69.38
235.349	70.38
235.583	91.38
235.817	71.38
236.051	65.38
236.285	74.38
236.519	75.38
236.753	84.38
236.987	75.38
237.221	76.38
237.455	73.38
237.689	49.38
237.922	64.38
238.156	76.38
238.39	67.38
238.624	74.38
238.858	82.38
239.091	57.38
239.325	79.38
239.559	78.38
239.793	80.38
240.027	71.38
240.26	77.38
240.494	71.38
240.728	89.38
240.961	83.38
241.195	62.38
241.429	78.38
241.662	70.38
241.896	87.38
242.13	88.38
242.363	67.38
242.597	64.38
242.83	79.38
243.064	83.38
243.298	76.38
243.531	87.38
243.765	73.38
243.998	72.38
244.232	72.38
244.465	72.38
244.699	82.38
244.932	91.38
245.166	71.38
245.399	72.38
245.633	71.38
245.866	76.38
246.099	75.38
246.333	87.38
246.566	63.38
246.8	71.38
247.033	79.38
247.266	81.38
247.5	72.38
247.733	72.38
247.966	90.38
248.2	64.38
248.433	61.38
248.666	71.38
248.899	73.38
249.133	75.38
249.366	95.38
249.599	92.38
249.832	87.38
250.066	83.38
250.299	56.38
250.532	83.38
250.765	76.38
250.998	73.38
251.231	67.38
251.465	71.38
251.698	74.38
251.931	84.38
252.164	86.38
252.397	71.38
252.63	85.38
252.863	70.38
253.096	83.38
253.329	75.38
253.562	85.38
253.795	80.38
254.028	86.38
254.261	86.38
254.494	68.38
254.727	92.38
254.96	73.38
255.193	85.38
255.426	71.38
255.659	94.38
255.892	88.38
256.124	85.38
256.357	80.38
256.59	86.38
256.823	94.38
257.056	88.38
257.289	69.38
257.521	68.38
257.754	68.38
257.987	76.38
258.22	78.38
258.452	74.38
258.685	77.38
258.918	91.38
259.151	88.38
259.383	91.38
259.616	75.38
259.849	81.38
260.081	73.38
260.314	70.38
260.547	73.38
260.779	81.38
261.012	90.38
261.244	98.38
261.477	103.38
261.71	80.38
261.942	101.38
262.175	120.38
262.407	92.38
262.64	74.38
262.872	90.38
263.105	85.38
263.337	80.38
263.57	84.38
263.802	81.38
264.035	83.38
264.267	93.38
264.499	88.38
264.732	83.38
264.964	77.38
265.197	89.38
265.429	74.38
265.661	87.38
265.894	92.38
266.126	84.38
266.358	68.38
266.591	62.38
266.823	70.38
267.055	79.38
267.287	83.38
267.52	90.38
267.752	86.38
267.984	68.38
268.216	73.38
268.448	78.38
268.681	86.38
268.913	85.38
269.145	86.38
269.377	78.38
269.609	84.38
269.841	75.38
270.073	84.38
270.306	82.38
270.538	81.38
270.77	73.38
271.002	88.38
271.234	81.38
271.466	96.38
271.698	88.38
271.93	88.38
272.162	83.38
272.394	78.38
272.626	75.38
272.858	79.38
273.09	101.38
273.322	72.38
273.553	83.38
273.785	86.38
274.017	79.38
274.249	81.38
274.481	79.38
274.713	97.38
274.945	76.38
275.176	91.38
275.408	92.38
275.64	83.38
275.872	77.38
276.104	79.38
276.335	95.38
276.567	97.38
276.799	84.38
277.031	95.38
277.262	86.38
277.494	87.38
277.726	64.38
277.957	93.38
278.189	85.38
278.421	80.38
278.652	93.38
278.884	90.38
279.115	85.38
279.347	81.38
279.579	77.38
279.81	77.38
280.042	88.38
280.273	72.38
280.505	74.38
280.736	74.38
280.968	84.38
281.199	78.38
281.431	86.38
281.662	90.38
281.894	96.38
282.125	82.38
282.356	95.38
282.588	134.38
282.819	96.38
283.051	94.38
283.282	78.38
283.513	97.38
283.745	84.38
283.976	88.38
284.207	88.38
284.439	83.38
284.67	80.38
284.901	80.38
285.132	86.38
285.364	87.38
285.595	85.38
285.826	85.38
286.057	95.38
286.288	93.38
286.52	81.38
286.751	83.38
286.982	83.38
287.213	94.38
287.444	94.38
287.675	84.38
287.906	89.38
288.138	88.38
288.369	91.38
288.6	86.38
288.831	91.38
289.062	88.38
289.293	80.38
289.524	95.38
289.755	87.38
289.986	81.38
290.217	75.38
290.448	86.38
290.679	93.38
290.91	78.38
291.141	87.38
291.371	83.38
291.602	84.38
291.833	97.38
292.064	98.38
292.295	92.38
292.526	82.38
292.757	79.38
292.987	91.38
293.218	90.38
293.449	88.38
293.68	83.38
293.91	81.38
294.141	81.38
294.372	86.38
294.603	79.38
294.833	96.38
295.064	88.38
295.295	84.38
295.525	83.38
295.756	83.38
295.987	104.38
296.217	111.38
296.448	123.38
296.679	93.38
296.909	93.38
297.14	100.38
297.37	83.38
297.601	83.38
297.831	89.38
298.062	87.38
298.292	99.38
298.523	86.38
298.753	83.38
298.984	85.38
299.214	75.38
299.445	87.38
299.675	91.38
299.905	99.38
300.136	88.38
300.366	84.38
300.597	83.38
300.827	78.38
301.057	84.38
301.288	93.38
301.518	87.38
301.748	86.38
301.979	96.38
302.209	87.38
302.439	81.38
302.669	80.38
302.9	86.38
303.13	88.38
303.36	87.38
303.59	97.38
303.82	103.38
304.051	89.38
304.281	88.38
304.511	86.38
304.741	78.38
304.971	93.38
305.201	86.38
305.431	82.38
305.661	92.38
305.891	86.38
306.121	82.38
306.352	101.38
306.582	104.38
306.812	93.38
307.042	85.38
307.272	79.38
307.502	86.38
307.731	82.38
307.961	88.38
308.191	88.38
308.421	97.38
308.651	91.38
308.881	93.38
309.111	87.38
309.341	81.38
309.571	85.38
309.8	108.38
310.03	110.38
310.26	104.38
310.49	89.38
310.72	85.38
310.949	102.38
311.179	85.38
311.409	79.38
311.639	86.38
311.868	92.38
312.098	107.38
312.328	92.38
312.557	93.38
312.787	94.38
313.017	101.38
313.246	95.38
313.476	96.38
313.706	85.38
313.935	90.38
314.165	95.38
314.394	88.38
314.624	86.38
314.853	79.38
315.083	88.38
315.312	85.38
315.542	76.38
315.771	73.38
316.001	83.38
316.23	100.38
316.46	80.38
316.689	89.38
316.919	90.38
317.148	87.38
317.377	95.38
317.607	95.38
317.836	95.38
318.065	89.38
318.295	92.38
318.524	88.38
318.753	82.38
318.983	89.38
319.212	96.38
319.441	94.38
319.67	101.38
319.9	85.38
320.129	71.38
320.358	91.38
320.587	89.38
320.816	69.38
321.046	94.38
321.275	95.38
321.504	76.38
321.733	101.38
321.962	88.38
322.191	90.38
322.42	94.38
322.649	103.38
322.878	110.38
323.108	101.38
323.337	109.38
323.566	120.38
323.795	137.38
324.024	171.38
324.253	325.38
324.482	699.38
324.71	1385.38
324.939	1813.38
325.168	657.38
325.397	206.38
325.626	133.38
325.855	106.38
326.084	107.38
326.313	124.38
326.542	133.38
326.77	199.38
326.999	389.38
327.228	799.38
327.457	1463.38
327.686	1111.38
327.914	302.38
328.143	159.38
328.372	117.38
328.6	107.38
328.829	112.38
329.058	112.38
329.287	107.38
329.515	106.38
329.744	93.38
329.972	85.38
330.201	80.38
330.43	105.38
330.658	103.38
330.887	117.38
331.115	102.38
331.344	83.38
331.572	86.38
331.801	96.38
332.03	94.38
332.258	90.38
332.486	89.38
332.715	82.38
332.943	101.38
333.172	84.38
333.4	89.38
333.629	88.38
333.857	99.38
334.085	104.38
334.314	98.38
334.542	97.38
334.771	107.38
334.999	97.38
335.227	96.38
335.455	87.38
335.684	84.38
335.912	83.38
336.14	86.38
336.369	96.38
336.597	87.38
336.825	90.38
337.053	95.38
337.281	104.38
337.51	91.38
337.738	87.38
337.966	98.38
338.194	100.38
338.422	100.38
338.65	98.38
338.878	87.38
339.106	81.38
339.334	110.38
339.562	75.38
339.79	85.38
340.018	85.38
340.246	74.38
340.474	90.38
340.702	86.38
340.93	71.38
341.158	77.38
341.386	92.38
341.614	92.38
341.842	99.38
342.07	103.38
342.298	84.38
342.526	93.38
342.754	86.38
342.981	80.38
343.209	79.38
343.437	108.38
343.665	76.38
343.893	91.38
344.12	101.38
344.348	96.38
344.576	73.38
344.804	92.38
345.031	83.38
345.259	95.38
345.487	91.38
345.714	100.38
345.942	92.38
346.17	94.38
346.397	75.38
346.625	96.38
346.853	86.38
347.08	83.38
347.308	93.38
347.535	107.38
347.763	96.38
347.99	88.38
348.218	97.38
348.445	91.38
348.673	95.38
348.9	87.38
349.128	96.38
349.355	80.38
349.583	85.38
349.81	93.38
350.037	92.38
350.265	83.38
350.492	98.38
350.72	92.38
350.947	89.38
351.174	89.38
351.402	98.38
351.629	119.38
351.856	109.38
352.083	94.38
352.311	97.38
352.538	93.38
352.765	102.38
352.992	114.38
353.22	104.38
353.447	88.38
353.674	104.38
353.901	85.38
354.128	87.38
354.355	92.38
354.583	85.38
354.81	79.38
355.037	103.38
355.264	88.38
355.491	83.38
355.718	100.38
355.945	101.38
356.172	99.38
356.399	86.38
356.626	100.38
356.853	93.38
357.08	99.38
357.307	91.38
357.534	85.38
357.761	88.38
357.988	100.38
358.215	91.38
358.441	87.38
358.668	88.38
358.895	94.38
359.122	77.38
359.349	84.38
359.576	87.38
359.802	101.38
360.029	96.38
360.256	118.38
360.483	87.38
360.709	77.38
360.936	91.38
361.163	92.38
361.39	87.38
361.616	97.38
361.843	88.38
362.07	95.38
362.296	94.38
362.523	88.38
362.749	88.38
362.976	92.38
363.203	94.38
363.429	79.38
363.656	74.38
363.882	83.38
364.109	84.38
364.335	76.38
364.562	83.38
364.788	83.38
365.015	76.38
365.241	100.38
365.468	93.38
365.694	87.38
365.92	68.38
366.147	85.38
366.373	94.38
366.599	92.38
366.826	75.38
367.052	87.38
367.278	84.38
367.505	93.38
367.731	76.38
367.957	79.38
368.184	89.38
368.41	92.38
368.636	87.38
368.862	109.38
369.089	103.38
369.315	92.38
369.541	86.38
369.767	89.38
369.993	81.38
370.219	82.38
370.445	94.38
370.672	80.38
370.898	87.38
371.124	80.38
371.35	82.38
371.576	87.38
371.802	100.38
372.028	93.38
372.254	87.38
372.48	86.38
372.706	71.38
372.932	86.38
373.158	75.38
373.384	93.38
373.61	97.38
373.835	89.38
374.061	92.38
374.287	96.38
374.513	83.38
374.739	88.38
374.965	82.38
375.191	89.38
375.416	80.38
375.642	84.38
375.868	90.38
376.094	92.38
376.319	86.38
376.545	87.38
376.771	79.38
376.997	91.38
377.222	82.38
377.448	88.38
377.674	79.38
377.899	93.38
378.125	99.38
378.35	78.38
378.576	78.38
378.802	89.38
379.027	92.38
379.253	90.38
379.478	97.38
379.704	90.38
379.929	94.38
380.155	84.38
380.38	85.38
380.606	102.38
380.831	96.38
381.057	83.38
381.282	94.38
381.507	100.38
381.733	89.38
381.958	88.38
382.184	95.38
382.409	101.38
382.634	92.38
382.86	96.38
383.085	96.38
383.31	86.38
383.535	108.38
383.761	96.38
383.986	94.38
384.211	95.38
384.436	94.38
384.662	91.38
384.887	96.38
385.112	95.38
385.337	97.38
385.562	108.38
385.787	91.38
386.013	91.38
386.238	105.38
386.463	94.38
386.688	117.38
386.913	89.38
387.138	106.38
387.363	92.38
387.588	78.38
387.813	90.38
388.038	96.38
388.263	108.38
388.488	93.38
388.713	94.38
388.938	91.38
389.163	86.38
389.387	83.38
389.612	95.38
389.837	72.38
390.062	81.38
390.287	97.38
390.512	93.38
390.736	92.38
390.961	89.38
391.186	93.38
391.411	81.38
391.636	78.38
391.86	80.38
392.085	70.38
392.31	88.38
392.534	80.38
392.759	88.38
392.984	83.38
393.208	92.38
393.433	87.38
393.658	80.38
393.882	82.38
394.107	78.38
394.331	90.38
394.556	91.38
394.78	76.38
395.005	69.38
395.229	86.38
395.454	98.38
395.678	86.38
395.903	90.38
396.127	92.38
396.352	86.38
396.576	91.38
396.801	97.38
397.025	83.38
397.249	87.38
397.474	85.38
397.698	95.38
397.922	74.38
398.147	82.38
398.371	92.38
398.595	81.38
398.82	82.38
399.044	74.38
399.268	74.38
399.492	87.38
399.717	81.38
399.941	83.38
400.165	75.38
400.389	96.38
400.613	83.38
400.837	84.38
401.062	87.38
401.286	86.38
401.51	79.38
401.734	90.38
401.958	89.38
402.182	103.38
402.406	139.38
402.63	92.38
402.854	75.38
403.078	82.38
403.302	85.38
403.526	89.38
403.75	87.38
403.974	79.38
404.198	78.38
404.422	93.38
404.645	80.38
404.869	81.38
405.093	88.38
405.317	90.38
405.541	96.38
405.765	92.38
405.988	115.38
406.212	151.38
406.436	175.38
406.66	131.38
406.883	81.38
407.107	86.38
407.331	89.38
407.555	94.38
407.778	83.38
408.002	89.38
408.226	78.38
408.449	85.38
408.673	87.38
408.896	92.38
409.12	100.38
409.344	96.38
409.567	93.38
409.791	96.38
410.014	80.38
410.238	99.38
410.461	77.38
410.685	97.38
410.908	105.38
411.132	84.38
411.355	97.38
411.578	81.38
411.802	84.38
412.025	76.38
412.249	79.38
412.472	91.38
412.695	71.38
412.919	93.38
413.142	92.38
413.365	82.38
413.589	85.38
413.812	91.38
414.035	77.38
414.258	80.38
414.482	86.38
414.705	94.38
414.928	78.38
415.151	83.38
415.374	89.38
415.597	89.38
415.821	91.38
416.044	96.38
416.267	86.38
416.49	98.38
416.713	95.38
416.936	83.38
417.159	82.38
417.382	74.38
417.605	88.38
417.828	83.38
418.051	96.38
418.274	84.38
418.497	75.38
418.72	83.38
418.943	88.38
419.166	79.38
419.389	92.38
419.611	96.38
419.834	103.38
420.057	92.38
420.28	87.38
420.503	75.38
420.726	84.38
420.948	105.38
421.171	88.38
421.394	85.38
421.617	90.38
421.839	70.38
422.062	94.38
422.285	90.38
422.507	100.38
422.73	101.38
422.953	94.38
423.175	94.38
423.398	84.38
423.621	86.38
423.843	101.38
424.066	88.38
424.288	86.38
424.511	74.38
424.733	84.38
424.956	107.38
425.178	88.38
425.401	83.38
425.623	99.38
425.846	96.38
426.068	101.38
426.291	88.38
426.513	106.38
426.735	93.38
426.958	93.38
427.18	107.38
427.402	103.38
427.625	131.38
427.847	129.38
428.069	106.38
428.292	73.38
428.514	79.38
428.736	74.38
428.958	86.38
429.181	81.38
429.403	84.38
429.625	91.38
429.847	83.38
430.069	90.38
430.292	72.38
430.514	77.38
430.736	83.38
430.958	81.38
431.18	85.38
431.402	71.38
431.624	75.38
431.846	73.38
432.068	87.38
432.29	81.38
432.512	113.38
432.734	84.38
432.956	84.38
433.178	111.38
433.4	89.38
433.622	93.38
433.844	88.38
434.066	92.38
434.287	86.38
434.509	75.38
434.731	77.38
434.953	86.38
435.175	77.38
435.397	81.38
435.618	91.38
435.84	94.38
436.062	113.38
436.284	100.38
436.505	96.38
436.727	96.38
436.949	99.38
437.17	91.38
437.392	86.38
437.614	99.38
437.835	96.38
438.057	106.38
438.278	99.38
438.5	101.38
438.721	105.38
438.943	92.38
439.165	83.38
439.386	80.38
439.608	77.38
439.829	103.38
440.05	110.38
440.272	123.38
440.493	109.38
440.715	82.38
440.936	63.38
441.158	83.38
441.379	79.38
441.6	91.38
441.822	89.38
442.043	90.38
442.264	99.38
442.486	88.38
442.707	90.38
442.928	97.38
443.149	102.38
443.371	97.38
443.592	97.38
443.813	96.38
444.034	87.38
444.255	91.38
444.476	83.38
444.698	95.38
444.919	84.38
445.14	123.38
445.361	112.38
445.582	107.38
445.803	104.38
446.024	115.38
446.245	122.38
446.466	91.38
446.687	97.38
446.908	81.38
447.129	91.38
447.35	97.38
447.571	71.38
447.792	97.38
448.013	91.38
448.234	101.38
448.455	101.38
448.675	85.38
448.896	99.38
449.117	94.38
449.338	92.38
449.559	113.38
449.779	96.38
450	106.38
450.221	97.38
450.442	69.38
450.662	96.38
450.883	95.38
451.104	95.38
451.324	83.38
451.545	89.38
451.766	90.38
451.986	87.38
452.207	87.38
452.428	93.38
452.648	74.38
452.869	79.38
453.089	101.38
453.31	108.38
453.53	91.38
453.751	96.38
453.971	92.38
454.192	102.38
454.412	84.38
454.633	83.38
454.853	81.38
455.073	83.38
455.294	79.38
455.514	98.38
455.734	78.38
455.955	81.38
456.175	87.38
456.395	76.38
456.616	77.38
456.836	79.38
457.056	72.38
457.276	101.38
457.497	86.38
457.717	74.38
457.937	77.38
458.157	97.38
458.377	95.38
458.598	99.38
458.818	130.38
459.038	132.38
459.258	104.38
459.478	76.38
459.698	81.38
459.918	86.38
460.138	83.38
460.358	70.38
460.578	103.38
460.798	82.38
461.018	81.38
461.238	75.38
461.458	85.38
461.678	88.38
461.898	81.38
462.118	81.38
462.338	82.38
462.558	87.38
462.777	92.38
462.997	85.38
463.217	77.38
463.437	69.38
463.657	69.38
463.876	85.38
464.096	93.38
464.316	89.38
464.536	87.38
464.755	84.38
464.975	95.38
465.195	127.38
465.414	128.38
465.634	93.38
465.854	79.38
466.073	80.38
466.293	80.38
466.512	81.38
466.732	84.38
466.951	77.38
467.171	87.38
467.391	92.38
467.61	94.38
467.829	84.38
468.049	100.38
468.268	97.38
468.488	96.38
468.707	78.38
468.927	79.38
469.146	77.38
469.365	83.38
469.585	80.38
469.804	76.38
470.023	80.38
470.243	72.38
470.462	98.38
470.681	116.38
470.901	95.38
471.12	75.38
471.339	80.38
471.558	87.38
471.777	78.38
471.997	83.38
472.216	89.38
472.435	105.38
472.654	103.38
472.873	78.38
473.092	88.38
473.311	93.38
473.53	88.38
473.749	74.38
473.968	93.38
474.187	82.38
474.406	84.38
474.625	87.38
474.844	93.38
475.063	98.38
475.282	88.38
475.501	80.38
475.72	88.38
475.939	84.38
476.158	84.38
476.377	84.38
476.596	83.38
476.814	94.38
477.033	86.38
477.252	96.38
477.471	84.38
477.69	97.38
477.908	97.38
478.127	76.38
478.346	75.38
478.564	77.38
478.783	102.38
479.002	80.38
479.22	95.38
479.439	97.38
479.658	93.38
479.876	100.38
480.095	75.38
480.313	80.38
480.532	100.38
480.751	95.38
480.969	76.38
481.188	111.38
481.406	108.38
481.624	83.38
481.843	94.38
482.061	91.38
482.28	70.38
482.498	83.38
482.717	85.38
482.935	76.38
483.153	82.38
483.372	89.38
483.59	87.38
483.808	87.38
484.027	96.38
484.245	86.38
484.463	79.38
484.681	89.38
484.9	90.38
485.118	94.38
485.336	88.38
485.554	88.38
485.772	93.38
485.99	97.38
486.209	95.38
486.427	86.38
486.645	112.38
486.863	111.38
487.081	88.38
487.299	101.38
487.517	102.38
487.735	73.38
487.953	97.38
488.171	94.38
488.389	96.38
488.607	88.38
488.825	105.38
489.043	92.38
489.261	87.38
489.479	87.38
489.696	81.38
489.914	87.38
490.132	70.38
490.35	84.38
490.568	83.38
490.786	75.38
491.003	80.38
491.221	89.38
491.439	75.38
491.657	83.38
491.874	95.38
492.092	85.38
492.31	97.38
492.527	94.38
492.745	84.38
492.963	91.38
493.18	86.38
493.398	100.38
493.615	84.38
493.833	98.38
494.05	86.38
494.268	91.38
494.485	88.38
494.703	87.38
494.92	84.38
495.138	89.38
495.355	79.38
495.573	99.38
495.79	91.38
496.008	91.38
496.225	103.38
496.442	101.38
496.66	92.38
496.877	89.38
497.094	74.38
497.312	88.38
497.529	81.38
497.746	103.38
497.963	97.38
498.181	91.38
498.398	70.38
498.615	94.38
498.832	93.38
499.049	94.38
499.267	98.38
499.484	83.38
499.701	86.38
499.918	77.38
500.135	80.38
500.352	89.38
500.569	91.38
500.786	83.38
501.003	90.38
501.22	85.38
501.437	96.38
501.654	96.38
501.871	109.38
502.088	100.38
502.305	83.38
502.522	77.38
502.739	89.38
502.956	103.38
503.172	86.38
503.389	96.38
503.606	90.38
503.823	98.38
504.04	85.38
504.256	93.38
504.473	79.38
504.69	91.38
504.907	107.38
505.123	83.38
505.34	84.38
505.557	84.38
505.773	83.38
505.99	76.38
506.207	84.38
506.423	81.38
506.64	86.38
506.856	84.38
507.073	89.38
507.289	95.38
507.506	96.38
507.722	86.38
507.939	104.38
508.155	93.38
508.372	92.38
508.588	87.38
508.805	86.38
509.021	102.38
509.238	92.38
509.454	81.38
509.67	104.38
509.887	96.38
510.103	121.38
510.319	195.38
510.536	617.38
510.752	1809.38
510.968	523.38
511.184	139.38
511.401	107.38
511.617	88.38
511.833	97.38
512.049	89.38
512.265	95.38
512.481	97.38
512.698	87.38
512.914	96.38
513.13	83.38
513.346	91.38
513.562	95.38
513.778	105.38
513.994	97.38
514.21	91.38
514.426	126.38
514.642	117.38
514.858	98.38
515.074	152.38
515.29	358.38
515.506	1102.38
515.721	420.38
515.937	139.38
516.153	94.38
516.369	100.38
516.585	92.38
516.801	88.38
517.016	86.38
517.232	91.38
517.448	94.38
