Data from Uncirc_1997_H10_HRD10591_00006.txt Node
Date: Wed Jan 03 11:28:31 EST 2024
User: Yrep
Spectrometer: HR+D1059
Trigger mode: 1
Integration Time (sec): 1.000000E-1
Scans to average: 1
Electric dark correction enabled: true
Nonlinearity correction enabled: false
Boxcar width: 0
XAxis mode: Wavelengths
Number of Pixels in Spectrum: 2048
>>>>>Begin Spectral Data<<<<<
223.165	-18.62
223.4	-18.62
223.635	-18.62
223.869	-27.62
224.104	-15.62
224.338	-27.62
224.573	-6.62
224.808	-21.62
225.042	-12.62
225.277	-1.62
225.511	7.38
225.746	7.38
225.98	-7.62
226.215	2.38
226.449	21.38
226.683	25.38
226.918	30.38
227.152	45.38
227.387	43.38
227.621	43.38
227.856	38.38
228.09	44.38
228.324	41.38
228.559	68.38
228.793	49.38
229.027	61.38
229.262	60.38
229.496	67.38
229.73	76.38
229.964	89.38
230.199	67.38
230.433	79.38
230.667	75.38
230.901	75.38
231.136	87.38
231.37	83.38
231.604	75.38
231.838	78.38
232.072	79.38
232.306	68.38
232.541	75.38
232.775	81.38
233.009	78.38
233.243	83.38
233.477	74.38
233.711	78.38
233.945	96.38
234.179	93.38
234.413	95.38
234.647	73.38
234.881	73.38
235.115	67.38
235.349	80.38
235.583	93.38
235.817	83.38
236.051	71.38
236.285	82.38
236.519	89.38
236.753	79.38
236.987	80.38
237.221	88.38
237.455	90.38
237.689	84.38
237.922	96.38
238.156	78.38
238.39	80.38
238.624	67.38
238.858	77.38
239.091	67.38
239.325	64.38
239.559	90.38
239.793	82.38
240.027	85.38
240.26	96.38
240.494	82.38
240.728	76.38
240.961	76.38
241.195	71.38
241.429	77.38
241.662	77.38
241.896	82.38
242.13	76.38
242.363	79.38
242.597	87.38
242.83	80.38
243.064	78.38
243.298	65.38
243.531	73.38
243.765	89.38
243.998	79.38
244.232	75.38
244.465	84.38
244.699	80.38
244.932	71.38
245.166	66.38
245.399	73.38
245.633	83.38
245.866	76.38
246.099	82.38
246.333	81.38
246.566	83.38
246.8	82.38
247.033	79.38
247.266	73.38
247.5	77.38
247.733	75.38
247.966	73.38
248.2	75.38
248.433	81.38
248.666	79.38
248.899	78.38
249.133	89.38
249.366	93.38
249.599	73.38
249.832	75.38
250.066	89.38
250.299	73.38
250.532	71.38
250.765	87.38
250.998	75.38
251.231	74.38
251.465	91.38
251.698	83.38
251.931	76.38
252.164	81.38
252.397	81.38
252.63	79.38
252.863	78.38
253.096	85.38
253.329	85.38
253.562	85.38
253.795	78.38
254.028	80.38
254.261	79.38
254.494	77.38
254.727	84.38
254.96	64.38
255.193	77.38
255.426	72.38
255.659	95.38
255.892	87.38
256.124	71.38
256.357	86.38
256.59	86.38
256.823	92.38
257.056	91.38
257.289	90.38
257.521	75.38
257.754	83.38
257.987	90.38
258.22	93.38
258.452	79.38
258.685	90.38
258.918	77.38
259.151	83.38
259.383	95.38
259.616	92.38
259.849	80.38
260.081	90.38
260.314	83.38
260.547	75.38
260.779	92.38
261.012	82.38
261.244	92.38
261.477	91.38
261.71	72.38
261.942	98.38
262.175	101.38
262.407	88.38
262.64	85.38
262.872	98.38
263.105	77.38
263.337	88.38
263.57	81.38
263.802	82.38
264.035	78.38
264.267	80.38
264.499	92.38
264.732	87.38
264.964	94.38
265.197	87.38
265.429	91.38
265.661	101.38
265.894	79.38
266.126	87.38
266.358	62.38
266.591	83.38
266.823	86.38
267.055	74.38
267.287	85.38
267.52	84.38
267.752	88.38
267.984	81.38
268.216	83.38
268.448	87.38
268.681	87.38
268.913	83.38
269.145	69.38
269.377	81.38
269.609	79.38
269.841	82.38
270.073	87.38
270.306	88.38
270.538	93.38
270.77	88.38
271.002	94.38
271.234	87.38
271.466	97.38
271.698	97.38
271.93	74.38
272.162	93.38
272.394	95.38
272.626	77.38
272.858	82.38
273.09	71.38
273.322	84.38
273.553	87.38
273.785	77.38
274.017	84.38
274.249	88.38
274.481	84.38
274.713	84.38
274.945	84.38
275.176	81.38
275.408	89.38
275.64	78.38
275.872	63.38
276.104	103.38
276.335	89.38
276.567	107.38
276.799	106.38
277.031	95.38
277.262	85.38
277.494	86.38
277.726	98.38
277.957	80.38
278.189	75.38
278.421	90.38
278.652	90.38
278.884	87.38
279.115	84.38
279.347	91.38
279.579	87.38
279.81	92.38
280.042	92.38
280.273	97.38
280.505	103.38
280.736	87.38
280.968	98.38
281.199	87.38
281.431	78.38
281.662	92.38
281.894	85.38
282.125	90.38
282.356	112.38
282.588	122.38
282.819	110.38
283.051	76.38
283.282	68.38
283.513	85.38
283.745	85.38
283.976	92.38
284.207	80.38
284.439	93.38
284.67	98.38
284.901	86.38
285.132	95.38
285.364	100.38
285.595	84.38
285.826	87.38
286.057	93.38
286.288	96.38
286.52	95.38
286.751	85.38
286.982	82.38
287.213	68.38
287.444	89.38
287.675	90.38
287.906	81.38
288.138	91.38
288.369	87.38
288.6	94.38
288.831	93.38
289.062	99.38
289.293	98.38
289.524	91.38
289.755	81.38
289.986	77.38
290.217	95.38
290.448	81.38
290.679	101.38
290.91	95.38
291.141	75.38
291.371	79.38
291.602	95.38
291.833	84.38
292.064	74.38
292.295	69.38
292.526	84.38
292.757	79.38
292.987	87.38
293.218	74.38
293.449	77.38
293.68	94.38
293.91	97.38
294.141	96.38
294.372	93.38
294.603	91.38
294.833	88.38
295.064	87.38
295.295	90.38
295.525	92.38
295.756	87.38
295.987	108.38
296.217	136.38
296.448	98.38
296.679	92.38
296.909	78.38
297.14	91.38
297.37	87.38
297.601	92.38
297.831	82.38
298.062	91.38
298.292	83.38
298.523	92.38
298.753	83.38
298.984	96.38
299.214	96.38
299.445	85.38
299.675	90.38
299.905	91.38
300.136	90.38
300.366	93.38
300.597	95.38
300.827	99.38
301.057	97.38
301.288	93.38
301.518	81.38
301.748	79.38
301.979	83.38
302.209	86.38
302.439	94.38
302.669	91.38
302.9	118.38
303.13	79.38
303.36	98.38
303.59	102.38
303.82	108.38
304.051	103.38
304.281	82.38
304.511	90.38
304.741	88.38
304.971	97.38
305.201	83.38
305.431	88.38
305.661	105.38
305.891	97.38
306.121	96.38
306.352	93.38
306.582	105.38
306.812	81.38
307.042	80.38
307.272	70.38
307.502	99.38
307.731	81.38
307.961	84.38
308.191	104.38
308.421	105.38
308.651	87.38
308.881	82.38
309.111	101.38
309.341	96.38
309.571	84.38
309.8	95.38
310.03	97.38
310.26	103.38
310.49	99.38
310.72	91.38
310.949	93.38
311.179	117.38
311.409	92.38
311.639	71.38
311.868	88.38
312.098	92.38
312.328	90.38
312.557	99.38
312.787	100.38
313.017	106.38
313.246	80.38
313.476	107.38
313.706	96.38
313.935	90.38
314.165	92.38
314.394	100.38
314.624	89.38
314.853	94.38
315.083	103.38
315.312	96.38
315.542	96.38
315.771	98.38
316.001	94.38
316.23	86.38
316.46	82.38
316.689	81.38
316.919	83.38
317.148	89.38
317.377	96.38
317.607	105.38
317.836	95.38
318.065	81.38
318.295	85.38
318.524	96.38
318.753	88.38
318.983	93.38
319.212	99.38
319.441	96.38
319.67	109.38
319.9	101.38
320.129	89.38
320.358	95.38
320.587	89.38
320.816	99.38
321.046	94.38
321.275	98.38
321.504	76.38
321.733	87.38
321.962	96.38
322.191	87.38
322.42	91.38
322.649	92.38
322.878	99.38
323.108	98.38
323.337	134.38
323.566	111.38
323.795	138.38
324.024	180.38
324.253	340.38
324.482	687.38
324.71	1402.38
324.939	1811.38
325.168	665.38
325.397	218.38
325.626	139.38
325.855	122.38
326.084	109.38
326.313	130.38
326.542	142.38
326.77	205.38
326.999	397.38
327.228	787.38
327.457	1427.38
327.686	1118.38
327.914	316.38
328.143	155.38
328.372	132.38
328.6	108.38
328.829	110.38
329.058	106.38
329.287	117.38
329.515	97.38
329.744	89.38
329.972	99.38
330.201	101.38
330.43	121.38
330.658	124.38
330.887	124.38
331.115	112.38
331.344	100.38
331.572	102.38
331.801	96.38
332.03	110.38
332.258	92.38
332.486	103.38
332.715	90.38
332.943	82.38
333.172	102.38
333.4	93.38
333.629	101.38
333.857	101.38
334.085	94.38
334.314	105.38
334.542	105.38
334.771	98.38
334.999	92.38
335.227	99.38
335.455	95.38
335.684	89.38
335.912	93.38
336.14	92.38
336.369	99.38
336.597	100.38
336.825	105.38
337.053	83.38
337.281	100.38
337.51	93.38
337.738	90.38
337.966	86.38
338.194	90.38
338.422	100.38
338.65	83.38
338.878	89.38
339.106	93.38
339.334	109.38
339.562	106.38
339.79	79.38
340.018	93.38
340.246	106.38
340.474	104.38
340.702	87.38
340.93	83.38
341.158	87.38
341.386	109.38
341.614	115.38
341.842	83.38
342.07	84.38
342.298	111.38
342.526	90.38
342.754	89.38
342.981	81.38
343.209	93.38
343.437	104.38
343.665	95.38
343.893	106.38
344.12	101.38
344.348	98.38
344.576	91.38
344.804	95.38
345.031	97.38
345.259	106.38
345.487	93.38
345.714	93.38
345.942	93.38
346.17	91.38
346.397	101.38
346.625	95.38
346.853	89.38
347.08	75.38
347.308	91.38
347.535	99.38
347.763	100.38
347.99	109.38
348.218	103.38
348.445	105.38
348.673	87.38
348.9	90.38
349.128	100.38
349.355	94.38
349.583	90.38
349.81	68.38
350.037	90.38
350.265	87.38
350.492	97.38
350.72	101.38
350.947	107.38
351.174	98.38
351.402	101.38
351.629	107.38
351.856	98.38
352.083	108.38
352.311	100.38
352.538	109.38
352.765	99.38
352.992	114.38
353.22	114.38
353.447	109.38
353.674	96.38
353.901	106.38
354.128	95.38
354.355	91.38
354.583	106.38
354.81	90.38
355.037	96.38
355.264	91.38
355.491	100.38
355.718	102.38
355.945	83.38
356.172	81.38
356.399	87.38
356.626	93.38
356.853	103.38
357.08	87.38
357.307	88.38
357.534	99.38
357.761	104.38
357.988	113.38
358.215	90.38
358.441	98.38
358.668	91.38
358.895	96.38
359.122	94.38
359.349	86.38
359.576	85.38
359.802	108.38
360.029	112.38
360.256	89.38
360.483	90.38
360.709	99.38
360.936	110.38
361.163	85.38
361.39	87.38
361.616	98.38
361.843	86.38
362.07	95.38
362.296	91.38
362.523	85.38
362.749	93.38
362.976	79.38
363.203	85.38
363.429	90.38
363.656	82.38
363.882	94.38
364.109	88.38
364.335	88.38
364.562	86.38
364.788	94.38
365.015	99.38
365.241	90.38
365.468	104.38
365.694	98.38
365.92	96.38
366.147	91.38
366.373	99.38
366.599	84.38
366.826	91.38
367.052	85.38
367.278	92.38
367.505	97.38
367.731	95.38
367.957	93.38
368.184	92.38
368.41	94.38
368.636	107.38
368.862	111.38
369.089	106.38
369.315	94.38
369.541	85.38
369.767	87.38
369.993	92.38
370.219	100.38
370.445	90.38
370.672	82.38
370.898	72.38
371.124	87.38
371.35	85.38
371.576	77.38
371.802	75.38
372.028	84.38
372.254	102.38
372.48	88.38
372.706	94.38
372.932	95.38
373.158	95.38
373.384	85.38
373.61	77.38
373.835	83.38
374.061	87.38
374.287	94.38
374.513	100.38
374.739	96.38
374.965	87.38
375.191	103.38
375.416	91.38
375.642	83.38
375.868	89.38
376.094	76.38
376.319	84.38
376.545	87.38
376.771	88.38
376.997	87.38
377.222	84.38
377.448	86.38
377.674	97.38
377.899	103.38
378.125	91.38
378.35	103.38
378.576	99.38
378.802	96.38
379.027	85.38
379.253	91.38
379.478	77.38
379.704	91.38
379.929	97.38
380.155	84.38
380.38	87.38
380.606	85.38
380.831	98.38
381.057	112.38
381.282	117.38
381.507	110.38
381.733	88.38
381.958	95.38
382.184	95.38
382.409	109.38
382.634	99.38
382.86	105.38
383.085	106.38
383.31	104.38
383.535	95.38
383.761	92.38
383.986	93.38
384.211	89.38
384.436	101.38
384.662	83.38
384.887	96.38
385.112	104.38
385.337	84.38
385.562	93.38
385.787	106.38
386.013	110.38
386.238	104.38
386.463	106.38
386.688	121.38
386.913	108.38
387.138	98.38
387.363	109.38
387.588	101.38
387.813	95.38
388.038	105.38
388.263	114.38
388.488	96.38
388.713	90.38
388.938	91.38
389.163	105.38
389.387	102.38
389.612	92.38
389.837	100.38
390.062	92.38
390.287	100.38
390.512	78.38
390.736	91.38
390.961	86.38
391.186	99.38
391.411	106.38
391.636	100.38
391.86	82.38
392.085	72.38
392.31	84.38
392.534	90.38
392.759	90.38
392.984	91.38
393.208	100.38
393.433	114.38
393.658	105.38
393.882	104.38
394.107	76.38
394.331	83.38
394.556	82.38
394.78	89.38
395.005	85.38
395.229	86.38
395.454	71.38
395.678	71.38
395.903	88.38
396.127	85.38
396.352	92.38
396.576	95.38
396.801	96.38
397.025	82.38
397.249	76.38
397.474	84.38
397.698	76.38
397.922	87.38
398.147	83.38
398.371	80.38
398.595	84.38
398.82	94.38
399.044	63.38
399.268	87.38
399.492	82.38
399.717	91.38
399.941	88.38
400.165	99.38
400.389	97.38
400.613	89.38
400.837	92.38
401.062	96.38
401.286	90.38
401.51	90.38
401.734	96.38
401.958	100.38
402.182	118.38
402.406	139.38
402.63	107.38
402.854	92.38
403.078	87.38
403.302	91.38
403.526	90.38
403.75	85.38
403.974	79.38
404.198	82.38
404.422	105.38
404.645	100.38
404.869	99.38
405.093	83.38
405.317	77.38
405.541	100.38
405.765	106.38
405.988	108.38
406.212	124.38
406.436	168.38
406.66	119.38
406.883	97.38
407.107	71.38
407.331	74.38
407.555	90.38
407.778	80.38
408.002	75.38
408.226	96.38
408.449	88.38
408.673	91.38
408.896	87.38
409.12	100.38
409.344	91.38
409.567	84.38
409.791	103.38
410.014	89.38
410.238	85.38
410.461	86.38
410.685	100.38
410.908	97.38
411.132	105.38
411.355	100.38
411.578	90.38
411.802	83.38
412.025	88.38
412.249	101.38
412.472	90.38
412.695	95.38
412.919	84.38
413.142	77.38
413.365	77.38
413.589	95.38
413.812	93.38
414.035	93.38
414.258	97.38
414.482	86.38
414.705	93.38
414.928	88.38
415.151	95.38
415.374	93.38
415.597	91.38
415.821	90.38
416.044	88.38
416.267	97.38
416.49	90.38
416.713	89.38
416.936	88.38
417.159	97.38
417.382	96.38
417.605	90.38
417.828	90.38
418.051	85.38
418.274	82.38
418.497	77.38
418.72	68.38
418.943	91.38
419.166	97.38
419.389	89.38
419.611	97.38
419.834	94.38
420.057	85.38
420.28	103.38
420.503	78.38
420.726	87.38
420.948	100.38
421.171	82.38
421.394	100.38
421.617	98.38
421.839	100.38
422.062	90.38
422.285	83.38
422.507	84.38
422.73	109.38
422.953	100.38
423.175	95.38
423.398	97.38
423.621	95.38
423.843	87.38
424.066	96.38
424.288	97.38
424.511	90.38
424.733	111.38
424.956	89.38
425.178	95.38
425.401	100.38
425.623	104.38
425.846	97.38
426.068	95.38
426.291	97.38
426.513	90.38
426.735	82.38
426.958	90.38
427.18	103.38
427.402	124.38
427.625	146.38
427.847	110.38
428.069	92.38
428.292	64.38
428.514	81.38
428.736	87.38
428.958	75.38
429.181	76.38
429.403	81.38
429.625	84.38
429.847	89.38
430.069	99.38
430.292	112.38
430.514	100.38
430.736	74.38
430.958	84.38
431.18	86.38
431.402	84.38
431.624	89.38
431.846	83.38
432.068	92.38
432.29	83.38
432.512	88.38
432.734	83.38
432.956	96.38
433.178	116.38
433.4	104.38
433.622	86.38
433.844	102.38
434.066	87.38
434.287	82.38
434.509	99.38
434.731	94.38
434.953	78.38
435.175	93.38
435.397	91.38
435.618	85.38
435.84	110.38
436.062	110.38
436.284	104.38
436.505	95.38
436.727	92.38
436.949	91.38
437.17	104.38
437.392	75.38
437.614	96.38
437.835	120.38
438.057	108.38
438.278	96.38
438.5	96.38
438.721	119.38
438.943	96.38
439.165	89.38
439.386	79.38
439.608	92.38
439.829	92.38
440.05	108.38
440.272	128.38
440.493	102.38
440.715	105.38
440.936	92.38
441.158	95.38
441.379	102.38
441.6	90.38
441.822	106.38
442.043	79.38
442.264	122.38
442.486	103.38
442.707	97.38
442.928	95.38
443.149	118.38
443.371	112.38
443.592	107.38
443.813	95.38
444.034	94.38
444.255	79.38
444.476	93.38
444.698	93.38
444.919	97.38
445.14	123.38
445.361	128.38
445.582	119.38
445.803	144.38
446.024	126.38
446.245	128.38
446.466	103.38
446.687	88.38
446.908	88.38
447.129	78.38
447.35	92.38
447.571	89.38
447.792	101.38
448.013	96.38
448.234	77.38
448.455	105.38
448.675	111.38
448.896	121.38
449.117	102.38
449.338	92.38
449.559	121.38
449.779	112.38
450	87.38
450.221	84.38
450.442	93.38
450.662	85.38
450.883	103.38
451.104	91.38
451.324	106.38
451.545	92.38
451.766	85.38
451.986	73.38
452.207	90.38
452.428	83.38
452.648	105.38
452.869	99.38
453.089	110.38
453.31	114.38
453.53	93.38
453.751	83.38
453.971	88.38
454.192	103.38
454.412	92.38
454.633	91.38
454.853	88.38
455.073	88.38
455.294	90.38
455.514	121.38
455.734	100.38
455.955	86.38
456.175	79.38
456.395	84.38
456.616	84.38
456.836	95.38
457.056	84.38
457.276	94.38
457.497	88.38
457.717	84.38
457.937	88.38
458.157	96.38
458.377	90.38
458.598	99.38
458.818	122.38
459.038	132.38
459.258	112.38
459.478	94.38
459.698	86.38
459.918	98.38
460.138	101.38
460.358	89.38
460.578	82.38
460.798	79.38
461.018	96.38
461.238	86.38
461.458	91.38
461.678	86.38
461.898	95.38
462.118	78.38
462.338	91.38
462.558	84.38
462.777	84.38
462.997	77.38
463.217	93.38
463.437	95.38
463.657	99.38
463.876	83.38
464.096	97.38
464.316	107.38
464.536	85.38
464.755	94.38
464.975	95.38
465.195	146.38
465.414	127.38
465.634	87.38
465.854	88.38
466.073	87.38
466.293	89.38
466.512	80.38
466.732	95.38
466.951	83.38
467.171	101.38
467.391	102.38
467.61	105.38
467.829	79.38
468.049	99.38
468.268	85.38
468.488	89.38
468.707	80.38
468.927	72.38
469.146	76.38
469.365	93.38
469.585	92.38
469.804	95.38
470.023	99.38
470.243	87.38
470.462	96.38
470.681	93.38
470.901	87.38
471.12	82.38
471.339	87.38
471.558	79.38
471.777	91.38
471.997	91.38
472.216	89.38
472.435	90.38
472.654	81.38
472.873	86.38
473.092	86.38
473.311	90.38
473.53	90.38
473.749	82.38
473.968	88.38
474.187	94.38
474.406	86.38
474.625	87.38
474.844	81.38
475.063	96.38
475.282	92.38
475.501	103.38
475.72	95.38
475.939	80.38
476.158	88.38
476.377	81.38
476.596	59.38
476.814	82.38
477.033	85.38
477.252	95.38
477.471	86.38
477.69	96.38
477.908	73.38
478.127	91.38
478.346	83.38
478.564	92.38
478.783	82.38
479.002	96.38
479.22	91.38
479.439	99.38
479.658	105.38
479.876	86.38
480.095	83.38
480.313	96.38
480.532	92.38
480.751	100.38
480.969	89.38
481.188	103.38
481.406	89.38
481.624	94.38
481.843	87.38
482.061	99.38
482.28	84.38
482.498	81.38
482.717	94.38
482.935	73.38
483.153	77.38
483.372	86.38
483.59	97.38
483.808	100.38
484.027	92.38
484.245	109.38
484.463	80.38
484.681	99.38
484.9	91.38
485.118	107.38
485.336	90.38
485.554	84.38
485.772	93.38
485.99	109.38
486.209	98.38
486.427	97.38
486.645	99.38
486.863	117.38
487.081	93.38
487.299	91.38
487.517	92.38
487.735	89.38
487.953	87.38
488.171	87.38
488.389	78.38
488.607	101.38
488.825	112.38
489.043	90.38
489.261	106.38
489.479	93.38
489.696	88.38
489.914	93.38
490.132	105.38
490.35	91.38
490.568	76.38
490.786	92.38
491.003	72.38
491.221	83.38
491.439	90.38
491.657	92.38
491.874	102.38
492.092	105.38
492.31	88.38
492.527	94.38
492.745	82.38
492.963	100.38
493.18	87.38
493.398	83.38
493.615	92.38
493.833	91.38
494.05	97.38
494.268	95.38
494.485	78.38
494.703	108.38
494.92	83.38
495.138	71.38
495.355	89.38
495.573	93.38
495.79	76.38
496.008	87.38
496.225	81.38
496.442	81.38
496.66	95.38
496.877	90.38
497.094	95.38
497.312	85.38
497.529	91.38
497.746	75.38
497.963	92.38
498.181	93.38
498.398	82.38
498.615	111.38
498.832	100.38
499.049	87.38
499.267	92.38
499.484	78.38
499.701	95.38
499.918	100.38
500.135	85.38
500.352	95.38
500.569	73.38
500.786	92.38
501.003	82.38
501.22	88.38
501.437	96.38
501.654	92.38
501.871	99.38
502.088	104.38
502.305	107.38
502.522	82.38
502.739	97.38
502.956	94.38
503.172	87.38
503.389	96.38
503.606	100.38
503.823	97.38
504.04	89.38
504.256	101.38
504.473	83.38
504.69	95.38
504.907	91.38
505.123	84.38
505.34	84.38
505.557	85.38
505.773	93.38
505.99	84.38
506.207	101.38
506.423	95.38
506.64	82.38
506.856	91.38
507.073	97.38
507.289	106.38
507.506	96.38
507.722	116.38
507.939	100.38
508.155	105.38
508.372	93.38
508.588	98.38
508.805	104.38
509.021	91.38
509.238	86.38
509.454	99.38
509.67	97.38
509.887	98.38
510.103	129.38
510.319	176.38
510.536	587.38
510.752	1743.38
510.968	512.38
511.184	137.38
511.401	115.38
511.617	94.38
511.833	96.38
512.049	106.38
512.265	91.38
512.481	97.38
512.698	97.38
512.914	90.38
513.13	95.38
513.346	105.38
513.562	94.38
513.778	97.38
513.994	98.38
514.21	88.38
514.426	118.38
514.642	134.38
514.858	117.38
515.074	153.38
515.29	371.38
515.506	1095.38
515.721	426.38
515.937	141.38
