Data from Uncirc_1997_H10_HRD10591_00095.txt Node
Date: Wed Jan 03 11:28:49 EST 2024
User: Yrep
Spectrometer: HR+D1059
Trigger mode: 1
Integration Time (sec): 1.000000E-1
Scans to average: 1
Electric dark correction enabled: true
Nonlinearity correction enabled: false
Boxcar width: 0
XAxis mode: Wavelengths
Number of Pixels in Spectrum: 2048
>>>>>Begin Spectral Data<<<<<
223.165	-11.81
223.4	-11.81
223.635	-11.81
223.869	-9.81
224.104	-15.81
224.338	-18.81
224.573	-13.81
224.808	5.19
225.042	-7.81
225.277	4.19
225.511	-7.81
225.746	-23.81
225.98	10.19
226.215	19.19
226.449	5.19
226.683	21.19
226.918	20.19
227.152	24.19
227.387	56.19
227.621	45.19
227.856	47.19
228.09	42.19
228.324	56.19
228.559	43.19
228.793	48.19
229.027	68.19
229.262	55.19
229.496	80.19
229.73	75.19
229.964	79.19
230.199	73.19
230.433	78.19
230.667	79.19
230.901	87.19
231.136	74.19
231.37	95.19
231.604	97.19
231.838	80.19
232.072	80.19
232.306	80.19
232.541	89.19
232.775	84.19
233.009	79.19
233.243	91.19
233.477	82.19
233.711	73.19
233.945	81.19
234.179	94.19
234.413	79.19
234.647	75.19
234.881	83.19
235.115	98.19
235.349	77.19
235.583	79.19
235.817	73.19
236.051	76.19
236.285	73.19
236.519	89.19
236.753	73.19
236.987	80.19
237.221	78.19
237.455	94.19
237.689	76.19
237.922	89.19
238.156	73.19
238.39	89.19
238.624	84.19
238.858	87.19
239.091	82.19
239.325	72.19
239.559	84.19
239.793	81.19
240.027	61.19
240.26	75.19
240.494	82.19
240.728	77.19
240.961	72.19
241.195	77.19
241.429	73.19
241.662	71.19
241.896	85.19
242.13	73.19
242.363	87.19
242.597	79.19
242.83	73.19
243.064	91.19
243.298	63.19
243.531	72.19
243.765	85.19
243.998	88.19
244.232	65.19
244.465	78.19
244.699	89.19
244.932	77.19
245.166	80.19
245.399	84.19
245.633	74.19
245.866	85.19
246.099	83.19
246.333	80.19
246.566	84.19
246.8	78.19
247.033	85.19
247.266	74.19
247.5	79.19
247.733	77.19
247.966	83.19
248.2	96.19
248.433	79.19
248.666	88.19
248.899	84.19
249.133	87.19
249.366	82.19
249.599	92.19
249.832	88.19
250.066	67.19
250.299	74.19
250.532	83.19
250.765	68.19
250.998	87.19
251.231	83.19
251.465	81.19
251.698	80.19
251.931	67.19
252.164	91.19
252.397	93.19
252.63	89.19
252.863	94.19
253.096	78.19
253.329	97.19
253.562	83.19
253.795	75.19
254.028	82.19
254.261	64.19
254.494	75.19
254.727	100.19
254.96	90.19
255.193	74.19
255.426	90.19
255.659	90.19
255.892	88.19
256.124	77.19
256.357	81.19
256.59	70.19
256.823	76.19
257.056	82.19
257.289	85.19
257.521	89.19
257.754	75.19
257.987	82.19
258.22	73.19
258.452	79.19
258.685	79.19
258.918	88.19
259.151	85.19
259.383	78.19
259.616	88.19
259.849	67.19
260.081	81.19
260.314	82.19
260.547	62.19
260.779	94.19
261.012	94.19
261.244	84.19
261.477	78.19
261.71	95.19
261.942	112.19
262.175	104.19
262.407	93.19
262.64	83.19
262.872	81.19
263.105	96.19
263.337	80.19
263.57	86.19
263.802	96.19
264.035	78.19
264.267	75.19
264.499	74.19
264.732	87.19
264.964	67.19
265.197	80.19
265.429	71.19
265.661	86.19
265.894	83.19
266.126	78.19
266.358	77.19
266.591	92.19
266.823	91.19
267.055	84.19
267.287	81.19
267.52	89.19
267.752	81.19
267.984	95.19
268.216	82.19
268.448	91.19
268.681	74.19
268.913	83.19
269.145	86.19
269.377	96.19
269.609	82.19
269.841	85.19
270.073	75.19
270.306	92.19
270.538	89.19
270.77	89.19
271.002	82.19
271.234	79.19
271.466	87.19
271.698	85.19
271.93	91.19
272.162	72.19
272.394	91.19
272.626	96.19
272.858	83.19
273.09	78.19
273.322	78.19
273.553	84.19
273.785	82.19
274.017	94.19
274.249	85.19
274.481	99.19
274.713	81.19
274.945	87.19
275.176	83.19
275.408	89.19
275.64	94.19
275.872	92.19
276.104	91.19
276.335	91.19
276.567	107.19
276.799	91.19
277.031	89.19
277.262	81.19
277.494	83.19
277.726	78.19
277.957	95.19
278.189	92.19
278.421	71.19
278.652	95.19
278.884	85.19
279.115	91.19
279.347	85.19
279.579	93.19
279.81	75.19
280.042	104.19
280.273	94.19
280.505	89.19
280.736	91.19
280.968	79.19
281.199	84.19
281.431	101.19
281.662	87.19
281.894	85.19
282.125	112.19
282.356	121.19
282.588	123.19
282.819	124.19
283.051	98.19
283.282	85.19
283.513	82.19
283.745	95.19
283.976	91.19
284.207	80.19
284.439	81.19
284.67	88.19
284.901	77.19
285.132	90.19
285.364	85.19
285.595	102.19
285.826	87.19
286.057	83.19
286.288	89.19
286.52	80.19
286.751	89.19
286.982	97.19
287.213	83.19
287.444	97.19
287.675	89.19
287.906	88.19
288.138	82.19
288.369	88.19
288.6	84.19
288.831	79.19
289.062	93.19
289.293	88.19
289.524	86.19
289.755	94.19
289.986	89.19
290.217	108.19
290.448	83.19
290.679	77.19
290.91	97.19
291.141	99.19
291.371	87.19
291.602	97.19
291.833	74.19
292.064	88.19
292.295	83.19
292.526	89.19
292.757	89.19
292.987	88.19
293.218	102.19
293.449	85.19
293.68	90.19
293.91	96.19
294.141	100.19
294.372	82.19
294.603	98.19
294.833	85.19
295.064	87.19
295.295	91.19
295.525	104.19
295.756	97.19
295.987	111.19
296.217	132.19
296.448	116.19
296.679	86.19
296.909	96.19
297.14	89.19
297.37	97.19
297.601	92.19
297.831	93.19
298.062	96.19
298.292	82.19
298.523	95.19
298.753	98.19
298.984	95.19
299.214	100.19
299.445	89.19
299.675	93.19
299.905	98.19
300.136	107.19
300.366	75.19
300.597	94.19
300.827	99.19
301.057	89.19
301.288	94.19
301.518	96.19
301.748	114.19
301.979	109.19
302.209	93.19
302.439	86.19
302.669	91.19
302.9	72.19
303.13	89.19
303.36	94.19
303.59	91.19
303.82	108.19
304.051	99.19
304.281	79.19
304.511	92.19
304.741	105.19
304.971	100.19
305.201	100.19
305.431	96.19
305.661	99.19
305.891	86.19
306.121	93.19
306.352	91.19
306.582	93.19
306.812	88.19
307.042	92.19
307.272	90.19
307.502	100.19
307.731	104.19
307.961	73.19
308.191	85.19
308.421	91.19
308.651	92.19
308.881	108.19
309.111	101.19
309.341	84.19
309.571	83.19
309.8	99.19
310.03	98.19
310.26	88.19
310.49	100.19
310.72	98.19
310.949	100.19
311.179	107.19
311.409	94.19
311.639	92.19
311.868	96.19
312.098	98.19
312.328	104.19
312.557	97.19
312.787	98.19
313.017	100.19
313.246	99.19
313.476	91.19
313.706	112.19
313.935	111.19
314.165	92.19
314.394	105.19
314.624	88.19
314.853	87.19
315.083	92.19
315.312	90.19
315.542	95.19
315.771	94.19
316.001	83.19
316.23	74.19
316.46	95.19
316.689	92.19
316.919	78.19
317.148	93.19
317.377	95.19
317.607	90.19
317.836	97.19
318.065	81.19
318.295	84.19
318.524	89.19
318.753	87.19
318.983	104.19
319.212	100.19
319.441	98.19
319.67	105.19
319.9	108.19
320.129	89.19
320.358	84.19
320.587	99.19
320.816	101.19
321.046	107.19
321.275	92.19
321.504	104.19
321.733	77.19
321.962	97.19
322.191	118.19
322.42	101.19
322.649	99.19
322.878	114.19
323.108	113.19
323.337	123.19
323.566	125.19
323.795	161.19
324.024	199.19
324.253	361.19
324.482	754.19
324.71	1499.19
324.939	1964.19
325.168	751.19
325.397	219.19
325.626	151.19
325.855	120.19
326.084	123.19
326.313	117.19
326.542	142.19
326.77	217.19
326.999	422.19
327.228	864.19
327.457	1496.19
327.686	1216.19
327.914	333.19
328.143	175.19
328.372	139.19
328.6	115.19
328.829	109.19
329.058	124.19
329.287	109.19
329.515	108.19
329.744	113.19
329.972	92.19
330.201	110.19
330.43	112.19
330.658	106.19
330.887	141.19
331.115	126.19
331.344	94.19
331.572	82.19
331.801	101.19
332.03	108.19
332.258	96.19
332.486	90.19
332.715	96.19
332.943	91.19
333.172	87.19
333.4	98.19
333.629	108.19
333.857	108.19
334.085	106.19
334.314	91.19
334.542	106.19
334.771	96.19
334.999	89.19
335.227	90.19
335.455	107.19
335.684	101.19
335.912	86.19
336.14	86.19
336.369	89.19
336.597	80.19
336.825	95.19
337.053	75.19
337.281	94.19
337.51	89.19
337.738	86.19
337.966	84.19
338.194	101.19
338.422	93.19
338.65	85.19
338.878	98.19
339.106	95.19
339.334	96.19
339.562	104.19
339.79	87.19
340.018	93.19
340.246	100.19
340.474	99.19
340.702	96.19
340.93	92.19
341.158	88.19
341.386	89.19
341.614	99.19
341.842	95.19
342.07	98.19
342.298	101.19
342.526	78.19
342.754	80.19
342.981	101.19
343.209	84.19
343.437	91.19
343.665	101.19
343.893	96.19
344.12	93.19
344.348	90.19
344.576	83.19
344.804	95.19
345.031	93.19
345.259	83.19
345.487	97.19
345.714	100.19
345.942	87.19
346.17	106.19
346.397	85.19
346.625	93.19
346.853	75.19
347.08	105.19
347.308	93.19
347.535	91.19
347.763	96.19
347.99	91.19
348.218	103.19
348.445	106.19
348.673	95.19
348.9	93.19
349.128	95.19
349.355	99.19
349.583	95.19
349.81	93.19
350.037	97.19
350.265	101.19
350.492	83.19
350.72	82.19
350.947	86.19
351.174	109.19
351.402	107.19
351.629	100.19
351.856	106.19
352.083	99.19
352.311	110.19
352.538	112.19
352.765	103.19
352.992	118.19
353.22	110.19
353.447	103.19
353.674	106.19
353.901	95.19
354.128	108.19
354.355	105.19
354.583	96.19
354.81	105.19
355.037	87.19
355.264	98.19
355.491	83.19
355.718	92.19
355.945	100.19
356.172	91.19
356.399	92.19
356.626	97.19
356.853	107.19
357.08	95.19
357.307	106.19
357.534	86.19
357.761	105.19
357.988	88.19
358.215	95.19
358.441	88.19
358.668	89.19
358.895	104.19
359.122	74.19
359.349	96.19
359.576	108.19
359.802	103.19
360.029	109.19
360.256	112.19
360.483	100.19
360.709	82.19
360.936	95.19
361.163	94.19
361.39	97.19
361.616	91.19
361.843	87.19
362.07	80.19
362.296	92.19
362.523	101.19
362.749	89.19
362.976	82.19
363.203	97.19
363.429	89.19
363.656	93.19
363.882	95.19
364.109	85.19
364.335	86.19
364.562	91.19
364.788	94.19
365.015	98.19
365.241	104.19
365.468	100.19
365.694	91.19
365.92	94.19
366.147	99.19
366.373	84.19
366.599	98.19
366.826	87.19
367.052	84.19
367.278	94.19
367.505	90.19
367.731	81.19
367.957	91.19
368.184	92.19
368.41	105.19
368.636	98.19
368.862	119.19
369.089	111.19
369.315	103.19
369.541	101.19
369.767	91.19
369.993	104.19
370.219	92.19
370.445	84.19
370.672	96.19
370.898	79.19
371.124	89.19
371.35	83.19
371.576	94.19
371.802	77.19
372.028	91.19
372.254	90.19
372.48	94.19
372.706	96.19
372.932	100.19
373.158	93.19
373.384	95.19
373.61	97.19
373.835	90.19
374.061	95.19
374.287	79.19
374.513	87.19
374.739	93.19
374.965	89.19
375.191	82.19
375.416	88.19
375.642	90.19
375.868	89.19
376.094	79.19
376.319	101.19
376.545	71.19
376.771	98.19
376.997	91.19
377.222	84.19
377.448	104.19
377.674	88.19
377.899	95.19
378.125	87.19
378.35	93.19
378.576	90.19
378.802	87.19
379.027	93.19
379.253	90.19
379.478	84.19
379.704	81.19
379.929	82.19
380.155	80.19
380.38	99.19
380.606	99.19
380.831	100.19
381.057	109.19
381.282	83.19
381.507	95.19
381.733	107.19
381.958	77.19
382.184	95.19
382.409	112.19
382.634	92.19
382.86	111.19
383.085	92.19
383.31	113.19
383.535	102.19
383.761	106.19
383.986	85.19
384.211	100.19
384.436	107.19
384.662	88.19
384.887	91.19
385.112	92.19
385.337	99.19
385.562	111.19
385.787	94.19
386.013	122.19
386.238	108.19
386.463	110.19
386.688	93.19
386.913	108.19
387.138	95.19
387.363	93.19
387.588	99.19
387.813	91.19
388.038	99.19
388.263	95.19
388.488	91.19
388.713	81.19
388.938	91.19
389.163	103.19
389.387	107.19
389.612	94.19
389.837	101.19
390.062	105.19
390.287	88.19
390.512	111.19
390.736	99.19
390.961	84.19
391.186	95.19
391.411	96.19
391.636	97.19
391.86	92.19
392.085	94.19
392.31	78.19
392.534	92.19
392.759	85.19
392.984	93.19
393.208	77.19
393.433	90.19
393.658	103.19
393.882	95.19
394.107	89.19
394.331	73.19
394.556	91.19
394.78	87.19
395.005	99.19
395.229	82.19
395.454	84.19
395.678	94.19
395.903	86.19
396.127	94.19
396.352	92.19
396.576	96.19
396.801	79.19
397.025	73.19
397.249	83.19
397.474	91.19
397.698	80.19
397.922	88.19
398.147	80.19
398.371	81.19
398.595	77.19
398.82	87.19
399.044	86.19
399.268	74.19
399.492	98.19
399.717	107.19
399.941	107.19
400.165	96.19
400.389	98.19
400.613	83.19
400.837	81.19
401.062	87.19
401.286	97.19
401.51	98.19
401.734	76.19
401.958	102.19
402.182	128.19
402.406	152.19
402.63	127.19
402.854	90.19
403.078	83.19
403.302	73.19
403.526	95.19
403.75	94.19
403.974	78.19
404.198	91.19
404.422	79.19
404.645	98.19
404.869	83.19
405.093	91.19
405.317	96.19
405.541	99.19
405.765	109.19
405.988	110.19
406.212	154.19
406.436	237.19
406.66	162.19
406.883	100.19
407.107	94.19
407.331	98.19
407.555	93.19
407.778	93.19
408.002	85.19
408.226	91.19
408.449	93.19
408.673	92.19
408.896	97.19
409.12	88.19
409.344	96.19
409.567	87.19
409.791	103.19
410.014	94.19
410.238	91.19
410.461	77.19
410.685	93.19
410.908	110.19
411.132	104.19
411.355	95.19
411.578	98.19
411.802	92.19
412.025	75.19
412.249	88.19
412.472	89.19
412.695	92.19
412.919	93.19
413.142	89.19
413.365	81.19
413.589	80.19
413.812	88.19
414.035	81.19
414.258	80.19
414.482	84.19
414.705	79.19
414.928	87.19
415.151	85.19
415.374	98.19
415.597	81.19
415.821	83.19
416.044	72.19
416.267	101.19
416.49	75.19
416.713	91.19
416.936	84.19
417.159	96.19
417.382	96.19
417.605	106.19
417.828	97.19
418.051	92.19
418.274	99.19
418.497	81.19
418.72	87.19
418.943	82.19
419.166	91.19
419.389	91.19
419.611	85.19
419.834	81.19
420.057	90.19
420.28	77.19
420.503	90.19
420.726	78.19
420.948	87.19
421.171	97.19
421.394	104.19
421.617	96.19
421.839	92.19
422.062	79.19
422.285	81.19
422.507	99.19
422.73	108.19
422.953	90.19
423.175	80.19
423.398	92.19
423.621	72.19
423.843	93.19
424.066	84.19
424.288	90.19
424.511	95.19
424.733	88.19
424.956	105.19
425.178	91.19
425.401	93.19
425.623	79.19
425.846	89.19
426.068	91.19
426.291	98.19
426.513	89.19
426.735	90.19
426.958	83.19
427.18	95.19
427.402	130.19
427.625	151.19
427.847	133.19
428.069	107.19
428.292	90.19
428.514	97.19
428.736	91.19
428.958	73.19
429.181	94.19
429.403	83.19
429.625	88.19
429.847	98.19
430.069	97.19
430.292	92.19
430.514	84.19
430.736	100.19
430.958	101.19
431.18	98.19
431.402	92.19
431.624	89.19
431.846	93.19
432.068	77.19
432.29	67.19
432.512	81.19
432.734	90.19
432.956	87.19
433.178	101.19
433.4	96.19
433.622	81.19
433.844	95.19
434.066	96.19
434.287	105.19
434.509	90.19
434.731	88.19
434.953	84.19
435.175	80.19
435.397	105.19
435.618	108.19
435.84	119.19
436.062	122.19
436.284	91.19
436.505	104.19
436.727	112.19
436.949	101.19
437.17	81.19
437.392	79.19
437.614	92.19
437.835	97.19
438.057	116.19
438.278	107.19
438.5	101.19
438.721	112.19
438.943	105.19
439.165	95.19
439.386	90.19
439.608	85.19
439.829	93.19
440.05	121.19
440.272	141.19
440.493	97.19
440.715	95.19
440.936	84.19
441.158	71.19
441.379	95.19
441.6	89.19
441.822	97.19
442.043	103.19
442.264	114.19
442.486	98.19
442.707	93.19
442.928	109.19
443.149	124.19
443.371	108.19
443.592	101.19
443.813	95.19
444.034	87.19
444.255	100.19
444.476	95.19
444.698	87.19
444.919	72.19
445.14	120.19
445.361	105.19
445.582	123.19
445.803	131.19
446.024	130.19
446.245	130.19
446.466	95.19
446.687	84.19
446.908	83.19
447.129	86.19
447.35	99.19
447.571	87.19
447.792	82.19
448.013	99.19
448.234	108.19
448.455	111.19
448.675	97.19
448.896	122.19
449.117	101.19
449.338	95.19
449.559	111.19
449.779	110.19
450	93.19
450.221	80.19
450.442	96.19
450.662	95.19
450.883	112.19
451.104	101.19
451.324	108.19
451.545	91.19
451.766	79.19
451.986	84.19
452.207	108.19
452.428	82.19
452.648	104.19
452.869	112.19
453.089	107.19
453.31	112.19
453.53	104.19
453.751	99.19
453.971	109.19
454.192	95.19
454.412	83.19
454.633	89.19
454.853	87.19
455.073	86.19
455.294	100.19
455.514	89.19
455.734	95.19
455.955	97.19
456.175	96.19
456.395	94.19
456.616	85.19
456.836	75.19
457.056	88.19
457.276	97.19
457.497	83.19
457.717	88.19
457.937	98.19
458.157	88.19
458.377	81.19
458.598	101.19
458.818	144.19
459.038	160.19
459.258	104.19
459.478	107.19
459.698	95.19
459.918	96.19
460.138	77.19
460.358	69.19
460.578	91.19
460.798	96.19
461.018	84.19
461.238	92.19
461.458	92.19
461.678	93.19
461.898	91.19
462.118	84.19
462.338	90.19
462.558	85.19
462.777	82.19
462.997	77.19
463.217	87.19
463.437	88.19
463.657	85.19
463.876	79.19
464.096	88.19
464.316	97.19
464.536	85.19
464.755	94.19
464.975	100.19
465.195	162.19
465.414	148.19
465.634	97.19
465.854	87.19
466.073	65.19
466.293	88.19
466.512	84.19
466.732	93.19
466.951	93.19
467.171	101.19
467.391	91.19
467.61	108.19
467.829	95.19
468.049	93.19
468.268	80.19
468.488	84.19
468.707	86.19
468.927	86.19
469.146	84.19
469.365	75.19
469.585	97.19
469.804	96.19
470.023	90.19
470.243	88.19
470.462	101.19
470.681	124.19
470.901	101.19
471.12	99.19
471.339	84.19
471.558	91.19
471.777	101.19
471.997	80.19
472.216	79.19
472.435	91.19
472.654	79.19
472.873	87.19
473.092	80.19
473.311	89.19
473.53	106.19
473.749	89.19
473.968	94.19
474.187	94.19
474.406	103.19
474.625	92.19
474.844	100.19
475.063	103.19
475.282	95.19
475.501	105.19
475.72	92.19
475.939	84.19
476.158	83.19
476.377	87.19
476.596	89.19
476.814	97.19
477.033	85.19
477.252	92.19
477.471	111.19
477.69	105.19
477.908	85.19
478.127	82.19
478.346	93.19
478.564	86.19
478.783	110.19
479.002	77.19
479.22	84.19
479.439	111.19
479.658	113.19
479.876	100.19
480.095	87.19
480.313	81.19
480.532	97.19
480.751	92.19
480.969	81.19
481.188	110.19
481.406	110.19
481.624	88.19
481.843	85.19
482.061	90.19
482.28	91.19
482.498	88.19
482.717	92.19
482.935	93.19
483.153	84.19
483.372	92.19
483.59	88.19
483.808	100.19
484.027	100.19
484.245	96.19
484.463	87.19
484.681	112.19
484.9	98.19
485.118	107.19
485.336	97.19
485.554	104.19
485.772	84.19
485.99	116.19
486.209	89.19
486.427	110.19
486.645	93.19
486.863	109.19
487.081	105.19
487.299	96.19
487.517	93.19
487.735	91.19
487.953	88.19
488.171	101.19
488.389	99.19
488.607	111.19
488.825	91.19
489.043	77.19
489.261	91.19
489.479	91.19
489.696	103.19
489.914	75.19
490.132	101.19
490.35	83.19
490.568	84.19
490.786	88.19
491.003	80.19
491.221	77.19
491.439	83.19
491.657	77.19
491.874	98.19
492.092	85.19
492.31	82.19
492.527	96.19
492.745	93.19
492.963	95.19
493.18	102.19
493.398	90.19
493.615	87.19
493.833	110.19
494.05	82.19
494.268	99.19
494.485	81.19
494.703	75.19
494.92	81.19
495.138	87.19
495.355	100.19
495.573	93.19
495.79	96.19
496.008	84.19
496.225	94.19
496.442	102.19
496.66	104.19
496.877	93.19
497.094	85.19
497.312	92.19
497.529	83.19
497.746	93.19
497.963	91.19
498.181	94.19
498.398	97.19
498.615	109.19
498.832	108.19
499.049	84.19
499.267	91.19
499.484	83.19
499.701	95.19
499.918	100.19
500.135	99.19
500.352	90.19
500.569	82.19
500.786	87.19
501.003	95.19
501.22	91.19
501.437	95.19
501.654	82.19
501.871	100.19
502.088	93.19
502.305	100.19
502.522	89.19
502.739	96.19
502.956	79.19
503.172	98.19
503.389	83.19
503.606	93.19
503.823	100.19
504.04	110.19
504.256	96.19
504.473	89.19
504.69	81.19
504.907	105.19
505.123	97.19
505.34	84.19
505.557	83.19
505.773	93.19
505.99	86.19
506.207	93.19
506.423	93.19
506.64	103.19
506.856	94.19
507.073	73.19
507.289	103.19
507.506	109.19
507.722	116.19
507.939	107.19
508.155	98.19
508.372	85.19
508.588	90.19
508.805	91.19
509.021	88.19
509.238	104.19
509.454	98.19
509.67	106.19
509.887	103.19
510.103	119.19
510.319	224.19
510.536	717.19
510.752	2219.19
510.968	642.19
511.184	162.19
511.401	112.19
511.617	98.19
511.833	105.19
512.049	87.19
512.265	92.19
512.481	92.19
512.698	101.19
512.914	91.19
513.13	106.19
513.346	100.19
513.562	92.19
513.778	100.19
513.994	104.19
514.21	96.19
514.426	113.19
514.642	131.19
514.858	114.19
515.074	160.19
515.29	430.19
515.506	1394.19
515.721	508.19
