Data from Uncirc_1997_H10_HRD10591_00031.txt Node
Date: Wed Jan 03 11:28:36 EST 2024
User: Yrep
Spectrometer: HR+D1059
Trigger mode: 1
Integration Time (sec): 1.000000E-1
Scans to average: 1
Electric dark correction enabled: true
Nonlinearity correction enabled: false
Boxcar width: 0
XAxis mode: Wavelengths
Number of Pixels in Spectrum: 2048
>>>>>Begin Spectral Data<<<<<
223.165	-12
223.4	-12
223.635	-12
223.869	-22
224.104	-14
224.338	-22
224.573	-11
224.808	-29
225.042	-13
225.277	-19
225.511	-3
225.746	14
225.98	8
226.215	12
226.449	23
226.683	25
226.918	30
227.152	33
227.387	33
227.621	42
227.856	42
228.09	40
228.324	38
228.559	53
228.793	73
229.027	78
229.262	49
229.496	74
229.73	83
229.964	87
230.199	78
230.433	76
230.667	79
230.901	89
231.136	69
231.37	79
231.604	90
231.838	70
232.072	87
232.306	79
232.541	84
232.775	76
233.009	86
233.243	83
233.477	74
233.711	88
233.945	94
234.179	66
234.413	95
234.647	86
234.881	73
235.115	82
235.349	83
235.583	86
235.817	78
236.051	82
236.285	96
236.519	77
236.753	87
236.987	77
237.221	86
237.455	82
237.689	76
237.922	82
238.156	66
238.39	82
238.624	76
238.858	71
239.091	75
239.325	79
239.559	86
239.793	74
240.027	66
240.26	67
240.494	72
240.728	77
240.961	99
241.195	80
241.429	89
241.662	82
241.896	79
242.13	82
242.363	78
242.597	74
242.83	86
243.064	83
243.298	90
243.531	70
243.765	75
243.998	95
244.232	80
244.465	78
244.699	90
244.932	72
245.166	90
245.399	76
245.633	73
245.866	72
246.099	84
246.333	77
246.566	88
246.8	74
247.033	87
247.266	92
247.5	88
247.733	74
247.966	95
248.2	76
248.433	80
248.666	75
248.899	73
249.133	77
249.366	88
249.599	96
249.832	76
250.066	67
250.299	73
250.532	76
250.765	90
250.998	72
251.231	74
251.465	92
251.698	89
251.931	64
252.164	59
252.397	74
252.63	76
252.863	75
253.096	88
253.329	98
253.562	87
253.795	66
254.028	78
254.261	73
254.494	74
254.727	80
254.96	80
255.193	78
255.426	87
255.659	77
255.892	83
256.124	95
256.357	72
256.59	85
256.823	75
257.056	81
257.289	70
257.521	76
257.754	67
257.987	72
258.22	85
258.452	79
258.685	76
258.918	97
259.151	73
259.383	73
259.616	81
259.849	79
260.081	87
260.314	62
260.547	93
260.779	91
261.012	76
261.244	85
261.477	81
261.71	77
261.942	113
262.175	106
262.407	102
262.64	92
262.872	86
263.105	75
263.337	94
263.57	76
263.802	83
264.035	74
264.267	82
264.499	75
264.732	87
264.964	72
265.197	88
265.429	82
265.661	96
265.894	79
266.126	87
266.358	92
266.591	78
266.823	60
267.055	95
267.287	88
267.52	89
267.752	83
267.984	80
268.216	85
268.448	100
268.681	86
268.913	83
269.145	96
269.377	101
269.609	84
269.841	91
270.073	81
270.306	83
270.538	68
270.77	77
271.002	80
271.234	76
271.466	84
271.698	84
271.93	85
272.162	80
272.394	80
272.626	87
272.858	83
273.09	97
273.322	84
273.553	99
273.785	99
274.017	96
274.249	95
274.481	90
274.713	81
274.945	80
275.176	89
275.408	81
275.64	87
275.872	84
276.104	77
276.335	89
276.567	91
276.799	86
277.031	108
277.262	84
277.494	80
277.726	87
277.957	87
278.189	85
278.421	78
278.652	88
278.884	83
279.115	91
279.347	89
279.579	77
279.81	96
280.042	82
280.273	92
280.505	91
280.736	90
280.968	75
281.199	82
281.431	76
281.662	83
281.894	95
282.125	95
282.356	98
282.588	108
282.819	98
283.051	82
283.282	77
283.513	94
283.745	95
283.976	86
284.207	95
284.439	82
284.67	84
284.901	92
285.132	80
285.364	88
285.595	80
285.826	82
286.057	77
286.288	88
286.52	80
286.751	88
286.982	93
287.213	95
287.444	87
287.675	108
287.906	91
288.138	113
288.369	93
288.6	93
288.831	98
289.062	100
289.293	91
289.524	90
289.755	75
289.986	83
290.217	71
290.448	86
290.679	98
290.91	95
291.141	83
291.371	89
291.602	103
291.833	85
292.064	76
292.295	85
292.526	78
292.757	102
292.987	91
293.218	78
293.449	91
293.68	90
293.91	83
294.141	96
294.372	82
294.603	86
294.833	86
295.064	76
295.295	92
295.525	79
295.756	108
295.987	104
296.217	133
296.448	104
296.679	84
296.909	87
297.14	81
297.37	87
297.601	92
297.831	89
298.062	73
298.292	98
298.523	89
298.753	100
298.984	95
299.214	85
299.445	89
299.675	90
299.905	91
300.136	63
300.366	95
300.597	73
300.827	89
301.057	99
301.288	100
301.518	91
301.748	87
301.979	110
302.209	98
302.439	85
302.669	83
302.9	92
303.13	87
303.36	94
303.59	97
303.82	103
304.051	97
304.281	87
304.511	81
304.741	90
304.971	81
305.201	83
305.431	86
305.661	100
305.891	82
306.121	95
306.352	85
306.582	88
306.812	95
307.042	101
307.272	94
307.502	89
307.731	94
307.961	83
308.191	94
308.421	94
308.651	108
308.881	100
309.111	97
309.341	99
309.571	89
309.8	82
310.03	96
310.26	107
310.49	91
310.72	93
310.949	94
311.179	99
311.409	89
311.639	99
311.868	98
312.098	96
312.328	95
312.557	79
312.787	99
313.017	100
313.246	99
313.476	94
313.706	105
313.935	86
314.165	101
314.394	90
314.624	74
314.853	91
315.083	87
315.312	100
315.542	94
315.771	93
316.001	90
316.23	87
316.46	82
316.689	78
316.919	97
317.148	90
317.377	89
317.607	94
317.836	93
318.065	97
318.295	88
318.524	84
318.753	75
318.983	94
319.212	108
319.441	115
319.67	99
319.9	94
320.129	76
320.358	106
320.587	96
320.816	106
321.046	104
321.275	100
321.504	83
321.733	90
321.962	92
322.191	82
322.42	108
322.649	102
322.878	110
323.108	113
323.337	130
323.566	122
323.795	127
324.024	185
324.253	336
324.482	704
324.71	1468
324.939	1863
325.168	694
325.397	225
325.626	138
325.855	112
326.084	113
326.313	143
326.542	139
326.77	207
326.999	417
327.228	831
327.457	1482
327.686	1180
327.914	321
328.143	162
328.372	132
328.6	115
328.829	104
329.058	120
329.287	100
329.515	106
329.744	100
329.972	103
330.201	108
330.43	111
330.658	110
330.887	114
331.115	114
331.344	107
331.572	95
331.801	99
332.03	95
332.258	96
332.486	88
332.715	89
332.943	100
333.172	74
333.4	96
333.629	91
333.857	112
334.085	99
334.314	84
334.542	91
334.771	98
334.999	95
335.227	90
335.455	92
335.684	96
335.912	94
336.14	99
336.369	104
336.597	94
336.825	93
337.053	94
337.281	89
337.51	91
337.738	90
337.966	91
338.194	80
338.422	94
338.65	104
338.878	95
339.106	94
339.334	98
339.562	85
339.79	96
340.018	94
340.246	88
340.474	84
340.702	91
340.93	95
341.158	96
341.386	102
341.614	86
341.842	93
342.07	95
342.298	92
342.526	88
342.754	85
342.981	100
343.209	99
343.437	90
343.665	97
343.893	84
344.12	89
344.348	83
344.576	96
344.804	110
345.031	97
345.259	88
345.487	102
345.714	99
345.942	101
346.17	90
346.397	88
346.625	84
346.853	94
347.08	81
347.308	97
347.535	97
347.763	108
347.99	106
348.218	98
348.445	99
348.673	89
348.9	99
349.128	111
349.355	97
349.583	86
349.81	99
350.037	85
350.265	98
350.492	112
350.72	105
350.947	93
351.174	106
351.402	103
351.629	107
351.856	101
352.083	87
352.311	114
352.538	99
352.765	107
352.992	109
353.22	114
353.447	95
353.674	95
353.901	95
354.128	92
354.355	87
354.583	105
354.81	102
355.037	93
355.264	97
355.491	83
355.718	89
355.945	103
356.172	100
356.399	98
356.626	99
356.853	82
357.08	112
357.307	88
357.534	90
357.761	86
357.988	105
358.215	100
358.441	103
358.668	85
358.895	93
359.122	93
359.349	103
359.576	102
359.802	100
360.029	106
360.256	99
360.483	90
360.709	87
360.936	89
361.163	88
361.39	92
361.616	100
361.843	78
362.07	92
362.296	105
362.523	84
362.749	91
362.976	90
363.203	92
363.429	87
363.656	91
363.882	91
364.109	78
364.335	95
364.562	75
364.788	88
365.015	97
365.241	99
365.468	108
365.694	98
365.92	83
366.147	97
366.373	103
366.599	89
366.826	94
367.052	84
367.278	75
367.505	80
367.731	120
367.957	86
368.184	94
368.41	96
368.636	107
368.862	108
369.089	94
369.315	106
369.541	96
369.767	86
369.993	79
370.219	89
370.445	82
370.672	74
370.898	83
371.124	94
371.35	96
371.576	83
371.802	92
372.028	93
372.254	88
372.48	97
372.706	83
372.932	95
373.158	94
373.384	90
373.61	82
373.835	97
374.061	85
374.287	83
374.513	91
374.739	84
374.965	95
375.191	93
375.416	82
375.642	82
375.868	78
376.094	94
376.319	104
376.545	84
376.771	89
376.997	102
377.222	83
377.448	86
377.674	75
377.899	84
378.125	83
378.35	74
378.576	89
378.802	94
379.027	100
379.253	84
379.478	84
379.704	84
379.929	94
380.155	91
380.38	82
380.606	77
380.831	102
381.057	88
381.282	97
381.507	100
381.733	94
381.958	92
382.184	90
382.409	104
382.634	99
382.86	90
383.085	89
383.31	96
383.535	96
383.761	92
383.986	92
384.211	96
384.436	93
384.662	93
384.887	95
385.112	97
385.337	97
385.562	95
385.787	112
386.013	106
386.238	107
386.463	98
386.688	111
386.913	106
387.138	99
387.363	104
387.588	97
387.813	102
388.038	100
388.263	110
388.488	100
388.713	91
388.938	92
389.163	86
389.387	103
389.612	98
389.837	86
390.062	84
390.287	106
390.512	96
390.736	82
390.961	99
391.186	74
391.411	84
391.636	93
391.86	76
392.085	78
392.31	88
392.534	73
392.759	81
392.984	98
393.208	109
393.433	86
393.658	75
393.882	95
394.107	83
394.331	66
394.556	90
394.78	86
395.005	84
395.229	86
395.454	90
395.678	81
395.903	91
396.127	89
396.352	98
396.576	76
396.801	84
397.025	92
397.249	87
397.474	96
397.698	84
397.922	95
398.147	91
398.371	82
398.595	93
398.82	92
399.044	83
399.268	91
399.492	95
399.717	87
399.941	98
400.165	92
400.389	97
400.613	96
400.837	82
401.062	92
401.286	89
401.51	86
401.734	83
401.958	99
402.182	116
402.406	139
402.63	122
402.854	89
403.078	95
403.302	95
403.526	92
403.75	102
403.974	93
404.198	95
404.422	89
404.645	87
404.869	83
405.093	88
405.317	74
405.541	106
405.765	78
405.988	101
406.212	144
406.436	184
406.66	129
406.883	94
407.107	106
407.331	88
407.555	82
407.778	90
408.002	85
408.226	89
408.449	91
408.673	83
408.896	86
409.12	79
409.344	89
409.567	102
409.791	83
410.014	102
410.238	84
410.461	100
410.685	96
410.908	99
411.132	113
411.355	96
411.578	86
411.802	81
412.025	79
412.249	77
412.472	84
412.695	86
412.919	85
413.142	98
413.365	83
413.589	78
413.812	91
414.035	92
414.258	91
414.482	94
414.705	80
414.928	81
415.151	95
415.374	98
415.597	90
415.821	80
416.044	82
416.267	91
416.49	87
416.713	84
416.936	94
417.159	84
417.382	98
417.605	99
417.828	95
418.051	91
418.274	107
418.497	87
418.72	89
418.943	87
419.166	95
419.389	93
419.611	80
419.834	82
420.057	90
420.28	99
420.503	87
420.726	80
420.948	78
421.171	80
421.394	82
421.617	90
421.839	94
422.062	87
422.285	94
422.507	100
422.73	104
422.953	80
423.175	87
423.398	87
423.621	84
423.843	89
424.066	85
424.288	86
424.511	92
424.733	94
424.956	94
425.178	96
425.401	94
425.623	92
425.846	94
426.068	91
426.291	90
426.513	92
426.735	84
426.958	104
427.18	105
427.402	118
427.625	121
427.847	100
428.069	98
428.292	78
428.514	92
428.736	82
428.958	94
429.181	81
429.403	73
429.625	86
429.847	93
430.069	95
430.292	97
430.514	96
430.736	85
430.958	84
431.18	81
431.402	95
431.624	86
431.846	93
432.068	96
432.29	96
432.512	94
432.734	100
432.956	89
433.178	86
433.4	92
433.622	79
433.844	83
434.066	100
434.287	104
434.509	88
434.731	91
434.953	82
435.175	92
435.397	88
435.618	82
435.84	90
436.062	112
436.284	99
436.505	89
436.727	100
436.949	89
437.17	90
437.392	85
437.614	97
437.835	96
438.057	113
438.278	103
438.5	102
438.721	109
438.943	84
439.165	94
439.386	89
439.608	94
439.829	102
440.05	112
440.272	136
440.493	99
440.715	92
440.936	91
441.158	92
441.379	89
441.6	102
441.822	104
442.043	110
442.264	109
442.486	98
442.707	96
442.928	112
443.149	105
443.371	115
443.592	97
443.813	99
444.034	90
444.255	81
444.476	97
444.698	81
444.919	67
445.14	126
445.361	116
445.582	121
445.803	126
446.024	111
446.245	137
446.466	107
446.687	92
446.908	93
447.129	82
447.35	100
447.571	88
447.792	91
448.013	94
448.234	104
448.455	89
448.675	90
448.896	119
449.117	91
449.338	103
449.559	114
449.779	124
450	90
450.221	80
450.442	75
450.662	88
450.883	108
451.104	103
451.324	93
451.545	86
451.766	78
451.986	88
452.207	81
452.428	92
452.648	106
452.869	115
453.089	100
453.31	107
453.53	92
453.751	87
453.971	94
454.192	112
454.412	81
454.633	88
454.853	98
455.073	86
455.294	98
455.514	100
455.734	91
455.955	89
456.175	79
456.395	79
456.616	79
456.836	91
457.056	90
457.276	87
457.497	83
457.717	87
457.937	89
458.157	84
458.377	79
458.598	92
458.818	129
459.038	131
459.258	100
459.478	86
459.698	92
459.918	86
460.138	84
460.358	91
460.578	93
460.798	86
461.018	89
461.238	92
461.458	84
461.678	94
461.898	80
462.118	92
462.338	81
462.558	91
462.777	96
462.997	87
463.217	78
463.437	93
463.657	95
463.876	86
464.096	90
464.316	78
464.536	100
464.755	86
464.975	97
465.195	138
465.414	138
465.634	93
465.854	86
466.073	91
466.293	110
466.512	85
466.732	93
466.951	89
467.171	105
467.391	89
467.61	96
467.829	104
468.049	94
468.268	88
468.488	90
468.707	87
468.927	78
469.146	83
469.365	79
469.585	92
469.804	92
470.023	93
470.243	81
470.462	96
470.681	111
470.901	88
471.12	89
471.339	94
471.558	102
471.777	94
471.997	99
472.216	80
472.435	85
472.654	94
472.873	86
473.092	89
473.311	85
473.53	79
473.749	94
473.968	87
474.187	107
474.406	97
474.625	94
474.844	89
475.063	88
475.282	67
475.501	92
475.72	98
475.939	87
476.158	86
476.377	83
476.596	88
476.814	102
477.033	94
477.252	73
477.471	81
477.69	95
477.908	86
478.127	84
478.346	72
478.564	80
478.783	96
479.002	103
479.22	94
479.439	99
479.658	102
479.876	89
480.095	88
480.313	86
480.532	83
480.751	73
480.969	84
481.188	94
481.406	97
481.624	93
481.843	78
482.061	83
482.28	99
482.498	90
482.717	79
482.935	91
483.153	99
483.372	85
483.59	100
483.808	110
484.027	94
484.245	89
484.463	94
484.681	92
484.9	87
485.118	98
485.336	100
485.554	110
485.772	93
485.99	110
486.209	112
486.427	100
486.645	114
486.863	110
487.081	108
487.299	98
487.517	102
487.735	94
487.953	99
488.171	104
488.389	93
488.607	100
488.825	97
489.043	94
489.261	95
489.479	89
489.696	95
489.914	88
490.132	103
490.35	98
490.568	88
490.786	75
491.003	83
491.221	103
491.439	91
491.657	91
491.874	91
492.092	88
492.31	89
492.527	84
492.745	93
492.963	91
493.18	94
493.398	95
493.615	94
493.833	105
494.05	87
494.268	94
494.485	81
494.703	82
494.92	89
495.138	110
495.355	98
495.573	98
495.79	83
496.008	96
496.225	82
496.442	104
496.66	99
496.877	97
497.094	99
497.312	79
497.529	92
497.746	95
497.963	80
498.181	106
498.398	95
498.615	107
498.832	111
499.049	90
499.267	85
499.484	87
499.701	96
499.918	101
500.135	91
500.352	94
500.569	86
500.786	102
501.003	94
501.22	93
501.437	87
501.654	95
501.871	108
502.088	103
502.305	78
502.522	82
502.739	90
502.956	99
503.172	96
503.389	106
503.606	97
503.823	85
504.04	78
504.256	103
504.473	86
504.69	89
504.907	84
505.123	86
505.34	79
505.557	86
505.773	81
505.99	86
506.207	88
506.423	81
506.64	87
506.856	99
507.073	103
507.289	89
507.506	97
507.722	92
507.939	103
508.155	95
508.372	92
508.588	96
508.805	89
509.021	90
509.238	96
509.454	109
509.67	97
509.887	111
510.103	128
510.319	206
510.536	619
510.752	1834
510.968	513
511.184	140
511.401	106
511.617	88
511.833	96
512.049	102
512.265	92
512.481	102
512.698	99
512.914	91
513.13	93
513.346	92
513.562	102
513.778	97
513.994	101
514.21	105
514.426	111
514.642	131
514.858	128
515.074	156
515.29	374
515.506	1129
515.721	413
515.937	128
516.153	102
516.369	99
516.585	90
516.801	81
517.016	85
517.232	97
517.448	112
517.664	88
517.879	90
518.095	99
518.311	90
518.527	107
518.742	104
518.958	89
519.173	82
519.389	90
519.605	98
519.82	96
520.036	114
520.251	130
520.467	117
520.682	97
520.898	95
521.113	110
521.329	133
521.544	185
521.76	449
521.975	1882
522.19	1102
522.406	266
522.621	123
522.836	100
523.052	102
523.267	110
523.482	105
523.698	104
523.913	106
524.128	108
524.343	99
524.559	100
524.774	98
524.989	87
525.204	99
525.419	116
525.634	98
525.849	98
526.064	90
526.28	97
526.495	94
526.71	90
526.925	94
527.14	82
527.355	102
527.57	80
527.785	91
527.999	83
528.214	96
528.429	86
528.644	86
528.859	105
529.074	96
529.289	109
529.503	154
529.718	104
529.933	91
530.148	98
530.363	92
530.577	86
530.792	95
531.007	94
531.221	87
531.436	93
531.651	84
531.865	98
532.08	79
532.295	95
532.509	102
532.724	93
532.938	111
533.153	89
533.367	100
533.582	91
533.796	85
534.011	98
534.225	106
534.44	86
534.654	91
534.868	86
535.083	86
535.297	88
535.511	119
535.726	104
535.94	104
536.154	97
536.369	99
536.583	92
536.797	83
537.011	83
537.225	77
537.44	79
537.654	92
537.868	87
538.082	85
538.296	89
538.51	90
538.724	75
538.938	79
539.153	92
539.367	105
539.581	93
539.795	84
540.009	91
540.222	93
540.436	92
540.65	89
540.864	104
541.078	92
541.292	84
541.506	89
541.72	88
541.934	93
542.147	82
542.361	87
542.575	103
542.789	89
543.002	79
543.216	94
543.43	94
543.644	89
543.857	90
544.071	87
544.285	98
544.498	94
544.712	98
544.925	99
545.139	82
545.352	98
545.566	91
545.779	92
545.993	76
546.206	90
546.42	78
546.633	93
546.847	99
547.06	77
547.274	86
547.487	74
547.7	99
547.914	87
548.127	90
548.34	78
548.554	91
548.767	100
548.98	97
549.193	100
549.407	91
549.62	86
549.833	108
550.046	86
550.259	80
550.473	95
550.686	94
550.899	95
551.112	86
551.325	99
551.538	89
551.751	95
551.964	99
552.177	92
552.39	89
552.603	81
552.816	80
553.029	89
553.242	91
553.455	100
553.667	110
553.88	99
554.093	112
554.306	93
554.519	86
554.732	93
554.944	91
555.157	79
555.37	88
555.583	79
555.795	89
556.008	94
556.221	95
556.433	88
556.646	98
556.859	93
557.071	99
557.284	83
557.496	95
557.709	79
557.921	100
558.134	94
558.346	99
558.559	97
558.771	103
558.984	108
559.196	102
559.409	81
559.621	83
559.833	88
560.046	95
560.258	84
560.47	89
560.683	74
560.895	99
561.107	93
561.32	94
561.532	84
561.744	91
561.956	97
562.168	89
562.381	95
562.593	93
562.805	96
563.017	89
563.229	87
563.441	83
563.653	103
563.865	94
564.077	87
564.289	97
564.501	83
564.713	103
564.925	79
565.137	100
565.349	97
565.561	97
565.773	88
565.985	95
566.197	87
566.408	94
566.62	94
566.832	91
567.044	98
567.255	94
567.467	83
567.679	76
567.891	90
568.102	83
568.314	100
568.526	96
568.737	94
568.949	84
569.161	91
569.372	94
569.584	87
569.795	97
570.007	124
570.218	193
570.43	131
570.641	94
570.853	103
571.064	72
571.276	91
571.487	90
571.698	89
571.91	88
572.121	98
572.333	78
572.544	92
572.755	95
572.966	83
573.178	84
573.389	81
573.6	86
573.811	86
574.023	78
574.234	85
574.445	99
574.656	102
574.867	75
575.078	92
575.289	82
575.501	87
575.712	88
575.923	91
576.134	94
576.345	81
576.556	83
576.767	88
576.978	83
577.188	103
577.399	83
577.61	98
577.821	99
578.032	108
578.243	234
578.454	624
578.665	213
578.875	97
579.086	86
579.297	79
579.508	82
579.718	89
579.929	91
580.14	83
580.35	77
580.561	82
580.772	83
580.982	76
581.193	90
581.403	87
581.614	90
581.825	75
582.035	88
582.246	92
582.456	96
582.667	84
582.877	98
583.087	81
583.298	106
583.508	93
583.719	82
583.929	87
584.139	84
584.35	83
584.56	99
584.77	92
584.981	87
