Data from Uncirc_1997_H10_HRD10591_00086.txt Node
Date: Wed Jan 03 11:28:47 EST 2024
User: Yrep
Spectrometer: HR+D1059
Trigger mode: 1
Integration Time (sec): 1.000000E-1
Scans to average: 1
Electric dark correction enabled: true
Nonlinearity correction enabled: false
Boxcar width: 0
XAxis mode: Wavelengths
Number of Pixels in Spectrum: 2048
>>>>>Begin Spectral Data<<<<<
223.165	-24.81
223.4	-24.81
223.635	-24.81
223.869	-22.81
224.104	-16.81
224.338	-11.81
224.573	-14.81
224.808	-27.81
225.042	-10.81
225.277	1.19
225.511	10.19
225.746	7.19
225.98	3.19
226.215	6.19
226.449	27.19
226.683	16.19
226.918	22.19
227.152	36.19
227.387	31.19
227.621	36.19
227.856	37.19
228.09	55.19
228.324	49.19
228.559	42.19
228.793	63.19
229.027	51.19
229.262	69.19
229.496	83.19
229.73	72.19
229.964	85.19
230.199	69.19
230.433	59.19
230.667	69.19
230.901	72.19
231.136	67.19
231.37	94.19
231.604	78.19
231.838	73.19
232.072	78.19
232.306	71.19
232.541	72.19
232.775	74.19
233.009	86.19
233.243	82.19
233.477	83.19
233.711	90.19
233.945	88.19
234.179	82.19
234.413	88.19
234.647	90.19
234.881	65.19
235.115	71.19
235.349	71.19
235.583	91.19
235.817	74.19
236.051	75.19
236.285	71.19
236.519	73.19
236.753	90.19
236.987	79.19
237.221	87.19
237.455	75.19
237.689	77.19
237.922	75.19
238.156	90.19
238.39	74.19
238.624	74.19
238.858	75.19
239.091	89.19
239.325	73.19
239.559	85.19
239.793	90.19
240.027	73.19
240.26	76.19
240.494	83.19
240.728	76.19
240.961	82.19
241.195	80.19
241.429	80.19
241.662	73.19
241.896	62.19
242.13	85.19
242.363	89.19
242.597	82.19
242.83	75.19
243.064	73.19
243.298	71.19
243.531	82.19
243.765	80.19
243.998	80.19
244.232	76.19
244.465	87.19
244.699	73.19
244.932	91.19
245.166	70.19
245.399	83.19
245.633	80.19
245.866	79.19
246.099	78.19
246.333	73.19
246.566	83.19
246.8	72.19
247.033	75.19
247.266	67.19
247.5	75.19
247.733	75.19
247.966	81.19
248.2	86.19
248.433	71.19
248.666	74.19
248.899	88.19
249.133	90.19
249.366	84.19
249.599	98.19
249.832	75.19
250.066	78.19
250.299	76.19
250.532	89.19
250.765	86.19
250.998	87.19
251.231	76.19
251.465	71.19
251.698	77.19
251.931	84.19
252.164	63.19
252.397	77.19
252.63	84.19
252.863	91.19
253.096	77.19
253.329	86.19
253.562	81.19
253.795	82.19
254.028	73.19
254.261	92.19
254.494	60.19
254.727	97.19
254.96	89.19
255.193	90.19
255.426	73.19
255.659	77.19
255.892	82.19
256.124	79.19
256.357	78.19
256.59	70.19
256.823	60.19
257.056	80.19
257.289	75.19
257.521	76.19
257.754	81.19
257.987	78.19
258.22	78.19
258.452	80.19
258.685	87.19
258.918	79.19
259.151	89.19
259.383	88.19
259.616	70.19
259.849	85.19
260.081	79.19
260.314	83.19
260.547	76.19
260.779	76.19
261.012	76.19
261.244	73.19
261.477	78.19
261.71	77.19
261.942	106.19
262.175	103.19
262.407	79.19
262.64	80.19
262.872	90.19
263.105	92.19
263.337	78.19
263.57	97.19
263.802	75.19
264.035	78.19
264.267	85.19
264.499	72.19
264.732	81.19
264.964	85.19
265.197	73.19
265.429	71.19
265.661	89.19
265.894	81.19
266.126	77.19
266.358	78.19
266.591	66.19
266.823	79.19
267.055	88.19
267.287	82.19
267.52	89.19
267.752	83.19
267.984	74.19
268.216	72.19
268.448	74.19
268.681	99.19
268.913	76.19
269.145	80.19
269.377	81.19
269.609	90.19
269.841	92.19
270.073	99.19
270.306	96.19
270.538	78.19
270.77	85.19
271.002	71.19
271.234	82.19
271.466	81.19
271.698	69.19
271.93	89.19
272.162	77.19
272.394	97.19
272.626	79.19
272.858	80.19
273.09	79.19
273.322	75.19
273.553	87.19
273.785	73.19
274.017	76.19
274.249	76.19
274.481	82.19
274.713	93.19
274.945	89.19
275.176	85.19
275.408	87.19
275.64	80.19
275.872	86.19
276.104	84.19
276.335	83.19
276.567	91.19
276.799	99.19
277.031	96.19
277.262	94.19
277.494	88.19
277.726	88.19
277.957	82.19
278.189	74.19
278.421	86.19
278.652	81.19
278.884	87.19
279.115	94.19
279.347	95.19
279.579	85.19
279.81	92.19
280.042	89.19
280.273	80.19
280.505	95.19
280.736	95.19
280.968	92.19
281.199	91.19
281.431	86.19
281.662	93.19
281.894	71.19
282.125	80.19
282.356	110.19
282.588	119.19
282.819	111.19
283.051	92.19
283.282	89.19
283.513	75.19
283.745	72.19
283.976	98.19
284.207	83.19
284.439	88.19
284.67	79.19
284.901	94.19
285.132	82.19
285.364	97.19
285.595	94.19
285.826	83.19
286.057	78.19
286.288	82.19
286.52	84.19
286.751	72.19
286.982	81.19
287.213	91.19
287.444	76.19
287.675	78.19
287.906	73.19
288.138	78.19
288.369	97.19
288.6	93.19
288.831	94.19
289.062	85.19
289.293	80.19
289.524	82.19
289.755	83.19
289.986	88.19
290.217	89.19
290.448	69.19
290.679	72.19
290.91	89.19
291.141	90.19
291.371	91.19
291.602	93.19
291.833	80.19
292.064	77.19
292.295	85.19
292.526	94.19
292.757	96.19
292.987	89.19
293.218	86.19
293.449	96.19
293.68	92.19
293.91	74.19
294.141	85.19
294.372	66.19
294.603	93.19
294.833	97.19
295.064	87.19
295.295	85.19
295.525	92.19
295.756	110.19
295.987	113.19
296.217	116.19
296.448	110.19
296.679	83.19
296.909	90.19
297.14	90.19
297.37	101.19
297.601	89.19
297.831	86.19
298.062	108.19
298.292	98.19
298.523	80.19
298.753	84.19
298.984	90.19
299.214	96.19
299.445	91.19
299.675	84.19
299.905	82.19
300.136	99.19
300.366	95.19
300.597	91.19
300.827	97.19
301.057	87.19
301.288	108.19
301.518	84.19
301.748	85.19
301.979	99.19
302.209	93.19
302.439	85.19
302.669	86.19
302.9	99.19
303.13	67.19
303.36	77.19
303.59	95.19
303.82	111.19
304.051	94.19
304.281	94.19
304.511	95.19
304.741	99.19
304.971	81.19
305.201	91.19
305.431	79.19
305.661	90.19
305.891	88.19
306.121	86.19
306.352	105.19
306.582	100.19
306.812	77.19
307.042	91.19
307.272	80.19
307.502	91.19
307.731	101.19
307.961	106.19
308.191	90.19
308.421	100.19
308.651	93.19
308.881	102.19
309.111	91.19
309.341	91.19
309.571	98.19
309.8	85.19
310.03	72.19
310.26	90.19
310.49	103.19
310.72	96.19
310.949	95.19
311.179	79.19
311.409	93.19
311.639	95.19
311.868	95.19
312.098	94.19
312.328	93.19
312.557	100.19
312.787	99.19
313.017	90.19
313.246	105.19
313.476	104.19
313.706	92.19
313.935	95.19
314.165	83.19
314.394	101.19
314.624	84.19
314.853	88.19
315.083	99.19
315.312	89.19
315.542	88.19
315.771	69.19
316.001	82.19
316.23	87.19
316.46	83.19
316.689	97.19
316.919	99.19
317.148	82.19
317.377	86.19
317.607	76.19
317.836	86.19
318.065	97.19
318.295	94.19
318.524	90.19
318.753	92.19
318.983	114.19
319.212	98.19
319.441	94.19
319.67	117.19
319.9	95.19
320.129	95.19
320.358	86.19
320.587	94.19
320.816	95.19
321.046	102.19
321.275	97.19
321.504	94.19
321.733	95.19
321.962	96.19
322.191	88.19
322.42	102.19
322.649	107.19
322.878	114.19
323.108	101.19
323.337	121.19
323.566	116.19
323.795	136.19
324.024	179.19
324.253	349.19
324.482	725.19
324.71	1410.19
324.939	1864.19
325.168	714.19
325.397	232.19
325.626	149.19
325.855	136.19
326.084	120.19
326.313	131.19
326.542	131.19
326.77	233.19
326.999	411.19
327.228	818.19
327.457	1444.19
327.686	1154.19
327.914	312.19
328.143	184.19
328.372	137.19
328.6	106.19
328.829	121.19
329.058	102.19
329.287	119.19
329.515	105.19
329.744	101.19
329.972	88.19
330.201	107.19
330.43	112.19
330.658	104.19
330.887	152.19
331.115	130.19
331.344	102.19
331.572	110.19
331.801	115.19
332.03	82.19
332.258	103.19
332.486	96.19
332.715	99.19
332.943	93.19
333.172	96.19
333.4	95.19
333.629	101.19
333.857	103.19
334.085	90.19
334.314	103.19
334.542	101.19
334.771	108.19
334.999	86.19
335.227	86.19
335.455	91.19
335.684	90.19
335.912	78.19
336.14	93.19
336.369	104.19
336.597	80.19
336.825	85.19
337.053	100.19
337.281	76.19
337.51	85.19
337.738	80.19
337.966	96.19
338.194	99.19
338.422	94.19
338.65	86.19
338.878	96.19
339.106	86.19
339.334	84.19
339.562	90.19
339.79	80.19
340.018	86.19
340.246	100.19
340.474	97.19
340.702	98.19
340.93	74.19
341.158	84.19
341.386	103.19
341.614	93.19
341.842	88.19
342.07	89.19
342.298	85.19
342.526	82.19
342.754	102.19
342.981	88.19
343.209	79.19
343.437	107.19
343.665	88.19
343.893	87.19
344.12	98.19
344.348	78.19
344.576	89.19
344.804	93.19
345.031	105.19
345.259	97.19
345.487	86.19
345.714	95.19
345.942	75.19
346.17	95.19
346.397	87.19
346.625	101.19
346.853	89.19
347.08	92.19
347.308	92.19
347.535	95.19
347.763	105.19
347.99	99.19
348.218	104.19
348.445	113.19
348.673	105.19
348.9	90.19
349.128	97.19
349.355	90.19
349.583	84.19
349.81	94.19
350.037	82.19
350.265	82.19
350.492	98.19
350.72	104.19
350.947	96.19
351.174	125.19
351.402	105.19
351.629	99.19
351.856	106.19
352.083	98.19
352.311	91.19
352.538	110.19
352.765	93.19
352.992	94.19
353.22	105.19
353.447	105.19
353.674	91.19
353.901	94.19
354.128	94.19
354.355	92.19
354.583	97.19
354.81	94.19
355.037	101.19
355.264	93.19
355.491	91.19
355.718	84.19
355.945	90.19
356.172	83.19
356.399	94.19
356.626	79.19
356.853	81.19
357.08	100.19
357.307	77.19
357.534	87.19
357.761	91.19
357.988	87.19
358.215	97.19
358.441	75.19
358.668	93.19
358.895	83.19
359.122	96.19
359.349	82.19
359.576	88.19
359.802	88.19
360.029	103.19
360.256	95.19
360.483	104.19
360.709	73.19
360.936	96.19
361.163	81.19
361.39	95.19
361.616	104.19
361.843	80.19
362.07	103.19
362.296	96.19
362.523	84.19
362.749	86.19
362.976	88.19
363.203	86.19
363.429	91.19
363.656	97.19
363.882	81.19
364.109	83.19
364.335	98.19
364.562	90.19
364.788	95.19
365.015	91.19
365.241	101.19
365.468	89.19
365.694	109.19
365.92	98.19
366.147	92.19
366.373	82.19
366.599	89.19
366.826	76.19
367.052	84.19
367.278	75.19
367.505	82.19
367.731	104.19
367.957	87.19
368.184	87.19
368.41	80.19
368.636	92.19
368.862	115.19
369.089	107.19
369.315	96.19
369.541	90.19
369.767	87.19
369.993	91.19
370.219	86.19
370.445	82.19
370.672	95.19
370.898	83.19
371.124	87.19
371.35	93.19
371.576	97.19
371.802	96.19
372.028	92.19
372.254	94.19
372.48	86.19
372.706	95.19
372.932	87.19
373.158	78.19
373.384	90.19
373.61	95.19
373.835	96.19
374.061	89.19
374.287	98.19
374.513	89.19
374.739	90.19
374.965	92.19
375.191	93.19
375.416	104.19
375.642	88.19
375.868	82.19
376.094	81.19
376.319	93.19
376.545	89.19
376.771	95.19
376.997	78.19
377.222	95.19
377.448	102.19
377.674	90.19
377.899	96.19
378.125	89.19
378.35	101.19
378.576	100.19
378.802	89.19
379.027	88.19
379.253	96.19
379.478	91.19
379.704	81.19
379.929	88.19
380.155	93.19
380.38	93.19
380.606	109.19
380.831	94.19
381.057	109.19
381.282	93.19
381.507	86.19
381.733	96.19
381.958	91.19
382.184	88.19
382.409	97.19
382.634	84.19
382.86	111.19
383.085	108.19
383.31	81.19
383.535	95.19
383.761	118.19
383.986	94.19
384.211	81.19
384.436	100.19
384.662	97.19
384.887	100.19
385.112	95.19
385.337	97.19
385.562	94.19
385.787	97.19
386.013	102.19
386.238	111.19
386.463	80.19
386.688	106.19
386.913	93.19
387.138	98.19
387.363	95.19
387.588	92.19
387.813	98.19
388.038	90.19
388.263	102.19
388.488	102.19
388.713	90.19
388.938	90.19
389.163	98.19
389.387	85.19
389.612	89.19
389.837	90.19
390.062	89.19
390.287	97.19
390.512	100.19
390.736	102.19
390.961	87.19
391.186	89.19
391.411	82.19
391.636	91.19
391.86	80.19
392.085	81.19
392.31	89.19
392.534	85.19
392.759	89.19
392.984	84.19
393.208	82.19
393.433	95.19
393.658	87.19
393.882	93.19
394.107	86.19
394.331	69.19
394.556	86.19
394.78	96.19
395.005	96.19
395.229	77.19
395.454	94.19
395.678	85.19
395.903	81.19
396.127	80.19
396.352	107.19
396.576	85.19
396.801	88.19
397.025	79.19
397.249	104.19
397.474	85.19
397.698	69.19
397.922	70.19
398.147	71.19
398.371	80.19
398.595	80.19
398.82	84.19
399.044	98.19
399.268	85.19
399.492	64.19
399.717	110.19
399.941	97.19
400.165	90.19
400.389	92.19
400.613	90.19
400.837	91.19
401.062	78.19
401.286	92.19
401.51	72.19
401.734	91.19
401.958	95.19
402.182	130.19
402.406	136.19
402.63	125.19
402.854	104.19
403.078	77.19
403.302	86.19
403.526	85.19
403.75	84.19
403.974	83.19
404.198	85.19
404.422	83.19
404.645	85.19
404.869	82.19
405.093	96.19
405.317	95.19
405.541	91.19
405.765	98.19
405.988	104.19
406.212	162.19
406.436	202.19
406.66	135.19
406.883	95.19
407.107	95.19
407.331	85.19
407.555	88.19
407.778	75.19
408.002	82.19
408.226	74.19
408.449	70.19
408.673	99.19
408.896	84.19
409.12	102.19
409.344	81.19
409.567	85.19
409.791	91.19
410.014	99.19
410.238	105.19
410.461	85.19
410.685	87.19
410.908	97.19
411.132	100.19
411.355	107.19
411.578	102.19
411.802	74.19
412.025	93.19
412.249	93.19
412.472	97.19
412.695	101.19
412.919	98.19
413.142	91.19
413.365	92.19
413.589	87.19
413.812	86.19
414.035	96.19
414.258	79.19
414.482	80.19
414.705	78.19
414.928	86.19
415.151	90.19
415.374	94.19
415.597	72.19
415.821	76.19
416.044	86.19
416.267	86.19
416.49	94.19
416.713	86.19
416.936	90.19
417.159	91.19
417.382	100.19
417.605	107.19
417.828	97.19
418.051	101.19
418.274	96.19
418.497	86.19
418.72	85.19
418.943	97.19
419.166	92.19
419.389	85.19
419.611	86.19
419.834	81.19
420.057	92.19
420.28	87.19
420.503	87.19
420.726	85.19
420.948	97.19
421.171	93.19
421.394	95.19
421.617	92.19
421.839	85.19
422.062	89.19
422.285	90.19
422.507	106.19
422.73	97.19
422.953	90.19
423.175	82.19
423.398	78.19
423.621	88.19
423.843	83.19
424.066	78.19
424.288	97.19
424.511	76.19
424.733	84.19
424.956	105.19
425.178	88.19
425.401	109.19
425.623	93.19
425.846	95.19
426.068	86.19
426.291	76.19
426.513	92.19
426.735	86.19
426.958	81.19
427.18	96.19
427.402	121.19
427.625	146.19
427.847	125.19
428.069	104.19
428.292	91.19
428.514	101.19
428.736	79.19
428.958	83.19
429.181	89.19
429.403	87.19
429.625	78.19
429.847	103.19
430.069	88.19
430.292	107.19
430.514	83.19
430.736	71.19
430.958	75.19
431.18	82.19
431.402	98.19
431.624	78.19
431.846	88.19
432.068	78.19
432.29	102.19
432.512	90.19
432.734	79.19
432.956	91.19
433.178	93.19
433.4	89.19
433.622	93.19
433.844	81.19
434.066	87.19
434.287	89.19
434.509	94.19
434.731	89.19
434.953	73.19
435.175	74.19
435.397	81.19
435.618	88.19
435.84	92.19
436.062	114.19
436.284	93.19
436.505	94.19
436.727	89.19
436.949	80.19
437.17	96.19
437.392	93.19
437.614	89.19
437.835	105.19
438.057	104.19
438.278	97.19
438.5	83.19
438.721	110.19
438.943	94.19
439.165	85.19
439.386	80.19
439.608	85.19
439.829	110.19
440.05	120.19
440.272	135.19
440.493	83.19
440.715	86.19
440.936	85.19
441.158	79.19
441.379	81.19
441.6	90.19
441.822	89.19
442.043	93.19
442.264	85.19
442.486	109.19
442.707	91.19
442.928	85.19
443.149	124.19
443.371	105.19
443.592	111.19
443.813	110.19
444.034	101.19
444.255	102.19
444.476	73.19
444.698	93.19
444.919	95.19
445.14	137.19
445.361	114.19
445.582	107.19
445.803	124.19
446.024	111.19
446.245	131.19
446.466	105.19
446.687	89.19
446.908	80.19
447.129	78.19
447.35	81.19
447.571	85.19
447.792	84.19
448.013	87.19
448.234	98.19
448.455	81.19
448.675	117.19
448.896	120.19
449.117	88.19
449.338	89.19
449.559	122.19
449.779	110.19
450	85.19
450.221	80.19
450.442	96.19
450.662	99.19
450.883	104.19
451.104	105.19
451.324	94.19
451.545	89.19
451.766	87.19
451.986	83.19
452.207	85.19
452.428	93.19
452.648	82.19
452.869	101.19
453.089	110.19
453.31	114.19
453.53	100.19
453.751	87.19
453.971	85.19
454.192	99.19
454.412	80.19
454.633	90.19
454.853	96.19
455.073	85.19
455.294	85.19
455.514	86.19
455.734	91.19
455.955	92.19
456.175	77.19
456.395	82.19
456.616	72.19
456.836	98.19
457.056	94.19
457.276	89.19
457.497	82.19
457.717	90.19
457.937	94.19
458.157	91.19
458.377	87.19
458.598	108.19
458.818	136.19
459.038	139.19
459.258	108.19
459.478	96.19
459.698	87.19
459.918	88.19
460.138	87.19
460.358	69.19
460.578	86.19
460.798	83.19
461.018	79.19
461.238	95.19
461.458	85.19
461.678	90.19
461.898	88.19
462.118	101.19
462.338	90.19
462.558	79.19
462.777	87.19
462.997	83.19
463.217	78.19
463.437	85.19
463.657	81.19
463.876	92.19
464.096	78.19
464.316	91.19
464.536	84.19
464.755	90.19
464.975	105.19
465.195	146.19
465.414	145.19
465.634	95.19
465.854	87.19
466.073	79.19
466.293	84.19
466.512	93.19
466.732	96.19
466.951	90.19
467.171	77.19
467.391	86.19
467.61	98.19
467.829	94.19
468.049	87.19
468.268	95.19
468.488	92.19
468.707	92.19
468.927	92.19
469.146	85.19
469.365	81.19
469.585	79.19
469.804	99.19
470.023	81.19
470.243	96.19
470.462	100.19
470.681	95.19
470.901	81.19
471.12	90.19
471.339	88.19
471.558	92.19
471.777	73.19
471.997	69.19
472.216	89.19
472.435	83.19
472.654	86.19
472.873	98.19
473.092	75.19
473.311	89.19
473.53	83.19
473.749	88.19
473.968	93.19
474.187	94.19
474.406	103.19
474.625	77.19
474.844	85.19
475.063	77.19
475.282	78.19
475.501	81.19
475.72	87.19
475.939	86.19
476.158	76.19
476.377	89.19
476.596	79.19
476.814	92.19
477.033	89.19
477.252	80.19
477.471	90.19
477.69	82.19
477.908	81.19
478.127	101.19
478.346	93.19
478.564	76.19
478.783	93.19
479.002	90.19
479.22	83.19
479.439	114.19
479.658	86.19
479.876	94.19
480.095	91.19
480.313	80.19
480.532	78.19
480.751	87.19
480.969	90.19
481.188	101.19
481.406	98.19
481.624	91.19
481.843	90.19
482.061	92.19
482.28	78.19
482.498	77.19
482.717	90.19
482.935	78.19
483.153	80.19
483.372	103.19
483.59	99.19
483.808	82.19
484.027	82.19
484.245	95.19
484.463	87.19
484.681	103.19
484.9	86.19
485.118	89.19
485.336	94.19
485.554	95.19
485.772	92.19
485.99	108.19
486.209	94.19
486.427	106.19
486.645	112.19
486.863	113.19
487.081	109.19
487.299	92.19
487.517	100.19
487.735	93.19
487.953	86.19
488.171	95.19
488.389	81.19
488.607	87.19
488.825	93.19
489.043	100.19
489.261	101.19
489.479	89.19
489.696	85.19
489.914	103.19
490.132	89.19
490.35	101.19
490.568	99.19
490.786	95.19
491.003	89.19
491.221	92.19
491.439	89.19
491.657	89.19
491.874	84.19
492.092	93.19
492.31	88.19
492.527	90.19
492.745	94.19
492.963	94.19
493.18	90.19
493.398	99.19
493.615	96.19
493.833	90.19
494.05	85.19
494.268	82.19
494.485	96.19
494.703	87.19
494.92	88.19
495.138	85.19
495.355	82.19
495.573	83.19
495.79	74.19
496.008	95.19
496.225	79.19
496.442	75.19
496.66	88.19
496.877	91.19
497.094	94.19
497.312	74.19
497.529	85.19
497.746	78.19
497.963	85.19
498.181	90.19
498.398	87.19
498.615	99.19
498.832	85.19
499.049	74.19
499.267	96.19
499.484	96.19
499.701	88.19
499.918	72.19
500.135	107.19
500.352	89.19
500.569	85.19
500.786	91.19
501.003	87.19
501.22	85.19
501.437	102.19
501.654	93.19
501.871	109.19
502.088	73.19
502.305	79.19
502.522	105.19
502.739	86.19
502.956	85.19
503.172	81.19
503.389	91.19
503.606	103.19
503.823	100.19
504.04	96.19
504.256	88.19
504.473	90.19
504.69	90.19
504.907	97.19
505.123	94.19
505.34	85.19
505.557	85.19
505.773	96.19
505.99	99.19
506.207	92.19
506.423	95.19
506.64	95.19
506.856	91.19
507.073	93.19
507.289	78.19
507.506	89.19
507.722	102.19
507.939	108.19
508.155	85.19
508.372	90.19
508.588	87.19
508.805	94.19
509.021	84.19
509.238	77.19
509.454	95.19
509.67	97.19
509.887	107.19
510.103	139.19
510.319	199.19
510.536	701.19
510.752	2073.19
510.968	570.19
511.184	146.19
511.401	107.19
511.617	81.19
511.833	95.19
512.049	87.19
512.265	87.19
512.481	93.19
512.698	95.19
512.914	107.19
513.13	87.19
513.346	93.19
513.562	96.19
513.778	97.19
513.994	87.19
514.21	96.19
514.426	108.19
514.642	134.19
514.858	124.19
515.074	155.19
515.29	398.19
515.506	1329.19
515.721	490.19
515.937	149.19
516.153	94.19
516.369	92.19
516.585	80.19
516.801	99.19
