Data from Uncirc_1997_H10_HRD10591_00066.txt Node
Date: Wed Jan 03 11:28:43 EST 2024
User: Yrep
Spectrometer: HR+D1059
Trigger mode: 1
Integration Time (sec): 1.000000E-1
Scans to average: 1
Electric dark correction enabled: true
Nonlinearity correction enabled: false
Boxcar width: 0
XAxis mode: Wavelengths
Number of Pixels in Spectrum: 2048
>>>>>Begin Spectral Data<<<<<
223.165	-15.06
223.4	-15.06
223.635	-15.06
223.869	-14.06
224.104	-25.06
224.338	-14.06
224.573	-26.06
224.808	-14.06
225.042	-5.06
225.277	-3.06
225.511	8.94
225.746	3.94
225.98	10.94
226.215	15.94
226.449	18.94
226.683	10.94
226.918	23.94
227.152	22.94
227.387	33.94
227.621	25.94
227.856	43.94
228.09	46.94
228.324	39.94
228.559	51.94
228.793	50.94
229.027	61.94
229.262	51.94
229.496	74.94
229.73	68.94
229.964	68.94
230.199	61.94
230.433	69.94
230.667	74.94
230.901	77.94
231.136	65.94
231.37	72.94
231.604	82.94
231.838	70.94
232.072	58.94
232.306	73.94
232.541	73.94
232.775	89.94
233.009	84.94
233.243	74.94
233.477	63.94
233.711	70.94
233.945	87.94
234.179	79.94
234.413	79.94
234.647	82.94
234.881	65.94
235.115	67.94
235.349	73.94
235.583	77.94
235.817	72.94
236.051	70.94
236.285	81.94
236.519	76.94
236.753	72.94
236.987	73.94
237.221	75.94
237.455	90.94
237.689	66.94
237.922	80.94
238.156	66.94
238.39	56.94
238.624	71.94
238.858	73.94
239.091	73.94
239.325	67.94
239.559	78.94
239.793	72.94
240.027	77.94
240.26	67.94
240.494	76.94
240.728	75.94
240.961	61.94
241.195	77.94
241.429	74.94
241.662	78.94
241.896	70.94
242.13	70.94
242.363	86.94
242.597	70.94
242.83	66.94
243.064	83.94
243.298	77.94
243.531	71.94
243.765	77.94
243.998	71.94
244.232	74.94
244.465	74.94
244.699	76.94
244.932	67.94
245.166	62.94
245.399	66.94
245.633	60.94
245.866	70.94
246.099	69.94
246.333	65.94
246.566	69.94
246.8	68.94
247.033	74.94
247.266	57.94
247.5	77.94
247.733	78.94
247.966	67.94
248.2	68.94
248.433	69.94
248.666	71.94
248.899	73.94
249.133	73.94
249.366	73.94
249.599	88.94
249.832	56.94
250.066	84.94
250.299	73.94
250.532	66.94
250.765	76.94
250.998	71.94
251.231	59.94
251.465	84.94
251.698	73.94
251.931	67.94
252.164	74.94
252.397	75.94
252.63	68.94
252.863	70.94
253.096	73.94
253.329	78.94
253.562	85.94
253.795	70.94
254.028	75.94
254.261	78.94
254.494	78.94
254.727	82.94
254.96	66.94
255.193	78.94
255.426	89.94
255.659	70.94
255.892	79.94
256.124	83.94
256.357	75.94
256.59	69.94
256.823	67.94
257.056	88.94
257.289	81.94
257.521	81.94
257.754	83.94
257.987	72.94
258.22	83.94
258.452	65.94
258.685	81.94
258.918	70.94
259.151	78.94
259.383	69.94
259.616	72.94
259.849	74.94
260.081	75.94
260.314	76.94
260.547	73.94
260.779	86.94
261.012	77.94
261.244	66.94
261.477	78.94
261.71	80.94
261.942	89.94
262.175	106.94
262.407	86.94
262.64	75.94
262.872	69.94
263.105	74.94
263.337	83.94
263.57	60.94
263.802	84.94
264.035	79.94
264.267	78.94
264.499	74.94
264.732	78.94
264.964	71.94
265.197	84.94
265.429	85.94
265.661	73.94
265.894	67.94
266.126	85.94
266.358	73.94
266.591	83.94
266.823	89.94
267.055	75.94
267.287	87.94
267.52	88.94
267.752	62.94
267.984	73.94
268.216	87.94
268.448	80.94
268.681	94.94
268.913	83.94
269.145	74.94
269.377	74.94
269.609	74.94
269.841	85.94
270.073	73.94
270.306	77.94
270.538	85.94
270.77	77.94
271.002	86.94
271.234	92.94
271.466	98.94
271.698	76.94
271.93	61.94
272.162	82.94
272.394	71.94
272.626	86.94
272.858	68.94
273.09	71.94
273.322	82.94
273.553	73.94
273.785	79.94
274.017	72.94
274.249	80.94
274.481	84.94
274.713	88.94
274.945	74.94
275.176	77.94
275.408	71.94
275.64	91.94
275.872	86.94
276.104	91.94
276.335	93.94
276.567	84.94
276.799	99.94
277.031	92.94
277.262	92.94
277.494	86.94
277.726	94.94
277.957	75.94
278.189	69.94
278.421	77.94
278.652	91.94
278.884	78.94
279.115	77.94
279.347	84.94
279.579	87.94
279.81	76.94
280.042	84.94
280.273	88.94
280.505	73.94
280.736	69.94
280.968	79.94
281.199	83.94
281.431	94.94
281.662	78.94
281.894	75.94
282.125	91.94
282.356	112.94
282.588	120.94
282.819	103.94
283.051	77.94
283.282	61.94
283.513	71.94
283.745	81.94
283.976	89.94
284.207	85.94
284.439	69.94
284.67	78.94
284.901	78.94
285.132	82.94
285.364	77.94
285.595	91.94
285.826	81.94
286.057	85.94
286.288	80.94
286.52	71.94
286.751	92.94
286.982	76.94
287.213	86.94
287.444	86.94
287.675	82.94
287.906	75.94
288.138	85.94
288.369	87.94
288.6	79.94
288.831	88.94
289.062	98.94
289.293	86.94
289.524	81.94
289.755	88.94
289.986	83.94
290.217	83.94
290.448	76.94
290.679	76.94
290.91	84.94
291.141	74.94
291.371	86.94
291.602	73.94
291.833	85.94
292.064	75.94
292.295	83.94
292.526	74.94
292.757	90.94
292.987	87.94
293.218	84.94
293.449	81.94
293.68	82.94
293.91	84.94
294.141	93.94
294.372	80.94
294.603	79.94
294.833	86.94
295.064	78.94
295.295	83.94
295.525	74.94
295.756	91.94
295.987	105.94
296.217	121.94
296.448	104.94
296.679	69.94
296.909	95.94
297.14	79.94
297.37	59.94
297.601	89.94
297.831	81.94
298.062	73.94
298.292	96.94
298.523	95.94
298.753	81.94
298.984	75.94
299.214	85.94
299.445	79.94
299.675	101.94
299.905	91.94
300.136	90.94
300.366	71.94
300.597	87.94
300.827	98.94
301.057	90.94
301.288	101.94
301.518	75.94
301.748	82.94
301.979	107.94
302.209	85.94
302.439	73.94
302.669	78.94
302.9	67.94
303.13	89.94
303.36	89.94
303.59	90.94
303.82	83.94
304.051	99.94
304.281	77.94
304.511	90.94
304.741	94.94
304.971	83.94
305.201	87.94
305.431	88.94
305.661	77.94
305.891	97.94
306.121	97.94
306.352	92.94
306.582	105.94
306.812	93.94
307.042	82.94
307.272	74.94
307.502	65.94
307.731	91.94
307.961	83.94
308.191	83.94
308.421	84.94
308.651	82.94
308.881	75.94
309.111	89.94
309.341	83.94
309.571	101.94
309.8	85.94
310.03	86.94
310.26	90.94
310.49	98.94
310.72	91.94
310.949	101.94
311.179	84.94
311.409	74.94
311.639	75.94
311.868	86.94
312.098	93.94
312.328	88.94
312.557	81.94
312.787	101.94
313.017	86.94
313.246	83.94
313.476	82.94
313.706	78.94
313.935	74.94
314.165	94.94
314.394	80.94
314.624	98.94
314.853	84.94
315.083	96.94
315.312	87.94
315.542	69.94
315.771	88.94
316.001	85.94
316.23	76.94
316.46	89.94
316.689	101.94
316.919	80.94
317.148	83.94
317.377	109.94
317.607	93.94
317.836	81.94
318.065	84.94
318.295	73.94
318.524	84.94
318.753	98.94
318.983	77.94
319.212	83.94
319.441	102.94
319.67	90.94
319.9	84.94
320.129	90.94
320.358	86.94
320.587	89.94
320.816	81.94
321.046	101.94
321.275	86.94
321.504	104.94
321.733	81.94
321.962	91.94
322.191	97.94
322.42	108.94
322.649	108.94
322.878	108.94
323.108	108.94
323.337	108.94
323.566	133.94
323.795	137.94
324.024	178.94
324.253	376.94
324.482	739.94
324.71	1534.94
324.939	2058.94
325.168	732.94
325.397	225.94
325.626	129.94
325.855	107.94
326.084	115.94
326.313	122.94
326.542	144.94
326.77	212.94
326.999	426.94
327.228	878.94
327.457	1576.94
327.686	1277.94
327.914	332.94
328.143	175.94
328.372	139.94
328.6	109.94
328.829	94.94
329.058	112.94
329.287	108.94
329.515	83.94
329.744	99.94
329.972	93.94
330.201	103.94
330.43	94.94
330.658	113.94
330.887	106.94
331.115	103.94
331.344	92.94
331.572	95.94
331.801	110.94
332.03	90.94
332.258	101.94
332.486	102.94
332.715	96.94
332.943	93.94
333.172	86.94
333.4	90.94
333.629	88.94
333.857	102.94
334.085	102.94
334.314	94.94
334.542	95.94
334.771	102.94
334.999	95.94
335.227	84.94
335.455	90.94
335.684	86.94
335.912	93.94
336.14	91.94
336.369	93.94
336.597	95.94
336.825	102.94
337.053	92.94
337.281	80.94
337.51	100.94
337.738	89.94
337.966	70.94
338.194	95.94
338.422	87.94
338.65	101.94
338.878	79.94
339.106	67.94
339.334	68.94
339.562	101.94
339.79	102.94
340.018	96.94
340.246	73.94
340.474	86.94
340.702	77.94
340.93	88.94
341.158	97.94
341.386	89.94
341.614	90.94
341.842	94.94
342.07	100.94
342.298	81.94
342.526	96.94
342.754	78.94
342.981	73.94
343.209	85.94
343.437	87.94
343.665	92.94
343.893	77.94
344.12	97.94
344.348	99.94
344.576	80.94
344.804	91.94
345.031	95.94
345.259	88.94
345.487	89.94
345.714	90.94
345.942	90.94
346.17	81.94
346.397	84.94
346.625	82.94
346.853	78.94
347.08	92.94
347.308	87.94
347.535	88.94
347.763	96.94
347.99	90.94
348.218	100.94
348.445	98.94
348.673	100.94
348.9	76.94
349.128	93.94
349.355	79.94
349.583	94.94
349.81	94.94
350.037	78.94
350.265	86.94
350.492	84.94
350.72	83.94
350.947	111.94
351.174	108.94
351.402	96.94
351.629	94.94
351.856	106.94
352.083	101.94
352.311	109.94
352.538	110.94
352.765	102.94
352.992	109.94
353.22	92.94
353.447	99.94
353.674	94.94
353.901	95.94
354.128	92.94
354.355	98.94
354.583	83.94
354.81	80.94
355.037	89.94
355.264	87.94
355.491	91.94
355.718	87.94
355.945	90.94
356.172	95.94
356.399	96.94
356.626	84.94
356.853	85.94
357.08	85.94
357.307	71.94
357.534	105.94
357.761	95.94
357.988	89.94
358.215	78.94
358.441	88.94
358.668	79.94
358.895	90.94
359.122	78.94
359.349	84.94
359.576	97.94
359.802	97.94
360.029	90.94
360.256	106.94
360.483	86.94
360.709	86.94
360.936	87.94
361.163	90.94
361.39	84.94
361.616	79.94
361.843	75.94
362.07	83.94
362.296	91.94
362.523	85.94
362.749	85.94
362.976	80.94
363.203	81.94
363.429	77.94
363.656	86.94
363.882	91.94
364.109	90.94
364.335	96.94
364.562	106.94
364.788	89.94
365.015	94.94
365.241	89.94
365.468	97.94
365.694	96.94
365.92	89.94
366.147	76.94
366.373	81.94
366.599	95.94
366.826	92.94
367.052	76.94
367.278	93.94
367.505	84.94
367.731	86.94
367.957	99.94
368.184	90.94
368.41	88.94
368.636	104.94
368.862	106.94
369.089	95.94
369.315	79.94
369.541	83.94
369.767	80.94
369.993	109.94
370.219	94.94
370.445	83.94
370.672	85.94
370.898	73.94
371.124	92.94
371.35	75.94
371.576	76.94
371.802	89.94
372.028	91.94
372.254	79.94
372.48	85.94
372.706	73.94
372.932	79.94
373.158	78.94
373.384	75.94
373.61	88.94
373.835	92.94
374.061	93.94
374.287	79.94
374.513	85.94
374.739	86.94
374.965	83.94
375.191	63.94
375.416	84.94
375.642	67.94
375.868	88.94
376.094	94.94
376.319	81.94
376.545	78.94
376.771	73.94
376.997	84.94
377.222	79.94
377.448	81.94
377.674	86.94
377.899	88.94
378.125	91.94
378.35	77.94
378.576	89.94
378.802	82.94
379.027	81.94
379.253	103.94
379.478	77.94
379.704	97.94
379.929	83.94
380.155	91.94
380.38	86.94
380.606	91.94
380.831	73.94
381.057	91.94
381.282	94.94
381.507	87.94
381.733	78.94
381.958	93.94
382.184	85.94
382.409	101.94
382.634	101.94
382.86	91.94
383.085	81.94
383.31	91.94
383.535	90.94
383.761	97.94
383.986	95.94
384.211	92.94
384.436	81.94
384.662	84.94
384.887	105.94
385.112	88.94
385.337	89.94
385.562	98.94
385.787	94.94
386.013	91.94
386.238	94.94
386.463	82.94
386.688	111.94
386.913	83.94
387.138	95.94
387.363	92.94
387.588	105.94
387.813	86.94
388.038	93.94
388.263	100.94
388.488	103.94
388.713	100.94
388.938	82.94
389.163	94.94
389.387	94.94
389.612	95.94
389.837	73.94
390.062	82.94
390.287	69.94
390.512	91.94
390.736	82.94
390.961	83.94
391.186	87.94
391.411	87.94
391.636	81.94
391.86	69.94
392.085	75.94
392.31	89.94
392.534	73.94
392.759	89.94
392.984	85.94
393.208	80.94
393.433	85.94
393.658	90.94
393.882	91.94
394.107	70.94
394.331	76.94
394.556	82.94
394.78	84.94
395.005	85.94
395.229	77.94
395.454	94.94
395.678	87.94
395.903	88.94
396.127	89.94
396.352	74.94
396.576	75.94
396.801	83.94
397.025	82.94
397.249	90.94
397.474	90.94
397.698	81.94
397.922	74.94
398.147	78.94
398.371	81.94
398.595	87.94
398.82	70.94
399.044	65.94
399.268	89.94
399.492	78.94
399.717	72.94
399.941	71.94
400.165	79.94
400.389	75.94
400.613	78.94
400.837	78.94
401.062	71.94
401.286	86.94
401.51	77.94
401.734	81.94
401.958	97.94
402.182	131.94
402.406	148.94
402.63	105.94
402.854	83.94
403.078	87.94
403.302	77.94
403.526	73.94
403.75	77.94
403.974	87.94
404.198	81.94
404.422	77.94
404.645	87.94
404.869	77.94
405.093	90.94
405.317	91.94
405.541	97.94
405.765	93.94
405.988	91.94
406.212	155.94
406.436	206.94
406.66	132.94
406.883	85.94
407.107	71.94
407.331	85.94
407.555	84.94
407.778	91.94
408.002	96.94
408.226	89.94
408.449	85.94
408.673	90.94
408.896	87.94
409.12	93.94
409.344	72.94
409.567	86.94
409.791	78.94
410.014	86.94
410.238	81.94
410.461	81.94
410.685	93.94
410.908	92.94
411.132	98.94
411.355	101.94
411.578	89.94
411.802	69.94
412.025	79.94
412.249	76.94
412.472	83.94
412.695	79.94
412.919	84.94
413.142	84.94
413.365	80.94
413.589	65.94
413.812	75.94
414.035	105.94
414.258	79.94
414.482	76.94
414.705	88.94
414.928	84.94
415.151	85.94
415.374	92.94
415.597	81.94
415.821	82.94
416.044	81.94
416.267	79.94
416.49	81.94
416.713	79.94
416.936	83.94
417.159	73.94
417.382	92.94
417.605	77.94
417.828	91.94
418.051	87.94
418.274	70.94
418.497	91.94
418.72	83.94
418.943	87.94
419.166	77.94
419.389	90.94
419.611	79.94
419.834	89.94
420.057	83.94
420.28	79.94
420.503	68.94
420.726	89.94
420.948	81.94
421.171	83.94
421.394	81.94
421.617	78.94
421.839	82.94
422.062	74.94
422.285	88.94
422.507	72.94
422.73	99.94
422.953	76.94
423.175	89.94
423.398	88.94
423.621	91.94
423.843	67.94
424.066	85.94
424.288	67.94
424.511	82.94
424.733	99.94
424.956	91.94
425.178	91.94
425.401	90.94
425.623	95.94
425.846	87.94
426.068	80.94
426.291	79.94
426.513	87.94
426.735	89.94
426.958	87.94
427.18	101.94
427.402	125.94
427.625	139.94
427.847	128.94
428.069	99.94
428.292	93.94
428.514	76.94
428.736	90.94
428.958	77.94
429.181	75.94
429.403	88.94
429.625	74.94
429.847	81.94
430.069	68.94
430.292	95.94
430.514	84.94
430.736	66.94
430.958	74.94
431.18	89.94
431.402	80.94
431.624	88.94
431.846	82.94
432.068	84.94
432.29	86.94
432.512	87.94
432.734	77.94
432.956	101.94
433.178	97.94
433.4	97.94
433.622	86.94
433.844	91.94
434.066	78.94
434.287	93.94
434.509	89.94
434.731	88.94
434.953	87.94
435.175	79.94
435.397	87.94
435.618	77.94
435.84	91.94
436.062	108.94
436.284	109.94
436.505	94.94
436.727	90.94
436.949	100.94
437.17	85.94
437.392	82.94
437.614	91.94
437.835	92.94
438.057	107.94
438.278	110.94
438.5	95.94
438.721	113.94
438.943	94.94
439.165	91.94
439.386	72.94
439.608	103.94
439.829	93.94
440.05	122.94
440.272	128.94
440.493	87.94
440.715	69.94
440.936	75.94
441.158	85.94
441.379	83.94
441.6	86.94
441.822	90.94
442.043	91.94
442.264	104.94
442.486	95.94
442.707	81.94
442.928	92.94
443.149	104.94
443.371	91.94
443.592	103.94
443.813	102.94
444.034	88.94
444.255	87.94
444.476	91.94
444.698	95.94
444.919	88.94
445.14	113.94
445.361	114.94
445.582	110.94
445.803	109.94
446.024	116.94
446.245	121.94
446.466	110.94
446.687	76.94
446.908	82.94
447.129	73.94
447.35	68.94
447.571	83.94
447.792	89.94
448.013	95.94
448.234	91.94
448.455	107.94
448.675	102.94
448.896	101.94
449.117	90.94
449.338	94.94
449.559	99.94
449.779	122.94
450	85.94
450.221	97.94
450.442	97.94
450.662	85.94
450.883	94.94
451.104	104.94
451.324	75.94
451.545	82.94
451.766	88.94
451.986	85.94
452.207	74.94
452.428	84.94
452.648	85.94
452.869	94.94
453.089	105.94
453.31	106.94
453.53	103.94
453.751	92.94
453.971	97.94
454.192	85.94
454.412	85.94
454.633	84.94
454.853	81.94
455.073	89.94
455.294	86.94
455.514	84.94
455.734	83.94
455.955	78.94
456.175	79.94
456.395	88.94
456.616	78.94
456.836	65.94
457.056	90.94
457.276	87.94
457.497	89.94
457.717	68.94
457.937	73.94
458.157	81.94
458.377	87.94
458.598	114.94
458.818	119.94
459.038	130.94
459.258	105.94
459.478	80.94
459.698	71.94
459.918	83.94
460.138	76.94
460.358	71.94
460.578	87.94
460.798	86.94
461.018	85.94
461.238	80.94
461.458	84.94
461.678	69.94
461.898	81.94
462.118	84.94
462.338	81.94
462.558	74.94
462.777	88.94
462.997	86.94
463.217	78.94
463.437	70.94
463.657	76.94
463.876	77.94
464.096	90.94
464.316	88.94
464.536	90.94
464.755	77.94
464.975	101.94
465.195	134.94
465.414	143.94
465.634	77.94
465.854	90.94
466.073	70.94
466.293	77.94
466.512	80.94
466.732	81.94
466.951	88.94
467.171	87.94
467.391	90.94
467.61	99.94
467.829	94.94
468.049	81.94
468.268	75.94
468.488	79.94
468.707	102.94
468.927	79.94
469.146	75.94
469.365	76.94
469.585	81.94
469.804	87.94
470.023	100.94
470.243	87.94
470.462	76.94
470.681	96.94
470.901	68.94
471.12	89.94
471.339	86.94
471.558	79.94
471.777	85.94
471.997	76.94
472.216	89.94
472.435	88.94
472.654	70.94
472.873	72.94
473.092	101.94
473.311	86.94
473.53	94.94
473.749	89.94
473.968	87.94
474.187	90.94
474.406	89.94
474.625	67.94
474.844	83.94
475.063	79.94
475.282	71.94
475.501	86.94
475.72	98.94
475.939	72.94
476.158	75.94
476.377	86.94
476.596	89.94
476.814	82.94
477.033	83.94
477.252	67.94
477.471	77.94
477.69	74.94
477.908	87.94
478.127	96.94
478.346	79.94
478.564	69.94
478.783	90.94
479.002	73.94
479.22	83.94
479.439	84.94
479.658	101.94
479.876	81.94
480.095	76.94
480.313	74.94
480.532	81.94
480.751	70.94
480.969	77.94
481.188	97.94
481.406	92.94
481.624	86.94
481.843	91.94
482.061	77.94
482.28	83.94
482.498	87.94
482.717	88.94
482.935	85.94
483.153	79.94
483.372	92.94
483.59	82.94
483.808	77.94
484.027	72.94
484.245	73.94
484.463	91.94
484.681	86.94
484.9	81.94
485.118	73.94
485.336	94.94
485.554	94.94
485.772	89.94
485.99	91.94
486.209	103.94
486.427	97.94
486.645	110.94
486.863	98.94
487.081	96.94
487.299	87.94
487.517	65.94
487.735	89.94
487.953	63.94
488.171	93.94
488.389	83.94
488.607	97.94
488.825	71.94
489.043	92.94
489.261	83.94
489.479	77.94
489.696	94.94
489.914	71.94
490.132	70.94
490.35	70.94
490.568	82.94
490.786	93.94
491.003	71.94
491.221	85.94
491.439	77.94
491.657	65.94
491.874	83.94
492.092	86.94
492.31	81.94
492.527	84.94
492.745	77.94
492.963	79.94
493.18	83.94
493.398	77.94
493.615	94.94
493.833	99.94
494.05	81.94
494.268	85.94
494.485	92.94
494.703	72.94
494.92	91.94
495.138	74.94
495.355	69.94
495.573	85.94
495.79	82.94
496.008	81.94
496.225	98.94
496.442	86.94
496.66	101.94
496.877	91.94
497.094	96.94
497.312	66.94
497.529	80.94
497.746	83.94
497.963	80.94
498.181	93.94
498.398	82.94
498.615	83.94
498.832	107.94
499.049	95.94
499.267	80.94
499.484	90.94
499.701	85.94
499.918	73.94
500.135	80.94
500.352	90.94
500.569	85.94
500.786	83.94
501.003	78.94
501.22	83.94
501.437	69.94
501.654	101.94
501.871	91.94
502.088	92.94
502.305	87.94
502.522	83.94
502.739	90.94
502.956	86.94
503.172	84.94
503.389	95.94
503.606	90.94
503.823	97.94
504.04	97.94
504.256	74.94
504.473	98.94
504.69	83.94
504.907	91.94
505.123	73.94
505.34	86.94
505.557	86.94
505.773	86.94
505.99	84.94
506.207	78.94
506.423	99.94
506.64	94.94
506.856	91.94
507.073	93.94
507.289	101.94
507.506	82.94
507.722	114.94
507.939	92.94
508.155	89.94
508.372	77.94
508.588	83.94
508.805	84.94
509.021	90.94
509.238	92.94
509.454	87.94
509.67	96.94
509.887	109.94
510.103	129.94
510.319	197.94
510.536	669.94
510.752	2077.94
510.968	575.94
511.184	133.94
511.401	99.94
511.617	100.94
511.833	90.94
512.049	93.94
512.265	86.94
512.481	64.94
512.698	87.94
512.914	88.94
513.13	89.94
513.346	93.94
513.562	90.94
513.778	90.94
513.994	84.94
514.21	87.94
514.426	102.94
514.642	111.94
514.858	101.94
515.074	152.94
515.29	393.94
515.506	1291.94
515.721	495.94
515.937	127.94
516.153	105.94
516.369	104.94
516.585	94.94
516.801	93.94
517.016	82.94
517.232	89.94
517.448	90.94
517.664	75.94
