Data from Uncirc_1997_H10_HRD10591_00082.txt Node
Date: Wed Jan 03 11:28:47 EST 2024
User: Yrep
Spectrometer: HR+D1059
Trigger mode: 1
Integration Time (sec): 1.000000E-1
Scans to average: 1
Electric dark correction enabled: true
Nonlinearity correction enabled: false
Boxcar width: 0
XAxis mode: Wavelengths
Number of Pixels in Spectrum: 2048
>>>>>Begin Spectral Data<<<<<
223.165	-7.19
223.4	-7.19
223.635	-7.19
223.869	-29.19
224.104	-12.19
224.338	-26.19
224.573	-9.19
224.808	-16.19
225.042	-0.19
225.277	-11.19
225.511	-1.19
225.746	16.81
225.98	-10.19
226.215	7.81
226.449	13.81
226.683	27.81
226.918	28.81
227.152	27.81
227.387	32.81
227.621	51.81
227.856	60.81
228.09	55.81
228.324	38.81
228.559	45.81
228.793	53.81
229.027	54.81
229.262	71.81
229.496	76.81
229.73	99.81
229.964	66.81
230.199	73.81
230.433	75.81
230.667	77.81
230.901	65.81
231.136	64.81
231.37	84.81
231.604	80.81
231.838	73.81
232.072	81.81
232.306	80.81
232.541	82.81
232.775	77.81
233.009	81.81
233.243	76.81
233.477	84.81
233.711	75.81
233.945	76.81
234.179	71.81
234.413	86.81
234.647	81.81
234.881	64.81
235.115	76.81
235.349	88.81
235.583	91.81
235.817	78.81
236.051	55.81
236.285	79.81
236.519	68.81
236.753	69.81
236.987	63.81
237.221	75.81
237.455	78.81
237.689	77.81
237.922	74.81
238.156	77.81
238.39	76.81
238.624	78.81
238.858	79.81
239.091	66.81
239.325	75.81
239.559	54.81
239.793	69.81
240.027	79.81
240.26	61.81
240.494	60.81
240.728	65.81
240.961	74.81
241.195	86.81
241.429	81.81
241.662	67.81
241.896	80.81
242.13	81.81
242.363	55.81
242.597	77.81
242.83	79.81
243.064	87.81
243.298	64.81
243.531	77.81
243.765	81.81
243.998	78.81
244.232	72.81
244.465	79.81
244.699	75.81
244.932	78.81
245.166	85.81
245.399	65.81
245.633	76.81
245.866	69.81
246.099	77.81
246.333	92.81
246.566	89.81
246.8	86.81
247.033	72.81
247.266	75.81
247.5	67.81
247.733	67.81
247.966	90.81
248.2	94.81
248.433	62.81
248.666	74.81
248.899	72.81
249.133	93.81
249.366	83.81
249.599	82.81
249.832	78.81
250.066	77.81
250.299	80.81
250.532	71.81
250.765	82.81
250.998	71.81
251.231	83.81
251.465	77.81
251.698	67.81
251.931	63.81
252.164	67.81
252.397	74.81
252.63	72.81
252.863	85.81
253.096	65.81
253.329	83.81
253.562	80.81
253.795	90.81
254.028	78.81
254.261	77.81
254.494	74.81
254.727	81.81
254.96	84.81
255.193	75.81
255.426	83.81
255.659	93.81
255.892	73.81
256.124	73.81
256.357	80.81
256.59	87.81
256.823	90.81
257.056	83.81
257.289	63.81
257.521	83.81
257.754	82.81
257.987	61.81
258.22	68.81
258.452	69.81
258.685	74.81
258.918	77.81
259.151	73.81
259.383	67.81
259.616	77.81
259.849	84.81
260.081	81.81
260.314	83.81
260.547	78.81
260.779	69.81
261.012	76.81
261.244	90.81
261.477	92.81
261.71	85.81
261.942	107.81
262.175	118.81
262.407	86.81
262.64	87.81
262.872	80.81
263.105	68.81
263.337	83.81
263.57	82.81
263.802	89.81
264.035	79.81
264.267	57.81
264.499	77.81
264.732	83.81
264.964	80.81
265.197	81.81
265.429	86.81
265.661	83.81
265.894	72.81
266.126	93.81
266.358	84.81
266.591	75.81
266.823	75.81
267.055	81.81
267.287	79.81
267.52	87.81
267.752	77.81
267.984	80.81
268.216	87.81
268.448	75.81
268.681	72.81
268.913	79.81
269.145	77.81
269.377	79.81
269.609	69.81
269.841	75.81
270.073	81.81
270.306	99.81
270.538	85.81
270.77	104.81
271.002	86.81
271.234	84.81
271.466	91.81
271.698	79.81
271.93	83.81
272.162	79.81
272.394	65.81
272.626	74.81
272.858	55.81
273.09	88.81
273.322	74.81
273.553	79.81
273.785	78.81
274.017	86.81
274.249	78.81
274.481	73.81
274.713	84.81
274.945	78.81
275.176	86.81
275.408	89.81
275.64	77.81
275.872	74.81
276.104	78.81
276.335	94.81
276.567	95.81
276.799	104.81
277.031	92.81
277.262	75.81
277.494	83.81
277.726	88.81
277.957	86.81
278.189	78.81
278.421	86.81
278.652	75.81
278.884	80.81
279.115	85.81
279.347	73.81
279.579	79.81
279.81	77.81
280.042	81.81
280.273	81.81
280.505	88.81
280.736	79.81
280.968	93.81
281.199	83.81
281.431	78.81
281.662	89.81
281.894	96.81
282.125	86.81
282.356	106.81
282.588	129.81
282.819	111.81
283.051	88.81
283.282	89.81
283.513	95.81
283.745	94.81
283.976	78.81
284.207	83.81
284.439	87.81
284.67	78.81
284.901	78.81
285.132	76.81
285.364	78.81
285.595	76.81
285.826	80.81
286.057	76.81
286.288	79.81
286.52	84.81
286.751	87.81
286.982	80.81
287.213	91.81
287.444	86.81
287.675	83.81
287.906	88.81
288.138	92.81
288.369	85.81
288.6	86.81
288.831	91.81
289.062	78.81
289.293	90.81
289.524	86.81
289.755	93.81
289.986	78.81
290.217	70.81
290.448	79.81
290.679	86.81
290.91	82.81
291.141	93.81
291.371	76.81
291.602	92.81
291.833	72.81
292.064	96.81
292.295	84.81
292.526	86.81
292.757	73.81
292.987	75.81
293.218	81.81
293.449	78.81
293.68	85.81
293.91	86.81
294.141	78.81
294.372	90.81
294.603	85.81
294.833	76.81
295.064	75.81
295.295	77.81
295.525	77.81
295.756	96.81
295.987	125.81
296.217	126.81
296.448	107.81
296.679	75.81
296.909	80.81
297.14	88.81
297.37	84.81
297.601	88.81
297.831	80.81
298.062	89.81
298.292	75.81
298.523	89.81
298.753	76.81
298.984	85.81
299.214	82.81
299.445	91.81
299.675	89.81
299.905	92.81
300.136	94.81
300.366	104.81
300.597	74.81
300.827	79.81
301.057	101.81
301.288	101.81
301.518	78.81
301.748	85.81
301.979	99.81
302.209	96.81
302.439	104.81
302.669	85.81
302.9	81.81
303.13	71.81
303.36	85.81
303.59	84.81
303.82	94.81
304.051	97.81
304.281	89.81
304.511	88.81
304.741	90.81
304.971	78.81
305.201	83.81
305.431	90.81
305.661	86.81
305.891	67.81
306.121	93.81
306.352	81.81
306.582	90.81
306.812	92.81
307.042	81.81
307.272	84.81
307.502	88.81
307.731	88.81
307.961	80.81
308.191	93.81
308.421	80.81
308.651	99.81
308.881	93.81
309.111	86.81
309.341	83.81
309.571	91.81
309.8	95.81
310.03	105.81
310.26	92.81
310.49	99.81
310.72	93.81
310.949	89.81
311.179	94.81
311.409	96.81
311.639	88.81
311.868	103.81
312.098	103.81
312.328	84.81
312.557	95.81
312.787	89.81
313.017	94.81
313.246	93.81
313.476	90.81
313.706	100.81
313.935	103.81
314.165	95.81
314.394	96.81
314.624	106.81
314.853	88.81
315.083	80.81
315.312	94.81
315.542	91.81
315.771	87.81
316.001	84.81
316.23	62.81
316.46	83.81
316.689	94.81
316.919	94.81
317.148	86.81
317.377	94.81
317.607	89.81
317.836	91.81
318.065	83.81
318.295	93.81
318.524	79.81
318.753	76.81
318.983	85.81
319.212	81.81
319.441	107.81
319.67	94.81
319.9	81.81
320.129	97.81
320.358	83.81
320.587	92.81
320.816	90.81
321.046	108.81
321.275	95.81
321.504	102.81
321.733	100.81
321.962	93.81
322.191	92.81
322.42	91.81
322.649	104.81
322.878	100.81
323.108	110.81
323.337	121.81
323.566	123.81
323.795	149.81
324.024	189.81
324.253	354.81
324.482	779.81
324.71	1481.81
324.939	1999.81
325.168	733.81
325.397	220.81
325.626	141.81
325.855	123.81
326.084	110.81
326.313	110.81
326.542	138.81
326.77	202.81
326.999	414.81
327.228	865.81
327.457	1564.81
327.686	1248.81
327.914	351.81
328.143	170.81
328.372	135.81
328.6	110.81
328.829	108.81
329.058	123.81
329.287	125.81
329.515	126.81
329.744	105.81
329.972	97.81
330.201	108.81
330.43	109.81
330.658	117.81
330.887	116.81
331.115	124.81
331.344	101.81
331.572	98.81
331.801	97.81
332.03	104.81
332.258	104.81
332.486	101.81
332.715	92.81
332.943	90.81
333.172	79.81
333.4	92.81
333.629	87.81
333.857	108.81
334.085	103.81
334.314	100.81
334.542	97.81
334.771	96.81
334.999	93.81
335.227	86.81
335.455	77.81
335.684	93.81
335.912	98.81
336.14	91.81
336.369	83.81
336.597	101.81
336.825	91.81
337.053	85.81
337.281	80.81
337.51	85.81
337.738	86.81
337.966	81.81
338.194	105.81
338.422	96.81
338.65	75.81
338.878	80.81
339.106	94.81
339.334	92.81
339.562	85.81
339.79	83.81
340.018	84.81
340.246	83.81
340.474	81.81
340.702	93.81
340.93	92.81
341.158	97.81
341.386	92.81
341.614	86.81
341.842	94.81
342.07	81.81
342.298	78.81
342.526	91.81
342.754	89.81
342.981	91.81
343.209	79.81
343.437	86.81
343.665	93.81
343.893	90.81
344.12	88.81
344.348	83.81
344.576	88.81
344.804	95.81
345.031	95.81
345.259	101.81
345.487	91.81
345.714	91.81
345.942	84.81
346.17	103.81
346.397	99.81
346.625	82.81
346.853	93.81
347.08	72.81
347.308	75.81
347.535	90.81
347.763	84.81
347.99	87.81
348.218	109.81
348.445	112.81
348.673	90.81
348.9	87.81
349.128	96.81
349.355	80.81
349.583	81.81
349.81	97.81
350.037	95.81
350.265	83.81
350.492	91.81
350.72	103.81
350.947	97.81
351.174	107.81
351.402	121.81
351.629	103.81
351.856	89.81
352.083	95.81
352.311	99.81
352.538	105.81
352.765	109.81
352.992	117.81
353.22	113.81
353.447	105.81
353.674	98.81
353.901	92.81
354.128	93.81
354.355	84.81
354.583	94.81
354.81	94.81
355.037	97.81
355.264	102.81
355.491	92.81
355.718	83.81
355.945	73.81
356.172	76.81
356.399	92.81
356.626	92.81
356.853	85.81
357.08	78.81
357.307	89.81
357.534	93.81
357.761	95.81
357.988	103.81
358.215	93.81
358.441	100.81
358.668	92.81
358.895	92.81
359.122	87.81
359.349	99.81
359.576	93.81
359.802	105.81
360.029	99.81
360.256	112.81
360.483	100.81
360.709	74.81
360.936	86.81
361.163	94.81
361.39	109.81
361.616	109.81
361.843	108.81
362.07	86.81
362.296	87.81
362.523	95.81
362.749	85.81
362.976	101.81
363.203	85.81
363.429	92.81
363.656	103.81
363.882	83.81
364.109	83.81
364.335	93.81
364.562	105.81
364.788	89.81
365.015	103.81
365.241	102.81
365.468	89.81
365.694	101.81
365.92	96.81
366.147	79.81
366.373	87.81
366.599	93.81
366.826	96.81
367.052	87.81
367.278	93.81
367.505	98.81
367.731	91.81
367.957	74.81
368.184	110.81
368.41	104.81
368.636	94.81
368.862	107.81
369.089	87.81
369.315	80.81
369.541	85.81
369.767	81.81
369.993	83.81
370.219	74.81
370.445	80.81
370.672	83.81
370.898	83.81
371.124	92.81
371.35	74.81
371.576	93.81
371.802	88.81
372.028	71.81
372.254	99.81
372.48	84.81
372.706	75.81
372.932	86.81
373.158	73.81
373.384	84.81
373.61	103.81
373.835	77.81
374.061	84.81
374.287	88.81
374.513	87.81
374.739	93.81
374.965	75.81
375.191	79.81
375.416	94.81
375.642	87.81
375.868	84.81
376.094	86.81
376.319	78.81
376.545	70.81
376.771	81.81
376.997	92.81
377.222	89.81
377.448	86.81
377.674	95.81
377.899	89.81
378.125	84.81
378.35	86.81
378.576	82.81
378.802	97.81
379.027	98.81
379.253	87.81
379.478	92.81
379.704	92.81
379.929	83.81
380.155	80.81
380.38	91.81
380.606	97.81
380.831	92.81
381.057	89.81
381.282	96.81
381.507	87.81
381.733	92.81
381.958	93.81
382.184	91.81
382.409	96.81
382.634	93.81
382.86	96.81
383.085	85.81
383.31	84.81
383.535	91.81
383.761	110.81
383.986	93.81
384.211	90.81
384.436	103.81
384.662	83.81
384.887	94.81
385.112	95.81
385.337	87.81
385.562	96.81
385.787	88.81
386.013	108.81
386.238	112.81
386.463	99.81
386.688	114.81
386.913	114.81
387.138	101.81
387.363	98.81
387.588	88.81
387.813	90.81
388.038	91.81
388.263	95.81
388.488	94.81
388.713	87.81
388.938	79.81
389.163	95.81
389.387	99.81
389.612	99.81
389.837	87.81
390.062	86.81
390.287	97.81
390.512	88.81
390.736	91.81
390.961	99.81
391.186	89.81
391.411	79.81
391.636	91.81
391.86	89.81
392.085	83.81
392.31	80.81
392.534	93.81
392.759	80.81
392.984	80.81
393.208	76.81
393.433	96.81
393.658	81.81
393.882	74.81
394.107	83.81
394.331	97.81
394.556	84.81
394.78	86.81
395.005	80.81
395.229	73.81
395.454	75.81
395.678	89.81
395.903	83.81
396.127	92.81
396.352	105.81
396.576	90.81
396.801	76.81
397.025	75.81
397.249	87.81
397.474	104.81
397.698	84.81
397.922	97.81
398.147	83.81
398.371	83.81
398.595	82.81
398.82	87.81
399.044	86.81
399.268	87.81
399.492	68.81
399.717	84.81
399.941	95.81
400.165	97.81
400.389	97.81
400.613	75.81
400.837	87.81
401.062	78.81
401.286	103.81
401.51	94.81
401.734	87.81
401.958	91.81
402.182	115.81
402.406	144.81
402.63	116.81
402.854	90.81
403.078	99.81
403.302	88.81
403.526	76.81
403.75	88.81
403.974	90.81
404.198	85.81
404.422	80.81
404.645	89.81
404.869	84.81
405.093	86.81
405.317	88.81
405.541	97.81
405.765	90.81
405.988	108.81
406.212	147.81
406.436	204.81
406.66	138.81
406.883	97.81
407.107	85.81
407.331	102.81
407.555	79.81
407.778	83.81
408.002	94.81
408.226	87.81
408.449	97.81
408.673	84.81
408.896	81.81
409.12	72.81
409.344	83.81
409.567	86.81
409.791	91.81
410.014	106.81
410.238	91.81
410.461	81.81
410.685	103.81
410.908	93.81
411.132	97.81
411.355	84.81
411.578	80.81
411.802	88.81
412.025	91.81
412.249	83.81
412.472	87.81
412.695	80.81
412.919	99.81
413.142	96.81
413.365	81.81
413.589	60.81
413.812	81.81
414.035	97.81
414.258	95.81
414.482	73.81
414.705	71.81
414.928	71.81
415.151	83.81
415.374	89.81
415.597	78.81
415.821	86.81
416.044	79.81
416.267	75.81
416.49	84.81
416.713	94.81
416.936	77.81
417.159	80.81
417.382	87.81
417.605	93.81
417.828	87.81
418.051	85.81
418.274	93.81
418.497	89.81
418.72	101.81
418.943	88.81
419.166	96.81
419.389	82.81
419.611	84.81
419.834	86.81
420.057	90.81
420.28	77.81
420.503	83.81
420.726	75.81
420.948	84.81
421.171	77.81
421.394	89.81
421.617	94.81
421.839	76.81
422.062	77.81
422.285	87.81
422.507	96.81
422.73	93.81
422.953	78.81
423.175	90.81
423.398	71.81
423.621	94.81
423.843	79.81
424.066	79.81
424.288	83.81
424.511	91.81
424.733	92.81
424.956	101.81
425.178	92.81
425.401	72.81
425.623	79.81
425.846	92.81
426.068	85.81
426.291	88.81
426.513	89.81
426.735	79.81
426.958	79.81
427.18	97.81
427.402	123.81
427.625	148.81
427.847	125.81
428.069	101.81
428.292	81.81
428.514	72.81
428.736	74.81
428.958	86.81
429.181	95.81
429.403	74.81
429.625	78.81
429.847	87.81
430.069	105.81
430.292	90.81
430.514	88.81
430.736	79.81
430.958	83.81
431.18	64.81
431.402	95.81
431.624	88.81
431.846	84.81
432.068	78.81
432.29	87.81
432.512	84.81
432.734	67.81
432.956	84.81
433.178	97.81
433.4	79.81
433.622	81.81
433.844	97.81
434.066	85.81
434.287	86.81
434.509	75.81
434.731	85.81
434.953	81.81
435.175	93.81
435.397	78.81
435.618	95.81
435.84	99.81
436.062	122.81
436.284	113.81
436.505	95.81
436.727	110.81
436.949	94.81
437.17	88.81
437.392	67.81
437.614	80.81
437.835	92.81
438.057	98.81
438.278	97.81
438.5	93.81
438.721	112.81
438.943	98.81
439.165	87.81
439.386	73.81
439.608	83.81
439.829	104.81
440.05	125.81
440.272	117.81
440.493	94.81
440.715	95.81
440.936	91.81
441.158	97.81
441.379	96.81
441.6	89.81
441.822	92.81
442.043	94.81
442.264	96.81
442.486	108.81
442.707	83.81
442.928	97.81
443.149	115.81
443.371	117.81
443.592	100.81
443.813	93.81
444.034	100.81
444.255	83.81
444.476	81.81
444.698	94.81
444.919	95.81
445.14	121.81
445.361	119.81
445.582	102.81
445.803	131.81
446.024	136.81
446.245	136.81
446.466	100.81
446.687	92.81
446.908	83.81
447.129	83.81
447.35	80.81
447.571	87.81
447.792	87.81
448.013	101.81
448.234	107.81
448.455	82.81
448.675	115.81
448.896	111.81
449.117	96.81
449.338	107.81
449.559	128.81
449.779	108.81
450	96.81
450.221	91.81
450.442	89.81
450.662	107.81
450.883	83.81
451.104	94.81
451.324	97.81
451.545	78.81
451.766	78.81
451.986	81.81
452.207	100.81
452.428	95.81
452.648	100.81
452.869	101.81
453.089	118.81
453.31	111.81
453.53	100.81
453.751	81.81
453.971	110.81
454.192	101.81
454.412	91.81
454.633	83.81
454.853	85.81
455.073	82.81
455.294	88.81
455.514	94.81
455.734	95.81
455.955	85.81
456.175	77.81
456.395	88.81
456.616	87.81
456.836	84.81
457.056	97.81
457.276	91.81
457.497	91.81
457.717	94.81
457.937	92.81
458.157	81.81
458.377	89.81
458.598	114.81
458.818	129.81
459.038	151.81
459.258	97.81
459.478	84.81
459.698	93.81
459.918	90.81
460.138	62.81
460.358	89.81
460.578	96.81
460.798	80.81
461.018	75.81
461.238	90.81
461.458	94.81
461.678	85.81
461.898	95.81
462.118	91.81
462.338	83.81
462.558	70.81
462.777	74.81
462.997	89.81
463.217	68.81
463.437	90.81
463.657	74.81
463.876	97.81
464.096	100.81
464.316	64.81
464.536	77.81
464.755	78.81
464.975	100.81
465.195	156.81
465.414	143.81
465.634	93.81
465.854	72.81
466.073	78.81
466.293	83.81
466.512	88.81
466.732	84.81
466.951	79.81
467.171	95.81
467.391	95.81
467.61	105.81
467.829	102.81
468.049	86.81
468.268	82.81
468.488	77.81
468.707	89.81
468.927	71.81
469.146	93.81
469.365	91.81
469.585	88.81
469.804	93.81
470.023	94.81
470.243	92.81
470.462	91.81
470.681	101.81
470.901	102.81
471.12	84.81
471.339	86.81
471.558	88.81
471.777	82.81
471.997	93.81
472.216	94.81
472.435	83.81
472.654	76.81
472.873	82.81
473.092	94.81
473.311	88.81
473.53	71.81
473.749	82.81
473.968	98.81
474.187	103.81
474.406	96.81
474.625	94.81
474.844	87.81
475.063	64.81
475.282	96.81
475.501	81.81
475.72	78.81
475.939	77.81
476.158	87.81
476.377	82.81
476.596	100.81
476.814	104.81
477.033	95.81
477.252	86.81
477.471	80.81
477.69	95.81
477.908	79.81
478.127	88.81
478.346	81.81
478.564	83.81
478.783	85.81
479.002	92.81
479.22	85.81
479.439	87.81
479.658	102.81
479.876	79.81
480.095	83.81
480.313	76.81
480.532	84.81
480.751	101.81
480.969	83.81
481.188	94.81
481.406	95.81
481.624	87.81
481.843	81.81
482.061	79.81
482.28	88.81
482.498	80.81
482.717	73.81
482.935	92.81
483.153	88.81
483.372	87.81
483.59	85.81
483.808	89.81
484.027	89.81
484.245	68.81
484.463	80.81
484.681	99.81
484.9	82.81
485.118	87.81
485.336	98.81
485.554	75.81
485.772	88.81
485.99	101.81
486.209	96.81
486.427	111.81
486.645	106.81
486.863	109.81
487.081	95.81
487.299	101.81
487.517	98.81
487.735	92.81
487.953	104.81
488.171	80.81
488.389	73.81
488.607	95.81
488.825	89.81
489.043	85.81
489.261	89.81
489.479	89.81
489.696	89.81
489.914	86.81
490.132	101.81
490.35	78.81
490.568	77.81
490.786	95.81
491.003	85.81
491.221	93.81
491.439	91.81
491.657	92.81
491.874	90.81
492.092	75.81
492.31	84.81
492.527	103.81
492.745	88.81
492.963	87.81
493.18	75.81
493.398	104.81
493.615	88.81
493.833	95.81
494.05	88.81
494.268	93.81
494.485	91.81
494.703	92.81
494.92	77.81
495.138	84.81
495.355	78.81
495.573	88.81
495.79	90.81
496.008	93.81
496.225	89.81
496.442	86.81
496.66	94.81
496.877	96.81
497.094	105.81
497.312	108.81
497.529	77.81
497.746	77.81
497.963	91.81
498.181	95.81
498.398	92.81
498.615	106.81
498.832	97.81
499.049	93.81
499.267	87.81
499.484	76.81
499.701	83.81
499.918	102.81
500.135	84.81
500.352	81.81
500.569	92.81
500.786	79.81
501.003	74.81
501.22	88.81
501.437	87.81
501.654	92.81
501.871	109.81
502.088	89.81
502.305	95.81
502.522	87.81
502.739	93.81
502.956	94.81
503.172	90.81
503.389	99.81
503.606	96.81
503.823	99.81
504.04	95.81
504.256	79.81
504.473	94.81
504.69	87.81
504.907	100.81
505.123	94.81
505.34	87.81
505.557	91.81
505.773	104.81
505.99	89.81
506.207	94.81
506.423	88.81
506.64	82.81
506.856	98.81
507.073	84.81
507.289	84.81
507.506	90.81
507.722	99.81
507.939	104.81
508.155	75.81
508.372	85.81
508.588	104.81
508.805	88.81
509.021	77.81
509.238	105.81
509.454	93.81
509.67	99.81
509.887	98.81
510.103	109.81
510.319	180.81
510.536	700.81
510.752	2147.81
510.968	591.81
511.184	149.81
511.401	107.81
511.617	102.81
511.833	88.81
512.049	88.81
512.265	88.81
512.481	69.81
512.698	86.81
512.914	106.81
513.13	106.81
513.346	100.81
513.562	99.81
513.778	101.81
513.994	92.81
514.21	102.81
514.426	119.81
514.642	123.81
514.858	107.81
515.074	156.81
515.29	418.81
515.506	1317.81
515.721	485.81
515.937	125.81
516.153	101.81
516.369	97.81
516.585	71.81
516.801	76.81
517.016	88.81
