Data from Uncirc_1997_H10_HRD10591_00023.txt Node
Date: Wed Jan 03 11:28:35 EST 2024
User: Yrep
Spectrometer: HR+D1059
Trigger mode: 1
Integration Time (sec): 1.000000E-1
Scans to average: 1
Electric dark correction enabled: true
Nonlinearity correction enabled: false
Boxcar width: 0
XAxis mode: Wavelengths
Number of Pixels in Spectrum: 2048
>>>>>Begin Spectral Data<<<<<
223.165	-5.31
223.4	-5.31
223.635	-5.31
223.869	-32.31
224.104	-28.31
224.338	-24.31
224.573	-20.31
224.808	-15.31
225.042	3.69
225.277	-4.31
225.511	4.69
225.746	0.69
225.98	-3.31
226.215	8.69
226.449	9.69
226.683	37.69
226.918	30.69
227.152	37.69
227.387	29.69
227.621	41.69
227.856	55.69
228.09	33.69
228.324	61.69
228.559	57.69
228.793	61.69
229.027	48.69
229.262	74.69
229.496	84.69
229.73	82.69
229.964	79.69
230.199	86.69
230.433	81.69
230.667	81.69
230.901	80.69
231.136	75.69
231.37	89.69
231.604	78.69
231.838	77.69
232.072	80.69
232.306	81.69
232.541	74.69
232.775	73.69
233.009	63.69
233.243	81.69
233.477	77.69
233.711	81.69
233.945	75.69
234.179	87.69
234.413	89.69
234.647	79.69
234.881	69.69
235.115	89.69
235.349	87.69
235.583	90.69
235.817	88.69
236.051	87.69
236.285	87.69
236.519	84.69
236.753	90.69
236.987	78.69
237.221	75.69
237.455	88.69
237.689	73.69
237.922	79.69
238.156	75.69
238.39	79.69
238.624	81.69
238.858	69.69
239.091	73.69
239.325	79.69
239.559	73.69
239.793	73.69
240.027	90.69
240.26	94.69
240.494	90.69
240.728	67.69
240.961	72.69
241.195	66.69
241.429	69.69
241.662	76.69
241.896	77.69
242.13	80.69
242.363	85.69
242.597	75.69
242.83	77.69
243.064	85.69
243.298	87.69
243.531	86.69
243.765	79.69
243.998	76.69
244.232	69.69
244.465	82.69
244.699	84.69
244.932	80.69
245.166	82.69
245.399	61.69
245.633	67.69
245.866	78.69
246.099	83.69
246.333	81.69
246.566	69.69
246.8	75.69
247.033	78.69
247.266	77.69
247.5	78.69
247.733	79.69
247.966	78.69
248.2	64.69
248.433	77.69
248.666	79.69
248.899	81.69
249.133	88.69
249.366	82.69
249.599	93.69
249.832	85.69
250.066	97.69
250.299	79.69
250.532	69.69
250.765	71.69
250.998	81.69
251.231	71.69
251.465	70.69
251.698	79.69
251.931	77.69
252.164	82.69
252.397	65.69
252.63	64.69
252.863	82.69
253.096	86.69
253.329	87.69
253.562	93.69
253.795	83.69
254.028	89.69
254.261	101.69
254.494	94.69
254.727	77.69
254.96	82.69
255.193	82.69
255.426	84.69
255.659	68.69
255.892	78.69
256.124	83.69
256.357	71.69
256.59	80.69
256.823	64.69
257.056	83.69
257.289	88.69
257.521	77.69
257.754	74.69
257.987	84.69
258.22	78.69
258.452	83.69
258.685	78.69
258.918	73.69
259.151	86.69
259.383	86.69
259.616	74.69
259.849	71.69
260.081	76.69
260.314	89.69
260.547	77.69
260.779	84.69
261.012	93.69
261.244	71.69
261.477	93.69
261.71	78.69
261.942	105.69
262.175	122.69
262.407	82.69
262.64	86.69
262.872	78.69
263.105	75.69
263.337	70.69
263.57	70.69
263.802	73.69
264.035	90.69
264.267	82.69
264.499	85.69
264.732	73.69
264.964	75.69
265.197	82.69
265.429	79.69
265.661	75.69
265.894	92.69
266.126	97.69
266.358	90.69
266.591	89.69
266.823	77.69
267.055	98.69
267.287	92.69
267.52	84.69
267.752	66.69
267.984	78.69
268.216	86.69
268.448	78.69
268.681	83.69
268.913	87.69
269.145	94.69
269.377	89.69
269.609	77.69
269.841	94.69
270.073	95.69
270.306	74.69
270.538	76.69
270.77	73.69
271.002	89.69
271.234	88.69
271.466	93.69
271.698	93.69
271.93	86.69
272.162	87.69
272.394	74.69
272.626	88.69
272.858	89.69
273.09	90.69
273.322	79.69
273.553	72.69
273.785	66.69
274.017	66.69
274.249	75.69
274.481	85.69
274.713	94.69
274.945	83.69
275.176	91.69
275.408	81.69
275.64	73.69
275.872	91.69
276.104	89.69
276.335	80.69
276.567	87.69
276.799	93.69
277.031	92.69
277.262	80.69
277.494	90.69
277.726	75.69
277.957	71.69
278.189	80.69
278.421	80.69
278.652	83.69
278.884	81.69
279.115	79.69
279.347	98.69
279.579	75.69
279.81	83.69
280.042	86.69
280.273	85.69
280.505	80.69
280.736	91.69
280.968	94.69
281.199	95.69
281.431	71.69
281.662	75.69
281.894	77.69
282.125	90.69
282.356	96.69
282.588	139.69
282.819	99.69
283.051	89.69
283.282	80.69
283.513	86.69
283.745	83.69
283.976	90.69
284.207	86.69
284.439	90.69
284.67	103.69
284.901	80.69
285.132	70.69
285.364	81.69
285.595	79.69
285.826	84.69
286.057	93.69
286.288	73.69
286.52	73.69
286.751	87.69
286.982	71.69
287.213	84.69
287.444	86.69
287.675	79.69
287.906	90.69
288.138	93.69
288.369	96.69
288.6	81.69
288.831	92.69
289.062	91.69
289.293	85.69
289.524	89.69
289.755	92.69
289.986	87.69
290.217	83.69
290.448	82.69
290.679	70.69
290.91	96.69
291.141	91.69
291.371	78.69
291.602	79.69
291.833	93.69
292.064	81.69
292.295	99.69
292.526	84.69
292.757	94.69
292.987	83.69
293.218	89.69
293.449	84.69
293.68	90.69
293.91	85.69
294.141	99.69
294.372	87.69
294.603	83.69
294.833	75.69
295.064	92.69
295.295	95.69
295.525	94.69
295.756	98.69
295.987	122.69
296.217	120.69
296.448	120.69
296.679	113.69
296.909	81.69
297.14	94.69
297.37	87.69
297.601	81.69
297.831	83.69
298.062	92.69
298.292	75.69
298.523	88.69
298.753	87.69
298.984	75.69
299.214	91.69
299.445	91.69
299.675	98.69
299.905	102.69
300.136	98.69
300.366	71.69
300.597	85.69
300.827	91.69
301.057	98.69
301.288	99.69
301.518	102.69
301.748	81.69
301.979	97.69
302.209	93.69
302.439	92.69
302.669	88.69
302.9	94.69
303.13	89.69
303.36	95.69
303.59	98.69
303.82	95.69
304.051	97.69
304.281	91.69
304.511	82.69
304.741	80.69
304.971	76.69
305.201	92.69
305.431	90.69
305.661	96.69
305.891	96.69
306.121	95.69
306.352	104.69
306.582	115.69
306.812	85.69
307.042	93.69
307.272	97.69
307.502	96.69
307.731	82.69
307.961	89.69
308.191	77.69
308.421	109.69
308.651	91.69
308.881	89.69
309.111	96.69
309.341	94.69
309.571	97.69
309.8	83.69
310.03	89.69
310.26	91.69
310.49	112.69
310.72	102.69
310.949	89.69
311.179	95.69
311.409	88.69
311.639	89.69
311.868	91.69
312.098	81.69
312.328	77.69
312.557	94.69
312.787	67.69
313.017	87.69
313.246	104.69
313.476	89.69
313.706	79.69
313.935	99.69
314.165	93.69
314.394	82.69
314.624	91.69
314.853	88.69
315.083	79.69
315.312	94.69
315.542	99.69
315.771	98.69
316.001	83.69
316.23	89.69
316.46	93.69
316.689	91.69
316.919	94.69
317.148	90.69
317.377	85.69
317.607	96.69
317.836	102.69
318.065	91.69
318.295	79.69
318.524	84.69
318.753	78.69
318.983	92.69
319.212	97.69
319.441	103.69
319.67	82.69
319.9	99.69
320.129	85.69
320.358	94.69
320.587	97.69
320.816	88.69
321.046	94.69
321.275	91.69
321.504	90.69
321.733	86.69
321.962	101.69
322.191	103.69
322.42	98.69
322.649	103.69
322.878	92.69
323.108	116.69
323.337	108.69
323.566	109.69
323.795	149.69
324.024	183.69
324.253	368.69
324.482	674.69
324.71	1451.69
324.939	1891.69
325.168	724.69
325.397	206.69
325.626	136.69
325.855	123.69
326.084	122.69
326.313	128.69
326.542	128.69
326.77	198.69
326.999	429.69
327.228	827.69
327.457	1484.69
327.686	1157.69
327.914	319.69
328.143	174.69
328.372	127.69
328.6	114.69
328.829	102.69
329.058	118.69
329.287	110.69
329.515	105.69
329.744	106.69
329.972	98.69
330.201	103.69
330.43	100.69
330.658	93.69
330.887	124.69
331.115	99.69
331.344	92.69
331.572	92.69
331.801	105.69
332.03	101.69
332.258	95.69
332.486	81.69
332.715	79.69
332.943	97.69
333.172	85.69
333.4	91.69
333.629	96.69
333.857	109.69
334.085	94.69
334.314	101.69
334.542	102.69
334.771	102.69
334.999	103.69
335.227	97.69
335.455	93.69
335.684	98.69
335.912	95.69
336.14	103.69
336.369	91.69
336.597	95.69
336.825	81.69
337.053	91.69
337.281	86.69
337.51	94.69
337.738	90.69
337.966	87.69
338.194	88.69
338.422	94.69
338.65	96.69
338.878	95.69
339.106	78.69
339.334	85.69
339.562	73.69
339.79	94.69
340.018	84.69
340.246	77.69
340.474	107.69
340.702	81.69
340.93	88.69
341.158	87.69
341.386	93.69
341.614	93.69
341.842	106.69
342.07	104.69
342.298	83.69
342.526	90.69
342.754	87.69
342.981	81.69
343.209	82.69
343.437	104.69
343.665	83.69
343.893	76.69
344.12	92.69
344.348	96.69
344.576	76.69
344.804	93.69
345.031	97.69
345.259	87.69
345.487	92.69
345.714	88.69
345.942	96.69
346.17	95.69
346.397	99.69
346.625	74.69
346.853	83.69
347.08	90.69
347.308	99.69
347.535	90.69
347.763	105.69
347.99	90.69
348.218	99.69
348.445	108.69
348.673	85.69
348.9	107.69
349.128	104.69
349.355	99.69
349.583	109.69
349.81	107.69
350.037	92.69
350.265	111.69
350.492	97.69
350.72	86.69
350.947	95.69
351.174	92.69
351.402	98.69
351.629	103.69
351.856	105.69
352.083	90.69
352.311	94.69
352.538	85.69
352.765	101.69
352.992	104.69
353.22	103.69
353.447	105.69
353.674	93.69
353.901	93.69
354.128	97.69
354.355	109.69
354.583	106.69
354.81	92.69
355.037	90.69
355.264	92.69
355.491	101.69
355.718	77.69
355.945	87.69
356.172	90.69
356.399	93.69
356.626	100.69
356.853	95.69
357.08	104.69
357.307	91.69
357.534	93.69
357.761	99.69
357.988	97.69
358.215	81.69
358.441	100.69
358.668	73.69
358.895	89.69
359.122	80.69
359.349	89.69
359.576	91.69
359.802	97.69
360.029	110.69
360.256	103.69
360.483	97.69
360.709	83.69
360.936	88.69
361.163	89.69
361.39	93.69
361.616	89.69
361.843	94.69
362.07	87.69
362.296	94.69
362.523	87.69
362.749	84.69
362.976	83.69
363.203	92.69
363.429	98.69
363.656	83.69
363.882	83.69
364.109	90.69
364.335	94.69
364.562	82.69
364.788	81.69
365.015	95.69
365.241	94.69
365.468	103.69
365.694	99.69
365.92	90.69
366.147	95.69
366.373	97.69
366.599	83.69
366.826	90.69
367.052	85.69
367.278	89.69
367.505	73.69
367.731	88.69
367.957	82.69
368.184	90.69
368.41	89.69
368.636	108.69
368.862	109.69
369.089	106.69
369.315	93.69
369.541	81.69
369.767	82.69
369.993	98.69
370.219	84.69
370.445	90.69
370.672	94.69
370.898	78.69
371.124	91.69
371.35	97.69
371.576	94.69
371.802	96.69
372.028	72.69
372.254	82.69
372.48	76.69
372.706	97.69
372.932	81.69
373.158	88.69
373.384	88.69
373.61	93.69
373.835	83.69
374.061	93.69
374.287	101.69
374.513	93.69
374.739	95.69
374.965	96.69
375.191	96.69
375.416	80.69
375.642	79.69
375.868	92.69
376.094	101.69
376.319	105.69
376.545	87.69
376.771	91.69
376.997	96.69
377.222	92.69
377.448	93.69
377.674	93.69
377.899	95.69
378.125	82.69
378.35	63.69
378.576	96.69
378.802	94.69
379.027	85.69
379.253	90.69
379.478	87.69
379.704	89.69
379.929	92.69
380.155	93.69
380.38	101.69
380.606	94.69
380.831	92.69
381.057	87.69
381.282	99.69
381.507	91.69
381.733	111.69
381.958	105.69
382.184	95.69
382.409	81.69
382.634	102.69
382.86	104.69
383.085	106.69
383.31	99.69
383.535	103.69
383.761	97.69
383.986	93.69
384.211	103.69
384.436	93.69
384.662	96.69
384.887	96.69
385.112	88.69
385.337	103.69
385.562	109.69
385.787	94.69
386.013	104.69
386.238	107.69
386.463	96.69
386.688	110.69
386.913	97.69
387.138	108.69
387.363	105.69
387.588	98.69
387.813	96.69
388.038	96.69
388.263	94.69
388.488	92.69
388.713	100.69
388.938	103.69
389.163	96.69
389.387	106.69
389.612	90.69
389.837	94.69
390.062	82.69
390.287	88.69
390.512	92.69
390.736	92.69
390.961	90.69
391.186	89.69
391.411	99.69
391.636	91.69
391.86	94.69
392.085	89.69
392.31	80.69
392.534	70.69
392.759	62.69
392.984	83.69
393.208	80.69
393.433	76.69
393.658	81.69
393.882	83.69
394.107	81.69
394.331	93.69
394.556	85.69
394.78	89.69
395.005	85.69
395.229	81.69
395.454	95.69
395.678	82.69
395.903	95.69
396.127	87.69
396.352	86.69
396.576	83.69
396.801	87.69
397.025	87.69
397.249	79.69
397.474	87.69
397.698	86.69
397.922	89.69
398.147	97.69
398.371	82.69
398.595	97.69
398.82	82.69
399.044	71.69
399.268	85.69
399.492	86.69
399.717	89.69
399.941	76.69
400.165	96.69
400.389	103.69
400.613	88.69
400.837	89.69
401.062	92.69
401.286	96.69
401.51	95.69
401.734	96.69
401.958	98.69
402.182	107.69
402.406	143.69
402.63	106.69
402.854	106.69
403.078	91.69
403.302	83.69
403.526	88.69
403.75	73.69
403.974	90.69
404.198	89.69
404.422	74.69
404.645	111.69
404.869	83.69
405.093	96.69
405.317	97.69
405.541	91.69
405.765	99.69
405.988	103.69
406.212	144.69
406.436	177.69
406.66	121.69
406.883	112.69
407.107	92.69
407.331	89.69
407.555	99.69
407.778	96.69
408.002	79.69
408.226	85.69
408.449	87.69
408.673	84.69
408.896	99.69
409.12	88.69
409.344	92.69
409.567	97.69
409.791	77.69
410.014	98.69
410.238	92.69
410.461	93.69
410.685	87.69
410.908	99.69
411.132	108.69
411.355	96.69
411.578	80.69
411.802	98.69
412.025	79.69
412.249	82.69
412.472	103.69
412.695	90.69
412.919	93.69
413.142	82.69
413.365	66.69
413.589	99.69
413.812	79.69
414.035	102.69
414.258	91.69
414.482	89.69
414.705	87.69
414.928	87.69
415.151	80.69
415.374	86.69
415.597	71.69
415.821	77.69
416.044	84.69
416.267	85.69
416.49	92.69
416.713	85.69
416.936	85.69
417.159	90.69
417.382	78.69
417.605	94.69
417.828	82.69
418.051	69.69
418.274	94.69
418.497	92.69
418.72	93.69
418.943	96.69
419.166	91.69
419.389	104.69
419.611	81.69
419.834	88.69
420.057	81.69
420.28	88.69
420.503	77.69
420.726	96.69
420.948	83.69
421.171	93.69
421.394	92.69
421.617	108.69
421.839	95.69
422.062	94.69
422.285	101.69
422.507	104.69
422.73	97.69
422.953	81.69
423.175	79.69
423.398	80.69
423.621	89.69
423.843	73.69
424.066	88.69
424.288	83.69
424.511	107.69
424.733	91.69
424.956	99.69
425.178	91.69
425.401	100.69
425.623	110.69
425.846	97.69
426.068	85.69
426.291	88.69
426.513	100.69
426.735	79.69
426.958	100.69
427.18	101.69
427.402	130.69
427.625	138.69
427.847	103.69
428.069	112.69
428.292	84.69
428.514	84.69
428.736	80.69
428.958	73.69
429.181	98.69
429.403	91.69
429.625	82.69
429.847	89.69
430.069	97.69
430.292	101.69
430.514	80.69
430.736	82.69
430.958	90.69
431.18	100.69
431.402	88.69
431.624	78.69
431.846	97.69
432.068	90.69
432.29	80.69
432.512	94.69
432.734	86.69
432.956	84.69
433.178	109.69
433.4	88.69
433.622	101.69
433.844	107.69
434.066	99.69
434.287	84.69
434.509	78.69
434.731	85.69
434.953	88.69
435.175	82.69
435.397	99.69
435.618	86.69
435.84	97.69
436.062	115.69
436.284	110.69
436.505	100.69
436.727	100.69
436.949	87.69
437.17	101.69
437.392	103.69
437.614	92.69
437.835	98.69
438.057	122.69
438.278	108.69
438.5	114.69
438.721	114.69
438.943	109.69
439.165	89.69
439.386	100.69
439.608	112.69
439.829	89.69
440.05	125.69
440.272	121.69
440.493	103.69
440.715	82.69
440.936	90.69
441.158	92.69
441.379	89.69
441.6	82.69
441.822	97.69
442.043	86.69
442.264	93.69
442.486	102.69
442.707	86.69
442.928	89.69
443.149	119.69
443.371	127.69
443.592	107.69
443.813	108.69
444.034	91.69
444.255	91.69
444.476	87.69
444.698	82.69
444.919	95.69
445.14	134.69
445.361	123.69
445.582	105.69
445.803	137.69
446.024	136.69
446.245	134.69
446.466	101.69
446.687	74.69
446.908	89.69
447.129	101.69
447.35	91.69
447.571	84.69
447.792	97.69
448.013	98.69
448.234	108.69
448.455	102.69
448.675	110.69
448.896	110.69
449.117	118.69
449.338	106.69
449.559	133.69
449.779	128.69
450	95.69
450.221	82.69
450.442	87.69
450.662	99.69
450.883	96.69
451.104	97.69
451.324	96.69
451.545	85.69
451.766	89.69
451.986	95.69
452.207	84.69
452.428	95.69
452.648	78.69
452.869	100.69
453.089	98.69
453.31	105.69
453.53	99.69
453.751	90.69
453.971	99.69
454.192	104.69
454.412	81.69
454.633	89.69
454.853	85.69
455.073	87.69
455.294	89.69
455.514	104.69
455.734	89.69
455.955	78.69
456.175	91.69
456.395	86.69
456.616	89.69
456.836	86.69
457.056	81.69
457.276	75.69
457.497	85.69
457.717	81.69
457.937	79.69
458.157	80.69
458.377	73.69
458.598	111.69
458.818	138.69
459.038	124.69
459.258	94.69
459.478	85.69
459.698	85.69
459.918	78.69
460.138	82.69
460.358	76.69
460.578	86.69
460.798	81.69
461.018	97.69
461.238	77.69
461.458	91.69
461.678	80.69
461.898	100.69
462.118	81.69
462.338	84.69
462.558	94.69
462.777	90.69
462.997	89.69
463.217	84.69
463.437	93.69
463.657	93.69
463.876	77.69
464.096	84.69
464.316	98.69
464.536	106.69
464.755	95.69
464.975	89.69
465.195	152.69
465.414	125.69
465.634	91.69
465.854	74.69
466.073	74.69
466.293	87.69
466.512	87.69
466.732	79.69
466.951	86.69
467.171	93.69
467.391	89.69
467.61	92.69
467.829	80.69
468.049	83.69
468.268	87.69
468.488	78.69
468.707	102.69
468.927	80.69
469.146	81.69
469.365	84.69
469.585	87.69
469.804	87.69
470.023	89.69
470.243	90.69
470.462	98.69
470.681	97.69
470.901	89.69
471.12	93.69
471.339	90.69
471.558	88.69
471.777	82.69
471.997	78.69
472.216	80.69
472.435	98.69
472.654	80.69
472.873	82.69
473.092	74.69
473.311	78.69
473.53	73.69
473.749	86.69
473.968	83.69
474.187	107.69
474.406	95.69
474.625	76.69
474.844	94.69
475.063	94.69
475.282	91.69
475.501	79.69
475.72	94.69
475.939	79.69
476.158	86.69
476.377	85.69
476.596	95.69
476.814	108.69
477.033	95.69
477.252	87.69
477.471	97.69
477.69	98.69
477.908	96.69
478.127	78.69
478.346	80.69
478.564	87.69
478.783	79.69
479.002	95.69
479.22	89.69
479.439	89.69
479.658	100.69
479.876	87.69
480.095	85.69
480.313	97.69
480.532	87.69
480.751	83.69
480.969	111.69
481.188	110.69
481.406	99.69
481.624	92.69
481.843	89.69
482.061	107.69
482.28	88.69
482.498	76.69
482.717	93.69
482.935	80.69
483.153	82.69
483.372	90.69
483.59	86.69
483.808	88.69
484.027	80.69
484.245	95.69
484.463	104.69
484.681	93.69
484.9	79.69
485.118	96.69
485.336	89.69
485.554	82.69
485.772	111.69
485.99	100.69
486.209	104.69
486.427	84.69
486.645	101.69
486.863	92.69
487.081	93.69
487.299	99.69
487.517	98.69
487.735	102.69
487.953	89.69
488.171	86.69
488.389	77.69
488.607	106.69
488.825	87.69
489.043	94.69
489.261	102.69
489.479	77.69
489.696	91.69
489.914	94.69
490.132	88.69
490.35	85.69
490.568	86.69
490.786	96.69
491.003	79.69
491.221	81.69
491.439	95.69
491.657	93.69
491.874	81.69
492.092	87.69
492.31	99.69
492.527	92.69
492.745	95.69
492.963	97.69
493.18	83.69
493.398	97.69
493.615	96.69
493.833	98.69
494.05	89.69
494.268	91.69
494.485	96.69
494.703	78.69
494.92	73.69
495.138	93.69
495.355	81.69
495.573	89.69
495.79	91.69
496.008	92.69
496.225	80.69
496.442	83.69
496.66	80.69
496.877	85.69
497.094	80.69
497.312	84.69
497.529	96.69
497.746	84.69
497.963	90.69
498.181	82.69
498.398	94.69
498.615	103.69
498.832	97.69
499.049	90.69
499.267	103.69
499.484	96.69
499.701	99.69
499.918	95.69
500.135	83.69
500.352	88.69
500.569	94.69
500.786	85.69
501.003	96.69
501.22	69.69
501.437	95.69
501.654	89.69
501.871	95.69
502.088	79.69
502.305	81.69
502.522	79.69
502.739	105.69
502.956	88.69
503.172	89.69
503.389	92.69
503.606	102.69
503.823	110.69
504.04	92.69
504.256	86.69
504.473	90.69
504.69	91.69
504.907	86.69
505.123	91.69
505.34	71.69
505.557	86.69
505.773	71.69
505.99	89.69
506.207	87.69
506.423	98.69
506.64	91.69
506.856	88.69
507.073	97.69
507.289	96.69
507.506	107.69
507.722	102.69
507.939	113.69
508.155	101.69
508.372	96.69
508.588	80.69
508.805	98.69
509.021	91.69
509.238	98.69
509.454	95.69
509.67	82.69
509.887	106.69
510.103	126.69
510.319	193.69
510.536	676.69
510.752	1997.69
510.968	547.69
511.184	126.69
511.401	105.69
511.617	97.69
511.833	96.69
512.049	91.69
512.265	92.69
512.481	89.69
512.698	79.69
512.914	91.69
513.13	82.69
513.346	82.69
513.562	98.69
513.778	94.69
513.994	95.69
514.21	106.69
514.426	103.69
514.642	129.69
514.858	128.69
515.074	161.69
515.29	396.69
515.506	1248.69
515.721	462.69
515.937	141.69
516.153	90.69
516.369	91.69
516.585	92.69
516.801	74.69
