Data from Uncirc_1997_H10_HRD10591_00072.txt Node
Date: Wed Jan 03 11:28:45 EST 2024
User: Yrep
Spectrometer: HR+D1059
Trigger mode: 1
Integration Time (sec): 1.000000E-1
Scans to average: 1
Electric dark correction enabled: true
Nonlinearity correction enabled: false
Boxcar width: 0
XAxis mode: Wavelengths
Number of Pixels in Spectrum: 2048
>>>>>Begin Spectral Data<<<<<
223.165	-17.12
223.4	-17.12
223.635	-17.12
223.869	-22.12
224.104	-18.12
224.338	-24.12
224.573	-15.12
224.808	-15.12
225.042	-3.12
225.277	3.88
225.511	-11.12
225.746	4.88
225.98	8.88
226.215	4.88
226.449	11.88
226.683	37.88
226.918	27.88
227.152	25.88
227.387	49.88
227.621	38.88
227.856	30.88
228.09	53.88
228.324	53.88
228.559	43.88
228.793	60.88
229.027	54.88
229.262	67.88
229.496	65.88
229.73	86.88
229.964	80.88
230.199	69.88
230.433	73.88
230.667	68.88
230.901	69.88
231.136	69.88
231.37	79.88
231.604	84.88
231.838	86.88
232.072	82.88
232.306	87.88
232.541	68.88
232.775	73.88
233.009	79.88
233.243	71.88
233.477	85.88
233.711	71.88
233.945	68.88
234.179	75.88
234.413	83.88
234.647	67.88
234.881	82.88
235.115	78.88
235.349	75.88
235.583	74.88
235.817	84.88
236.051	82.88
236.285	83.88
236.519	79.88
236.753	71.88
236.987	63.88
237.221	83.88
237.455	79.88
237.689	89.88
237.922	77.88
238.156	67.88
238.39	72.88
238.624	72.88
238.858	83.88
239.091	67.88
239.325	68.88
239.559	71.88
239.793	66.88
240.027	89.88
240.26	63.88
240.494	64.88
240.728	78.88
240.961	87.88
241.195	77.88
241.429	79.88
241.662	53.88
241.896	64.88
242.13	84.88
242.363	77.88
242.597	82.88
242.83	78.88
243.064	72.88
243.298	72.88
243.531	62.88
243.765	88.88
243.998	76.88
244.232	61.88
244.465	86.88
244.699	57.88
244.932	67.88
245.166	79.88
245.399	80.88
245.633	74.88
245.866	81.88
246.099	77.88
246.333	73.88
246.566	79.88
246.8	77.88
247.033	71.88
247.266	76.88
247.5	59.88
247.733	75.88
247.966	79.88
248.2	73.88
248.433	83.88
248.666	58.88
248.899	77.88
249.133	73.88
249.366	93.88
249.599	89.88
249.832	87.88
250.066	75.88
250.299	73.88
250.532	73.88
250.765	68.88
250.998	83.88
251.231	83.88
251.465	64.88
251.698	73.88
251.931	81.88
252.164	80.88
252.397	95.88
252.63	83.88
252.863	85.88
253.096	92.88
253.329	73.88
253.562	79.88
253.795	75.88
254.028	85.88
254.261	74.88
254.494	69.88
254.727	79.88
254.96	63.88
255.193	71.88
255.426	70.88
255.659	74.88
255.892	70.88
256.124	70.88
256.357	68.88
256.59	76.88
256.823	86.88
257.056	78.88
257.289	89.88
257.521	72.88
257.754	89.88
257.987	82.88
258.22	83.88
258.452	79.88
258.685	69.88
258.918	78.88
259.151	78.88
259.383	76.88
259.616	87.88
259.849	91.88
260.081	87.88
260.314	85.88
260.547	86.88
260.779	81.88
261.012	76.88
261.244	89.88
261.477	80.88
261.71	93.88
261.942	103.88
262.175	111.88
262.407	92.88
262.64	67.88
262.872	86.88
263.105	74.88
263.337	69.88
263.57	87.88
263.802	81.88
264.035	80.88
264.267	79.88
264.499	89.88
264.732	83.88
264.964	81.88
265.197	71.88
265.429	72.88
265.661	76.88
265.894	88.88
266.126	72.88
266.358	86.88
266.591	77.88
266.823	75.88
267.055	84.88
267.287	89.88
267.52	74.88
267.752	88.88
267.984	85.88
268.216	80.88
268.448	85.88
268.681	78.88
268.913	79.88
269.145	82.88
269.377	92.88
269.609	75.88
269.841	72.88
270.073	80.88
270.306	69.88
270.538	77.88
270.77	72.88
271.002	82.88
271.234	71.88
271.466	64.88
271.698	70.88
271.93	90.88
272.162	81.88
272.394	75.88
272.626	64.88
272.858	89.88
273.09	85.88
273.322	76.88
273.553	78.88
273.785	75.88
274.017	84.88
274.249	75.88
274.481	73.88
274.713	85.88
274.945	84.88
275.176	81.88
275.408	78.88
275.64	90.88
275.872	97.88
276.104	86.88
276.335	76.88
276.567	93.88
276.799	118.88
277.031	95.88
277.262	84.88
277.494	99.88
277.726	88.88
277.957	87.88
278.189	87.88
278.421	79.88
278.652	94.88
278.884	80.88
279.115	86.88
279.347	84.88
279.579	80.88
279.81	83.88
280.042	86.88
280.273	85.88
280.505	79.88
280.736	103.88
280.968	79.88
281.199	74.88
281.431	81.88
281.662	77.88
281.894	78.88
282.125	99.88
282.356	117.88
282.588	116.88
282.819	116.88
283.051	92.88
283.282	87.88
283.513	87.88
283.745	79.88
283.976	88.88
284.207	83.88
284.439	84.88
284.67	73.88
284.901	83.88
285.132	81.88
285.364	76.88
285.595	84.88
285.826	71.88
286.057	70.88
286.288	84.88
286.52	80.88
286.751	96.88
286.982	74.88
287.213	89.88
287.444	83.88
287.675	97.88
287.906	80.88
288.138	82.88
288.369	87.88
288.6	95.88
288.831	79.88
289.062	81.88
289.293	73.88
289.524	84.88
289.755	94.88
289.986	84.88
290.217	70.88
290.448	94.88
290.679	72.88
290.91	81.88
291.141	93.88
291.371	96.88
291.602	99.88
291.833	75.88
292.064	76.88
292.295	83.88
292.526	89.88
292.757	69.88
292.987	88.88
293.218	95.88
293.449	84.88
293.68	77.88
293.91	87.88
294.141	87.88
294.372	88.88
294.603	78.88
294.833	89.88
295.064	93.88
295.295	80.88
295.525	87.88
295.756	93.88
295.987	90.88
296.217	134.88
296.448	116.88
296.679	95.88
296.909	81.88
297.14	92.88
297.37	78.88
297.601	85.88
297.831	63.88
298.062	80.88
298.292	92.88
298.523	92.88
298.753	90.88
298.984	84.88
299.214	111.88
299.445	82.88
299.675	89.88
299.905	81.88
300.136	94.88
300.366	90.88
300.597	109.88
300.827	94.88
301.057	81.88
301.288	96.88
301.518	89.88
301.748	96.88
301.979	101.88
302.209	80.88
302.439	77.88
302.669	76.88
302.9	88.88
303.13	105.88
303.36	105.88
303.59	87.88
303.82	93.88
304.051	104.88
304.281	81.88
304.511	90.88
304.741	80.88
304.971	83.88
305.201	76.88
305.431	88.88
305.661	85.88
305.891	92.88
306.121	86.88
306.352	88.88
306.582	97.88
306.812	88.88
307.042	78.88
307.272	87.88
307.502	88.88
307.731	79.88
307.961	85.88
308.191	80.88
308.421	78.88
308.651	79.88
308.881	91.88
309.111	105.88
309.341	92.88
309.571	99.88
309.8	91.88
310.03	93.88
310.26	84.88
310.49	105.88
310.72	106.88
310.949	89.88
311.179	90.88
311.409	84.88
311.639	88.88
311.868	86.88
312.098	89.88
312.328	79.88
312.557	92.88
312.787	92.88
313.017	93.88
313.246	94.88
313.476	100.88
313.706	91.88
313.935	88.88
314.165	91.88
314.394	94.88
314.624	91.88
314.853	79.88
315.083	85.88
315.312	99.88
315.542	86.88
315.771	83.88
316.001	78.88
316.23	94.88
316.46	96.88
316.689	96.88
316.919	87.88
317.148	103.88
317.377	97.88
317.607	95.88
317.836	93.88
318.065	91.88
318.295	84.88
318.524	86.88
318.753	101.88
318.983	99.88
319.212	113.88
319.441	92.88
319.67	93.88
319.9	92.88
320.129	93.88
320.358	73.88
320.587	87.88
320.816	86.88
321.046	85.88
321.275	102.88
321.504	77.88
321.733	79.88
321.962	100.88
322.191	110.88
322.42	104.88
322.649	96.88
322.878	103.88
323.108	97.88
323.337	116.88
323.566	132.88
323.795	146.88
324.024	198.88
324.253	356.88
324.482	761.88
324.71	1540.88
324.939	2007.88
325.168	738.88
325.397	221.88
325.626	129.88
325.855	110.88
326.084	109.88
326.313	120.88
326.542	145.88
326.77	200.88
326.999	425.88
327.228	876.88
327.457	1576.88
327.686	1213.88
327.914	323.88
328.143	179.88
328.372	131.88
328.6	126.88
328.829	131.88
329.058	110.88
329.287	104.88
329.515	101.88
329.744	106.88
329.972	99.88
330.201	84.88
330.43	99.88
330.658	115.88
330.887	133.88
331.115	110.88
331.344	116.88
331.572	114.88
331.801	108.88
332.03	104.88
332.258	101.88
332.486	79.88
332.715	97.88
332.943	83.88
333.172	94.88
333.4	102.88
333.629	98.88
333.857	116.88
334.085	114.88
334.314	96.88
334.542	91.88
334.771	92.88
334.999	92.88
335.227	90.88
335.455	101.88
335.684	93.88
335.912	87.88
336.14	103.88
336.369	96.88
336.597	102.88
336.825	90.88
337.053	99.88
337.281	96.88
337.51	83.88
337.738	96.88
337.966	99.88
338.194	118.88
338.422	91.88
338.65	85.88
338.878	79.88
339.106	85.88
339.334	81.88
339.562	73.88
339.79	83.88
340.018	99.88
340.246	95.88
340.474	88.88
340.702	96.88
340.93	96.88
341.158	84.88
341.386	84.88
341.614	85.88
341.842	71.88
342.07	96.88
342.298	81.88
342.526	77.88
342.754	90.88
342.981	93.88
343.209	98.88
343.437	111.88
343.665	92.88
343.893	73.88
344.12	79.88
344.348	92.88
344.576	89.88
344.804	90.88
345.031	97.88
345.259	97.88
345.487	94.88
345.714	92.88
345.942	96.88
346.17	89.88
346.397	83.88
346.625	105.88
346.853	91.88
347.08	81.88
347.308	95.88
347.535	87.88
347.763	85.88
347.99	97.88
348.218	96.88
348.445	97.88
348.673	87.88
348.9	80.88
349.128	84.88
349.355	75.88
349.583	89.88
349.81	99.88
350.037	91.88
350.265	96.88
350.492	102.88
350.72	102.88
350.947	97.88
351.174	116.88
351.402	107.88
351.629	90.88
351.856	96.88
352.083	104.88
352.311	112.88
352.538	94.88
352.765	101.88
352.992	108.88
353.22	102.88
353.447	94.88
353.674	102.88
353.901	97.88
354.128	101.88
354.355	75.88
354.583	93.88
354.81	92.88
355.037	100.88
355.264	93.88
355.491	83.88
355.718	76.88
355.945	87.88
356.172	94.88
356.399	97.88
356.626	92.88
356.853	99.88
357.08	105.88
357.307	94.88
357.534	101.88
357.761	90.88
357.988	89.88
358.215	84.88
358.441	77.88
358.668	87.88
358.895	86.88
359.122	73.88
359.349	76.88
359.576	97.88
359.802	91.88
360.029	112.88
360.256	94.88
360.483	89.88
360.709	105.88
360.936	103.88
361.163	80.88
361.39	78.88
361.616	103.88
361.843	82.88
362.07	92.88
362.296	80.88
362.523	95.88
362.749	100.88
362.976	87.88
363.203	69.88
363.429	83.88
363.656	96.88
363.882	85.88
364.109	90.88
364.335	81.88
364.562	101.88
364.788	90.88
365.015	85.88
365.241	90.88
365.468	95.88
365.694	102.88
365.92	88.88
366.147	93.88
366.373	96.88
366.599	86.88
366.826	80.88
367.052	97.88
367.278	72.88
367.505	75.88
367.731	76.88
367.957	86.88
368.184	99.88
368.41	101.88
368.636	104.88
368.862	110.88
369.089	112.88
369.315	95.88
369.541	78.88
369.767	74.88
369.993	77.88
370.219	84.88
370.445	99.88
370.672	102.88
370.898	84.88
371.124	97.88
371.35	105.88
371.576	72.88
371.802	81.88
372.028	77.88
372.254	88.88
372.48	88.88
372.706	95.88
372.932	99.88
373.158	89.88
373.384	99.88
373.61	83.88
373.835	73.88
374.061	85.88
374.287	87.88
374.513	100.88
374.739	96.88
374.965	87.88
375.191	86.88
375.416	87.88
375.642	90.88
375.868	90.88
376.094	88.88
376.319	83.88
376.545	76.88
376.771	74.88
376.997	86.88
377.222	88.88
377.448	89.88
377.674	94.88
377.899	79.88
378.125	86.88
378.35	87.88
378.576	88.88
378.802	80.88
379.027	74.88
379.253	77.88
379.478	94.88
379.704	90.88
379.929	96.88
380.155	90.88
380.38	79.88
380.606	88.88
380.831	72.88
381.057	96.88
381.282	82.88
381.507	83.88
381.733	88.88
381.958	102.88
382.184	91.88
382.409	88.88
382.634	102.88
382.86	88.88
383.085	95.88
383.31	96.88
383.535	95.88
383.761	97.88
383.986	103.88
384.211	82.88
384.436	83.88
384.662	105.88
384.887	88.88
385.112	100.88
385.337	89.88
385.562	92.88
385.787	91.88
386.013	95.88
386.238	94.88
386.463	99.88
386.688	112.88
386.913	88.88
387.138	94.88
387.363	82.88
387.588	101.88
387.813	101.88
388.038	90.88
388.263	101.88
388.488	97.88
388.713	85.88
388.938	91.88
389.163	88.88
389.387	78.88
389.612	78.88
389.837	92.88
390.062	95.88
390.287	89.88
390.512	93.88
390.736	83.88
390.961	84.88
391.186	82.88
391.411	80.88
391.636	90.88
391.86	73.88
392.085	80.88
392.31	89.88
392.534	74.88
392.759	87.88
392.984	82.88
393.208	79.88
393.433	86.88
393.658	81.88
393.882	81.88
394.107	101.88
394.331	74.88
394.556	81.88
394.78	80.88
395.005	83.88
395.229	107.88
395.454	85.88
395.678	75.88
395.903	80.88
396.127	77.88
396.352	85.88
396.576	85.88
396.801	87.88
397.025	75.88
397.249	69.88
397.474	92.88
397.698	91.88
397.922	94.88
398.147	76.88
398.371	94.88
398.595	86.88
398.82	80.88
399.044	72.88
399.268	88.88
399.492	89.88
399.717	77.88
399.941	88.88
400.165	92.88
400.389	83.88
400.613	82.88
400.837	98.88
401.062	65.88
401.286	75.88
401.51	83.88
401.734	84.88
401.958	100.88
402.182	120.88
402.406	134.88
402.63	114.88
402.854	92.88
403.078	72.88
403.302	71.88
403.526	78.88
403.75	87.88
403.974	80.88
404.198	90.88
404.422	90.88
404.645	92.88
404.869	72.88
405.093	88.88
405.317	88.88
405.541	88.88
405.765	98.88
405.988	111.88
406.212	169.88
406.436	214.88
406.66	134.88
406.883	102.88
407.107	79.88
407.331	96.88
407.555	87.88
407.778	96.88
408.002	76.88
408.226	87.88
408.449	102.88
408.673	82.88
408.896	109.88
409.12	91.88
409.344	83.88
409.567	91.88
409.791	88.88
410.014	95.88
410.238	87.88
410.461	93.88
410.685	83.88
410.908	108.88
411.132	104.88
411.355	86.88
411.578	90.88
411.802	77.88
412.025	89.88
412.249	89.88
412.472	81.88
412.695	89.88
412.919	80.88
413.142	85.88
413.365	77.88
413.589	84.88
413.812	82.88
414.035	83.88
414.258	92.88
414.482	81.88
414.705	63.88
414.928	81.88
415.151	89.88
415.374	89.88
415.597	87.88
415.821	77.88
416.044	85.88
416.267	75.88
416.49	77.88
416.713	84.88
416.936	95.88
417.159	88.88
417.382	90.88
417.605	90.88
417.828	83.88
418.051	97.88
418.274	86.88
418.497	88.88
418.72	78.88
418.943	81.88
419.166	90.88
419.389	72.88
419.611	83.88
419.834	89.88
420.057	85.88
420.28	91.88
420.503	88.88
420.726	68.88
420.948	92.88
421.171	80.88
421.394	86.88
421.617	98.88
421.839	82.88
422.062	95.88
422.285	80.88
422.507	94.88
422.73	101.88
422.953	91.88
423.175	85.88
423.398	89.88
423.621	91.88
423.843	86.88
424.066	84.88
424.288	74.88
424.511	75.88
424.733	84.88
424.956	92.88
425.178	91.88
425.401	88.88
425.623	95.88
425.846	108.88
426.068	106.88
426.291	97.88
426.513	75.88
426.735	91.88
426.958	85.88
427.18	98.88
427.402	120.88
427.625	144.88
427.847	117.88
428.069	92.88
428.292	75.88
428.514	89.88
428.736	92.88
428.958	87.88
429.181	79.88
429.403	78.88
429.625	74.88
429.847	90.88
430.069	100.88
430.292	76.88
430.514	70.88
430.736	87.88
430.958	80.88
431.18	86.88
431.402	86.88
431.624	84.88
431.846	99.88
432.068	67.88
432.29	76.88
432.512	83.88
432.734	90.88
432.956	93.88
433.178	88.88
433.4	93.88
433.622	77.88
433.844	84.88
434.066	93.88
434.287	88.88
434.509	83.88
434.731	83.88
434.953	68.88
435.175	83.88
435.397	97.88
435.618	101.88
435.84	91.88
436.062	133.88
436.284	107.88
436.505	91.88
436.727	81.88
436.949	96.88
437.17	86.88
437.392	88.88
437.614	103.88
437.835	93.88
438.057	104.88
438.278	96.88
438.5	90.88
438.721	100.88
438.943	88.88
439.165	87.88
439.386	78.88
439.608	91.88
439.829	106.88
440.05	116.88
440.272	134.88
440.493	99.88
440.715	83.88
440.936	91.88
441.158	93.88
441.379	94.88
441.6	84.88
441.822	82.88
442.043	84.88
442.264	101.88
442.486	99.88
442.707	87.88
442.928	93.88
443.149	108.88
443.371	107.88
443.592	101.88
443.813	111.88
444.034	84.88
444.255	90.88
444.476	94.88
444.698	85.88
444.919	88.88
445.14	125.88
445.361	127.88
445.582	117.88
445.803	112.88
446.024	110.88
446.245	141.88
446.466	111.88
446.687	100.88
446.908	98.88
447.129	69.88
447.35	78.88
447.571	87.88
447.792	78.88
448.013	94.88
448.234	96.88
448.455	105.88
448.675	106.88
448.896	116.88
449.117	90.88
449.338	88.88
449.559	109.88
449.779	112.88
450	85.88
450.221	85.88
450.442	74.88
450.662	81.88
450.883	97.88
451.104	101.88
451.324	85.88
451.545	82.88
451.766	75.88
451.986	80.88
452.207	86.88
452.428	101.88
452.648	93.88
452.869	112.88
453.089	96.88
453.31	115.88
453.53	82.88
453.751	81.88
453.971	91.88
454.192	106.88
454.412	86.88
454.633	92.88
454.853	80.88
455.073	88.88
455.294	73.88
455.514	110.88
455.734	78.88
455.955	75.88
456.175	86.88
456.395	71.88
456.616	90.88
456.836	86.88
457.056	74.88
457.276	67.88
457.497	90.88
457.717	76.88
457.937	74.88
458.157	90.88
458.377	79.88
458.598	109.88
458.818	127.88
459.038	139.88
459.258	86.88
459.478	88.88
459.698	97.88
459.918	96.88
460.138	86.88
460.358	63.88
460.578	68.88
460.798	88.88
461.018	88.88
461.238	80.88
461.458	79.88
461.678	81.88
461.898	74.88
462.118	85.88
462.338	85.88
462.558	74.88
462.777	86.88
462.997	94.88
463.217	96.88
463.437	77.88
463.657	98.88
463.876	86.88
464.096	90.88
464.316	78.88
464.536	91.88
464.755	103.88
464.975	98.88
465.195	148.88
465.414	158.88
465.634	103.88
465.854	83.88
466.073	75.88
466.293	84.88
466.512	90.88
466.732	93.88
466.951	81.88
467.171	72.88
467.391	100.88
467.61	92.88
467.829	107.88
468.049	81.88
468.268	86.88
468.488	76.88
468.707	80.88
468.927	93.88
469.146	96.88
469.365	94.88
469.585	80.88
469.804	87.88
470.023	85.88
470.243	87.88
470.462	100.88
470.681	118.88
470.901	84.88
471.12	98.88
471.339	92.88
471.558	99.88
471.777	101.88
471.997	93.88
472.216	101.88
472.435	92.88
472.654	83.88
472.873	77.88
473.092	73.88
473.311	88.88
473.53	80.88
473.749	90.88
473.968	93.88
474.187	93.88
474.406	95.88
474.625	86.88
474.844	92.88
475.063	69.88
475.282	81.88
475.501	80.88
475.72	87.88
475.939	72.88
476.158	75.88
476.377	87.88
476.596	66.88
476.814	80.88
477.033	80.88
477.252	89.88
477.471	99.88
477.69	86.88
477.908	86.88
478.127	84.88
478.346	83.88
478.564	71.88
478.783	85.88
479.002	88.88
479.22	95.88
479.439	100.88
479.658	95.88
479.876	94.88
480.095	82.88
480.313	92.88
480.532	88.88
480.751	91.88
480.969	94.88
481.188	101.88
481.406	99.88
481.624	89.88
481.843	95.88
482.061	93.88
482.28	70.88
482.498	78.88
482.717	95.88
482.935	99.88
483.153	79.88
483.372	80.88
483.59	80.88
483.808	83.88
484.027	77.88
484.245	87.88
484.463	91.88
484.681	98.88
484.9	91.88
485.118	87.88
485.336	103.88
485.554	91.88
485.772	90.88
485.99	94.88
486.209	98.88
486.427	100.88
486.645	107.88
486.863	90.88
487.081	92.88
487.299	87.88
487.517	86.88
487.735	85.88
487.953	87.88
488.171	95.88
488.389	97.88
488.607	84.88
488.825	85.88
489.043	93.88
489.261	92.88
489.479	80.88
489.696	81.88
489.914	77.88
490.132	75.88
490.35	91.88
490.568	79.88
490.786	86.88
491.003	87.88
491.221	78.88
491.439	80.88
491.657	85.88
491.874	88.88
492.092	91.88
492.31	79.88
492.527	87.88
492.745	76.88
492.963	87.88
493.18	87.88
493.398	85.88
493.615	101.88
493.833	83.88
494.05	85.88
494.268	84.88
494.485	89.88
494.703	92.88
494.92	90.88
495.138	82.88
495.355	87.88
495.573	95.88
495.79	74.88
496.008	76.88
496.225	89.88
496.442	97.88
496.66	87.88
496.877	86.88
497.094	97.88
497.312	89.88
497.529	95.88
497.746	71.88
497.963	73.88
498.181	91.88
498.398	92.88
498.615	93.88
498.832	108.88
499.049	84.88
499.267	98.88
499.484	96.88
499.701	90.88
499.918	86.88
500.135	89.88
500.352	102.88
500.569	93.88
500.786	95.88
501.003	99.88
501.22	99.88
501.437	86.88
501.654	94.88
501.871	103.88
502.088	89.88
502.305	96.88
502.522	80.88
502.739	85.88
502.956	80.88
503.172	89.88
503.389	81.88
503.606	91.88
503.823	97.88
504.04	91.88
504.256	87.88
504.473	77.88
504.69	85.88
504.907	92.88
505.123	77.88
505.34	88.88
505.557	83.88
505.773	82.88
505.99	93.88
506.207	91.88
506.423	94.88
506.64	92.88
506.856	89.88
507.073	78.88
507.289	85.88
507.506	100.88
507.722	118.88
507.939	110.88
508.155	111.88
508.372	88.88
508.588	92.88
508.805	89.88
509.021	90.88
509.238	102.88
509.454	100.88
509.67	91.88
509.887	95.88
510.103	130.88
510.319	209.88
510.536	698.88
510.752	2120.88
510.968	599.88
511.184	150.88
511.401	100.88
511.617	101.88
511.833	95.88
512.049	97.88
512.265	98.88
512.481	85.88
512.698	91.88
512.914	80.88
513.13	94.88
513.346	86.88
513.562	89.88
513.778	93.88
513.994	86.88
514.21	99.88
514.426	111.88
514.642	110.88
514.858	110.88
515.074	150.88
515.29	437.88
515.506	1336.88
515.721	480.88
515.937	146.88
516.153	83.88
516.369	102.88
516.585	83.88
516.801	73.88
517.016	91.88
