Data from Uncirc_1997_H10_HRD10591_00016.txt Node
Date: Wed Jan 03 11:28:33 EST 2024
User: Yrep
Spectrometer: HR+D1059
Trigger mode: 1
Integration Time (sec): 1.000000E-1
Scans to average: 1
Electric dark correction enabled: true
Nonlinearity correction enabled: false
Boxcar width: 0
XAxis mode: Wavelengths
Number of Pixels in Spectrum: 2048
>>>>>Begin Spectral Data<<<<<
223.165	-21.81
223.4	-21.81
223.635	-21.81
223.869	-30.81
224.104	-13.81
224.338	-5.81
224.573	-3.81
224.808	-19.81
225.042	-13.81
225.277	-4.81
225.511	-5.81
225.746	6.19
225.98	9.19
226.215	25.19
226.449	7.19
226.683	25.19
226.918	19.19
227.152	28.19
227.387	35.19
227.621	48.19
227.856	40.19
228.09	45.19
228.324	48.19
228.559	66.19
228.793	63.19
229.027	57.19
229.262	74.19
229.496	68.19
229.73	66.19
229.964	78.19
230.199	79.19
230.433	69.19
230.667	86.19
230.901	85.19
231.136	79.19
231.37	97.19
231.604	77.19
231.838	83.19
232.072	79.19
232.306	82.19
232.541	79.19
232.775	88.19
233.009	80.19
233.243	85.19
233.477	78.19
233.711	83.19
233.945	80.19
234.179	84.19
234.413	90.19
234.647	79.19
234.881	73.19
235.115	86.19
235.349	76.19
235.583	78.19
235.817	88.19
236.051	84.19
236.285	75.19
236.519	67.19
236.753	96.19
236.987	82.19
237.221	98.19
237.455	84.19
237.689	74.19
237.922	79.19
238.156	74.19
238.39	82.19
238.624	81.19
238.858	80.19
239.091	76.19
239.325	79.19
239.559	79.19
239.793	78.19
240.027	93.19
240.26	87.19
240.494	76.19
240.728	87.19
240.961	78.19
241.195	71.19
241.429	96.19
241.662	70.19
241.896	72.19
242.13	101.19
242.363	74.19
242.597	78.19
242.83	83.19
243.064	94.19
243.298	76.19
243.531	72.19
243.765	94.19
243.998	86.19
244.232	77.19
244.465	88.19
244.699	92.19
244.932	81.19
245.166	87.19
245.399	67.19
245.633	80.19
245.866	78.19
246.099	79.19
246.333	86.19
246.566	80.19
246.8	78.19
247.033	93.19
247.266	92.19
247.5	79.19
247.733	83.19
247.966	88.19
248.2	81.19
248.433	70.19
248.666	79.19
248.899	83.19
249.133	80.19
249.366	109.19
249.599	103.19
249.832	95.19
250.066	83.19
250.299	80.19
250.532	83.19
250.765	76.19
250.998	77.19
251.231	88.19
251.465	90.19
251.698	91.19
251.931	84.19
252.164	84.19
252.397	92.19
252.63	87.19
252.863	90.19
253.096	92.19
253.329	79.19
253.562	100.19
253.795	74.19
254.028	88.19
254.261	76.19
254.494	79.19
254.727	80.19
254.96	75.19
255.193	79.19
255.426	79.19
255.659	74.19
255.892	89.19
256.124	83.19
256.357	85.19
256.59	102.19
256.823	82.19
257.056	78.19
257.289	91.19
257.521	82.19
257.754	108.19
257.987	66.19
258.22	90.19
258.452	77.19
258.685	89.19
258.918	91.19
259.151	78.19
259.383	82.19
259.616	82.19
259.849	90.19
260.081	76.19
260.314	101.19
260.547	86.19
260.779	90.19
261.012	86.19
261.244	94.19
261.477	96.19
261.71	84.19
261.942	116.19
262.175	105.19
262.407	88.19
262.64	90.19
262.872	90.19
263.105	83.19
263.337	90.19
263.57	83.19
263.802	84.19
264.035	93.19
264.267	96.19
264.499	87.19
264.732	83.19
264.964	83.19
265.197	86.19
265.429	88.19
265.661	99.19
265.894	79.19
266.126	95.19
266.358	94.19
266.591	89.19
266.823	94.19
267.055	89.19
267.287	77.19
267.52	71.19
267.752	82.19
267.984	91.19
268.216	77.19
268.448	83.19
268.681	90.19
268.913	91.19
269.145	90.19
269.377	93.19
269.609	90.19
269.841	89.19
270.073	89.19
270.306	84.19
270.538	70.19
270.77	82.19
271.002	92.19
271.234	99.19
271.466	99.19
271.698	78.19
271.93	86.19
272.162	87.19
272.394	92.19
272.626	88.19
272.858	82.19
273.09	86.19
273.322	79.19
273.553	98.19
273.785	100.19
274.017	102.19
274.249	93.19
274.481	71.19
274.713	80.19
274.945	87.19
275.176	83.19
275.408	91.19
275.64	92.19
275.872	92.19
276.104	90.19
276.335	100.19
276.567	88.19
276.799	101.19
277.031	98.19
277.262	87.19
277.494	84.19
277.726	98.19
277.957	94.19
278.189	96.19
278.421	102.19
278.652	76.19
278.884	87.19
279.115	83.19
279.347	76.19
279.579	109.19
279.81	85.19
280.042	87.19
280.273	96.19
280.505	90.19
280.736	103.19
280.968	87.19
281.199	95.19
281.431	88.19
281.662	100.19
281.894	81.19
282.125	103.19
282.356	98.19
282.588	99.19
282.819	92.19
283.051	80.19
283.282	101.19
283.513	96.19
283.745	94.19
283.976	87.19
284.207	88.19
284.439	99.19
284.67	98.19
284.901	95.19
285.132	95.19
285.364	82.19
285.595	82.19
285.826	101.19
286.057	100.19
286.288	94.19
286.52	89.19
286.751	80.19
286.982	93.19
287.213	81.19
287.444	88.19
287.675	95.19
287.906	102.19
288.138	95.19
288.369	93.19
288.6	96.19
288.831	90.19
289.062	101.19
289.293	86.19
289.524	90.19
289.755	91.19
289.986	85.19
290.217	102.19
290.448	90.19
290.679	90.19
290.91	103.19
291.141	85.19
291.371	103.19
291.602	83.19
291.833	96.19
292.064	83.19
292.295	82.19
292.526	82.19
292.757	102.19
292.987	101.19
293.218	97.19
293.449	95.19
293.68	94.19
293.91	96.19
294.141	88.19
294.372	101.19
294.603	91.19
294.833	91.19
295.064	97.19
295.295	95.19
295.525	83.19
295.756	103.19
295.987	127.19
296.217	139.19
296.448	105.19
296.679	100.19
296.909	90.19
297.14	86.19
297.37	90.19
297.601	83.19
297.831	98.19
298.062	94.19
298.292	88.19
298.523	98.19
298.753	76.19
298.984	91.19
299.214	87.19
299.445	95.19
299.675	101.19
299.905	97.19
300.136	90.19
300.366	92.19
300.597	91.19
300.827	84.19
301.057	96.19
301.288	86.19
301.518	115.19
301.748	78.19
301.979	108.19
302.209	78.19
302.439	90.19
302.669	77.19
302.9	90.19
303.13	96.19
303.36	96.19
303.59	97.19
303.82	100.19
304.051	95.19
304.281	88.19
304.511	105.19
304.741	91.19
304.971	97.19
305.201	92.19
305.431	72.19
305.661	94.19
305.891	98.19
306.121	114.19
306.352	115.19
306.582	96.19
306.812	91.19
307.042	89.19
307.272	109.19
307.502	91.19
307.731	90.19
307.961	110.19
308.191	94.19
308.421	95.19
308.651	102.19
308.881	102.19
309.111	98.19
309.341	91.19
309.571	95.19
309.8	96.19
310.03	96.19
310.26	96.19
310.49	82.19
310.72	91.19
310.949	102.19
311.179	86.19
311.409	96.19
311.639	85.19
311.868	90.19
312.098	98.19
312.328	111.19
312.557	101.19
312.787	103.19
313.017	111.19
313.246	99.19
313.476	98.19
313.706	87.19
313.935	94.19
314.165	97.19
314.394	102.19
314.624	104.19
314.853	99.19
315.083	98.19
315.312	86.19
315.542	85.19
315.771	105.19
316.001	83.19
316.23	94.19
316.46	97.19
316.689	94.19
316.919	92.19
317.148	99.19
317.377	95.19
317.607	101.19
317.836	90.19
318.065	87.19
318.295	99.19
318.524	94.19
318.753	108.19
318.983	101.19
319.212	90.19
319.441	85.19
319.67	90.19
319.9	101.19
320.129	93.19
320.358	90.19
320.587	85.19
320.816	104.19
321.046	99.19
321.275	108.19
321.504	75.19
321.733	95.19
321.962	95.19
322.191	112.19
322.42	95.19
322.649	103.19
322.878	93.19
323.108	116.19
323.337	111.19
323.566	124.19
323.795	127.19
324.024	181.19
324.253	348.19
324.482	686.19
324.71	1396.19
324.939	1810.19
325.168	662.19
325.397	213.19
325.626	132.19
325.855	128.19
326.084	120.19
326.313	114.19
326.542	161.19
326.77	210.19
326.999	396.19
327.228	807.19
327.457	1423.19
327.686	1124.19
327.914	311.19
328.143	175.19
328.372	142.19
328.6	109.19
328.829	116.19
329.058	126.19
329.287	119.19
329.515	111.19
329.744	104.19
329.972	118.19
330.201	125.19
330.43	95.19
330.658	116.19
330.887	132.19
331.115	109.19
331.344	98.19
331.572	102.19
331.801	97.19
332.03	93.19
332.258	102.19
332.486	100.19
332.715	95.19
332.943	88.19
333.172	87.19
333.4	90.19
333.629	106.19
333.857	116.19
334.085	108.19
334.314	96.19
334.542	94.19
334.771	90.19
334.999	91.19
335.227	96.19
335.455	93.19
335.684	115.19
335.912	97.19
336.14	88.19
336.369	104.19
336.597	102.19
336.825	110.19
337.053	88.19
337.281	110.19
337.51	94.19
337.738	101.19
337.966	101.19
338.194	105.19
338.422	84.19
338.65	102.19
338.878	95.19
339.106	95.19
339.334	90.19
339.562	97.19
339.79	99.19
340.018	100.19
340.246	89.19
340.474	108.19
340.702	94.19
340.93	78.19
341.158	103.19
341.386	102.19
341.614	110.19
341.842	94.19
342.07	87.19
342.298	109.19
342.526	92.19
342.754	95.19
342.981	85.19
343.209	89.19
343.437	88.19
343.665	99.19
343.893	97.19
344.12	94.19
344.348	104.19
344.576	92.19
344.804	102.19
345.031	101.19
345.259	106.19
345.487	100.19
345.714	96.19
345.942	88.19
346.17	86.19
346.397	85.19
346.625	90.19
346.853	97.19
347.08	84.19
347.308	99.19
347.535	106.19
347.763	105.19
347.99	80.19
348.218	100.19
348.445	93.19
348.673	96.19
348.9	87.19
349.128	102.19
349.355	91.19
349.583	106.19
349.81	93.19
350.037	89.19
350.265	109.19
350.492	93.19
350.72	94.19
350.947	100.19
351.174	114.19
351.402	94.19
351.629	98.19
351.856	104.19
352.083	105.19
352.311	108.19
352.538	103.19
352.765	108.19
352.992	113.19
353.22	110.19
353.447	108.19
353.674	100.19
353.901	102.19
354.128	103.19
354.355	99.19
354.583	92.19
354.81	108.19
355.037	104.19
355.264	98.19
355.491	111.19
355.718	93.19
355.945	101.19
356.172	109.19
356.399	106.19
356.626	89.19
356.853	78.19
357.08	96.19
357.307	98.19
357.534	101.19
357.761	89.19
357.988	104.19
358.215	97.19
358.441	101.19
358.668	106.19
358.895	102.19
359.122	80.19
359.349	92.19
359.576	95.19
359.802	82.19
360.029	104.19
360.256	125.19
360.483	98.19
360.709	76.19
360.936	82.19
361.163	96.19
361.39	100.19
361.616	90.19
361.843	94.19
362.07	104.19
362.296	93.19
362.523	105.19
362.749	101.19
362.976	87.19
363.203	92.19
363.429	91.19
363.656	99.19
363.882	86.19
364.109	86.19
364.335	82.19
364.562	99.19
364.788	88.19
365.015	91.19
365.241	96.19
365.468	108.19
365.694	104.19
365.92	103.19
366.147	91.19
366.373	102.19
366.599	99.19
366.826	104.19
367.052	94.19
367.278	99.19
367.505	105.19
367.731	100.19
367.957	88.19
368.184	94.19
368.41	99.19
368.636	95.19
368.862	111.19
369.089	110.19
369.315	86.19
369.541	115.19
369.767	94.19
369.993	103.19
370.219	109.19
370.445	88.19
370.672	77.19
370.898	91.19
371.124	94.19
371.35	107.19
371.576	93.19
371.802	94.19
372.028	92.19
372.254	87.19
372.48	93.19
372.706	92.19
372.932	87.19
373.158	103.19
373.384	82.19
373.61	81.19
373.835	94.19
374.061	87.19
374.287	102.19
374.513	103.19
374.739	91.19
374.965	87.19
375.191	100.19
375.416	102.19
375.642	111.19
375.868	98.19
376.094	87.19
376.319	86.19
376.545	91.19
376.771	80.19
376.997	84.19
377.222	83.19
377.448	84.19
377.674	97.19
377.899	98.19
378.125	98.19
378.35	88.19
378.576	88.19
378.802	96.19
379.027	104.19
379.253	90.19
379.478	89.19
379.704	95.19
379.929	102.19
380.155	96.19
380.38	111.19
380.606	93.19
380.831	98.19
381.057	106.19
381.282	96.19
381.507	103.19
381.733	98.19
381.958	87.19
382.184	92.19
382.409	104.19
382.634	102.19
382.86	84.19
383.085	96.19
383.31	102.19
383.535	118.19
383.761	115.19
383.986	95.19
384.211	111.19
384.436	95.19
384.662	99.19
384.887	100.19
385.112	106.19
385.337	108.19
385.562	102.19
385.787	87.19
386.013	102.19
386.238	102.19
386.463	97.19
386.688	105.19
386.913	109.19
387.138	110.19
387.363	104.19
387.588	88.19
387.813	109.19
388.038	109.19
388.263	108.19
388.488	109.19
388.713	115.19
388.938	99.19
389.163	107.19
389.387	96.19
389.612	94.19
389.837	91.19
390.062	107.19
390.287	102.19
390.512	92.19
390.736	92.19
390.961	92.19
391.186	87.19
391.411	75.19
391.636	97.19
391.86	102.19
392.085	93.19
392.31	97.19
392.534	89.19
392.759	96.19
392.984	89.19
393.208	82.19
393.433	99.19
393.658	108.19
393.882	88.19
394.107	80.19
394.331	93.19
394.556	92.19
394.78	81.19
395.005	98.19
395.229	95.19
395.454	93.19
395.678	88.19
395.903	85.19
396.127	89.19
396.352	99.19
396.576	101.19
396.801	90.19
397.025	94.19
397.249	91.19
397.474	114.19
397.698	98.19
397.922	86.19
398.147	97.19
398.371	82.19
398.595	92.19
398.82	83.19
399.044	108.19
399.268	86.19
399.492	91.19
399.717	98.19
399.941	97.19
400.165	86.19
400.389	98.19
400.613	99.19
400.837	81.19
401.062	95.19
401.286	81.19
401.51	114.19
401.734	82.19
401.958	98.19
402.182	110.19
402.406	119.19
402.63	110.19
402.854	96.19
403.078	90.19
403.302	90.19
403.526	107.19
403.75	103.19
403.974	81.19
404.198	91.19
404.422	91.19
404.645	96.19
404.869	111.19
405.093	103.19
405.317	107.19
405.541	88.19
405.765	96.19
405.988	111.19
406.212	132.19
406.436	190.19
406.66	122.19
406.883	102.19
407.107	91.19
407.331	105.19
407.555	100.19
407.778	89.19
408.002	93.19
408.226	95.19
408.449	86.19
408.673	89.19
408.896	87.19
409.12	100.19
409.344	100.19
409.567	95.19
409.791	96.19
410.014	102.19
410.238	92.19
410.461	95.19
410.685	109.19
410.908	110.19
411.132	87.19
411.355	107.19
411.578	91.19
411.802	104.19
412.025	81.19
412.249	93.19
412.472	80.19
412.695	96.19
412.919	90.19
413.142	83.19
413.365	101.19
413.589	88.19
413.812	87.19
414.035	102.19
414.258	88.19
414.482	97.19
414.705	103.19
414.928	84.19
415.151	99.19
415.374	76.19
415.597	100.19
415.821	82.19
416.044	91.19
416.267	93.19
416.49	88.19
416.713	82.19
416.936	94.19
417.159	96.19
417.382	98.19
417.605	97.19
417.828	87.19
418.051	92.19
418.274	90.19
418.497	100.19
418.72	79.19
418.943	107.19
419.166	76.19
419.389	94.19
419.611	99.19
419.834	102.19
420.057	96.19
420.28	92.19
420.503	98.19
420.726	100.19
420.948	104.19
421.171	96.19
421.394	94.19
421.617	104.19
421.839	112.19
422.062	100.19
422.285	99.19
422.507	107.19
422.73	105.19
422.953	104.19
423.175	106.19
423.398	88.19
423.621	90.19
423.843	95.19
424.066	90.19
424.288	89.19
424.511	85.19
424.733	102.19
424.956	104.19
425.178	110.19
425.401	75.19
425.623	99.19
425.846	100.19
426.068	98.19
426.291	94.19
426.513	87.19
426.735	98.19
426.958	80.19
427.18	98.19
427.402	126.19
427.625	136.19
427.847	119.19
428.069	97.19
428.292	91.19
428.514	84.19
428.736	84.19
428.958	94.19
429.181	90.19
429.403	76.19
429.625	88.19
429.847	88.19
430.069	99.19
430.292	108.19
430.514	92.19
430.736	81.19
430.958	94.19
431.18	98.19
431.402	87.19
431.624	95.19
431.846	89.19
432.068	102.19
432.29	86.19
432.512	86.19
432.734	85.19
432.956	81.19
433.178	107.19
433.4	109.19
433.622	102.19
433.844	87.19
434.066	70.19
434.287	100.19
434.509	92.19
434.731	92.19
434.953	96.19
435.175	85.19
435.397	98.19
435.618	99.19
435.84	96.19
436.062	135.19
436.284	111.19
436.505	98.19
436.727	105.19
436.949	102.19
437.17	86.19
437.392	82.19
437.614	92.19
437.835	110.19
438.057	98.19
438.278	119.19
438.5	115.19
438.721	115.19
438.943	102.19
439.165	92.19
439.386	78.19
439.608	75.19
439.829	77.19
440.05	114.19
440.272	138.19
440.493	88.19
440.715	95.19
440.936	97.19
441.158	91.19
441.379	100.19
441.6	78.19
441.822	97.19
442.043	113.19
442.264	100.19
442.486	88.19
442.707	94.19
442.928	97.19
443.149	130.19
443.371	121.19
443.592	112.19
443.813	109.19
444.034	101.19
444.255	89.19
444.476	74.19
444.698	76.19
444.919	98.19
445.14	133.19
445.361	119.19
445.582	111.19
445.803	117.19
446.024	130.19
446.245	134.19
446.466	106.19
446.687	95.19
446.908	97.19
447.129	94.19
447.35	91.19
447.571	90.19
447.792	90.19
448.013	107.19
448.234	106.19
448.455	105.19
448.675	110.19
448.896	92.19
449.117	101.19
449.338	99.19
449.559	121.19
449.779	107.19
450	103.19
450.221	97.19
450.442	97.19
450.662	104.19
450.883	104.19
451.104	103.19
451.324	105.19
451.545	91.19
451.766	82.19
451.986	82.19
452.207	90.19
452.428	96.19
452.648	102.19
452.869	92.19
453.089	103.19
453.31	103.19
453.53	96.19
453.751	92.19
453.971	94.19
454.192	96.19
454.412	85.19
454.633	88.19
454.853	87.19
455.073	83.19
455.294	94.19
455.514	95.19
455.734	96.19
455.955	102.19
456.175	85.19
456.395	78.19
456.616	99.19
456.836	94.19
457.056	76.19
457.276	82.19
457.497	91.19
457.717	95.19
457.937	97.19
458.157	92.19
458.377	100.19
458.598	97.19
458.818	131.19
459.038	116.19
459.258	90.19
459.478	98.19
459.698	85.19
459.918	93.19
460.138	87.19
460.358	80.19
460.578	103.19
460.798	86.19
461.018	80.19
461.238	93.19
461.458	85.19
461.678	83.19
461.898	94.19
462.118	99.19
462.338	80.19
462.558	86.19
462.777	90.19
462.997	90.19
463.217	79.19
463.437	102.19
463.657	102.19
463.876	98.19
464.096	98.19
464.316	92.19
464.536	84.19
464.755	93.19
464.975	101.19
465.195	130.19
465.414	130.19
465.634	83.19
465.854	90.19
466.073	95.19
466.293	86.19
466.512	85.19
466.732	97.19
466.951	100.19
467.171	101.19
467.391	91.19
467.61	98.19
467.829	97.19
468.049	81.19
468.268	89.19
468.488	74.19
468.707	84.19
468.927	87.19
469.146	108.19
469.365	75.19
469.585	96.19
469.804	99.19
470.023	104.19
470.243	107.19
470.462	100.19
470.681	105.19
470.901	84.19
471.12	95.19
471.339	86.19
471.558	92.19
471.777	99.19
471.997	99.19
472.216	91.19
472.435	101.19
472.654	93.19
472.873	92.19
473.092	89.19
473.311	84.19
473.53	92.19
473.749	92.19
473.968	86.19
474.187	98.19
474.406	87.19
474.625	94.19
474.844	106.19
475.063	101.19
475.282	91.19
475.501	88.19
475.72	99.19
475.939	91.19
476.158	90.19
476.377	87.19
476.596	92.19
476.814	100.19
477.033	82.19
477.252	83.19
477.471	101.19
477.69	80.19
477.908	96.19
478.127	86.19
478.346	88.19
478.564	104.19
478.783	104.19
479.002	87.19
479.22	102.19
479.439	103.19
479.658	111.19
479.876	99.19
480.095	101.19
480.313	92.19
480.532	93.19
480.751	85.19
480.969	91.19
481.188	98.19
481.406	92.19
481.624	78.19
481.843	87.19
482.061	93.19
482.28	102.19
482.498	90.19
482.717	78.19
482.935	92.19
483.153	73.19
483.372	89.19
483.59	101.19
483.808	96.19
484.027	102.19
484.245	91.19
484.463	84.19
484.681	106.19
484.9	101.19
485.118	105.19
485.336	114.19
485.554	116.19
485.772	95.19
485.99	102.19
486.209	113.19
486.427	102.19
486.645	111.19
486.863	119.19
487.081	88.19
487.299	86.19
487.517	93.19
487.735	99.19
487.953	106.19
488.171	101.19
488.389	106.19
488.607	103.19
488.825	86.19
489.043	102.19
489.261	98.19
489.479	95.19
489.696	86.19
489.914	84.19
490.132	93.19
490.35	91.19
490.568	95.19
490.786	89.19
491.003	94.19
491.221	101.19
491.439	116.19
491.657	94.19
491.874	102.19
492.092	109.19
492.31	101.19
492.527	98.19
492.745	85.19
492.963	92.19
493.18	87.19
493.398	94.19
493.615	101.19
493.833	107.19
494.05	93.19
494.268	95.19
494.485	86.19
494.703	87.19
494.92	95.19
495.138	99.19
495.355	96.19
495.573	100.19
495.79	85.19
496.008	76.19
496.225	88.19
496.442	91.19
496.66	88.19
496.877	91.19
497.094	87.19
497.312	108.19
497.529	106.19
497.746	99.19
497.963	104.19
498.181	89.19
498.398	100.19
498.615	99.19
498.832	93.19
499.049	107.19
499.267	106.19
499.484	88.19
499.701	91.19
499.918	100.19
500.135	103.19
500.352	78.19
500.569	94.19
500.786	88.19
501.003	99.19
501.22	107.19
501.437	88.19
501.654	97.19
501.871	97.19
502.088	79.19
502.305	95.19
502.522	109.19
502.739	97.19
502.956	88.19
503.172	100.19
503.389	92.19
503.606	99.19
503.823	92.19
504.04	100.19
504.256	87.19
504.473	87.19
504.69	98.19
504.907	98.19
505.123	106.19
505.34	110.19
505.557	106.19
505.773	112.19
505.99	85.19
506.207	86.19
506.423	91.19
506.64	104.19
506.856	97.19
507.073	94.19
507.289	89.19
507.506	90.19
507.722	110.19
507.939	113.19
508.155	99.19
508.372	103.19
508.588	90.19
508.805	96.19
509.021	86.19
509.238	117.19
509.454	107.19
509.67	100.19
509.887	116.19
510.103	112.19
510.319	182.19
510.536	610.19
510.752	1784.19
510.968	519.19
511.184	146.19
511.401	109.19
511.617	105.19
511.833	100.19
512.049	106.19
512.265	93.19
512.481	102.19
512.698	92.19
512.914	88.19
513.13	97.19
513.346	111.19
513.562	90.19
513.778	99.19
513.994	87.19
514.21	95.19
514.426	117.19
