Data from Uncirc_1997_H10_HRD10591_00078.txt Node
Date: Wed Jan 03 11:28:46 EST 2024
User: Yrep
Spectrometer: HR+D1059
Trigger mode: 1
Integration Time (sec): 1.000000E-1
Scans to average: 1
Electric dark correction enabled: true
Nonlinearity correction enabled: false
Boxcar width: 0
XAxis mode: Wavelengths
Number of Pixels in Spectrum: 2048
>>>>>Begin Spectral Data<<<<<
223.165	-38.88
223.4	-38.88
223.635	-38.88
223.869	-14.88
224.104	-25.88
224.338	-9.88
224.573	-7.88
224.808	-15.88
225.042	-0.88
225.277	2.12
225.511	-2.88
225.746	11.12
225.98	-3.88
226.215	3.12
226.449	14.12
226.683	35.12
226.918	27.12
227.152	28.12
227.387	25.12
227.621	32.12
227.856	35.12
228.09	47.12
228.324	41.12
228.559	52.12
228.793	56.12
229.027	63.12
229.262	72.12
229.496	62.12
229.73	80.12
229.964	78.12
230.199	85.12
230.433	63.12
230.667	87.12
230.901	71.12
231.136	84.12
231.37	96.12
231.604	73.12
231.838	82.12
232.072	78.12
232.306	69.12
232.541	78.12
232.775	74.12
233.009	86.12
233.243	67.12
233.477	76.12
233.711	73.12
233.945	79.12
234.179	65.12
234.413	78.12
234.647	83.12
234.881	89.12
235.115	71.12
235.349	76.12
235.583	71.12
235.817	82.12
236.051	82.12
236.285	71.12
236.519	78.12
236.753	74.12
236.987	82.12
237.221	90.12
237.455	70.12
237.689	78.12
237.922	76.12
238.156	75.12
238.39	71.12
238.624	73.12
238.858	72.12
239.091	60.12
239.325	80.12
239.559	73.12
239.793	64.12
240.027	69.12
240.26	70.12
240.494	74.12
240.728	67.12
240.961	78.12
241.195	80.12
241.429	72.12
241.662	83.12
241.896	63.12
242.13	74.12
242.363	77.12
242.597	76.12
242.83	80.12
243.064	76.12
243.298	68.12
243.531	76.12
243.765	77.12
243.998	75.12
244.232	83.12
244.465	71.12
244.699	81.12
244.932	78.12
245.166	64.12
245.399	67.12
245.633	73.12
245.866	79.12
246.099	84.12
246.333	94.12
246.566	67.12
246.8	71.12
247.033	79.12
247.266	67.12
247.5	95.12
247.733	82.12
247.966	71.12
248.2	85.12
248.433	85.12
248.666	75.12
248.899	91.12
249.133	84.12
249.366	100.12
249.599	102.12
249.832	83.12
250.066	79.12
250.299	71.12
250.532	81.12
250.765	77.12
250.998	71.12
251.231	73.12
251.465	80.12
251.698	70.12
251.931	82.12
252.164	85.12
252.397	79.12
252.63	87.12
252.863	69.12
253.096	78.12
253.329	83.12
253.562	75.12
253.795	77.12
254.028	91.12
254.261	78.12
254.494	83.12
254.727	71.12
254.96	92.12
255.193	84.12
255.426	82.12
255.659	79.12
255.892	84.12
256.124	69.12
256.357	68.12
256.59	78.12
256.823	74.12
257.056	62.12
257.289	68.12
257.521	75.12
257.754	74.12
257.987	71.12
258.22	77.12
258.452	80.12
258.685	68.12
258.918	76.12
259.151	90.12
259.383	79.12
259.616	78.12
259.849	76.12
260.081	68.12
260.314	75.12
260.547	80.12
260.779	82.12
261.012	80.12
261.244	85.12
261.477	88.12
261.71	82.12
261.942	91.12
262.175	108.12
262.407	90.12
262.64	66.12
262.872	84.12
263.105	73.12
263.337	88.12
263.57	88.12
263.802	73.12
264.035	73.12
264.267	81.12
264.499	77.12
264.732	88.12
264.964	88.12
265.197	73.12
265.429	73.12
265.661	88.12
265.894	68.12
266.126	82.12
266.358	86.12
266.591	76.12
266.823	85.12
267.055	83.12
267.287	80.12
267.52	80.12
267.752	80.12
267.984	86.12
268.216	89.12
268.448	100.12
268.681	77.12
268.913	93.12
269.145	86.12
269.377	88.12
269.609	93.12
269.841	84.12
270.073	86.12
270.306	82.12
270.538	85.12
270.77	79.12
271.002	83.12
271.234	79.12
271.466	95.12
271.698	76.12
271.93	89.12
272.162	79.12
272.394	77.12
272.626	77.12
272.858	75.12
273.09	73.12
273.322	77.12
273.553	80.12
273.785	92.12
274.017	86.12
274.249	89.12
274.481	77.12
274.713	80.12
274.945	83.12
275.176	77.12
275.408	89.12
275.64	88.12
275.872	95.12
276.104	86.12
276.335	80.12
276.567	97.12
276.799	98.12
277.031	99.12
277.262	85.12
277.494	86.12
277.726	80.12
277.957	84.12
278.189	87.12
278.421	68.12
278.652	82.12
278.884	99.12
279.115	76.12
279.347	83.12
279.579	92.12
279.81	84.12
280.042	75.12
280.273	83.12
280.505	75.12
280.736	104.12
280.968	89.12
281.199	76.12
281.431	80.12
281.662	78.12
281.894	83.12
282.125	94.12
282.356	103.12
282.588	134.12
282.819	112.12
283.051	78.12
283.282	88.12
283.513	84.12
283.745	84.12
283.976	68.12
284.207	76.12
284.439	90.12
284.67	99.12
284.901	86.12
285.132	84.12
285.364	86.12
285.595	87.12
285.826	75.12
286.057	74.12
286.288	77.12
286.52	91.12
286.751	96.12
286.982	77.12
287.213	88.12
287.444	86.12
287.675	93.12
287.906	85.12
288.138	84.12
288.369	86.12
288.6	72.12
288.831	89.12
289.062	93.12
289.293	89.12
289.524	80.12
289.755	91.12
289.986	85.12
290.217	80.12
290.448	83.12
290.679	85.12
290.91	99.12
291.141	99.12
291.371	76.12
291.602	82.12
291.833	74.12
292.064	82.12
292.295	86.12
292.526	84.12
292.757	99.12
292.987	96.12
293.218	81.12
293.449	88.12
293.68	81.12
293.91	77.12
294.141	90.12
294.372	94.12
294.603	75.12
294.833	95.12
295.064	97.12
295.295	82.12
295.525	85.12
295.756	100.12
295.987	88.12
296.217	123.12
296.448	101.12
296.679	90.12
296.909	84.12
297.14	91.12
297.37	97.12
297.601	82.12
297.831	92.12
298.062	87.12
298.292	79.12
298.523	89.12
298.753	92.12
298.984	85.12
299.214	83.12
299.445	84.12
299.675	83.12
299.905	88.12
300.136	85.12
300.366	86.12
300.597	88.12
300.827	102.12
301.057	92.12
301.288	103.12
301.518	102.12
301.748	86.12
301.979	91.12
302.209	64.12
302.439	94.12
302.669	77.12
302.9	90.12
303.13	94.12
303.36	96.12
303.59	93.12
303.82	96.12
304.051	85.12
304.281	78.12
304.511	88.12
304.741	101.12
304.971	90.12
305.201	80.12
305.431	84.12
305.661	89.12
305.891	85.12
306.121	90.12
306.352	88.12
306.582	89.12
306.812	85.12
307.042	87.12
307.272	97.12
307.502	95.12
307.731	106.12
307.961	92.12
308.191	83.12
308.421	86.12
308.651	90.12
308.881	81.12
309.111	97.12
309.341	102.12
309.571	94.12
309.8	96.12
310.03	108.12
310.26	85.12
310.49	100.12
310.72	108.12
310.949	105.12
311.179	106.12
311.409	89.12
311.639	81.12
311.868	102.12
312.098	82.12
312.328	79.12
312.557	83.12
312.787	95.12
313.017	97.12
313.246	106.12
313.476	86.12
313.706	85.12
313.935	99.12
314.165	104.12
314.394	92.12
314.624	84.12
314.853	86.12
315.083	89.12
315.312	102.12
315.542	94.12
315.771	85.12
316.001	95.12
316.23	93.12
316.46	81.12
316.689	78.12
316.919	84.12
317.148	84.12
317.377	90.12
317.607	88.12
317.836	89.12
318.065	95.12
318.295	78.12
318.524	67.12
318.753	85.12
318.983	105.12
319.212	101.12
319.441	97.12
319.67	101.12
319.9	96.12
320.129	98.12
320.358	87.12
320.587	86.12
320.816	94.12
321.046	93.12
321.275	87.12
321.504	87.12
321.733	103.12
321.962	97.12
322.191	91.12
322.42	82.12
322.649	112.12
322.878	102.12
323.108	97.12
323.337	116.12
323.566	114.12
323.795	126.12
324.024	160.12
324.253	317.12
324.482	674.12
324.71	1349.12
324.939	1751.12
325.168	664.12
325.397	218.12
325.626	126.12
325.855	116.12
326.084	122.12
326.313	112.12
326.542	125.12
326.77	200.12
326.999	383.12
327.228	778.12
327.457	1406.12
327.686	1110.12
327.914	313.12
328.143	170.12
328.372	147.12
328.6	112.12
328.829	118.12
329.058	114.12
329.287	131.12
329.515	95.12
329.744	101.12
329.972	94.12
330.201	97.12
330.43	97.12
330.658	124.12
330.887	125.12
331.115	118.12
331.344	84.12
331.572	101.12
331.801	95.12
332.03	88.12
332.258	97.12
332.486	90.12
332.715	95.12
332.943	90.12
333.172	92.12
333.4	98.12
333.629	94.12
333.857	99.12
334.085	104.12
334.314	88.12
334.542	97.12
334.771	100.12
334.999	89.12
335.227	86.12
335.455	89.12
335.684	104.12
335.912	87.12
336.14	95.12
336.369	87.12
336.597	87.12
336.825	109.12
337.053	101.12
337.281	94.12
337.51	85.12
337.738	96.12
337.966	92.12
338.194	98.12
338.422	91.12
338.65	84.12
338.878	93.12
339.106	101.12
339.334	98.12
339.562	91.12
339.79	87.12
340.018	76.12
340.246	74.12
340.474	73.12
340.702	79.12
340.93	95.12
341.158	82.12
341.386	83.12
341.614	90.12
341.842	92.12
342.07	83.12
342.298	87.12
342.526	84.12
342.754	100.12
342.981	81.12
343.209	88.12
343.437	106.12
343.665	73.12
343.893	84.12
344.12	93.12
344.348	87.12
344.576	85.12
344.804	79.12
345.031	91.12
345.259	95.12
345.487	95.12
345.714	77.12
345.942	94.12
346.17	87.12
346.397	85.12
346.625	86.12
346.853	73.12
347.08	82.12
347.308	89.12
347.535	109.12
347.763	88.12
347.99	97.12
348.218	88.12
348.445	96.12
348.673	94.12
348.9	93.12
349.128	93.12
349.355	101.12
349.583	93.12
349.81	92.12
350.037	97.12
350.265	92.12
350.492	80.12
350.72	97.12
350.947	92.12
351.174	97.12
351.402	90.12
351.629	113.12
351.856	89.12
352.083	89.12
352.311	103.12
352.538	117.12
352.765	99.12
352.992	114.12
353.22	97.12
353.447	111.12
353.674	118.12
353.901	95.12
354.128	107.12
354.355	88.12
354.583	90.12
354.81	97.12
355.037	88.12
355.264	97.12
355.491	92.12
355.718	92.12
355.945	82.12
356.172	89.12
356.399	85.12
356.626	94.12
356.853	79.12
357.08	79.12
357.307	98.12
357.534	101.12
357.761	81.12
357.988	107.12
358.215	92.12
358.441	89.12
358.668	86.12
358.895	91.12
359.122	97.12
359.349	95.12
359.576	74.12
359.802	92.12
360.029	97.12
360.256	94.12
360.483	91.12
360.709	84.12
360.936	90.12
361.163	81.12
361.39	97.12
361.616	116.12
361.843	82.12
362.07	84.12
362.296	84.12
362.523	87.12
362.749	87.12
362.976	90.12
363.203	91.12
363.429	83.12
363.656	96.12
363.882	74.12
364.109	95.12
364.335	82.12
364.562	83.12
364.788	98.12
365.015	87.12
365.241	67.12
365.468	93.12
365.694	103.12
365.92	91.12
366.147	89.12
366.373	88.12
366.599	101.12
366.826	71.12
367.052	72.12
367.278	103.12
367.505	78.12
367.731	89.12
367.957	75.12
368.184	99.12
368.41	95.12
368.636	107.12
368.862	94.12
369.089	96.12
369.315	90.12
369.541	87.12
369.767	101.12
369.993	74.12
370.219	89.12
370.445	95.12
370.672	77.12
370.898	92.12
371.124	76.12
371.35	83.12
371.576	90.12
371.802	84.12
372.028	85.12
372.254	96.12
372.48	84.12
372.706	93.12
372.932	84.12
373.158	88.12
373.384	77.12
373.61	92.12
373.835	79.12
374.061	73.12
374.287	96.12
374.513	84.12
374.739	87.12
374.965	87.12
375.191	91.12
375.416	93.12
375.642	94.12
375.868	95.12
376.094	91.12
376.319	91.12
376.545	92.12
376.771	95.12
376.997	94.12
377.222	95.12
377.448	83.12
377.674	83.12
377.899	89.12
378.125	96.12
378.35	89.12
378.576	93.12
378.802	81.12
379.027	100.12
379.253	92.12
379.478	93.12
379.704	81.12
379.929	88.12
380.155	89.12
380.38	92.12
380.606	87.12
380.831	93.12
381.057	86.12
381.282	88.12
381.507	92.12
381.733	81.12
381.958	81.12
382.184	88.12
382.409	80.12
382.634	87.12
382.86	98.12
383.085	95.12
383.31	95.12
383.535	92.12
383.761	79.12
383.986	83.12
384.211	93.12
384.436	95.12
384.662	95.12
384.887	102.12
385.112	95.12
385.337	83.12
385.562	101.12
385.787	85.12
386.013	92.12
386.238	101.12
386.463	96.12
386.688	96.12
386.913	95.12
387.138	90.12
387.363	107.12
387.588	105.12
387.813	93.12
388.038	104.12
388.263	105.12
388.488	105.12
388.713	103.12
388.938	85.12
389.163	93.12
389.387	90.12
389.612	87.12
389.837	80.12
390.062	92.12
390.287	103.12
390.512	96.12
390.736	92.12
390.961	100.12
391.186	95.12
391.411	79.12
391.636	82.12
391.86	78.12
392.085	78.12
392.31	88.12
392.534	83.12
392.759	87.12
392.984	100.12
393.208	83.12
393.433	76.12
393.658	74.12
393.882	65.12
394.107	76.12
394.331	87.12
394.556	86.12
394.78	83.12
395.005	88.12
395.229	95.12
395.454	81.12
395.678	84.12
395.903	76.12
396.127	94.12
396.352	85.12
396.576	78.12
396.801	79.12
397.025	78.12
397.249	85.12
397.474	83.12
397.698	87.12
397.922	88.12
398.147	93.12
398.371	82.12
398.595	69.12
398.82	77.12
399.044	87.12
399.268	90.12
399.492	64.12
399.717	91.12
399.941	90.12
400.165	93.12
400.389	99.12
400.613	96.12
400.837	84.12
401.062	92.12
401.286	86.12
401.51	94.12
401.734	102.12
401.958	96.12
402.182	109.12
402.406	137.12
402.63	96.12
402.854	81.12
403.078	86.12
403.302	91.12
403.526	88.12
403.75	92.12
403.974	92.12
404.198	91.12
404.422	88.12
404.645	80.12
404.869	71.12
405.093	91.12
405.317	99.12
405.541	88.12
405.765	93.12
405.988	109.12
406.212	156.12
406.436	187.12
406.66	122.12
406.883	85.12
407.107	88.12
407.331	106.12
407.555	94.12
407.778	90.12
408.002	94.12
408.226	68.12
408.449	83.12
408.673	70.12
408.896	93.12
409.12	77.12
409.344	95.12
409.567	93.12
409.791	76.12
410.014	88.12
410.238	94.12
410.461	80.12
410.685	90.12
410.908	97.12
411.132	106.12
411.355	95.12
411.578	84.12
411.802	75.12
412.025	89.12
412.249	103.12
412.472	89.12
412.695	84.12
412.919	84.12
413.142	73.12
413.365	75.12
413.589	83.12
413.812	80.12
414.035	79.12
414.258	76.12
414.482	92.12
414.705	82.12
414.928	86.12
415.151	91.12
415.374	80.12
415.597	87.12
415.821	77.12
416.044	80.12
416.267	78.12
416.49	69.12
416.713	92.12
416.936	94.12
417.159	69.12
417.382	77.12
417.605	83.12
417.828	83.12
418.051	87.12
418.274	83.12
418.497	85.12
418.72	82.12
418.943	83.12
419.166	77.12
419.389	76.12
419.611	98.12
419.834	81.12
420.057	94.12
420.28	85.12
420.503	75.12
420.726	69.12
420.948	66.12
421.171	92.12
421.394	88.12
421.617	85.12
421.839	95.12
422.062	88.12
422.285	78.12
422.507	98.12
422.73	95.12
422.953	76.12
423.175	83.12
423.398	82.12
423.621	87.12
423.843	73.12
424.066	69.12
424.288	76.12
424.511	87.12
424.733	90.12
424.956	97.12
425.178	99.12
425.401	87.12
425.623	112.12
425.846	99.12
426.068	92.12
426.291	75.12
426.513	89.12
426.735	92.12
426.958	94.12
427.18	97.12
427.402	110.12
427.625	166.12
427.847	111.12
428.069	86.12
428.292	84.12
428.514	83.12
428.736	79.12
428.958	88.12
429.181	91.12
429.403	96.12
429.625	86.12
429.847	83.12
430.069	91.12
430.292	92.12
430.514	84.12
430.736	69.12
430.958	81.12
431.18	84.12
431.402	85.12
431.624	89.12
431.846	80.12
432.068	72.12
432.29	74.12
432.512	91.12
432.734	76.12
432.956	76.12
433.178	93.12
433.4	84.12
433.622	86.12
433.844	88.12
434.066	96.12
434.287	78.12
434.509	79.12
434.731	89.12
434.953	92.12
435.175	88.12
435.397	89.12
435.618	83.12
435.84	96.12
436.062	113.12
436.284	104.12
436.505	95.12
436.727	81.12
436.949	97.12
437.17	98.12
437.392	80.12
437.614	86.12
437.835	91.12
438.057	91.12
438.278	100.12
438.5	92.12
438.721	100.12
438.943	87.12
439.165	81.12
439.386	72.12
439.608	79.12
439.829	86.12
440.05	110.12
440.272	137.12
440.493	92.12
440.715	78.12
440.936	89.12
441.158	93.12
441.379	88.12
441.6	91.12
441.822	91.12
442.043	88.12
442.264	92.12
442.486	93.12
442.707	103.12
442.928	97.12
443.149	109.12
443.371	124.12
443.592	96.12
443.813	109.12
444.034	98.12
444.255	76.12
444.476	83.12
444.698	77.12
444.919	84.12
445.14	128.12
445.361	124.12
445.582	117.12
445.803	116.12
446.024	107.12
446.245	112.12
446.466	87.12
446.687	85.12
446.908	93.12
447.129	81.12
447.35	95.12
447.571	89.12
447.792	93.12
448.013	102.12
448.234	87.12
448.455	103.12
448.675	95.12
448.896	93.12
449.117	93.12
449.338	106.12
449.559	114.12
449.779	122.12
450	100.12
450.221	85.12
450.442	84.12
450.662	80.12
450.883	88.12
451.104	91.12
451.324	90.12
451.545	79.12
451.766	76.12
451.986	89.12
452.207	68.12
452.428	101.12
452.648	84.12
452.869	98.12
453.089	89.12
453.31	110.12
453.53	71.12
453.751	79.12
453.971	90.12
454.192	96.12
454.412	101.12
454.633	90.12
454.853	85.12
455.073	81.12
455.294	84.12
455.514	93.12
455.734	90.12
455.955	71.12
456.175	85.12
456.395	67.12
456.616	90.12
456.836	84.12
457.056	89.12
457.276	79.12
457.497	95.12
457.717	86.12
457.937	80.12
458.157	83.12
458.377	93.12
458.598	87.12
458.818	123.12
459.038	150.12
459.258	103.12
459.478	75.12
459.698	76.12
459.918	88.12
460.138	76.12
460.358	67.12
460.578	87.12
460.798	85.12
461.018	88.12
461.238	89.12
461.458	88.12
461.678	86.12
461.898	84.12
462.118	102.12
462.338	71.12
462.558	88.12
462.777	82.12
462.997	84.12
463.217	87.12
463.437	76.12
463.657	91.12
463.876	77.12
464.096	87.12
464.316	95.12
464.536	83.12
464.755	85.12
464.975	108.12
465.195	136.12
465.414	151.12
465.634	78.12
465.854	88.12
466.073	74.12
466.293	84.12
466.512	79.12
466.732	79.12
466.951	81.12
467.171	81.12
467.391	94.12
467.61	103.12
467.829	97.12
468.049	78.12
468.268	83.12
468.488	83.12
468.707	83.12
468.927	77.12
469.146	82.12
469.365	90.12
469.585	77.12
469.804	86.12
470.023	71.12
470.243	86.12
470.462	100.12
470.681	104.12
470.901	83.12
471.12	77.12
471.339	89.12
471.558	86.12
471.777	71.12
471.997	65.12
472.216	94.12
472.435	98.12
472.654	97.12
472.873	77.12
473.092	69.12
473.311	91.12
473.53	93.12
473.749	98.12
473.968	91.12
474.187	104.12
474.406	92.12
474.625	75.12
474.844	83.12
475.063	95.12
475.282	94.12
475.501	84.12
475.72	85.12
475.939	75.12
476.158	77.12
476.377	84.12
476.596	79.12
476.814	78.12
477.033	83.12
477.252	90.12
477.471	73.12
477.69	80.12
477.908	79.12
478.127	93.12
478.346	86.12
478.564	96.12
478.783	78.12
479.002	85.12
479.22	87.12
479.439	87.12
479.658	95.12
479.876	92.12
480.095	80.12
480.313	84.12
480.532	85.12
480.751	77.12
480.969	80.12
481.188	91.12
481.406	103.12
481.624	84.12
481.843	69.12
482.061	87.12
482.28	89.12
482.498	91.12
482.717	76.12
482.935	84.12
483.153	82.12
483.372	85.12
483.59	86.12
483.808	83.12
484.027	86.12
484.245	89.12
484.463	96.12
484.681	83.12
484.9	95.12
485.118	88.12
485.336	80.12
485.554	86.12
485.772	92.12
485.99	97.12
486.209	89.12
486.427	100.12
486.645	118.12
486.863	114.12
487.081	92.12
487.299	101.12
487.517	96.12
487.735	90.12
487.953	86.12
488.171	87.12
488.389	77.12
488.607	102.12
488.825	77.12
489.043	90.12
489.261	76.12
489.479	89.12
489.696	86.12
489.914	82.12
490.132	87.12
490.35	92.12
490.568	87.12
490.786	85.12
491.003	90.12
491.221	79.12
491.439	93.12
491.657	95.12
491.874	99.12
492.092	89.12
492.31	81.12
492.527	82.12
492.745	90.12
492.963	75.12
493.18	106.12
493.398	95.12
493.615	99.12
493.833	91.12
494.05	75.12
494.268	90.12
494.485	92.12
494.703	87.12
494.92	72.12
495.138	80.12
495.355	98.12
495.573	92.12
495.79	87.12
496.008	87.12
496.225	89.12
496.442	89.12
496.66	72.12
496.877	94.12
497.094	97.12
497.312	83.12
497.529	87.12
497.746	83.12
497.963	89.12
498.181	92.12
498.398	98.12
498.615	86.12
498.832	91.12
499.049	80.12
499.267	86.12
499.484	81.12
499.701	71.12
499.918	90.12
500.135	74.12
500.352	87.12
500.569	95.12
500.786	96.12
501.003	75.12
501.22	85.12
501.437	100.12
501.654	92.12
501.871	92.12
502.088	75.12
502.305	102.12
502.522	92.12
502.739	90.12
502.956	96.12
503.172	78.12
503.389	97.12
503.606	84.12
503.823	85.12
504.04	93.12
504.256	73.12
504.473	81.12
504.69	90.12
504.907	95.12
505.123	75.12
505.34	89.12
505.557	86.12
505.773	73.12
505.99	91.12
506.207	86.12
506.423	91.12
506.64	83.12
506.856	96.12
507.073	87.12
507.289	100.12
507.506	100.12
507.722	106.12
507.939	112.12
508.155	81.12
508.372	83.12
508.588	109.12
508.805	98.12
509.021	95.12
509.238	79.12
509.454	80.12
509.67	83.12
509.887	93.12
510.103	127.12
510.319	166.12
510.536	669.12
510.752	1971.12
510.968	533.12
511.184	145.12
511.401	113.12
511.617	81.12
511.833	107.12
512.049	80.12
512.265	88.12
512.481	94.12
512.698	79.12
512.914	100.12
513.13	96.12
513.346	84.12
513.562	76.12
513.778	104.12
513.994	102.12
514.21	96.12
514.426	107.12
514.642	116.12
514.858	103.12
515.074	139.12
515.29	364.12
515.506	1142.12
515.721	428.12
515.937	135.12
516.153	110.12
516.369	106.12
516.585	78.12
516.801	78.12
517.016	80.12
517.232	75.12
517.448	77.12
