Data from Uncirc_1997_H10_HRD10591_00094.txt Node
Date: Wed Jan 03 11:28:49 EST 2024
User: Yrep
Spectrometer: HR+D1059
Trigger mode: 1
Integration Time (sec): 1.000000E-1
Scans to average: 1
Electric dark correction enabled: true
Nonlinearity correction enabled: false
Boxcar width: 0
XAxis mode: Wavelengths
Number of Pixels in Spectrum: 2048
>>>>>Begin Spectral Data<<<<<
223.165	-9.56
223.4	-9.56
223.635	-9.56
223.869	-25.56
224.104	-20.56
224.338	-12.56
224.573	-10.56
224.808	-21.56
225.042	-18.56
225.277	-0.56
225.511	-2.56
225.746	8.44
225.98	6.44
226.215	12.44
226.449	14.44
226.683	16.44
226.918	21.44
227.152	42.44
227.387	27.44
227.621	47.44
227.856	52.44
228.09	56.44
228.324	43.44
228.559	69.44
228.793	72.44
229.027	71.44
229.262	64.44
229.496	71.44
229.73	68.44
229.964	80.44
230.199	76.44
230.433	86.44
230.667	74.44
230.901	88.44
231.136	88.44
231.37	86.44
231.604	75.44
231.838	99.44
232.072	98.44
232.306	79.44
232.541	71.44
232.775	89.44
233.009	79.44
233.243	79.44
233.477	87.44
233.711	83.44
233.945	84.44
234.179	79.44
234.413	79.44
234.647	92.44
234.881	86.44
235.115	78.44
235.349	75.44
235.583	93.44
235.817	84.44
236.051	86.44
236.285	96.44
236.519	85.44
236.753	80.44
236.987	86.44
237.221	96.44
237.455	74.44
237.689	87.44
237.922	76.44
238.156	83.44
238.39	74.44
238.624	63.44
238.858	83.44
239.091	65.44
239.325	65.44
239.559	88.44
239.793	81.44
240.027	88.44
240.26	88.44
240.494	75.44
240.728	86.44
240.961	77.44
241.195	58.44
241.429	74.44
241.662	87.44
241.896	85.44
242.13	87.44
242.363	78.44
242.597	90.44
242.83	75.44
243.064	83.44
243.298	82.44
243.531	76.44
243.765	78.44
243.998	82.44
244.232	85.44
244.465	91.44
244.699	79.44
244.932	100.44
245.166	89.44
245.399	91.44
245.633	85.44
245.866	71.44
246.099	82.44
246.333	84.44
246.566	96.44
246.8	84.44
247.033	75.44
247.266	75.44
247.5	86.44
247.733	80.44
247.966	90.44
248.2	61.44
248.433	80.44
248.666	94.44
248.899	77.44
249.133	86.44
249.366	96.44
249.599	101.44
249.832	85.44
250.066	82.44
250.299	75.44
250.532	71.44
250.765	82.44
250.998	71.44
251.231	84.44
251.465	83.44
251.698	62.44
251.931	82.44
252.164	78.44
252.397	83.44
252.63	97.44
252.863	89.44
253.096	76.44
253.329	89.44
253.562	59.44
253.795	82.44
254.028	78.44
254.261	79.44
254.494	78.44
254.727	85.44
254.96	81.44
255.193	82.44
255.426	78.44
255.659	88.44
255.892	90.44
256.124	81.44
256.357	90.44
256.59	83.44
256.823	66.44
257.056	75.44
257.289	74.44
257.521	91.44
257.754	87.44
257.987	81.44
258.22	88.44
258.452	91.44
258.685	80.44
258.918	75.44
259.151	85.44
259.383	88.44
259.616	83.44
259.849	89.44
260.081	90.44
260.314	83.44
260.547	85.44
260.779	83.44
261.012	86.44
261.244	80.44
261.477	91.44
261.71	89.44
261.942	105.44
262.175	110.44
262.407	92.44
262.64	86.44
262.872	77.44
263.105	89.44
263.337	82.44
263.57	85.44
263.802	78.44
264.035	77.44
264.267	67.44
264.499	92.44
264.732	96.44
264.964	89.44
265.197	84.44
265.429	96.44
265.661	83.44
265.894	68.44
266.126	81.44
266.358	63.44
266.591	84.44
266.823	76.44
267.055	88.44
267.287	91.44
267.52	71.44
267.752	83.44
267.984	79.44
268.216	69.44
268.448	83.44
268.681	86.44
268.913	81.44
269.145	88.44
269.377	96.44
269.609	87.44
269.841	84.44
270.073	81.44
270.306	81.44
270.538	92.44
270.77	82.44
271.002	88.44
271.234	82.44
271.466	90.44
271.698	92.44
271.93	103.44
272.162	97.44
272.394	90.44
272.626	91.44
272.858	79.44
273.09	93.44
273.322	90.44
273.553	86.44
273.785	62.44
274.017	79.44
274.249	90.44
274.481	105.44
274.713	83.44
274.945	87.44
275.176	90.44
275.408	81.44
275.64	87.44
275.872	86.44
276.104	96.44
276.335	87.44
276.567	92.44
276.799	97.44
277.031	93.44
277.262	95.44
277.494	80.44
277.726	83.44
277.957	73.44
278.189	65.44
278.421	92.44
278.652	94.44
278.884	88.44
279.115	106.44
279.347	85.44
279.579	81.44
279.81	80.44
280.042	85.44
280.273	87.44
280.505	82.44
280.736	85.44
280.968	92.44
281.199	96.44
281.431	91.44
281.662	88.44
281.894	90.44
282.125	100.44
282.356	114.44
282.588	136.44
282.819	110.44
283.051	95.44
283.282	82.44
283.513	81.44
283.745	103.44
283.976	89.44
284.207	89.44
284.439	85.44
284.67	86.44
284.901	83.44
285.132	84.44
285.364	84.44
285.595	90.44
285.826	89.44
286.057	96.44
286.288	82.44
286.52	91.44
286.751	76.44
286.982	87.44
287.213	96.44
287.444	87.44
287.675	94.44
287.906	80.44
288.138	87.44
288.369	96.44
288.6	86.44
288.831	92.44
289.062	95.44
289.293	77.44
289.524	84.44
289.755	106.44
289.986	74.44
290.217	92.44
290.448	87.44
290.679	80.44
290.91	94.44
291.141	86.44
291.371	96.44
291.602	77.44
291.833	94.44
292.064	90.44
292.295	80.44
292.526	98.44
292.757	91.44
292.987	93.44
293.218	94.44
293.449	86.44
293.68	98.44
293.91	87.44
294.141	95.44
294.372	84.44
294.603	102.44
294.833	103.44
295.064	88.44
295.295	98.44
295.525	99.44
295.756	79.44
295.987	107.44
296.217	130.44
296.448	122.44
296.679	88.44
296.909	77.44
297.14	99.44
297.37	81.44
297.601	78.44
297.831	82.44
298.062	86.44
298.292	80.44
298.523	90.44
298.753	105.44
298.984	88.44
299.214	98.44
299.445	99.44
299.675	102.44
299.905	96.44
300.136	86.44
300.366	92.44
300.597	90.44
300.827	102.44
301.057	96.44
301.288	100.44
301.518	96.44
301.748	83.44
301.979	100.44
302.209	94.44
302.439	99.44
302.669	91.44
302.9	93.44
303.13	86.44
303.36	104.44
303.59	104.44
303.82	95.44
304.051	88.44
304.281	94.44
304.511	82.44
304.741	83.44
304.971	87.44
305.201	94.44
305.431	91.44
305.661	105.44
305.891	103.44
306.121	84.44
306.352	93.44
306.582	96.44
306.812	95.44
307.042	91.44
307.272	86.44
307.502	93.44
307.731	84.44
307.961	92.44
308.191	76.44
308.421	105.44
308.651	79.44
308.881	98.44
309.111	86.44
309.341	100.44
309.571	95.44
309.8	88.44
310.03	100.44
310.26	99.44
310.49	101.44
310.72	98.44
310.949	105.44
311.179	100.44
311.409	97.44
311.639	96.44
311.868	102.44
312.098	90.44
312.328	86.44
312.557	96.44
312.787	87.44
313.017	93.44
313.246	80.44
313.476	81.44
313.706	88.44
313.935	86.44
314.165	106.44
314.394	112.44
314.624	103.44
314.853	96.44
315.083	98.44
315.312	104.44
315.542	104.44
315.771	85.44
316.001	83.44
316.23	80.44
316.46	95.44
316.689	93.44
316.919	83.44
317.148	89.44
317.377	96.44
317.607	92.44
317.836	104.44
318.065	92.44
318.295	96.44
318.524	96.44
318.753	88.44
318.983	97.44
319.212	98.44
319.441	111.44
319.67	99.44
319.9	86.44
320.129	91.44
320.358	106.44
320.587	100.44
320.816	107.44
321.046	104.44
321.275	97.44
321.504	84.44
321.733	90.44
321.962	97.44
322.191	111.44
322.42	104.44
322.649	119.44
322.878	117.44
323.108	121.44
323.337	118.44
323.566	134.44
323.795	142.44
324.024	186.44
324.253	369.44
324.482	723.44
324.71	1482.44
324.939	1918.44
325.168	715.44
325.397	221.44
325.626	142.44
325.855	117.44
326.084	125.44
326.313	121.44
326.542	153.44
326.77	210.44
326.999	405.44
327.228	847.44
327.457	1526.44
327.686	1174.44
327.914	326.44
328.143	177.44
328.372	127.44
328.6	113.44
328.829	110.44
329.058	114.44
329.287	116.44
329.515	108.44
329.744	95.44
329.972	91.44
330.201	101.44
330.43	109.44
330.658	118.44
330.887	134.44
331.115	115.44
331.344	100.44
331.572	113.44
331.801	106.44
332.03	104.44
332.258	106.44
332.486	101.44
332.715	100.44
332.943	104.44
333.172	99.44
333.4	103.44
333.629	105.44
333.857	104.44
334.085	98.44
334.314	100.44
334.542	92.44
334.771	94.44
334.999	95.44
335.227	97.44
335.455	103.44
335.684	90.44
335.912	91.44
336.14	106.44
336.369	105.44
336.597	109.44
336.825	95.44
337.053	87.44
337.281	108.44
337.51	97.44
337.738	90.44
337.966	99.44
338.194	82.44
338.422	87.44
338.65	98.44
338.878	92.44
339.106	94.44
339.334	92.44
339.562	87.44
339.79	116.44
340.018	82.44
340.246	88.44
340.474	99.44
340.702	106.44
340.93	97.44
341.158	88.44
341.386	104.44
341.614	104.44
341.842	87.44
342.07	110.44
342.298	84.44
342.526	82.44
342.754	87.44
342.981	82.44
343.209	79.44
343.437	103.44
343.665	95.44
343.893	92.44
344.12	108.44
344.348	88.44
344.576	83.44
344.804	89.44
345.031	95.44
345.259	103.44
345.487	97.44
345.714	89.44
345.942	89.44
346.17	100.44
346.397	92.44
346.625	87.44
346.853	112.44
347.08	85.44
347.308	92.44
347.535	96.44
347.763	119.44
347.99	75.44
348.218	100.44
348.445	94.44
348.673	95.44
348.9	99.44
349.128	85.44
349.355	95.44
349.583	87.44
349.81	98.44
350.037	84.44
350.265	94.44
350.492	103.44
350.72	87.44
350.947	104.44
351.174	116.44
351.402	101.44
351.629	108.44
351.856	96.44
352.083	86.44
352.311	89.44
352.538	108.44
352.765	105.44
352.992	105.44
353.22	107.44
353.447	97.44
353.674	99.44
353.901	103.44
354.128	88.44
354.355	93.44
354.583	97.44
354.81	93.44
355.037	98.44
355.264	94.44
355.491	103.44
355.718	96.44
355.945	83.44
356.172	94.44
356.399	108.44
356.626	80.44
356.853	98.44
357.08	91.44
357.307	79.44
357.534	89.44
357.761	99.44
357.988	87.44
358.215	106.44
358.441	92.44
358.668	86.44
358.895	83.44
359.122	82.44
359.349	87.44
359.576	83.44
359.802	99.44
360.029	103.44
360.256	99.44
360.483	105.44
360.709	97.44
360.936	92.44
361.163	92.44
361.39	89.44
361.616	94.44
361.843	89.44
362.07	101.44
362.296	87.44
362.523	87.44
362.749	90.44
362.976	83.44
363.203	85.44
363.429	80.44
363.656	92.44
363.882	91.44
364.109	93.44
364.335	86.44
364.562	76.44
364.788	93.44
365.015	94.44
365.241	83.44
365.468	105.44
365.694	105.44
365.92	86.44
366.147	98.44
366.373	97.44
366.599	81.44
366.826	107.44
367.052	86.44
367.278	84.44
367.505	91.44
367.731	89.44
367.957	88.44
368.184	94.44
368.41	95.44
368.636	108.44
368.862	118.44
369.089	114.44
369.315	99.44
369.541	93.44
369.767	86.44
369.993	77.44
370.219	90.44
370.445	94.44
370.672	80.44
370.898	84.44
371.124	76.44
371.35	81.44
371.576	92.44
371.802	87.44
372.028	74.44
372.254	96.44
372.48	82.44
372.706	81.44
372.932	83.44
373.158	87.44
373.384	82.44
373.61	86.44
373.835	73.44
374.061	93.44
374.287	100.44
374.513	85.44
374.739	79.44
374.965	97.44
375.191	97.44
375.416	71.44
375.642	83.44
375.868	80.44
376.094	90.44
376.319	93.44
376.545	94.44
376.771	93.44
376.997	98.44
377.222	69.44
377.448	97.44
377.674	93.44
377.899	92.44
378.125	91.44
378.35	94.44
378.576	75.44
378.802	89.44
379.027	103.44
379.253	115.44
379.478	86.44
379.704	91.44
379.929	88.44
380.155	83.44
380.38	90.44
380.606	94.44
380.831	92.44
381.057	95.44
381.282	92.44
381.507	88.44
381.733	92.44
381.958	97.44
382.184	90.44
382.409	82.44
382.634	97.44
382.86	94.44
383.085	104.44
383.31	100.44
383.535	106.44
383.761	86.44
383.986	96.44
384.211	89.44
384.436	88.44
384.662	104.44
384.887	106.44
385.112	84.44
385.337	102.44
385.562	104.44
385.787	95.44
386.013	96.44
386.238	109.44
386.463	100.44
386.688	105.44
386.913	115.44
387.138	116.44
387.363	96.44
387.588	98.44
387.813	95.44
388.038	97.44
388.263	107.44
388.488	105.44
388.713	98.44
388.938	101.44
389.163	99.44
389.387	89.44
389.612	106.44
389.837	106.44
390.062	91.44
390.287	84.44
390.512	98.44
390.736	89.44
390.961	99.44
391.186	93.44
391.411	91.44
391.636	77.44
391.86	85.44
392.085	86.44
392.31	84.44
392.534	83.44
392.759	100.44
392.984	92.44
393.208	79.44
393.433	95.44
393.658	86.44
393.882	107.44
394.107	86.44
394.331	95.44
394.556	89.44
394.78	100.44
395.005	84.44
395.229	72.44
395.454	90.44
395.678	98.44
395.903	87.44
396.127	76.44
396.352	94.44
396.576	81.44
396.801	90.44
397.025	95.44
397.249	92.44
397.474	76.44
397.698	89.44
397.922	79.44
398.147	89.44
398.371	97.44
398.595	91.44
398.82	88.44
399.044	82.44
399.268	83.44
399.492	66.44
399.717	79.44
399.941	94.44
400.165	89.44
400.389	74.44
400.613	102.44
400.837	107.44
401.062	69.44
401.286	90.44
401.51	81.44
401.734	95.44
401.958	107.44
402.182	135.44
402.406	155.44
402.63	120.44
402.854	104.44
403.078	94.44
403.302	111.44
403.526	93.44
403.75	103.44
403.974	86.44
404.198	84.44
404.422	95.44
404.645	110.44
404.869	86.44
405.093	97.44
405.317	101.44
405.541	101.44
405.765	107.44
405.988	116.44
406.212	162.44
406.436	210.44
406.66	143.44
406.883	106.44
407.107	104.44
407.331	105.44
407.555	95.44
407.778	97.44
408.002	84.44
408.226	82.44
408.449	67.44
408.673	95.44
408.896	81.44
409.12	81.44
409.344	95.44
409.567	71.44
409.791	97.44
410.014	79.44
410.238	84.44
410.461	99.44
410.685	90.44
410.908	90.44
411.132	93.44
411.355	93.44
411.578	84.44
411.802	93.44
412.025	85.44
412.249	82.44
412.472	76.44
412.695	97.44
412.919	91.44
413.142	70.44
413.365	90.44
413.589	92.44
413.812	89.44
414.035	95.44
414.258	92.44
414.482	90.44
414.705	93.44
414.928	91.44
415.151	96.44
415.374	108.44
415.597	74.44
415.821	98.44
416.044	88.44
416.267	95.44
416.49	78.44
416.713	85.44
416.936	88.44
417.159	95.44
417.382	94.44
417.605	89.44
417.828	99.44
418.051	91.44
418.274	103.44
418.497	88.44
418.72	79.44
418.943	96.44
419.166	91.44
419.389	90.44
419.611	87.44
419.834	87.44
420.057	83.44
420.28	105.44
420.503	87.44
420.726	92.44
420.948	92.44
421.171	87.44
421.394	90.44
421.617	79.44
421.839	74.44
422.062	86.44
422.285	91.44
422.507	97.44
422.73	106.44
422.953	90.44
423.175	81.44
423.398	91.44
423.621	76.44
423.843	90.44
424.066	98.44
424.288	87.44
424.511	83.44
424.733	90.44
424.956	98.44
425.178	91.44
425.401	105.44
425.623	92.44
425.846	86.44
426.068	102.44
426.291	107.44
426.513	86.44
426.735	94.44
426.958	92.44
427.18	97.44
427.402	134.44
427.625	152.44
427.847	108.44
428.069	94.44
428.292	78.44
428.514	91.44
428.736	85.44
428.958	80.44
429.181	93.44
429.403	76.44
429.625	110.44
429.847	100.44
430.069	99.44
430.292	102.44
430.514	87.44
430.736	93.44
430.958	85.44
431.18	90.44
431.402	77.44
431.624	91.44
431.846	80.44
432.068	98.44
432.29	91.44
432.512	95.44
432.734	75.44
432.956	98.44
433.178	88.44
433.4	94.44
433.622	94.44
433.844	88.44
434.066	84.44
434.287	88.44
434.509	86.44
434.731	84.44
434.953	95.44
435.175	81.44
435.397	84.44
435.618	76.44
435.84	95.44
436.062	111.44
436.284	106.44
436.505	102.44
436.727	96.44
436.949	84.44
437.17	83.44
437.392	87.44
437.614	104.44
437.835	103.44
438.057	103.44
438.278	116.44
438.5	105.44
438.721	119.44
438.943	102.44
439.165	95.44
439.386	98.44
439.608	98.44
439.829	99.44
440.05	120.44
440.272	145.44
440.493	98.44
440.715	70.44
440.936	76.44
441.158	103.44
441.379	88.44
441.6	90.44
441.822	97.44
442.043	95.44
442.264	100.44
442.486	94.44
442.707	97.44
442.928	94.44
443.149	132.44
443.371	126.44
443.592	105.44
443.813	108.44
444.034	99.44
444.255	109.44
444.476	91.44
444.698	101.44
444.919	92.44
445.14	125.44
445.361	120.44
445.582	106.44
445.803	119.44
446.024	115.44
446.245	118.44
446.466	109.44
446.687	87.44
446.908	93.44
447.129	98.44
447.35	94.44
447.571	86.44
447.792	85.44
448.013	103.44
448.234	98.44
448.455	90.44
448.675	121.44
448.896	114.44
449.117	96.44
449.338	113.44
449.559	117.44
449.779	107.44
450	90.44
450.221	73.44
450.442	82.44
450.662	94.44
450.883	93.44
451.104	116.44
451.324	102.44
451.545	78.44
451.766	82.44
451.986	99.44
452.207	87.44
452.428	91.44
452.648	99.44
452.869	100.44
453.089	116.44
453.31	120.44
453.53	94.44
453.751	97.44
453.971	104.44
454.192	110.44
454.412	88.44
454.633	98.44
454.853	77.44
455.073	96.44
455.294	87.44
455.514	99.44
455.734	84.44
455.955	90.44
456.175	81.44
456.395	97.44
456.616	92.44
456.836	89.44
457.056	93.44
457.276	88.44
457.497	86.44
457.717	80.44
457.937	83.44
458.157	78.44
458.377	86.44
458.598	101.44
458.818	134.44
459.038	147.44
459.258	117.44
459.478	90.44
459.698	88.44
459.918	98.44
460.138	89.44
460.358	90.44
460.578	87.44
460.798	95.44
461.018	92.44
461.238	77.44
461.458	100.44
461.678	84.44
461.898	87.44
462.118	88.44
462.338	93.44
462.558	90.44
462.777	82.44
462.997	98.44
463.217	97.44
463.437	78.44
463.657	85.44
463.876	94.44
464.096	77.44
464.316	89.44
464.536	92.44
464.755	106.44
464.975	97.44
465.195	151.44
465.414	138.44
465.634	94.44
465.854	84.44
466.073	83.44
466.293	94.44
466.512	85.44
466.732	106.44
466.951	81.44
467.171	88.44
467.391	87.44
467.61	109.44
467.829	96.44
468.049	100.44
468.268	91.44
468.488	86.44
468.707	87.44
468.927	91.44
469.146	90.44
469.365	97.44
469.585	79.44
469.804	101.44
470.023	107.44
470.243	89.44
470.462	94.44
470.681	98.44
470.901	86.44
471.12	86.44
471.339	94.44
471.558	79.44
471.777	85.44
471.997	94.44
472.216	91.44
472.435	100.44
472.654	88.44
472.873	80.44
473.092	90.44
473.311	77.44
473.53	96.44
473.749	102.44
473.968	96.44
474.187	110.44
474.406	93.44
474.625	94.44
474.844	92.44
475.063	88.44
475.282	95.44
475.501	89.44
475.72	89.44
475.939	87.44
476.158	80.44
476.377	90.44
476.596	91.44
476.814	74.44
477.033	78.44
477.252	95.44
477.471	92.44
477.69	87.44
477.908	92.44
478.127	98.44
478.346	96.44
478.564	88.44
478.783	94.44
479.002	86.44
479.22	83.44
479.439	104.44
479.658	108.44
479.876	99.44
480.095	93.44
480.313	100.44
480.532	90.44
480.751	87.44
480.969	91.44
481.188	110.44
481.406	101.44
481.624	100.44
481.843	91.44
482.061	95.44
482.28	105.44
482.498	94.44
482.717	95.44
482.935	95.44
483.153	94.44
483.372	95.44
483.59	94.44
483.808	82.44
484.027	92.44
484.245	104.44
484.463	87.44
484.681	99.44
484.9	89.44
485.118	86.44
485.336	82.44
485.554	102.44
485.772	99.44
485.99	109.44
486.209	100.44
486.427	90.44
486.645	117.44
486.863	92.44
487.081	91.44
487.299	95.44
487.517	93.44
487.735	92.44
487.953	91.44
488.171	91.44
488.389	92.44
488.607	87.44
488.825	101.44
489.043	91.44
489.261	110.44
489.479	90.44
489.696	95.44
489.914	89.44
490.132	102.44
490.35	69.44
490.568	78.44
490.786	84.44
491.003	90.44
491.221	93.44
491.439	86.44
491.657	98.44
491.874	84.44
492.092	93.44
492.31	88.44
492.527	92.44
492.745	77.44
492.963	100.44
493.18	95.44
493.398	94.44
493.615	89.44
493.833	114.44
494.05	88.44
494.268	86.44
494.485	74.44
494.703	95.44
494.92	93.44
495.138	74.44
495.355	89.44
495.573	91.44
495.79	98.44
496.008	88.44
496.225	94.44
496.442	105.44
496.66	87.44
496.877	82.44
497.094	96.44
497.312	91.44
497.529	88.44
497.746	98.44
497.963	96.44
498.181	97.44
498.398	89.44
498.615	93.44
498.832	83.44
499.049	92.44
499.267	111.44
499.484	91.44
499.701	80.44
499.918	99.44
500.135	91.44
500.352	87.44
500.569	84.44
500.786	98.44
501.003	89.44
501.22	83.44
501.437	92.44
501.654	81.44
501.871	106.44
502.088	86.44
502.305	80.44
502.522	114.44
502.739	93.44
502.956	83.44
503.172	83.44
503.389	100.44
503.606	107.44
503.823	107.44
504.04	102.44
504.256	93.44
504.473	95.44
504.69	88.44
504.907	92.44
505.123	89.44
505.34	100.44
505.557	88.44
505.773	87.44
505.99	88.44
506.207	97.44
506.423	90.44
506.64	89.44
506.856	81.44
507.073	84.44
507.289	94.44
507.506	82.44
507.722	103.44
507.939	112.44
508.155	88.44
508.372	98.44
508.588	90.44
508.805	89.44
509.021	90.44
509.238	97.44
509.454	89.44
509.67	94.44
509.887	115.44
510.103	117.44
510.319	201.44
510.536	706.44
510.752	2250.44
510.968	659.44
511.184	159.44
511.401	108.44
511.617	100.44
511.833	95.44
512.049	83.44
512.265	98.44
512.481	90.44
512.698	94.44
512.914	91.44
513.13	104.44
513.346	88.44
513.562	88.44
513.778	107.44
513.994	101.44
514.21	97.44
514.426	97.44
514.642	136.44
514.858	118.44
515.074	153.44
515.29	446.44
515.506	1386.44
515.721	542.44
515.937	158.44
