Data from Uncirc_1997_H10_HRD10591_00099.txt Node
Date: Wed Jan 03 11:28:50 EST 2024
User: Yrep
Spectrometer: HR+D1059
Trigger mode: 1
Integration Time (sec): 1.000000E-1
Scans to average: 1
Electric dark correction enabled: true
Nonlinearity correction enabled: false
Boxcar width: 0
XAxis mode: Wavelengths
Number of Pixels in Spectrum: 2048
>>>>>Begin Spectral Data<<<<<
223.165	-10.5
223.4	-10.5
223.635	-10.5
223.869	-17.5
224.104	-6.5
224.338	-8.5
224.573	-18.5
224.808	-11.5
225.042	-6.5
225.277	-13.5
225.511	-1.5
225.746	-2.5
225.98	3.5
226.215	13.5
226.449	9.5
226.683	10.5
226.918	27.5
227.152	32.5
227.387	24.5
227.621	30.5
227.856	38.5
228.09	40.5
228.324	49.5
228.559	56.5
228.793	56.5
229.027	72.5
229.262	68.5
229.496	65.5
229.73	83.5
229.964	88.5
230.199	62.5
230.433	70.5
230.667	69.5
230.901	65.5
231.136	81.5
231.37	74.5
231.604	77.5
231.838	86.5
232.072	70.5
232.306	77.5
232.541	79.5
232.775	80.5
233.009	70.5
233.243	85.5
233.477	94.5
233.711	75.5
233.945	70.5
234.179	70.5
234.413	77.5
234.647	71.5
234.881	88.5
235.115	77.5
235.349	86.5
235.583	68.5
235.817	77.5
236.051	83.5
236.285	64.5
236.519	76.5
236.753	81.5
236.987	69.5
237.221	70.5
237.455	89.5
237.689	74.5
237.922	73.5
238.156	72.5
238.39	60.5
238.624	47.5
238.858	61.5
239.091	74.5
239.325	77.5
239.559	63.5
239.793	80.5
240.027	71.5
240.26	89.5
240.494	74.5
240.728	73.5
240.961	73.5
241.195	72.5
241.429	74.5
241.662	72.5
241.896	75.5
242.13	68.5
242.363	76.5
242.597	68.5
242.83	72.5
243.064	88.5
243.298	71.5
243.531	63.5
243.765	56.5
243.998	71.5
244.232	73.5
244.465	79.5
244.699	80.5
244.932	84.5
245.166	68.5
245.399	79.5
245.633	86.5
245.866	75.5
246.099	76.5
246.333	82.5
246.566	73.5
246.8	73.5
247.033	73.5
247.266	61.5
247.5	88.5
247.733	76.5
247.966	68.5
248.2	70.5
248.433	76.5
248.666	89.5
248.899	76.5
249.133	80.5
249.366	93.5
249.599	88.5
249.832	74.5
250.066	76.5
250.299	82.5
250.532	83.5
250.765	65.5
250.998	66.5
251.231	87.5
251.465	77.5
251.698	82.5
251.931	67.5
252.164	72.5
252.397	70.5
252.63	73.5
252.863	81.5
253.096	73.5
253.329	85.5
253.562	79.5
253.795	77.5
254.028	74.5
254.261	77.5
254.494	81.5
254.727	74.5
254.96	88.5
255.193	80.5
255.426	78.5
255.659	81.5
255.892	78.5
256.124	72.5
256.357	84.5
256.59	89.5
256.823	95.5
257.056	82.5
257.289	72.5
257.521	73.5
257.754	71.5
257.987	85.5
258.22	72.5
258.452	72.5
258.685	80.5
258.918	79.5
259.151	82.5
259.383	80.5
259.616	77.5
259.849	73.5
260.081	81.5
260.314	93.5
260.547	78.5
260.779	86.5
261.012	96.5
261.244	82.5
261.477	89.5
261.71	84.5
261.942	101.5
262.175	105.5
262.407	89.5
262.64	87.5
262.872	90.5
263.105	79.5
263.337	64.5
263.57	73.5
263.802	68.5
264.035	78.5
264.267	73.5
264.499	73.5
264.732	83.5
264.964	77.5
265.197	91.5
265.429	88.5
265.661	86.5
265.894	76.5
266.126	83.5
266.358	74.5
266.591	74.5
266.823	73.5
267.055	92.5
267.287	89.5
267.52	94.5
267.752	79.5
267.984	81.5
268.216	97.5
268.448	74.5
268.681	90.5
268.913	72.5
269.145	82.5
269.377	61.5
269.609	78.5
269.841	101.5
270.073	69.5
270.306	90.5
270.538	87.5
270.77	92.5
271.002	81.5
271.234	76.5
271.466	84.5
271.698	79.5
271.93	81.5
272.162	79.5
272.394	69.5
272.626	68.5
272.858	79.5
273.09	78.5
273.322	75.5
273.553	82.5
273.785	89.5
274.017	78.5
274.249	66.5
274.481	87.5
274.713	79.5
274.945	85.5
275.176	94.5
275.408	89.5
275.64	92.5
275.872	77.5
276.104	72.5
276.335	77.5
276.567	85.5
276.799	105.5
277.031	91.5
277.262	89.5
277.494	101.5
277.726	78.5
277.957	84.5
278.189	86.5
278.421	84.5
278.652	89.5
278.884	88.5
279.115	72.5
279.347	70.5
279.579	80.5
279.81	76.5
280.042	82.5
280.273	84.5
280.505	78.5
280.736	74.5
280.968	81.5
281.199	94.5
281.431	91.5
281.662	68.5
281.894	93.5
282.125	97.5
282.356	104.5
282.588	116.5
282.819	108.5
283.051	80.5
283.282	69.5
283.513	98.5
283.745	75.5
283.976	88.5
284.207	87.5
284.439	70.5
284.67	79.5
284.901	76.5
285.132	85.5
285.364	84.5
285.595	86.5
285.826	83.5
286.057	87.5
286.288	78.5
286.52	101.5
286.751	84.5
286.982	81.5
287.213	73.5
287.444	105.5
287.675	85.5
287.906	95.5
288.138	71.5
288.369	91.5
288.6	100.5
288.831	100.5
289.062	93.5
289.293	79.5
289.524	81.5
289.755	85.5
289.986	68.5
290.217	90.5
290.448	81.5
290.679	73.5
290.91	88.5
291.141	90.5
291.371	83.5
291.602	86.5
291.833	86.5
292.064	79.5
292.295	93.5
292.526	94.5
292.757	89.5
292.987	79.5
293.218	82.5
293.449	87.5
293.68	88.5
293.91	89.5
294.141	86.5
294.372	81.5
294.603	89.5
294.833	79.5
295.064	86.5
295.295	83.5
295.525	96.5
295.756	97.5
295.987	122.5
296.217	141.5
296.448	124.5
296.679	94.5
296.909	92.5
297.14	77.5
297.37	86.5
297.601	66.5
297.831	95.5
298.062	86.5
298.292	97.5
298.523	97.5
298.753	82.5
298.984	73.5
299.214	84.5
299.445	82.5
299.675	99.5
299.905	88.5
300.136	91.5
300.366	81.5
300.597	77.5
300.827	76.5
301.057	99.5
301.288	87.5
301.518	93.5
301.748	88.5
301.979	108.5
302.209	93.5
302.439	93.5
302.669	93.5
302.9	80.5
303.13	75.5
303.36	85.5
303.59	109.5
303.82	111.5
304.051	96.5
304.281	94.5
304.511	90.5
304.741	74.5
304.971	76.5
305.201	93.5
305.431	98.5
305.661	96.5
305.891	76.5
306.121	88.5
306.352	107.5
306.582	92.5
306.812	95.5
307.042	78.5
307.272	92.5
307.502	90.5
307.731	97.5
307.961	94.5
308.191	72.5
308.421	87.5
308.651	97.5
308.881	101.5
309.111	79.5
309.341	95.5
309.571	93.5
309.8	94.5
310.03	93.5
310.26	95.5
310.49	92.5
310.72	93.5
310.949	94.5
311.179	102.5
311.409	100.5
311.639	79.5
311.868	90.5
312.098	96.5
312.328	90.5
312.557	98.5
312.787	104.5
313.017	89.5
313.246	96.5
313.476	93.5
313.706	89.5
313.935	98.5
314.165	93.5
314.394	98.5
314.624	87.5
314.853	98.5
315.083	102.5
315.312	80.5
315.542	96.5
315.771	90.5
316.001	84.5
316.23	81.5
316.46	89.5
316.689	92.5
316.919	98.5
317.148	94.5
317.377	91.5
317.607	93.5
317.836	101.5
318.065	98.5
318.295	86.5
318.524	97.5
318.753	89.5
318.983	93.5
319.212	100.5
319.441	104.5
319.67	99.5
319.9	96.5
320.129	103.5
320.358	92.5
320.587	88.5
320.816	96.5
321.046	94.5
321.275	94.5
321.504	87.5
321.733	107.5
321.962	93.5
322.191	111.5
322.42	98.5
322.649	92.5
322.878	102.5
323.108	109.5
323.337	117.5
323.566	130.5
323.795	148.5
324.024	189.5
324.253	376.5
324.482	759.5
324.71	1573.5
324.939	2074.5
325.168	749.5
325.397	226.5
325.626	135.5
325.855	113.5
326.084	126.5
326.313	148.5
326.542	132.5
326.77	224.5
326.999	436.5
327.228	934.5
327.457	1655.5
327.686	1282.5
327.914	345.5
328.143	184.5
328.372	134.5
328.6	119.5
328.829	102.5
329.058	122.5
329.287	119.5
329.515	99.5
329.744	100.5
329.972	95.5
330.201	87.5
330.43	113.5
330.658	115.5
330.887	121.5
331.115	110.5
331.344	96.5
331.572	96.5
331.801	97.5
332.03	101.5
332.258	93.5
332.486	88.5
332.715	95.5
332.943	99.5
333.172	97.5
333.4	105.5
333.629	93.5
333.857	105.5
334.085	86.5
334.314	85.5
334.542	93.5
334.771	89.5
334.999	103.5
335.227	88.5
335.455	78.5
335.684	95.5
335.912	90.5
336.14	95.5
336.369	92.5
336.597	90.5
336.825	89.5
337.053	80.5
337.281	95.5
337.51	89.5
337.738	95.5
337.966	89.5
338.194	103.5
338.422	98.5
338.65	99.5
338.878	86.5
339.106	78.5
339.334	96.5
339.562	74.5
339.79	79.5
340.018	88.5
340.246	98.5
340.474	97.5
340.702	87.5
340.93	78.5
341.158	92.5
341.386	88.5
341.614	81.5
341.842	91.5
342.07	94.5
342.298	93.5
342.526	86.5
342.754	102.5
342.981	82.5
343.209	96.5
343.437	107.5
343.665	99.5
343.893	96.5
344.12	101.5
344.348	86.5
344.576	86.5
344.804	89.5
345.031	93.5
345.259	96.5
345.487	100.5
345.714	95.5
345.942	93.5
346.17	95.5
346.397	95.5
346.625	86.5
346.853	93.5
347.08	91.5
347.308	103.5
347.535	103.5
347.763	96.5
347.99	105.5
348.218	104.5
348.445	97.5
348.673	98.5
348.9	103.5
349.128	96.5
349.355	91.5
349.583	95.5
349.81	92.5
350.037	98.5
350.265	84.5
350.492	93.5
350.72	102.5
350.947	90.5
351.174	96.5
351.402	111.5
351.629	91.5
351.856	102.5
352.083	118.5
352.311	99.5
352.538	94.5
352.765	108.5
352.992	106.5
353.22	100.5
353.447	108.5
353.674	93.5
353.901	109.5
354.128	95.5
354.355	91.5
354.583	97.5
354.81	96.5
355.037	97.5
355.264	89.5
355.491	88.5
355.718	94.5
355.945	84.5
356.172	89.5
356.399	102.5
356.626	82.5
356.853	93.5
357.08	95.5
357.307	82.5
357.534	92.5
357.761	101.5
357.988	113.5
358.215	83.5
358.441	94.5
358.668	78.5
358.895	82.5
359.122	80.5
359.349	78.5
359.576	106.5
359.802	104.5
360.029	107.5
360.256	107.5
360.483	89.5
360.709	81.5
360.936	84.5
361.163	96.5
361.39	97.5
361.616	96.5
361.843	78.5
362.07	81.5
362.296	82.5
362.523	93.5
362.749	94.5
362.976	98.5
363.203	91.5
363.429	82.5
363.656	92.5
363.882	76.5
364.109	94.5
364.335	98.5
364.562	88.5
364.788	91.5
365.015	90.5
365.241	97.5
365.468	109.5
365.694	105.5
365.92	88.5
366.147	97.5
366.373	95.5
366.599	85.5
366.826	81.5
367.052	84.5
367.278	93.5
367.505	97.5
367.731	89.5
367.957	98.5
368.184	82.5
368.41	118.5
368.636	110.5
368.862	133.5
369.089	105.5
369.315	76.5
369.541	86.5
369.767	88.5
369.993	88.5
370.219	91.5
370.445	92.5
370.672	93.5
370.898	92.5
371.124	86.5
371.35	79.5
371.576	98.5
371.802	97.5
372.028	77.5
372.254	81.5
372.48	73.5
372.706	85.5
372.932	90.5
373.158	90.5
373.384	82.5
373.61	89.5
373.835	85.5
374.061	99.5
374.287	87.5
374.513	75.5
374.739	89.5
374.965	95.5
375.191	99.5
375.416	85.5
375.642	102.5
375.868	85.5
376.094	81.5
376.319	74.5
376.545	84.5
376.771	93.5
376.997	89.5
377.222	83.5
377.448	104.5
377.674	86.5
377.899	83.5
378.125	95.5
378.35	97.5
378.576	90.5
378.802	91.5
379.027	74.5
379.253	89.5
379.478	94.5
379.704	80.5
379.929	95.5
380.155	90.5
380.38	86.5
380.606	90.5
380.831	89.5
381.057	112.5
381.282	102.5
381.507	94.5
381.733	95.5
381.958	96.5
382.184	83.5
382.409	87.5
382.634	94.5
382.86	97.5
383.085	99.5
383.31	115.5
383.535	96.5
383.761	98.5
383.986	116.5
384.211	81.5
384.436	87.5
384.662	94.5
384.887	94.5
385.112	104.5
385.337	100.5
385.562	88.5
385.787	109.5
386.013	98.5
386.238	88.5
386.463	94.5
386.688	92.5
386.913	95.5
387.138	97.5
387.363	111.5
387.588	92.5
387.813	86.5
388.038	111.5
388.263	114.5
388.488	112.5
388.713	99.5
388.938	90.5
389.163	88.5
389.387	98.5
389.612	97.5
389.837	92.5
390.062	88.5
390.287	93.5
390.512	89.5
390.736	82.5
390.961	90.5
391.186	85.5
391.411	94.5
391.636	105.5
391.86	87.5
392.085	84.5
392.31	76.5
392.534	85.5
392.759	94.5
392.984	103.5
393.208	101.5
393.433	96.5
393.658	97.5
393.882	97.5
394.107	90.5
394.331	90.5
394.556	90.5
394.78	105.5
395.005	91.5
395.229	92.5
395.454	88.5
395.678	92.5
395.903	88.5
396.127	98.5
396.352	91.5
396.576	95.5
396.801	75.5
397.025	80.5
397.249	84.5
397.474	97.5
397.698	89.5
397.922	89.5
398.147	82.5
398.371	86.5
398.595	101.5
398.82	91.5
399.044	79.5
399.268	87.5
399.492	85.5
399.717	83.5
399.941	79.5
400.165	84.5
400.389	87.5
400.613	85.5
400.837	84.5
401.062	75.5
401.286	87.5
401.51	101.5
401.734	99.5
401.958	98.5
402.182	118.5
402.406	140.5
402.63	115.5
402.854	94.5
403.078	79.5
403.302	80.5
403.526	91.5
403.75	86.5
403.974	66.5
404.198	82.5
404.422	93.5
404.645	84.5
404.869	90.5
405.093	94.5
405.317	93.5
405.541	111.5
405.765	107.5
405.988	117.5
406.212	162.5
406.436	208.5
406.66	143.5
406.883	94.5
407.107	88.5
407.331	88.5
407.555	101.5
407.778	93.5
408.002	87.5
408.226	81.5
408.449	72.5
408.673	97.5
408.896	86.5
409.12	101.5
409.344	75.5
409.567	92.5
409.791	95.5
410.014	72.5
410.238	93.5
410.461	119.5
410.685	89.5
410.908	85.5
411.132	95.5
411.355	79.5
411.578	93.5
411.802	89.5
412.025	100.5
412.249	74.5
412.472	84.5
412.695	79.5
412.919	91.5
413.142	84.5
413.365	87.5
413.589	88.5
413.812	89.5
414.035	98.5
414.258	97.5
414.482	92.5
414.705	86.5
414.928	88.5
415.151	85.5
415.374	91.5
415.597	92.5
415.821	89.5
416.044	91.5
416.267	86.5
416.49	89.5
416.713	81.5
416.936	91.5
417.159	91.5
417.382	87.5
417.605	85.5
417.828	96.5
418.051	83.5
418.274	86.5
418.497	93.5
418.72	80.5
418.943	94.5
419.166	85.5
419.389	97.5
419.611	93.5
419.834	93.5
420.057	89.5
420.28	89.5
420.503	92.5
420.726	84.5
420.948	81.5
421.171	104.5
421.394	96.5
421.617	97.5
421.839	85.5
422.062	94.5
422.285	86.5
422.507	95.5
422.73	97.5
422.953	93.5
423.175	97.5
423.398	90.5
423.621	82.5
423.843	83.5
424.066	95.5
424.288	85.5
424.511	89.5
424.733	86.5
424.956	112.5
425.178	106.5
425.401	96.5
425.623	91.5
425.846	88.5
426.068	85.5
426.291	88.5
426.513	102.5
426.735	84.5
426.958	111.5
427.18	95.5
427.402	135.5
427.625	148.5
427.847	113.5
428.069	100.5
428.292	80.5
428.514	70.5
428.736	80.5
428.958	89.5
429.181	85.5
429.403	81.5
429.625	95.5
429.847	94.5
430.069	97.5
430.292	102.5
430.514	73.5
430.736	83.5
430.958	76.5
431.18	68.5
431.402	83.5
431.624	84.5
431.846	91.5
432.068	87.5
432.29	87.5
432.512	79.5
432.734	88.5
432.956	76.5
433.178	112.5
433.4	91.5
433.622	89.5
433.844	96.5
434.066	99.5
434.287	94.5
434.509	97.5
434.731	80.5
434.953	82.5
435.175	91.5
435.397	84.5
435.618	78.5
435.84	105.5
436.062	109.5
436.284	129.5
436.505	104.5
436.727	91.5
436.949	80.5
437.17	88.5
437.392	96.5
437.614	94.5
437.835	110.5
438.057	117.5
438.278	113.5
438.5	113.5
438.721	123.5
438.943	96.5
439.165	94.5
439.386	101.5
439.608	110.5
439.829	98.5
440.05	128.5
440.272	130.5
440.493	107.5
440.715	86.5
440.936	88.5
441.158	97.5
441.379	96.5
441.6	87.5
441.822	91.5
442.043	88.5
442.264	118.5
442.486	95.5
442.707	94.5
442.928	104.5
443.149	119.5
443.371	105.5
443.592	107.5
443.813	104.5
444.034	107.5
444.255	94.5
444.476	84.5
444.698	84.5
444.919	85.5
445.14	117.5
445.361	120.5
445.582	105.5
445.803	146.5
446.024	133.5
446.245	131.5
446.466	109.5
446.687	88.5
446.908	93.5
447.129	91.5
447.35	78.5
447.571	94.5
447.792	101.5
448.013	80.5
448.234	112.5
448.455	103.5
448.675	125.5
448.896	114.5
449.117	84.5
449.338	90.5
449.559	134.5
449.779	137.5
450	104.5
450.221	91.5
450.442	86.5
450.662	91.5
450.883	93.5
451.104	110.5
451.324	97.5
451.545	91.5
451.766	83.5
451.986	84.5
452.207	84.5
452.428	102.5
452.648	88.5
452.869	97.5
453.089	96.5
453.31	112.5
453.53	99.5
453.751	87.5
453.971	86.5
454.192	119.5
454.412	91.5
454.633	84.5
454.853	89.5
455.073	83.5
455.294	80.5
455.514	94.5
455.734	82.5
455.955	83.5
456.175	88.5
456.395	88.5
456.616	71.5
456.836	95.5
457.056	89.5
457.276	93.5
457.497	79.5
457.717	101.5
457.937	79.5
458.157	76.5
458.377	93.5
458.598	98.5
458.818	133.5
459.038	141.5
459.258	110.5
459.478	81.5
459.698	92.5
459.918	80.5
460.138	74.5
460.358	78.5
460.578	77.5
460.798	94.5
461.018	95.5
461.238	89.5
461.458	90.5
461.678	82.5
461.898	91.5
462.118	83.5
462.338	92.5
462.558	71.5
462.777	85.5
462.997	78.5
463.217	88.5
463.437	88.5
463.657	88.5
463.876	84.5
464.096	79.5
464.316	97.5
464.536	86.5
464.755	84.5
464.975	110.5
465.195	141.5
465.414	134.5
465.634	102.5
465.854	99.5
466.073	92.5
466.293	88.5
466.512	74.5
466.732	92.5
466.951	95.5
467.171	76.5
467.391	92.5
467.61	99.5
467.829	98.5
468.049	82.5
468.268	97.5
468.488	87.5
468.707	79.5
468.927	89.5
469.146	83.5
469.365	91.5
469.585	86.5
469.804	81.5
470.023	90.5
470.243	79.5
470.462	97.5
470.681	104.5
470.901	87.5
471.12	95.5
471.339	65.5
471.558	81.5
471.777	94.5
471.997	95.5
472.216	66.5
472.435	108.5
472.654	80.5
472.873	90.5
473.092	94.5
473.311	88.5
473.53	85.5
473.749	89.5
473.968	93.5
474.187	94.5
474.406	101.5
474.625	78.5
474.844	88.5
475.063	73.5
475.282	72.5
475.501	61.5
475.72	78.5
475.939	93.5
476.158	88.5
476.377	84.5
476.596	91.5
476.814	96.5
477.033	87.5
477.252	96.5
477.471	82.5
477.69	92.5
477.908	95.5
478.127	97.5
478.346	83.5
478.564	85.5
478.783	87.5
479.002	94.5
479.22	82.5
479.439	90.5
479.658	88.5
479.876	101.5
480.095	86.5
480.313	95.5
480.532	95.5
480.751	90.5
480.969	94.5
481.188	105.5
481.406	94.5
481.624	94.5
481.843	87.5
482.061	83.5
482.28	90.5
482.498	96.5
482.717	88.5
482.935	95.5
483.153	86.5
483.372	90.5
483.59	92.5
483.808	97.5
484.027	98.5
484.245	102.5
484.463	90.5
484.681	94.5
484.9	100.5
485.118	95.5
485.336	99.5
485.554	91.5
485.772	99.5
485.99	106.5
486.209	103.5
486.427	110.5
486.645	108.5
486.863	101.5
487.081	100.5
487.299	106.5
487.517	86.5
487.735	91.5
487.953	108.5
488.171	98.5
488.389	101.5
488.607	100.5
488.825	90.5
489.043	81.5
489.261	80.5
489.479	93.5
489.696	81.5
489.914	88.5
490.132	92.5
490.35	76.5
490.568	80.5
490.786	92.5
491.003	81.5
491.221	97.5
491.439	76.5
491.657	93.5
491.874	83.5
492.092	70.5
492.31	93.5
492.527	85.5
492.745	91.5
492.963	77.5
493.18	86.5
493.398	89.5
493.615	89.5
493.833	89.5
494.05	82.5
494.268	89.5
494.485	84.5
494.703	86.5
494.92	82.5
495.138	84.5
495.355	93.5
495.573	92.5
495.79	95.5
496.008	87.5
496.225	93.5
496.442	94.5
496.66	80.5
496.877	87.5
497.094	92.5
497.312	85.5
497.529	90.5
497.746	92.5
497.963	87.5
498.181	63.5
498.398	84.5
498.615	112.5
498.832	106.5
499.049	84.5
499.267	85.5
499.484	90.5
499.701	89.5
499.918	112.5
500.135	84.5
500.352	90.5
500.569	81.5
500.786	101.5
501.003	92.5
501.22	97.5
501.437	101.5
501.654	92.5
501.871	107.5
502.088	80.5
502.305	76.5
502.522	88.5
502.739	76.5
502.956	79.5
503.172	92.5
503.389	97.5
503.606	110.5
503.823	94.5
504.04	90.5
504.256	76.5
504.473	98.5
504.69	88.5
504.907	88.5
505.123	75.5
505.34	80.5
505.557	81.5
505.773	78.5
505.99	73.5
506.207	86.5
506.423	85.5
506.64	82.5
506.856	85.5
507.073	100.5
507.289	85.5
507.506	82.5
507.722	113.5
507.939	108.5
508.155	83.5
508.372	86.5
508.588	83.5
508.805	100.5
509.021	95.5
509.238	93.5
509.454	94.5
509.67	97.5
509.887	102.5
510.103	125.5
510.319	199.5
510.536	689.5
510.752	2022.5
510.968	566.5
511.184	136.5
511.401	105.5
511.617	102.5
511.833	85.5
512.049	91.5
512.265	86.5
512.481	102.5
512.698	95.5
512.914	92.5
513.13	106.5
513.346	88.5
513.562	86.5
513.778	80.5
513.994	88.5
514.21	104.5
514.426	108.5
514.642	124.5
514.858	113.5
515.074	158.5
515.29	406.5
515.506	1255.5
515.721	477.5
515.937	134.5
516.153	113.5
516.369	91.5
516.585	99.5
516.801	106.5
517.016	85.5
517.232	74.5
517.448	103.5
517.664	98.5
517.879	96.5
518.095	101.5
518.311	87.5
518.527	93.5
518.742	104.5
518.958	89.5
519.173	73.5
519.389	93.5
519.605	92.5
519.82	86.5
520.036	98.5
520.251	113.5
520.467	109.5
520.682	98.5
520.898	93.5
521.113	119.5
521.329	135.5
521.544	181.5
521.76	512.5
521.975	2095.5
522.19	1265.5
522.406	276.5
522.621	118.5
522.836	93.5
523.052	90.5
523.267	84.5
523.482	89.5
523.698	88.5
523.913	113.5
524.128	113.5
524.343	88.5
524.559	81.5
524.774	73.5
524.989	98.5
525.204	89.5
525.419	97.5
525.634	81.5
525.849	77.5
526.064	88.5
526.28	96.5
526.495	86.5
526.71	87.5
526.925	76.5
527.14	90.5
527.355	98.5
527.57	89.5
527.785	98.5
527.999	84.5
528.214	93.5
528.429	98.5
528.644	83.5
528.859	77.5
529.074	107.5
529.289	107.5
529.503	151.5
529.718	90.5
529.933	102.5
530.148	76.5
530.363	97.5
530.577	87.5
530.792	85.5
531.007	95.5
531.221	93.5
531.436	86.5
531.651	86.5
531.865	89.5
532.08	84.5
532.295	79.5
532.509	85.5
532.724	85.5
532.938	93.5
533.153	92.5
533.367	92.5
533.582	89.5
533.796	94.5
534.011	92.5
534.225	98.5
534.44	82.5
534.654	101.5
534.868	84.5
535.083	92.5
535.297	93.5
535.511	101.5
535.726	83.5
535.94	99.5
536.154	90.5
536.369	89.5
