Data from Uncirc_1997_H10_HRD10591_00090.txt Node
Date: Wed Jan 03 11:28:48 EST 2024
User: Yrep
Spectrometer: HR+D1059
Trigger mode: 1
Integration Time (sec): 1.000000E-1
Scans to average: 1
Electric dark correction enabled: true
Nonlinearity correction enabled: false
Boxcar width: 0
XAxis mode: Wavelengths
Number of Pixels in Spectrum: 2048
>>>>>Begin Spectral Data<<<<<
223.165	-6.88
223.4	-6.88
223.635	-6.88
223.869	-22.88
224.104	-19.88
224.338	-9.88
224.573	-6.88
224.808	-12.88
225.042	1.12
225.277	-3.88
225.511	-8.88
225.746	1.12
225.98	-6.88
226.215	18.12
226.449	14.12
226.683	24.12
226.918	21.12
227.152	19.12
227.387	19.12
227.621	32.12
227.856	57.12
228.09	44.12
228.324	59.12
228.559	51.12
228.793	65.12
229.027	72.12
229.262	75.12
229.496	61.12
229.73	86.12
229.964	85.12
230.199	83.12
230.433	80.12
230.667	77.12
230.901	75.12
231.136	83.12
231.37	91.12
231.604	79.12
231.838	87.12
232.072	87.12
232.306	94.12
232.541	94.12
232.775	79.12
233.009	89.12
233.243	73.12
233.477	92.12
233.711	87.12
233.945	84.12
234.179	91.12
234.413	100.12
234.647	76.12
234.881	80.12
235.115	89.12
235.349	76.12
235.583	79.12
235.817	73.12
236.051	93.12
236.285	82.12
236.519	80.12
236.753	73.12
236.987	77.12
237.221	87.12
237.455	85.12
237.689	68.12
237.922	81.12
238.156	84.12
238.39	77.12
238.624	77.12
238.858	67.12
239.091	64.12
239.325	67.12
239.559	77.12
239.793	79.12
240.027	72.12
240.26	67.12
240.494	68.12
240.728	81.12
240.961	72.12
241.195	77.12
241.429	79.12
241.662	73.12
241.896	77.12
242.13	83.12
242.363	79.12
242.597	82.12
242.83	71.12
243.064	74.12
243.298	79.12
243.531	87.12
243.765	60.12
243.998	80.12
244.232	86.12
244.465	76.12
244.699	59.12
244.932	71.12
245.166	68.12
245.399	84.12
245.633	83.12
245.866	68.12
246.099	75.12
246.333	67.12
246.566	73.12
246.8	78.12
247.033	87.12
247.266	79.12
247.5	74.12
247.733	74.12
247.966	80.12
248.2	73.12
248.433	89.12
248.666	68.12
248.899	81.12
249.133	87.12
249.366	105.12
249.599	100.12
249.832	94.12
250.066	96.12
250.299	86.12
250.532	93.12
250.765	81.12
250.998	91.12
251.231	78.12
251.465	85.12
251.698	83.12
251.931	87.12
252.164	80.12
252.397	83.12
252.63	76.12
252.863	84.12
253.096	72.12
253.329	80.12
253.562	85.12
253.795	82.12
254.028	89.12
254.261	88.12
254.494	91.12
254.727	84.12
254.96	91.12
255.193	74.12
255.426	90.12
255.659	95.12
255.892	84.12
256.124	81.12
256.357	62.12
256.59	74.12
256.823	83.12
257.056	54.12
257.289	79.12
257.521	91.12
257.754	75.12
257.987	83.12
258.22	87.12
258.452	89.12
258.685	89.12
258.918	75.12
259.151	80.12
259.383	75.12
259.616	93.12
259.849	75.12
260.081	78.12
260.314	77.12
260.547	86.12
260.779	79.12
261.012	87.12
261.244	80.12
261.477	90.12
261.71	84.12
261.942	121.12
262.175	120.12
262.407	99.12
262.64	83.12
262.872	83.12
263.105	81.12
263.337	74.12
263.57	83.12
263.802	88.12
264.035	83.12
264.267	79.12
264.499	93.12
264.732	92.12
264.964	67.12
265.197	90.12
265.429	81.12
265.661	71.12
265.894	80.12
266.126	79.12
266.358	89.12
266.591	89.12
266.823	85.12
267.055	87.12
267.287	80.12
267.52	85.12
267.752	65.12
267.984	91.12
268.216	82.12
268.448	92.12
268.681	84.12
268.913	79.12
269.145	83.12
269.377	85.12
269.609	87.12
269.841	77.12
270.073	82.12
270.306	72.12
270.538	83.12
270.77	77.12
271.002	75.12
271.234	78.12
271.466	98.12
271.698	79.12
271.93	81.12
272.162	96.12
272.394	95.12
272.626	91.12
272.858	73.12
273.09	78.12
273.322	79.12
273.553	82.12
273.785	90.12
274.017	85.12
274.249	92.12
274.481	89.12
274.713	93.12
274.945	96.12
275.176	96.12
275.408	84.12
275.64	94.12
275.872	86.12
276.104	80.12
276.335	79.12
276.567	92.12
276.799	96.12
277.031	93.12
277.262	89.12
277.494	73.12
277.726	90.12
277.957	84.12
278.189	92.12
278.421	86.12
278.652	85.12
278.884	99.12
279.115	103.12
279.347	84.12
279.579	75.12
279.81	80.12
280.042	72.12
280.273	77.12
280.505	87.12
280.736	87.12
280.968	77.12
281.199	81.12
281.431	91.12
281.662	87.12
281.894	74.12
282.125	96.12
282.356	101.12
282.588	137.12
282.819	114.12
283.051	87.12
283.282	81.12
283.513	81.12
283.745	79.12
283.976	85.12
284.207	94.12
284.439	88.12
284.67	85.12
284.901	78.12
285.132	95.12
285.364	85.12
285.595	83.12
285.826	70.12
286.057	82.12
286.288	83.12
286.52	76.12
286.751	95.12
286.982	83.12
287.213	98.12
287.444	81.12
287.675	85.12
287.906	97.12
288.138	84.12
288.369	91.12
288.6	80.12
288.831	87.12
289.062	79.12
289.293	99.12
289.524	91.12
289.755	88.12
289.986	83.12
290.217	85.12
290.448	84.12
290.679	86.12
290.91	73.12
291.141	75.12
291.371	79.12
291.602	90.12
291.833	88.12
292.064	84.12
292.295	81.12
292.526	67.12
292.757	84.12
292.987	92.12
293.218	95.12
293.449	87.12
293.68	86.12
293.91	92.12
294.141	86.12
294.372	85.12
294.603	65.12
294.833	91.12
295.064	100.12
295.295	80.12
295.525	90.12
295.756	92.12
295.987	100.12
296.217	126.12
296.448	104.12
296.679	86.12
296.909	100.12
297.14	99.12
297.37	102.12
297.601	77.12
297.831	81.12
298.062	98.12
298.292	99.12
298.523	78.12
298.753	93.12
298.984	95.12
299.214	103.12
299.445	91.12
299.675	93.12
299.905	82.12
300.136	82.12
300.366	99.12
300.597	84.12
300.827	77.12
301.057	92.12
301.288	104.12
301.518	80.12
301.748	68.12
301.979	94.12
302.209	76.12
302.439	80.12
302.669	90.12
302.9	91.12
303.13	95.12
303.36	85.12
303.59	94.12
303.82	92.12
304.051	95.12
304.281	89.12
304.511	98.12
304.741	98.12
304.971	91.12
305.201	87.12
305.431	78.12
305.661	79.12
305.891	76.12
306.121	98.12
306.352	96.12
306.582	90.12
306.812	91.12
307.042	88.12
307.272	85.12
307.502	92.12
307.731	84.12
307.961	86.12
308.191	95.12
308.421	94.12
308.651	104.12
308.881	98.12
309.111	82.12
309.341	84.12
309.571	99.12
309.8	103.12
310.03	93.12
310.26	87.12
310.49	95.12
310.72	90.12
310.949	96.12
311.179	98.12
311.409	111.12
311.639	93.12
311.868	97.12
312.098	103.12
312.328	91.12
312.557	110.12
312.787	104.12
313.017	106.12
313.246	82.12
313.476	92.12
313.706	114.12
313.935	100.12
314.165	95.12
314.394	91.12
314.624	100.12
314.853	77.12
315.083	88.12
315.312	93.12
315.542	87.12
315.771	85.12
316.001	78.12
316.23	91.12
316.46	86.12
316.689	84.12
316.919	92.12
317.148	93.12
317.377	92.12
317.607	90.12
317.836	81.12
318.065	92.12
318.295	90.12
318.524	88.12
318.753	98.12
318.983	110.12
319.212	92.12
319.441	101.12
319.67	102.12
319.9	100.12
320.129	94.12
320.358	96.12
320.587	85.12
320.816	101.12
321.046	98.12
321.275	98.12
321.504	100.12
321.733	84.12
321.962	88.12
322.191	101.12
322.42	114.12
322.649	104.12
322.878	99.12
323.108	114.12
323.337	108.12
323.566	131.12
323.795	153.12
324.024	193.12
324.253	381.12
324.482	797.12
324.71	1705.12
324.939	2259.12
325.168	824.12
325.397	245.12
325.626	143.12
325.855	124.12
326.084	128.12
326.313	136.12
326.542	158.12
326.77	220.12
326.999	447.12
327.228	962.12
327.457	1744.12
327.686	1397.12
327.914	363.12
328.143	206.12
328.372	151.12
328.6	127.12
328.829	106.12
329.058	117.12
329.287	130.12
329.515	108.12
329.744	110.12
329.972	106.12
330.201	107.12
330.43	112.12
330.658	117.12
330.887	125.12
331.115	124.12
331.344	113.12
331.572	103.12
331.801	104.12
332.03	106.12
332.258	96.12
332.486	97.12
332.715	87.12
332.943	84.12
333.172	84.12
333.4	98.12
333.629	114.12
333.857	101.12
334.085	105.12
334.314	103.12
334.542	101.12
334.771	105.12
334.999	106.12
335.227	95.12
335.455	94.12
335.684	96.12
335.912	94.12
336.14	98.12
336.369	99.12
336.597	101.12
336.825	98.12
337.053	97.12
337.281	92.12
337.51	84.12
337.738	87.12
337.966	91.12
338.194	83.12
338.422	92.12
338.65	83.12
338.878	87.12
339.106	102.12
339.334	87.12
339.562	85.12
339.79	79.12
340.018	90.12
340.246	103.12
340.474	83.12
340.702	93.12
340.93	98.12
341.158	103.12
341.386	97.12
341.614	90.12
341.842	91.12
342.07	94.12
342.298	99.12
342.526	91.12
342.754	103.12
342.981	91.12
343.209	77.12
343.437	103.12
343.665	87.12
343.893	90.12
344.12	96.12
344.348	87.12
344.576	79.12
344.804	86.12
345.031	90.12
345.259	100.12
345.487	78.12
345.714	80.12
345.942	86.12
346.17	95.12
346.397	90.12
346.625	93.12
346.853	81.12
347.08	93.12
347.308	94.12
347.535	100.12
347.763	85.12
347.99	99.12
348.218	89.12
348.445	97.12
348.673	104.12
348.9	104.12
349.128	92.12
349.355	99.12
349.583	88.12
349.81	102.12
350.037	98.12
350.265	87.12
350.492	80.12
350.72	92.12
350.947	84.12
351.174	104.12
351.402	115.12
351.629	103.12
351.856	96.12
352.083	98.12
352.311	107.12
352.538	99.12
352.765	99.12
352.992	108.12
353.22	118.12
353.447	106.12
353.674	116.12
353.901	110.12
354.128	96.12
354.355	93.12
354.583	91.12
354.81	101.12
355.037	92.12
355.264	94.12
355.491	93.12
355.718	88.12
355.945	98.12
356.172	84.12
356.399	83.12
356.626	91.12
356.853	92.12
357.08	107.12
357.307	83.12
357.534	94.12
357.761	98.12
357.988	96.12
358.215	103.12
358.441	90.12
358.668	96.12
358.895	79.12
359.122	80.12
359.349	85.12
359.576	94.12
359.802	108.12
360.029	119.12
360.256	114.12
360.483	119.12
360.709	94.12
360.936	89.12
361.163	103.12
361.39	97.12
361.616	96.12
361.843	98.12
362.07	92.12
362.296	84.12
362.523	103.12
362.749	98.12
362.976	79.12
363.203	89.12
363.429	91.12
363.656	91.12
363.882	104.12
364.109	85.12
364.335	105.12
364.562	88.12
364.788	94.12
365.015	96.12
365.241	90.12
365.468	99.12
365.694	118.12
365.92	88.12
366.147	83.12
366.373	92.12
366.599	103.12
366.826	83.12
367.052	82.12
367.278	95.12
367.505	94.12
367.731	92.12
367.957	86.12
368.184	96.12
368.41	101.12
368.636	96.12
368.862	116.12
369.089	114.12
369.315	94.12
369.541	88.12
369.767	85.12
369.993	98.12
370.219	84.12
370.445	85.12
370.672	94.12
370.898	82.12
371.124	81.12
371.35	98.12
371.576	92.12
371.802	89.12
372.028	88.12
372.254	99.12
372.48	100.12
372.706	99.12
372.932	100.12
373.158	92.12
373.384	97.12
373.61	90.12
373.835	86.12
374.061	100.12
374.287	94.12
374.513	83.12
374.739	87.12
374.965	91.12
375.191	91.12
375.416	99.12
375.642	105.12
375.868	98.12
376.094	82.12
376.319	94.12
376.545	85.12
376.771	81.12
376.997	82.12
377.222	84.12
377.448	94.12
377.674	93.12
377.899	90.12
378.125	90.12
378.35	105.12
378.576	88.12
378.802	103.12
379.027	88.12
379.253	105.12
379.478	87.12
379.704	93.12
379.929	88.12
380.155	80.12
380.38	93.12
380.606	84.12
380.831	105.12
381.057	92.12
381.282	92.12
381.507	89.12
381.733	89.12
381.958	81.12
382.184	91.12
382.409	105.12
382.634	117.12
382.86	94.12
383.085	93.12
383.31	91.12
383.535	108.12
383.761	95.12
383.986	108.12
384.211	98.12
384.436	95.12
384.662	105.12
384.887	93.12
385.112	101.12
385.337	88.12
385.562	83.12
385.787	95.12
386.013	108.12
386.238	105.12
386.463	107.12
386.688	111.12
386.913	83.12
387.138	100.12
387.363	100.12
387.588	113.12
387.813	97.12
388.038	120.12
388.263	112.12
388.488	125.12
388.713	103.12
388.938	101.12
389.163	97.12
389.387	92.12
389.612	91.12
389.837	88.12
390.062	104.12
390.287	89.12
390.512	105.12
390.736	104.12
390.961	78.12
391.186	95.12
391.411	94.12
391.636	105.12
391.86	87.12
392.085	76.12
392.31	92.12
392.534	96.12
392.759	87.12
392.984	83.12
393.208	91.12
393.433	92.12
393.658	97.12
393.882	93.12
394.107	87.12
394.331	81.12
394.556	83.12
394.78	79.12
395.005	87.12
395.229	88.12
395.454	93.12
395.678	87.12
395.903	87.12
396.127	89.12
396.352	90.12
396.576	90.12
396.801	72.12
397.025	84.12
397.249	83.12
397.474	96.12
397.698	89.12
397.922	92.12
398.147	90.12
398.371	87.12
398.595	83.12
398.82	86.12
399.044	81.12
399.268	75.12
399.492	111.12
399.717	95.12
399.941	85.12
400.165	84.12
400.389	88.12
400.613	82.12
400.837	92.12
401.062	93.12
401.286	93.12
401.51	86.12
401.734	89.12
401.958	112.12
402.182	130.12
402.406	146.12
402.63	96.12
402.854	96.12
403.078	93.12
403.302	94.12
403.526	83.12
403.75	97.12
403.974	95.12
404.198	95.12
404.422	93.12
404.645	89.12
404.869	88.12
405.093	91.12
405.317	96.12
405.541	96.12
405.765	92.12
405.988	102.12
406.212	162.12
406.436	218.12
406.66	131.12
406.883	99.12
407.107	104.12
407.331	96.12
407.555	99.12
407.778	103.12
408.002	99.12
408.226	93.12
408.449	91.12
408.673	87.12
408.896	94.12
409.12	93.12
409.344	88.12
409.567	98.12
409.791	99.12
410.014	84.12
410.238	75.12
410.461	95.12
410.685	81.12
410.908	103.12
411.132	101.12
411.355	96.12
411.578	90.12
411.802	88.12
412.025	92.12
412.249	102.12
412.472	89.12
412.695	103.12
412.919	96.12
413.142	99.12
413.365	99.12
413.589	85.12
413.812	93.12
414.035	97.12
414.258	106.12
414.482	93.12
414.705	79.12
414.928	90.12
415.151	88.12
415.374	89.12
415.597	74.12
415.821	93.12
416.044	89.12
416.267	90.12
416.49	78.12
416.713	71.12
416.936	92.12
417.159	100.12
417.382	88.12
417.605	84.12
417.828	91.12
418.051	98.12
418.274	80.12
418.497	96.12
418.72	96.12
418.943	87.12
419.166	86.12
419.389	95.12
419.611	87.12
419.834	85.12
420.057	89.12
420.28	90.12
420.503	96.12
420.726	76.12
420.948	91.12
421.171	96.12
421.394	103.12
421.617	86.12
421.839	89.12
422.062	88.12
422.285	98.12
422.507	111.12
422.73	105.12
422.953	94.12
423.175	101.12
423.398	96.12
423.621	87.12
423.843	77.12
424.066	97.12
424.288	93.12
424.511	104.12
424.733	99.12
424.956	94.12
425.178	97.12
425.401	85.12
425.623	107.12
425.846	87.12
426.068	91.12
426.291	90.12
426.513	90.12
426.735	98.12
426.958	75.12
427.18	101.12
427.402	150.12
427.625	156.12
427.847	128.12
428.069	100.12
428.292	92.12
428.514	83.12
428.736	82.12
428.958	95.12
429.181	84.12
429.403	83.12
429.625	97.12
429.847	89.12
430.069	105.12
430.292	105.12
430.514	76.12
430.736	77.12
430.958	85.12
431.18	98.12
431.402	98.12
431.624	78.12
431.846	83.12
432.068	88.12
432.29	91.12
432.512	79.12
432.734	90.12
432.956	87.12
433.178	98.12
433.4	112.12
433.622	89.12
433.844	85.12
434.066	90.12
434.287	104.12
434.509	82.12
434.731	79.12
434.953	90.12
435.175	91.12
435.397	96.12
435.618	94.12
435.84	106.12
436.062	124.12
436.284	108.12
436.505	101.12
436.727	104.12
436.949	103.12
437.17	82.12
437.392	94.12
437.614	72.12
437.835	83.12
438.057	116.12
438.278	108.12
438.5	109.12
438.721	116.12
438.943	105.12
439.165	90.12
439.386	85.12
439.608	101.12
439.829	107.12
440.05	113.12
440.272	135.12
440.493	101.12
440.715	90.12
440.936	83.12
441.158	84.12
441.379	85.12
441.6	99.12
441.822	98.12
442.043	106.12
442.264	91.12
442.486	96.12
442.707	97.12
442.928	111.12
443.149	118.12
443.371	121.12
443.592	96.12
443.813	105.12
444.034	98.12
444.255	99.12
444.476	88.12
444.698	90.12
444.919	76.12
445.14	132.12
445.361	111.12
445.582	115.12
445.803	128.12
446.024	130.12
446.245	144.12
446.466	127.12
446.687	108.12
446.908	85.12
447.129	85.12
447.35	80.12
447.571	95.12
447.792	92.12
448.013	100.12
448.234	99.12
448.455	117.12
448.675	120.12
448.896	121.12
449.117	101.12
449.338	99.12
449.559	125.12
449.779	147.12
450	94.12
450.221	82.12
450.442	90.12
450.662	95.12
450.883	98.12
451.104	109.12
451.324	84.12
451.545	79.12
451.766	84.12
451.986	92.12
452.207	99.12
452.428	97.12
452.648	99.12
452.869	111.12
453.089	113.12
453.31	112.12
453.53	97.12
453.751	85.12
453.971	92.12
454.192	100.12
454.412	86.12
454.633	77.12
454.853	77.12
455.073	87.12
455.294	87.12
455.514	93.12
455.734	88.12
455.955	81.12
456.175	77.12
456.395	86.12
456.616	81.12
456.836	82.12
457.056	67.12
457.276	92.12
457.497	79.12
457.717	89.12
457.937	94.12
458.157	107.12
458.377	87.12
458.598	111.12
458.818	135.12
459.038	146.12
459.258	116.12
459.478	88.12
459.698	71.12
459.918	87.12
460.138	92.12
460.358	107.12
460.578	86.12
460.798	83.12
461.018	91.12
461.238	87.12
461.458	84.12
461.678	95.12
461.898	97.12
462.118	112.12
462.338	92.12
462.558	93.12
462.777	61.12
462.997	86.12
463.217	90.12
463.437	98.12
463.657	99.12
463.876	95.12
464.096	89.12
464.316	83.12
464.536	72.12
464.755	83.12
464.975	116.12
465.195	148.12
465.414	145.12
465.634	121.12
465.854	87.12
466.073	94.12
466.293	88.12
466.512	84.12
466.732	73.12
466.951	82.12
467.171	88.12
467.391	87.12
467.61	88.12
467.829	101.12
468.049	83.12
468.268	91.12
468.488	86.12
468.707	85.12
468.927	93.12
469.146	85.12
469.365	95.12
469.585	93.12
469.804	100.12
470.023	97.12
470.243	95.12
470.462	104.12
470.681	108.12
470.901	91.12
471.12	92.12
471.339	91.12
471.558	90.12
471.777	95.12
471.997	98.12
472.216	85.12
472.435	94.12
472.654	96.12
472.873	91.12
473.092	86.12
473.311	84.12
473.53	77.12
473.749	79.12
473.968	97.12
474.187	98.12
474.406	97.12
474.625	92.12
474.844	106.12
475.063	94.12
475.282	93.12
475.501	84.12
475.72	97.12
475.939	81.12
476.158	94.12
476.377	72.12
476.596	92.12
476.814	85.12
477.033	101.12
477.252	84.12
477.471	92.12
477.69	84.12
477.908	100.12
478.127	94.12
478.346	84.12
478.564	96.12
478.783	92.12
479.002	91.12
479.22	98.12
479.439	108.12
479.658	107.12
479.876	97.12
480.095	77.12
480.313	103.12
480.532	92.12
480.751	104.12
480.969	88.12
481.188	116.12
481.406	108.12
481.624	92.12
481.843	96.12
482.061	100.12
482.28	87.12
482.498	88.12
482.717	92.12
482.935	91.12
483.153	97.12
483.372	92.12
483.59	90.12
483.808	90.12
484.027	78.12
484.245	97.12
484.463	98.12
484.681	98.12
484.9	88.12
485.118	100.12
485.336	89.12
485.554	98.12
485.772	99.12
485.99	121.12
486.209	112.12
486.427	112.12
486.645	93.12
486.863	109.12
487.081	93.12
487.299	95.12
487.517	88.12
487.735	99.12
487.953	93.12
488.171	92.12
488.389	108.12
488.607	94.12
488.825	97.12
489.043	90.12
489.261	90.12
489.479	73.12
489.696	86.12
489.914	88.12
490.132	83.12
490.35	90.12
490.568	84.12
490.786	78.12
491.003	90.12
491.221	98.12
491.439	88.12
491.657	107.12
491.874	92.12
492.092	85.12
492.31	95.12
492.527	100.12
492.745	96.12
492.963	95.12
493.18	100.12
493.398	73.12
493.615	89.12
493.833	78.12
494.05	79.12
494.268	105.12
494.485	96.12
494.703	87.12
494.92	91.12
495.138	93.12
495.355	90.12
495.573	97.12
495.79	95.12
496.008	103.12
496.225	88.12
496.442	89.12
496.66	94.12
496.877	85.12
497.094	100.12
497.312	88.12
497.529	97.12
497.746	83.12
497.963	101.12
498.181	107.12
498.398	107.12
498.615	108.12
498.832	109.12
499.049	94.12
499.267	86.12
499.484	80.12
499.701	87.12
499.918	83.12
500.135	91.12
500.352	97.12
500.569	87.12
500.786	95.12
501.003	101.12
501.22	87.12
501.437	87.12
501.654	103.12
501.871	111.12
502.088	104.12
502.305	81.12
502.522	96.12
502.739	87.12
502.956	91.12
503.172	85.12
503.389	90.12
503.606	105.12
503.823	83.12
504.04	94.12
504.256	91.12
504.473	91.12
504.69	99.12
504.907	90.12
505.123	91.12
505.34	97.12
505.557	97.12
505.773	98.12
505.99	96.12
506.207	88.12
506.423	87.12
506.64	79.12
506.856	95.12
507.073	104.12
507.289	87.12
507.506	96.12
507.722	113.12
507.939	106.12
508.155	93.12
508.372	90.12
508.588	101.12
508.805	92.12
509.021	106.12
509.238	111.12
509.454	92.12
509.67	107.12
509.887	102.12
510.103	132.12
510.319	209.12
510.536	715.12
510.752	2127.12
510.968	593.12
511.184	143.12
511.401	121.12
511.617	109.12
511.833	93.12
512.049	105.12
512.265	100.12
512.481	93.12
512.698	91.12
512.914	88.12
513.13	77.12
513.346	81.12
513.562	84.12
513.778	100.12
513.994	90.12
514.21	92.12
514.426	102.12
514.642	118.12
514.858	115.12
515.074	169.12
515.29	426.12
515.506	1372.12
515.721	495.12
515.937	135.12
