Data from Uncirc_1997_H10_HRD10591_00020.txt Node
Date: Wed Jan 03 11:28:34 EST 2024
User: Yrep
Spectrometer: HR+D1059
Trigger mode: 1
Integration Time (sec): 1.000000E-1
Scans to average: 1
Electric dark correction enabled: true
Nonlinearity correction enabled: false
Boxcar width: 0
XAxis mode: Wavelengths
Number of Pixels in Spectrum: 2048
>>>>>Begin Spectral Data<<<<<
223.165	-28.06
223.4	-28.06
223.635	-28.06
223.869	-21.06
224.104	-22.06
224.338	-12.06
224.573	-18.06
224.808	-15.06
225.042	-13.06
225.277	-9.06
225.511	3.94
225.746	6.94
225.98	15.94
226.215	10.94
226.449	14.94
226.683	22.94
226.918	31.94
227.152	30.94
227.387	46.94
227.621	49.94
227.856	51.94
228.09	47.94
228.324	54.94
228.559	43.94
228.793	65.94
229.027	67.94
229.262	69.94
229.496	78.94
229.73	76.94
229.964	83.94
230.199	85.94
230.433	85.94
230.667	77.94
230.901	84.94
231.136	83.94
231.37	88.94
231.604	88.94
231.838	104.94
232.072	57.94
232.306	87.94
232.541	81.94
232.775	67.94
233.009	89.94
233.243	77.94
233.477	80.94
233.711	66.94
233.945	87.94
234.179	90.94
234.413	75.94
234.647	83.94
234.881	69.94
235.115	79.94
235.349	103.94
235.583	93.94
235.817	94.94
236.051	74.94
236.285	70.94
236.519	80.94
236.753	85.94
236.987	81.94
237.221	77.94
237.455	82.94
237.689	69.94
237.922	81.94
238.156	74.94
238.39	66.94
238.624	57.94
238.858	82.94
239.091	88.94
239.325	83.94
239.559	84.94
239.793	83.94
240.027	80.94
240.26	64.94
240.494	74.94
240.728	86.94
240.961	79.94
241.195	89.94
241.429	77.94
241.662	86.94
241.896	81.94
242.13	70.94
242.363	79.94
242.597	83.94
242.83	76.94
243.064	86.94
243.298	73.94
243.531	90.94
243.765	80.94
243.998	68.94
244.232	83.94
244.465	89.94
244.699	85.94
244.932	86.94
245.166	81.94
245.399	93.94
245.633	82.94
245.866	85.94
246.099	92.94
246.333	85.94
246.566	70.94
246.8	82.94
247.033	78.94
247.266	74.94
247.5	89.94
247.733	85.94
247.966	77.94
248.2	81.94
248.433	86.94
248.666	86.94
248.899	84.94
249.133	81.94
249.366	93.94
249.599	107.94
249.832	99.94
250.066	84.94
250.299	91.94
250.532	80.94
250.765	92.94
250.998	82.94
251.231	77.94
251.465	79.94
251.698	90.94
251.931	91.94
252.164	86.94
252.397	70.94
252.63	79.94
252.863	81.94
253.096	89.94
253.329	93.94
253.562	89.94
253.795	101.94
254.028	76.94
254.261	71.94
254.494	82.94
254.727	84.94
254.96	75.94
255.193	82.94
255.426	90.94
255.659	94.94
255.892	88.94
256.124	84.94
256.357	89.94
256.59	81.94
256.823	84.94
257.056	79.94
257.289	79.94
257.521	84.94
257.754	80.94
257.987	93.94
258.22	83.94
258.452	88.94
258.685	91.94
258.918	89.94
259.151	75.94
259.383	97.94
259.616	74.94
259.849	90.94
260.081	91.94
260.314	86.94
260.547	76.94
260.779	85.94
261.012	95.94
261.244	75.94
261.477	109.94
261.71	86.94
261.942	96.94
262.175	107.94
262.407	85.94
262.64	83.94
262.872	86.94
263.105	67.94
263.337	81.94
263.57	85.94
263.802	106.94
264.035	85.94
264.267	77.94
264.499	89.94
264.732	82.94
264.964	84.94
265.197	85.94
265.429	85.94
265.661	82.94
265.894	94.94
266.126	95.94
266.358	81.94
266.591	82.94
266.823	72.94
267.055	83.94
267.287	93.94
267.52	86.94
267.752	94.94
267.984	95.94
268.216	72.94
268.448	78.94
268.681	93.94
268.913	95.94
269.145	93.94
269.377	78.94
269.609	85.94
269.841	93.94
270.073	87.94
270.306	106.94
270.538	98.94
270.77	100.94
271.002	99.94
271.234	85.94
271.466	93.94
271.698	108.94
271.93	92.94
272.162	95.94
272.394	89.94
272.626	69.94
272.858	85.94
273.09	85.94
273.322	100.94
273.553	86.94
273.785	90.94
274.017	88.94
274.249	89.94
274.481	81.94
274.713	69.94
274.945	88.94
275.176	97.94
275.408	89.94
275.64	75.94
275.872	100.94
276.104	103.94
276.335	94.94
276.567	92.94
276.799	87.94
277.031	93.94
277.262	85.94
277.494	85.94
277.726	94.94
277.957	94.94
278.189	97.94
278.421	89.94
278.652	86.94
278.884	71.94
279.115	92.94
279.347	100.94
279.579	86.94
279.81	94.94
280.042	79.94
280.273	104.94
280.505	89.94
280.736	99.94
280.968	87.94
281.199	87.94
281.431	84.94
281.662	79.94
281.894	102.94
282.125	92.94
282.356	114.94
282.588	119.94
282.819	104.94
283.051	95.94
283.282	82.94
283.513	90.94
283.745	95.94
283.976	97.94
284.207	91.94
284.439	81.94
284.67	102.94
284.901	100.94
285.132	86.94
285.364	90.94
285.595	90.94
285.826	78.94
286.057	94.94
286.288	78.94
286.52	91.94
286.751	67.94
286.982	95.94
287.213	82.94
287.444	82.94
287.675	80.94
287.906	85.94
288.138	83.94
288.369	91.94
288.6	97.94
288.831	92.94
289.062	94.94
289.293	96.94
289.524	81.94
289.755	84.94
289.986	108.94
290.217	97.94
290.448	90.94
290.679	90.94
290.91	86.94
291.141	104.94
291.371	101.94
291.602	86.94
291.833	91.94
292.064	86.94
292.295	97.94
292.526	74.94
292.757	91.94
292.987	83.94
293.218	83.94
293.449	77.94
293.68	83.94
293.91	90.94
294.141	90.94
294.372	105.94
294.603	97.94
294.833	89.94
295.064	84.94
295.295	91.94
295.525	93.94
295.756	93.94
295.987	109.94
296.217	124.94
296.448	109.94
296.679	91.94
296.909	90.94
297.14	91.94
297.37	87.94
297.601	90.94
297.831	90.94
298.062	83.94
298.292	93.94
298.523	91.94
298.753	99.94
298.984	95.94
299.214	76.94
299.445	92.94
299.675	94.94
299.905	92.94
300.136	98.94
300.366	82.94
300.597	90.94
300.827	82.94
301.057	103.94
301.288	90.94
301.518	102.94
301.748	95.94
301.979	97.94
302.209	87.94
302.439	90.94
302.669	113.94
302.9	85.94
303.13	97.94
303.36	83.94
303.59	91.94
303.82	98.94
304.051	102.94
304.281	83.94
304.511	95.94
304.741	88.94
304.971	97.94
305.201	95.94
305.431	93.94
305.661	90.94
305.891	98.94
306.121	98.94
306.352	100.94
306.582	101.94
306.812	95.94
307.042	92.94
307.272	97.94
307.502	94.94
307.731	99.94
307.961	92.94
308.191	94.94
308.421	98.94
308.651	91.94
308.881	103.94
309.111	100.94
309.341	92.94
309.571	100.94
309.8	94.94
310.03	87.94
310.26	112.94
310.49	85.94
310.72	98.94
310.949	111.94
311.179	97.94
311.409	84.94
311.639	96.94
311.868	95.94
312.098	102.94
312.328	96.94
312.557	102.94
312.787	103.94
313.017	105.94
313.246	105.94
313.476	87.94
313.706	109.94
313.935	98.94
314.165	105.94
314.394	111.94
314.624	94.94
314.853	91.94
315.083	86.94
315.312	94.94
315.542	95.94
315.771	87.94
316.001	102.94
316.23	90.94
316.46	81.94
316.689	81.94
316.919	96.94
317.148	82.94
317.377	97.94
317.607	92.94
317.836	87.94
318.065	90.94
318.295	86.94
318.524	98.94
318.753	102.94
318.983	85.94
319.212	95.94
319.441	89.94
319.67	94.94
319.9	91.94
320.129	91.94
320.358	95.94
320.587	94.94
320.816	109.94
321.046	95.94
321.275	97.94
321.504	97.94
321.733	86.94
321.962	107.94
322.191	113.94
322.42	110.94
322.649	98.94
322.878	105.94
323.108	114.94
323.337	103.94
323.566	125.94
323.795	145.94
324.024	177.94
324.253	326.94
324.482	679.94
324.71	1351.94
324.939	1744.94
325.168	643.94
325.397	217.94
325.626	139.94
325.855	131.94
326.084	118.94
326.313	124.94
326.542	129.94
326.77	208.94
326.999	386.94
327.228	777.94
327.457	1369.94
327.686	1112.94
327.914	311.94
328.143	173.94
328.372	140.94
328.6	121.94
328.829	99.94
329.058	113.94
329.287	119.94
329.515	111.94
329.744	111.94
329.972	95.94
330.201	113.94
330.43	114.94
330.658	114.94
330.887	124.94
331.115	126.94
331.344	89.94
331.572	86.94
331.801	100.94
332.03	97.94
332.258	97.94
332.486	88.94
332.715	106.94
332.943	97.94
333.172	103.94
333.4	89.94
333.629	101.94
333.857	110.94
334.085	105.94
334.314	93.94
334.542	91.94
334.771	90.94
334.999	109.94
335.227	118.94
335.455	81.94
335.684	97.94
335.912	100.94
336.14	93.94
336.369	100.94
336.597	84.94
336.825	98.94
337.053	94.94
337.281	90.94
337.51	90.94
337.738	88.94
337.966	93.94
338.194	95.94
338.422	90.94
338.65	93.94
338.878	95.94
339.106	97.94
339.334	85.94
339.562	96.94
339.79	89.94
340.018	88.94
340.246	99.94
340.474	93.94
340.702	89.94
340.93	98.94
341.158	83.94
341.386	95.94
341.614	87.94
341.842	106.94
342.07	101.94
342.298	100.94
342.526	91.94
342.754	79.94
342.981	84.94
343.209	94.94
343.437	102.94
343.665	96.94
343.893	107.94
344.12	89.94
344.348	96.94
344.576	95.94
344.804	94.94
345.031	100.94
345.259	111.94
345.487	91.94
345.714	100.94
345.942	93.94
346.17	76.94
346.397	99.94
346.625	99.94
346.853	81.94
347.08	94.94
347.308	93.94
347.535	98.94
347.763	108.94
347.99	87.94
348.218	105.94
348.445	108.94
348.673	97.94
348.9	105.94
349.128	111.94
349.355	106.94
349.583	88.94
349.81	103.94
350.037	107.94
350.265	95.94
350.492	103.94
350.72	83.94
350.947	101.94
351.174	107.94
351.402	108.94
351.629	108.94
351.856	101.94
352.083	79.94
352.311	102.94
352.538	100.94
352.765	89.94
352.992	95.94
353.22	121.94
353.447	95.94
353.674	98.94
353.901	100.94
354.128	103.94
354.355	103.94
354.583	97.94
354.81	96.94
355.037	98.94
355.264	99.94
355.491	100.94
355.718	93.94
355.945	100.94
356.172	111.94
356.399	93.94
356.626	85.94
356.853	89.94
357.08	97.94
357.307	98.94
357.534	87.94
357.761	89.94
357.988	103.94
358.215	92.94
358.441	82.94
358.668	97.94
358.895	101.94
359.122	93.94
359.349	92.94
359.576	103.94
359.802	93.94
360.029	108.94
360.256	102.94
360.483	105.94
360.709	78.94
360.936	92.94
361.163	95.94
361.39	99.94
361.616	86.94
361.843	101.94
362.07	100.94
362.296	89.94
362.523	109.94
362.749	87.94
362.976	84.94
363.203	80.94
363.429	99.94
363.656	86.94
363.882	97.94
364.109	98.94
364.335	99.94
364.562	90.94
364.788	77.94
365.015	101.94
365.241	99.94
365.468	92.94
365.694	106.94
365.92	109.94
366.147	94.94
366.373	92.94
366.599	84.94
366.826	95.94
367.052	98.94
367.278	107.94
367.505	109.94
367.731	104.94
367.957	81.94
368.184	100.94
368.41	100.94
368.636	102.94
368.862	106.94
369.089	104.94
369.315	89.94
369.541	84.94
369.767	89.94
369.993	94.94
370.219	80.94
370.445	87.94
370.672	86.94
370.898	100.94
371.124	89.94
371.35	92.94
371.576	93.94
371.802	89.94
372.028	92.94
372.254	92.94
372.48	91.94
372.706	92.94
372.932	92.94
373.158	90.94
373.384	97.94
373.61	91.94
373.835	90.94
374.061	94.94
374.287	86.94
374.513	97.94
374.739	93.94
374.965	85.94
375.191	90.94
375.416	76.94
375.642	100.94
375.868	103.94
376.094	93.94
376.319	99.94
376.545	81.94
376.771	66.94
376.997	95.94
377.222	79.94
377.448	97.94
377.674	93.94
377.899	95.94
378.125	78.94
378.35	84.94
378.576	76.94
378.802	101.94
379.027	90.94
379.253	99.94
379.478	87.94
379.704	103.94
379.929	100.94
380.155	101.94
380.38	98.94
380.606	96.94
380.831	97.94
381.057	116.94
381.282	102.94
381.507	93.94
381.733	95.94
381.958	102.94
382.184	99.94
382.409	93.94
382.634	107.94
382.86	95.94
383.085	95.94
383.31	95.94
383.535	106.94
383.761	95.94
383.986	110.94
384.211	101.94
384.436	103.94
384.662	102.94
384.887	115.94
385.112	108.94
385.337	94.94
385.562	96.94
385.787	104.94
386.013	110.94
386.238	116.94
386.463	116.94
386.688	114.94
386.913	98.94
387.138	102.94
387.363	102.94
387.588	109.94
387.813	115.94
388.038	110.94
388.263	106.94
388.488	103.94
388.713	91.94
388.938	96.94
389.163	95.94
389.387	94.94
389.612	105.94
389.837	102.94
390.062	87.94
390.287	86.94
390.512	82.94
390.736	98.94
390.961	74.94
391.186	104.94
391.411	96.94
391.636	91.94
391.86	90.94
392.085	89.94
392.31	88.94
392.534	78.94
392.759	99.94
392.984	98.94
393.208	86.94
393.433	108.94
393.658	97.94
393.882	94.94
394.107	93.94
394.331	92.94
394.556	90.94
394.78	109.94
395.005	79.94
395.229	92.94
395.454	89.94
395.678	91.94
395.903	90.94
396.127	84.94
396.352	103.94
396.576	85.94
396.801	90.94
397.025	87.94
397.249	77.94
397.474	89.94
397.698	86.94
397.922	103.94
398.147	90.94
398.371	91.94
398.595	102.94
398.82	97.94
399.044	95.94
399.268	98.94
399.492	91.94
399.717	84.94
399.941	97.94
400.165	93.94
400.389	103.94
400.613	84.94
400.837	85.94
401.062	86.94
401.286	85.94
401.51	90.94
401.734	96.94
401.958	95.94
402.182	115.94
402.406	115.94
402.63	95.94
402.854	86.94
403.078	95.94
403.302	86.94
403.526	81.94
403.75	91.94
403.974	91.94
404.198	99.94
404.422	86.94
404.645	92.94
404.869	78.94
405.093	95.94
405.317	93.94
405.541	96.94
405.765	92.94
405.988	108.94
406.212	138.94
406.436	183.94
406.66	122.94
406.883	100.94
407.107	93.94
407.331	85.94
407.555	97.94
407.778	93.94
408.002	83.94
408.226	87.94
408.449	95.94
408.673	95.94
408.896	87.94
409.12	98.94
409.344	86.94
409.567	84.94
409.791	98.94
410.014	100.94
410.238	99.94
410.461	91.94
410.685	97.94
410.908	102.94
411.132	110.94
411.355	88.94
411.578	95.94
411.802	95.94
412.025	89.94
412.249	89.94
412.472	82.94
412.695	88.94
412.919	76.94
413.142	82.94
413.365	89.94
413.589	100.94
413.812	74.94
414.035	107.94
414.258	95.94
414.482	104.94
414.705	99.94
414.928	109.94
415.151	94.94
415.374	95.94
415.597	94.94
415.821	96.94
416.044	85.94
416.267	100.94
416.49	94.94
416.713	86.94
416.936	86.94
417.159	96.94
417.382	81.94
417.605	84.94
417.828	89.94
418.051	99.94
418.274	90.94
418.497	86.94
418.72	83.94
418.943	91.94
419.166	91.94
419.389	95.94
419.611	80.94
419.834	91.94
420.057	79.94
420.28	86.94
420.503	78.94
420.726	94.94
420.948	94.94
421.171	105.94
421.394	96.94
421.617	94.94
421.839	100.94
422.062	95.94
422.285	98.94
422.507	102.94
422.73	107.94
422.953	89.94
423.175	94.94
423.398	99.94
423.621	80.94
423.843	97.94
424.066	94.94
424.288	89.94
424.511	99.94
424.733	88.94
424.956	86.94
425.178	101.94
425.401	85.94
425.623	99.94
425.846	97.94
426.068	83.94
426.291	86.94
426.513	97.94
426.735	82.94
426.958	91.94
427.18	85.94
427.402	132.94
427.625	137.94
427.847	124.94
428.069	106.94
428.292	91.94
428.514	89.94
428.736	86.94
428.958	97.94
429.181	79.94
429.403	104.94
429.625	85.94
429.847	86.94
430.069	93.94
430.292	94.94
430.514	86.94
430.736	86.94
430.958	82.94
431.18	96.94
431.402	89.94
431.624	87.94
431.846	91.94
432.068	91.94
432.29	96.94
432.512	102.94
432.734	85.94
432.956	75.94
433.178	86.94
433.4	98.94
433.622	92.94
433.844	85.94
434.066	93.94
434.287	101.94
434.509	79.94
434.731	87.94
434.953	70.94
435.175	91.94
435.397	92.94
435.618	98.94
435.84	101.94
436.062	108.94
436.284	109.94
436.505	107.94
436.727	106.94
436.949	78.94
437.17	72.94
437.392	99.94
437.614	84.94
437.835	96.94
438.057	100.94
438.278	103.94
438.5	96.94
438.721	94.94
438.943	102.94
439.165	82.94
439.386	97.94
439.608	99.94
439.829	92.94
440.05	115.94
440.272	116.94
440.493	111.94
440.715	94.94
440.936	86.94
441.158	98.94
441.379	80.94
441.6	93.94
441.822	111.94
442.043	91.94
442.264	108.94
442.486	98.94
442.707	96.94
442.928	106.94
443.149	109.94
443.371	118.94
443.592	98.94
443.813	95.94
444.034	92.94
444.255	94.94
444.476	96.94
444.698	89.94
444.919	66.94
445.14	130.94
445.361	127.94
445.582	113.94
445.803	126.94
446.024	117.94
446.245	123.94
446.466	100.94
446.687	97.94
446.908	86.94
447.129	88.94
447.35	90.94
447.571	88.94
447.792	84.94
448.013	90.94
448.234	112.94
448.455	82.94
448.675	108.94
448.896	106.94
449.117	93.94
449.338	99.94
449.559	123.94
449.779	114.94
450	103.94
450.221	87.94
450.442	94.94
450.662	70.94
450.883	118.94
451.104	103.94
451.324	82.94
451.545	93.94
451.766	85.94
451.986	99.94
452.207	91.94
452.428	93.94
452.648	92.94
452.869	119.94
453.089	107.94
453.31	107.94
453.53	92.94
453.751	95.94
453.971	100.94
454.192	103.94
454.412	97.94
454.633	87.94
454.853	89.94
455.073	84.94
455.294	83.94
455.514	103.94
455.734	95.94
455.955	82.94
456.175	85.94
456.395	81.94
456.616	88.94
456.836	90.94
457.056	95.94
457.276	95.94
457.497	81.94
457.717	87.94
457.937	98.94
458.157	90.94
458.377	88.94
458.598	97.94
458.818	115.94
459.038	134.94
459.258	99.94
459.478	102.94
459.698	98.94
459.918	89.94
460.138	82.94
460.358	93.94
460.578	90.94
460.798	92.94
461.018	89.94
461.238	87.94
461.458	93.94
461.678	107.94
461.898	86.94
462.118	83.94
462.338	94.94
462.558	97.94
462.777	93.94
462.997	95.94
463.217	95.94
463.437	82.94
463.657	86.94
463.876	103.94
464.096	84.94
464.316	94.94
464.536	103.94
464.755	82.94
464.975	101.94
465.195	146.94
465.414	123.94
465.634	85.94
465.854	92.94
466.073	85.94
466.293	87.94
466.512	95.94
466.732	101.94
466.951	85.94
467.171	89.94
467.391	101.94
467.61	97.94
467.829	101.94
468.049	91.94
468.268	87.94
468.488	85.94
468.707	81.94
468.927	83.94
469.146	91.94
469.365	99.94
469.585	95.94
469.804	94.94
470.023	85.94
470.243	90.94
470.462	101.94
470.681	90.94
470.901	106.94
471.12	81.94
471.339	91.94
471.558	80.94
471.777	78.94
471.997	81.94
472.216	81.94
472.435	112.94
472.654	89.94
472.873	88.94
473.092	96.94
473.311	78.94
473.53	102.94
473.749	89.94
473.968	95.94
474.187	110.94
474.406	86.94
474.625	91.94
474.844	105.94
475.063	93.94
475.282	86.94
475.501	81.94
475.72	89.94
475.939	75.94
476.158	88.94
476.377	73.94
476.596	86.94
476.814	98.94
477.033	90.94
477.252	96.94
477.471	73.94
477.69	78.94
477.908	88.94
478.127	108.94
478.346	97.94
478.564	93.94
478.783	99.94
479.002	82.94
479.22	98.94
479.439	107.94
479.658	90.94
479.876	86.94
480.095	95.94
480.313	88.94
480.532	111.94
480.751	84.94
480.969	102.94
481.188	101.94
481.406	103.94
481.624	96.94
481.843	81.94
482.061	101.94
482.28	76.94
482.498	85.94
482.717	87.94
482.935	101.94
483.153	93.94
483.372	102.94
483.59	85.94
483.808	98.94
484.027	83.94
484.245	91.94
484.463	91.94
484.681	84.94
484.9	94.94
485.118	102.94
485.336	93.94
485.554	100.94
485.772	116.94
485.99	115.94
486.209	106.94
486.427	111.94
486.645	101.94
486.863	97.94
487.081	107.94
487.299	83.94
487.517	108.94
487.735	102.94
487.953	98.94
488.171	90.94
488.389	91.94
488.607	98.94
488.825	97.94
489.043	92.94
489.261	91.94
489.479	86.94
489.696	100.94
489.914	97.94
490.132	105.94
490.35	91.94
490.568	93.94
490.786	90.94
491.003	94.94
491.221	98.94
491.439	94.94
491.657	108.94
491.874	93.94
492.092	99.94
492.31	98.94
492.527	108.94
492.745	81.94
492.963	81.94
493.18	88.94
493.398	92.94
493.615	86.94
493.833	92.94
494.05	97.94
494.268	86.94
494.485	96.94
494.703	93.94
494.92	98.94
495.138	89.94
495.355	88.94
495.573	94.94
495.79	92.94
496.008	86.94
496.225	111.94
496.442	91.94
496.66	109.94
496.877	85.94
497.094	113.94
497.312	87.94
497.529	86.94
497.746	95.94
497.963	95.94
498.181	99.94
498.398	90.94
498.615	103.94
498.832	93.94
499.049	104.94
499.267	99.94
499.484	86.94
499.701	108.94
499.918	79.94
500.135	86.94
500.352	90.94
500.569	94.94
500.786	91.94
501.003	102.94
501.22	98.94
501.437	102.94
501.654	106.94
501.871	98.94
502.088	95.94
502.305	98.94
502.522	90.94
502.739	96.94
502.956	101.94
503.172	93.94
503.389	95.94
503.606	84.94
503.823	102.94
504.04	86.94
504.256	102.94
504.473	79.94
504.69	91.94
504.907	100.94
505.123	92.94
505.34	94.94
505.557	103.94
505.773	96.94
505.99	87.94
506.207	98.94
506.423	79.94
506.64	87.94
506.856	86.94
507.073	93.94
507.289	97.94
507.506	102.94
507.722	101.94
507.939	96.94
508.155	96.94
508.372	97.94
508.588	94.94
508.805	88.94
509.021	103.94
509.238	106.94
509.454	80.94
509.67	93.94
509.887	98.94
510.103	119.94
510.319	187.94
510.536	585.94
510.752	1704.94
510.968	493.94
511.184	142.94
511.401	107.94
511.617	93.94
511.833	101.94
512.049	84.94
512.265	99.94
512.481	97.94
512.698	110.94
512.914	88.94
513.13	86.94
513.346	96.94
513.562	88.94
513.778	86.94
513.994	82.94
514.21	96.94
514.426	112.94
514.642	114.94
514.858	127.94
515.074	138.94
515.29	353.94
