Data from Uncirc_1997_H10_HRD10591_00096.txt Node
Date: Wed Jan 03 11:28:49 EST 2024
User: Yrep
Spectrometer: HR+D1059
Trigger mode: 1
Integration Time (sec): 1.000000E-1
Scans to average: 1
Electric dark correction enabled: true
Nonlinearity correction enabled: false
Boxcar width: 0
XAxis mode: Wavelengths
Number of Pixels in Spectrum: 2048
>>>>>Begin Spectral Data<<<<<
223.165	-12.44
223.4	-12.44
223.635	-12.44
223.869	-18.44
224.104	-8.44
224.338	-12.44
224.573	-20.44
224.808	-6.44
225.042	-14.44
225.277	-24.44
225.511	0.56
225.746	-0.44
225.98	5.56
226.215	15.56
226.449	9.56
226.683	31.56
226.918	16.56
227.152	38.56
227.387	11.56
227.621	31.56
227.856	47.56
228.09	43.56
228.324	44.56
228.559	42.56
228.793	56.56
229.027	61.56
229.262	76.56
229.496	72.56
229.73	82.56
229.964	77.56
230.199	77.56
230.433	73.56
230.667	83.56
230.901	76.56
231.136	65.56
231.37	81.56
231.604	87.56
231.838	79.56
232.072	82.56
232.306	94.56
232.541	86.56
232.775	91.56
233.009	67.56
233.243	69.56
233.477	88.56
233.711	80.56
233.945	74.56
234.179	75.56
234.413	72.56
234.647	72.56
234.881	76.56
235.115	79.56
235.349	70.56
235.583	84.56
235.817	78.56
236.051	76.56
236.285	72.56
236.519	81.56
236.753	78.56
236.987	90.56
237.221	76.56
237.455	95.56
237.689	72.56
237.922	79.56
238.156	75.56
238.39	79.56
238.624	85.56
238.858	75.56
239.091	82.56
239.325	74.56
239.559	69.56
239.793	81.56
240.027	81.56
240.26	64.56
240.494	73.56
240.728	74.56
240.961	78.56
241.195	87.56
241.429	73.56
241.662	72.56
241.896	78.56
242.13	74.56
242.363	73.56
242.597	81.56
242.83	72.56
243.064	70.56
243.298	67.56
243.531	74.56
243.765	69.56
243.998	80.56
244.232	92.56
244.465	77.56
244.699	75.56
244.932	79.56
245.166	71.56
245.399	78.56
245.633	81.56
245.866	66.56
246.099	80.56
246.333	92.56
246.566	64.56
246.8	83.56
247.033	75.56
247.266	80.56
247.5	77.56
247.733	75.56
247.966	98.56
248.2	84.56
248.433	78.56
248.666	85.56
248.899	67.56
249.133	75.56
249.366	91.56
249.599	102.56
249.832	73.56
250.066	89.56
250.299	87.56
250.532	82.56
250.765	85.56
250.998	74.56
251.231	73.56
251.465	87.56
251.698	77.56
251.931	94.56
252.164	86.56
252.397	82.56
252.63	80.56
252.863	73.56
253.096	89.56
253.329	93.56
253.562	82.56
253.795	72.56
254.028	83.56
254.261	70.56
254.494	77.56
254.727	78.56
254.96	86.56
255.193	78.56
255.426	78.56
255.659	80.56
255.892	90.56
256.124	81.56
256.357	88.56
256.59	76.56
256.823	86.56
257.056	77.56
257.289	94.56
257.521	67.56
257.754	74.56
257.987	77.56
258.22	85.56
258.452	90.56
258.685	91.56
258.918	75.56
259.151	74.56
259.383	73.56
259.616	78.56
259.849	86.56
260.081	79.56
260.314	83.56
260.547	78.56
260.779	65.56
261.012	85.56
261.244	87.56
261.477	78.56
261.71	86.56
261.942	109.56
262.175	110.56
262.407	93.56
262.64	91.56
262.872	67.56
263.105	93.56
263.337	87.56
263.57	64.56
263.802	80.56
264.035	87.56
264.267	86.56
264.499	88.56
264.732	66.56
264.964	76.56
265.197	89.56
265.429	75.56
265.661	80.56
265.894	93.56
266.126	74.56
266.358	83.56
266.591	83.56
266.823	78.56
267.055	87.56
267.287	88.56
267.52	89.56
267.752	75.56
267.984	90.56
268.216	83.56
268.448	100.56
268.681	79.56
268.913	90.56
269.145	96.56
269.377	85.56
269.609	80.56
269.841	83.56
270.073	94.56
270.306	81.56
270.538	84.56
270.77	88.56
271.002	80.56
271.234	85.56
271.466	90.56
271.698	85.56
271.93	91.56
272.162	95.56
272.394	80.56
272.626	82.56
272.858	75.56
273.09	80.56
273.322	93.56
273.553	82.56
273.785	88.56
274.017	82.56
274.249	81.56
274.481	69.56
274.713	85.56
274.945	87.56
275.176	86.56
275.408	98.56
275.64	94.56
275.872	87.56
276.104	83.56
276.335	95.56
276.567	88.56
276.799	119.56
277.031	103.56
277.262	91.56
277.494	76.56
277.726	77.56
277.957	91.56
278.189	76.56
278.421	87.56
278.652	90.56
278.884	89.56
279.115	74.56
279.347	87.56
279.579	92.56
279.81	75.56
280.042	77.56
280.273	90.56
280.505	89.56
280.736	83.56
280.968	69.56
281.199	90.56
281.431	93.56
281.662	100.56
281.894	88.56
282.125	90.56
282.356	105.56
282.588	130.56
282.819	105.56
283.051	97.56
283.282	102.56
283.513	89.56
283.745	82.56
283.976	94.56
284.207	85.56
284.439	87.56
284.67	89.56
284.901	81.56
285.132	94.56
285.364	97.56
285.595	73.56
285.826	83.56
286.057	96.56
286.288	78.56
286.52	74.56
286.751	85.56
286.982	84.56
287.213	87.56
287.444	93.56
287.675	90.56
287.906	95.56
288.138	96.56
288.369	90.56
288.6	78.56
288.831	92.56
289.062	86.56
289.293	105.56
289.524	77.56
289.755	88.56
289.986	85.56
290.217	71.56
290.448	80.56
290.679	83.56
290.91	76.56
291.141	89.56
291.371	89.56
291.602	94.56
291.833	89.56
292.064	80.56
292.295	87.56
292.526	84.56
292.757	86.56
292.987	86.56
293.218	79.56
293.449	88.56
293.68	77.56
293.91	89.56
294.141	101.56
294.372	73.56
294.603	78.56
294.833	80.56
295.064	87.56
295.295	103.56
295.525	105.56
295.756	91.56
295.987	108.56
296.217	128.56
296.448	115.56
296.679	81.56
296.909	90.56
297.14	93.56
297.37	98.56
297.601	90.56
297.831	93.56
298.062	91.56
298.292	75.56
298.523	105.56
298.753	98.56
298.984	85.56
299.214	78.56
299.445	94.56
299.675	86.56
299.905	91.56
300.136	80.56
300.366	88.56
300.597	100.56
300.827	87.56
301.057	96.56
301.288	97.56
301.518	85.56
301.748	99.56
301.979	114.56
302.209	91.56
302.439	89.56
302.669	81.56
302.9	97.56
303.13	87.56
303.36	103.56
303.59	87.56
303.82	85.56
304.051	88.56
304.281	87.56
304.511	90.56
304.741	101.56
304.971	82.56
305.201	96.56
305.431	77.56
305.661	90.56
305.891	84.56
306.121	97.56
306.352	106.56
306.582	106.56
306.812	91.56
307.042	81.56
307.272	90.56
307.502	97.56
307.731	96.56
307.961	90.56
308.191	87.56
308.421	86.56
308.651	82.56
308.881	102.56
309.111	91.56
309.341	107.56
309.571	109.56
309.8	96.56
310.03	91.56
310.26	87.56
310.49	93.56
310.72	84.56
310.949	99.56
311.179	96.56
311.409	101.56
311.639	93.56
311.868	101.56
312.098	110.56
312.328	81.56
312.557	90.56
312.787	92.56
313.017	91.56
313.246	89.56
313.476	88.56
313.706	86.56
313.935	89.56
314.165	94.56
314.394	93.56
314.624	89.56
314.853	109.56
315.083	98.56
315.312	94.56
315.542	93.56
315.771	96.56
316.001	103.56
316.23	79.56
316.46	95.56
316.689	88.56
316.919	90.56
317.148	93.56
317.377	94.56
317.607	86.56
317.836	87.56
318.065	79.56
318.295	83.56
318.524	91.56
318.753	94.56
318.983	92.56
319.212	100.56
319.441	103.56
319.67	98.56
319.9	86.56
320.129	98.56
320.358	99.56
320.587	88.56
320.816	94.56
321.046	109.56
321.275	98.56
321.504	88.56
321.733	81.56
321.962	108.56
322.191	111.56
322.42	102.56
322.649	90.56
322.878	103.56
323.108	106.56
323.337	133.56
323.566	121.56
323.795	141.56
324.024	192.56
324.253	365.56
324.482	751.56
324.71	1482.56
324.939	1923.56
325.168	724.56
325.397	226.56
325.626	141.56
325.855	124.56
326.084	135.56
326.313	131.56
326.542	160.56
326.77	219.56
326.999	423.56
327.228	823.56
327.457	1497.56
327.686	1195.56
327.914	343.56
328.143	167.56
328.372	138.56
328.6	122.56
328.829	111.56
329.058	115.56
329.287	126.56
329.515	118.56
329.744	99.56
329.972	95.56
330.201	99.56
330.43	110.56
330.658	115.56
330.887	134.56
331.115	111.56
331.344	88.56
331.572	96.56
331.801	96.56
332.03	99.56
332.258	88.56
332.486	87.56
332.715	86.56
332.943	98.56
333.172	91.56
333.4	85.56
333.629	112.56
333.857	101.56
334.085	111.56
334.314	90.56
334.542	94.56
334.771	104.56
334.999	103.56
335.227	93.56
335.455	97.56
335.684	105.56
335.912	100.56
336.14	94.56
336.369	93.56
336.597	99.56
336.825	86.56
337.053	95.56
337.281	92.56
337.51	95.56
337.738	95.56
337.966	100.56
338.194	86.56
338.422	102.56
338.65	86.56
338.878	97.56
339.106	82.56
339.334	91.56
339.562	93.56
339.79	95.56
340.018	94.56
340.246	91.56
340.474	96.56
340.702	90.56
340.93	96.56
341.158	87.56
341.386	106.56
341.614	118.56
341.842	96.56
342.07	93.56
342.298	82.56
342.526	80.56
342.754	86.56
342.981	81.56
343.209	82.56
343.437	88.56
343.665	78.56
343.893	77.56
344.12	82.56
344.348	100.56
344.576	93.56
344.804	93.56
345.031	100.56
345.259	112.56
345.487	102.56
345.714	103.56
345.942	94.56
346.17	94.56
346.397	85.56
346.625	76.56
346.853	89.56
347.08	94.56
347.308	96.56
347.535	91.56
347.763	94.56
347.99	107.56
348.218	107.56
348.445	107.56
348.673	110.56
348.9	91.56
349.128	96.56
349.355	89.56
349.583	112.56
349.81	90.56
350.037	89.56
350.265	90.56
350.492	101.56
350.72	94.56
350.947	92.56
351.174	117.56
351.402	106.56
351.629	107.56
351.856	102.56
352.083	109.56
352.311	103.56
352.538	103.56
352.765	96.56
352.992	114.56
353.22	93.56
353.447	83.56
353.674	92.56
353.901	119.56
354.128	91.56
354.355	83.56
354.583	89.56
354.81	97.56
355.037	93.56
355.264	104.56
355.491	99.56
355.718	90.56
355.945	101.56
356.172	87.56
356.399	101.56
356.626	98.56
356.853	95.56
357.08	89.56
357.307	97.56
357.534	100.56
357.761	87.56
357.988	101.56
358.215	90.56
358.441	88.56
358.668	89.56
358.895	78.56
359.122	91.56
359.349	91.56
359.576	88.56
359.802	100.56
360.029	104.56
360.256	109.56
360.483	106.56
360.709	91.56
360.936	85.56
361.163	83.56
361.39	85.56
361.616	104.56
361.843	104.56
362.07	81.56
362.296	101.56
362.523	101.56
362.749	97.56
362.976	106.56
363.203	104.56
363.429	82.56
363.656	99.56
363.882	78.56
364.109	81.56
364.335	87.56
364.562	98.56
364.788	86.56
365.015	94.56
365.241	99.56
365.468	104.56
365.694	89.56
365.92	89.56
366.147	89.56
366.373	87.56
366.599	85.56
366.826	91.56
367.052	92.56
367.278	93.56
367.505	89.56
367.731	110.56
367.957	95.56
368.184	85.56
368.41	89.56
368.636	108.56
368.862	101.56
369.089	99.56
369.315	99.56
369.541	97.56
369.767	86.56
369.993	103.56
370.219	97.56
370.445	99.56
370.672	88.56
370.898	93.56
371.124	81.56
371.35	83.56
371.576	80.56
371.802	88.56
372.028	83.56
372.254	101.56
372.48	76.56
372.706	82.56
372.932	89.56
373.158	86.56
373.384	95.56
373.61	95.56
373.835	87.56
374.061	98.56
374.287	100.56
374.513	80.56
374.739	85.56
374.965	89.56
375.191	79.56
375.416	89.56
375.642	98.56
375.868	99.56
376.094	81.56
376.319	90.56
376.545	99.56
376.771	88.56
376.997	84.56
377.222	81.56
377.448	83.56
377.674	97.56
377.899	82.56
378.125	83.56
378.35	81.56
378.576	92.56
378.802	85.56
379.027	89.56
379.253	93.56
379.478	98.56
379.704	92.56
379.929	97.56
380.155	97.56
380.38	92.56
380.606	86.56
380.831	91.56
381.057	92.56
381.282	98.56
381.507	94.56
381.733	89.56
381.958	85.56
382.184	82.56
382.409	98.56
382.634	97.56
382.86	95.56
383.085	99.56
383.31	101.56
383.535	100.56
383.761	92.56
383.986	100.56
384.211	91.56
384.436	90.56
384.662	102.56
384.887	92.56
385.112	118.56
385.337	104.56
385.562	107.56
385.787	90.56
386.013	105.56
386.238	116.56
386.463	99.56
386.688	111.56
386.913	84.56
387.138	116.56
387.363	102.56
387.588	103.56
387.813	101.56
388.038	112.56
388.263	103.56
388.488	109.56
388.713	92.56
388.938	88.56
389.163	94.56
389.387	99.56
389.612	98.56
389.837	86.56
390.062	95.56
390.287	89.56
390.512	103.56
390.736	103.56
390.961	94.56
391.186	106.56
391.411	96.56
391.636	99.56
391.86	80.56
392.085	70.56
392.31	91.56
392.534	99.56
392.759	90.56
392.984	95.56
393.208	89.56
393.433	88.56
393.658	83.56
393.882	78.56
394.107	78.56
394.331	85.56
394.556	79.56
394.78	88.56
395.005	95.56
395.229	89.56
395.454	85.56
395.678	74.56
395.903	88.56
396.127	80.56
396.352	90.56
396.576	79.56
396.801	80.56
397.025	82.56
397.249	79.56
397.474	83.56
397.698	88.56
397.922	95.56
398.147	85.56
398.371	78.56
398.595	102.56
398.82	81.56
399.044	79.56
399.268	83.56
399.492	95.56
399.717	99.56
399.941	81.56
400.165	82.56
400.389	92.56
400.613	90.56
400.837	89.56
401.062	80.56
401.286	90.56
401.51	86.56
401.734	87.56
401.958	107.56
402.182	113.56
402.406	145.56
402.63	109.56
402.854	99.56
403.078	87.56
403.302	80.56
403.526	75.56
403.75	78.56
403.974	63.56
404.198	78.56
404.422	70.56
404.645	84.56
404.869	84.56
405.093	91.56
405.317	87.56
405.541	86.56
405.765	84.56
405.988	118.56
406.212	174.56
406.436	216.56
406.66	138.56
406.883	99.56
407.107	90.56
407.331	91.56
407.555	100.56
407.778	98.56
408.002	96.56
408.226	81.56
408.449	93.56
408.673	98.56
408.896	77.56
409.12	95.56
409.344	84.56
409.567	90.56
409.791	90.56
410.014	90.56
410.238	91.56
410.461	92.56
410.685	106.56
410.908	98.56
411.132	110.56
411.355	105.56
411.578	99.56
411.802	95.56
412.025	83.56
412.249	80.56
412.472	79.56
412.695	90.56
412.919	95.56
413.142	81.56
413.365	90.56
413.589	87.56
413.812	77.56
414.035	93.56
414.258	86.56
414.482	96.56
414.705	94.56
414.928	83.56
415.151	103.56
415.374	86.56
415.597	91.56
415.821	84.56
416.044	89.56
416.267	84.56
416.49	94.56
416.713	90.56
416.936	84.56
417.159	85.56
417.382	81.56
417.605	77.56
417.828	97.56
418.051	103.56
418.274	95.56
418.497	93.56
418.72	81.56
418.943	103.56
419.166	75.56
419.389	86.56
419.611	93.56
419.834	101.56
420.057	84.56
420.28	88.56
420.503	79.56
420.726	83.56
420.948	77.56
421.171	93.56
421.394	97.56
421.617	82.56
421.839	98.56
422.062	92.56
422.285	98.56
422.507	100.56
422.73	94.56
422.953	87.56
423.175	74.56
423.398	81.56
423.621	88.56
423.843	85.56
424.066	86.56
424.288	91.56
424.511	94.56
424.733	98.56
424.956	107.56
425.178	95.56
425.401	88.56
425.623	114.56
425.846	91.56
426.068	88.56
426.291	89.56
426.513	94.56
426.735	96.56
426.958	97.56
427.18	95.56
427.402	121.56
427.625	164.56
427.847	127.56
428.069	104.56
428.292	101.56
428.514	87.56
428.736	80.56
428.958	85.56
429.181	75.56
429.403	93.56
429.625	89.56
429.847	99.56
430.069	101.56
430.292	98.56
430.514	78.56
430.736	89.56
430.958	86.56
431.18	82.56
431.402	97.56
431.624	92.56
431.846	96.56
432.068	85.56
432.29	68.56
432.512	82.56
432.734	87.56
432.956	98.56
433.178	96.56
433.4	107.56
433.622	78.56
433.844	94.56
434.066	95.56
434.287	94.56
434.509	79.56
434.731	79.56
434.953	85.56
435.175	89.56
435.397	97.56
435.618	95.56
435.84	102.56
436.062	108.56
436.284	114.56
436.505	92.56
436.727	90.56
436.949	93.56
437.17	87.56
437.392	82.56
437.614	96.56
437.835	96.56
438.057	110.56
438.278	97.56
438.5	108.56
438.721	107.56
438.943	90.56
439.165	86.56
439.386	74.56
439.608	87.56
439.829	98.56
440.05	135.56
440.272	143.56
440.493	99.56
440.715	77.56
440.936	85.56
441.158	79.56
441.379	76.56
441.6	99.56
441.822	97.56
442.043	91.56
442.264	98.56
442.486	97.56
442.707	91.56
442.928	99.56
443.149	109.56
443.371	118.56
443.592	110.56
443.813	98.56
444.034	91.56
444.255	99.56
444.476	82.56
444.698	83.56
444.919	87.56
445.14	130.56
445.361	115.56
445.582	106.56
445.803	137.56
446.024	113.56
446.245	129.56
446.466	94.56
446.687	81.56
446.908	78.56
447.129	79.56
447.35	79.56
447.571	89.56
447.792	87.56
448.013	81.56
448.234	96.56
448.455	99.56
448.675	99.56
448.896	112.56
449.117	87.56
449.338	95.56
449.559	139.56
449.779	131.56
450	88.56
450.221	90.56
450.442	91.56
450.662	91.56
450.883	102.56
451.104	102.56
451.324	87.56
451.545	86.56
451.766	82.56
451.986	90.56
452.207	90.56
452.428	86.56
452.648	86.56
452.869	118.56
453.089	96.56
453.31	113.56
453.53	96.56
453.751	85.56
453.971	103.56
454.192	105.56
454.412	76.56
454.633	82.56
454.853	96.56
455.073	83.56
455.294	93.56
455.514	87.56
455.734	75.56
455.955	95.56
456.175	96.56
456.395	88.56
456.616	85.56
456.836	81.56
457.056	65.56
457.276	66.56
457.497	95.56
457.717	95.56
457.937	70.56
458.157	76.56
458.377	80.56
458.598	103.56
458.818	153.56
459.038	150.56
459.258	115.56
459.478	90.56
459.698	79.56
459.918	92.56
460.138	77.56
460.358	82.56
460.578	86.56
460.798	95.56
461.018	99.56
461.238	79.56
461.458	91.56
461.678	93.56
461.898	89.56
462.118	70.56
462.338	75.56
462.558	100.56
462.777	80.56
462.997	88.56
463.217	73.56
463.437	84.56
463.657	76.56
463.876	87.56
464.096	83.56
464.316	92.56
464.536	90.56
464.755	94.56
464.975	97.56
465.195	161.56
465.414	137.56
465.634	84.56
465.854	95.56
466.073	93.56
466.293	81.56
466.512	82.56
466.732	83.56
466.951	77.56
467.171	97.56
467.391	95.56
467.61	87.56
467.829	85.56
468.049	86.56
468.268	90.56
468.488	81.56
468.707	87.56
468.927	85.56
469.146	86.56
469.365	82.56
469.585	87.56
469.804	109.56
470.023	95.56
470.243	80.56
470.462	104.56
470.681	105.56
470.901	82.56
471.12	86.56
471.339	85.56
471.558	86.56
471.777	86.56
471.997	82.56
472.216	84.56
472.435	91.56
472.654	88.56
472.873	100.56
473.092	92.56
473.311	85.56
473.53	79.56
473.749	96.56
473.968	105.56
474.187	113.56
474.406	89.56
474.625	93.56
474.844	89.56
475.063	92.56
475.282	89.56
475.501	79.56
475.72	97.56
475.939	80.56
476.158	83.56
476.377	85.56
476.596	87.56
476.814	79.56
477.033	85.56
477.252	85.56
477.471	83.56
477.69	86.56
477.908	85.56
478.127	80.56
478.346	86.56
478.564	84.56
478.783	103.56
479.002	90.56
479.22	80.56
479.439	84.56
479.658	96.56
479.876	88.56
480.095	98.56
480.313	88.56
480.532	104.56
480.751	83.56
480.969	87.56
481.188	111.56
481.406	97.56
481.624	99.56
481.843	89.56
482.061	85.56
482.28	104.56
482.498	93.56
482.717	78.56
482.935	87.56
483.153	77.56
483.372	92.56
483.59	85.56
483.808	88.56
484.027	93.56
484.245	84.56
484.463	92.56
484.681	93.56
484.9	90.56
485.118	99.56
485.336	99.56
485.554	101.56
485.772	90.56
485.99	99.56
486.209	99.56
486.427	105.56
486.645	108.56
486.863	95.56
487.081	91.56
487.299	102.56
487.517	90.56
487.735	94.56
487.953	91.56
488.171	89.56
488.389	93.56
488.607	97.56
488.825	98.56
489.043	87.56
489.261	90.56
489.479	81.56
489.696	93.56
489.914	87.56
490.132	73.56
490.35	101.56
490.568	74.56
490.786	82.56
491.003	93.56
491.221	83.56
491.439	80.56
491.657	98.56
491.874	88.56
492.092	88.56
492.31	99.56
492.527	91.56
492.745	80.56
492.963	97.56
493.18	90.56
493.398	107.56
493.615	93.56
493.833	102.56
494.05	93.56
494.268	94.56
494.485	92.56
494.703	82.56
494.92	90.56
495.138	98.56
495.355	85.56
495.573	84.56
495.79	87.56
496.008	86.56
496.225	105.56
496.442	90.56
496.66	76.56
496.877	95.56
497.094	89.56
497.312	89.56
497.529	82.56
497.746	87.56
497.963	80.56
498.181	86.56
498.398	93.56
498.615	101.56
498.832	103.56
499.049	88.56
499.267	96.56
499.484	89.56
499.701	83.56
499.918	88.56
500.135	73.56
500.352	77.56
500.569	92.56
500.786	94.56
501.003	78.56
501.22	89.56
501.437	93.56
501.654	101.56
501.871	98.56
502.088	99.56
502.305	105.56
502.522	81.56
502.739	90.56
502.956	85.56
503.172	89.56
503.389	90.56
503.606	95.56
503.823	94.56
504.04	81.56
504.256	72.56
504.473	94.56
504.69	89.56
504.907	98.56
505.123	77.56
505.34	82.56
505.557	96.56
505.773	89.56
505.99	77.56
506.207	79.56
506.423	76.56
506.64	98.56
506.856	93.56
507.073	87.56
507.289	89.56
507.506	97.56
507.722	102.56
507.939	107.56
508.155	109.56
508.372	100.56
508.588	86.56
508.805	99.56
509.021	97.56
509.238	92.56
509.454	85.56
509.67	91.56
509.887	87.56
510.103	109.56
510.319	200.56
510.536	696.56
510.752	2165.56
510.968	607.56
511.184	152.56
511.401	115.56
511.617	98.56
511.833	86.56
512.049	91.56
512.265	93.56
512.481	100.56
512.698	87.56
512.914	90.56
513.13	97.56
513.346	94.56
513.562	97.56
513.778	83.56
513.994	96.56
514.21	90.56
514.426	115.56
514.642	117.56
514.858	122.56
515.074	152.56
515.29	389.56
515.506	1324.56
515.721	501.56
515.937	139.56
516.153	102.56
516.369	90.56
516.585	83.56
