Data from Uncirc_1997_H10_HRD10591_00028.txt Node
Date: Wed Jan 03 11:28:36 EST 2024
User: Yrep
Spectrometer: HR+D1059
Trigger mode: 1
Integration Time (sec): 1.000000E-1
Scans to average: 1
Electric dark correction enabled: true
Nonlinearity correction enabled: false
Boxcar width: 0
XAxis mode: Wavelengths
Number of Pixels in Spectrum: 2048
>>>>>Begin Spectral Data<<<<<
223.165	-14.88
223.4	-14.88
223.635	-14.88
223.869	-18.88
224.104	-21.88
224.338	-26.88
224.573	-18.88
224.808	-26.88
225.042	-7.88
225.277	7.12
225.511	-1.88
225.746	-2.88
225.98	11.12
226.215	15.12
226.449	20.12
226.683	25.12
226.918	26.12
227.152	36.12
227.387	44.12
227.621	37.12
227.856	52.12
228.09	48.12
228.324	49.12
228.559	58.12
228.793	58.12
229.027	75.12
229.262	72.12
229.496	51.12
229.73	84.12
229.964	88.12
230.199	71.12
230.433	76.12
230.667	63.12
230.901	73.12
231.136	80.12
231.37	86.12
231.604	75.12
231.838	73.12
232.072	86.12
232.306	68.12
232.541	82.12
232.775	73.12
233.009	95.12
233.243	88.12
233.477	73.12
233.711	68.12
233.945	91.12
234.179	81.12
234.413	86.12
234.647	74.12
234.881	91.12
235.115	77.12
235.349	85.12
235.583	71.12
235.817	83.12
236.051	85.12
236.285	85.12
236.519	79.12
236.753	67.12
236.987	82.12
237.221	74.12
237.455	95.12
237.689	98.12
237.922	77.12
238.156	75.12
238.39	87.12
238.624	75.12
238.858	76.12
239.091	75.12
239.325	73.12
239.559	66.12
239.793	73.12
240.027	79.12
240.26	81.12
240.494	82.12
240.728	89.12
240.961	77.12
241.195	76.12
241.429	78.12
241.662	78.12
241.896	80.12
242.13	82.12
242.363	84.12
242.597	76.12
242.83	76.12
243.064	82.12
243.298	83.12
243.531	87.12
243.765	78.12
243.998	83.12
244.232	83.12
244.465	80.12
244.699	86.12
244.932	79.12
245.166	90.12
245.399	71.12
245.633	91.12
245.866	94.12
246.099	77.12
246.333	101.12
246.566	75.12
246.8	82.12
247.033	87.12
247.266	63.12
247.5	67.12
247.733	88.12
247.966	92.12
248.2	87.12
248.433	84.12
248.666	91.12
248.899	79.12
249.133	96.12
249.366	87.12
249.599	87.12
249.832	95.12
250.066	87.12
250.299	79.12
250.532	79.12
250.765	98.12
250.998	62.12
251.231	81.12
251.465	75.12
251.698	84.12
251.931	81.12
252.164	84.12
252.397	76.12
252.63	85.12
252.863	71.12
253.096	77.12
253.329	73.12
253.562	80.12
253.795	75.12
254.028	81.12
254.261	71.12
254.494	78.12
254.727	95.12
254.96	77.12
255.193	77.12
255.426	75.12
255.659	81.12
255.892	75.12
256.124	82.12
256.357	94.12
256.59	82.12
256.823	92.12
257.056	92.12
257.289	84.12
257.521	78.12
257.754	77.12
257.987	77.12
258.22	84.12
258.452	84.12
258.685	83.12
258.918	81.12
259.151	81.12
259.383	81.12
259.616	83.12
259.849	82.12
260.081	75.12
260.314	95.12
260.547	98.12
260.779	89.12
261.012	78.12
261.244	92.12
261.477	69.12
261.71	100.12
261.942	90.12
262.175	100.12
262.407	84.12
262.64	80.12
262.872	68.12
263.105	92.12
263.337	83.12
263.57	67.12
263.802	76.12
264.035	83.12
264.267	81.12
264.499	82.12
264.732	92.12
264.964	92.12
265.197	79.12
265.429	81.12
265.661	64.12
265.894	85.12
266.126	79.12
266.358	94.12
266.591	88.12
266.823	88.12
267.055	82.12
267.287	98.12
267.52	82.12
267.752	83.12
267.984	89.12
268.216	99.12
268.448	90.12
268.681	75.12
268.913	83.12
269.145	83.12
269.377	87.12
269.609	80.12
269.841	89.12
270.073	88.12
270.306	77.12
270.538	85.12
270.77	88.12
271.002	84.12
271.234	83.12
271.466	92.12
271.698	90.12
271.93	96.12
272.162	77.12
272.394	94.12
272.626	79.12
272.858	73.12
273.09	89.12
273.322	85.12
273.553	94.12
273.785	88.12
274.017	84.12
274.249	67.12
274.481	81.12
274.713	83.12
274.945	85.12
275.176	89.12
275.408	87.12
275.64	83.12
275.872	93.12
276.104	83.12
276.335	79.12
276.567	85.12
276.799	98.12
277.031	100.12
277.262	88.12
277.494	88.12
277.726	103.12
277.957	89.12
278.189	77.12
278.421	97.12
278.652	86.12
278.884	89.12
279.115	82.12
279.347	73.12
279.579	82.12
279.81	89.12
280.042	81.12
280.273	89.12
280.505	91.12
280.736	90.12
280.968	83.12
281.199	91.12
281.431	83.12
281.662	79.12
281.894	89.12
282.125	90.12
282.356	108.12
282.588	124.12
282.819	112.12
283.051	92.12
283.282	79.12
283.513	85.12
283.745	87.12
283.976	83.12
284.207	85.12
284.439	74.12
284.67	87.12
284.901	83.12
285.132	74.12
285.364	89.12
285.595	76.12
285.826	92.12
286.057	84.12
286.288	92.12
286.52	85.12
286.751	87.12
286.982	93.12
287.213	80.12
287.444	92.12
287.675	83.12
287.906	88.12
288.138	99.12
288.369	75.12
288.6	81.12
288.831	82.12
289.062	87.12
289.293	88.12
289.524	93.12
289.755	92.12
289.986	79.12
290.217	100.12
290.448	90.12
290.679	83.12
290.91	92.12
291.141	93.12
291.371	92.12
291.602	101.12
291.833	85.12
292.064	83.12
292.295	97.12
292.526	84.12
292.757	81.12
292.987	79.12
293.218	83.12
293.449	91.12
293.68	80.12
293.91	98.12
294.141	88.12
294.372	87.12
294.603	93.12
294.833	90.12
295.064	87.12
295.295	95.12
295.525	89.12
295.756	83.12
295.987	116.12
296.217	111.12
296.448	101.12
296.679	91.12
296.909	99.12
297.14	93.12
297.37	92.12
297.601	88.12
297.831	85.12
298.062	89.12
298.292	94.12
298.523	89.12
298.753	83.12
298.984	88.12
299.214	81.12
299.445	93.12
299.675	83.12
299.905	85.12
300.136	109.12
300.366	88.12
300.597	92.12
300.827	87.12
301.057	99.12
301.288	102.12
301.518	98.12
301.748	106.12
301.979	115.12
302.209	83.12
302.439	91.12
302.669	93.12
302.9	88.12
303.13	98.12
303.36	97.12
303.59	81.12
303.82	98.12
304.051	110.12
304.281	76.12
304.511	84.12
304.741	84.12
304.971	96.12
305.201	97.12
305.431	97.12
305.661	95.12
305.891	96.12
306.121	83.12
306.352	99.12
306.582	94.12
306.812	101.12
307.042	94.12
307.272	96.12
307.502	105.12
307.731	94.12
307.961	96.12
308.191	95.12
308.421	97.12
308.651	87.12
308.881	98.12
309.111	92.12
309.341	100.12
309.571	85.12
309.8	89.12
310.03	86.12
310.26	95.12
310.49	92.12
310.72	95.12
310.949	95.12
311.179	101.12
311.409	91.12
311.639	79.12
311.868	91.12
312.098	108.12
312.328	98.12
312.557	98.12
312.787	92.12
313.017	112.12
313.246	81.12
313.476	98.12
313.706	89.12
313.935	94.12
314.165	81.12
314.394	108.12
314.624	97.12
314.853	91.12
315.083	94.12
315.312	93.12
315.542	93.12
315.771	93.12
316.001	81.12
316.23	98.12
316.46	96.12
316.689	100.12
316.919	96.12
317.148	108.12
317.377	89.12
317.607	89.12
317.836	74.12
318.065	96.12
318.295	98.12
318.524	96.12
318.753	87.12
318.983	90.12
319.212	106.12
319.441	106.12
319.67	106.12
319.9	96.12
320.129	94.12
320.358	101.12
320.587	87.12
320.816	99.12
321.046	87.12
321.275	90.12
321.504	97.12
321.733	94.12
321.962	97.12
322.191	112.12
322.42	103.12
322.649	106.12
322.878	99.12
323.108	101.12
323.337	116.12
323.566	121.12
323.795	144.12
324.024	188.12
324.253	351.12
324.482	701.12
324.71	1457.12
324.939	1847.12
325.168	695.12
325.397	220.12
325.626	125.12
325.855	118.12
326.084	124.12
326.313	110.12
326.542	151.12
326.77	204.12
326.999	409.12
327.228	841.12
327.457	1458.12
327.686	1164.12
327.914	321.12
328.143	164.12
328.372	126.12
328.6	107.12
328.829	110.12
329.058	121.12
329.287	124.12
329.515	100.12
329.744	85.12
329.972	111.12
330.201	96.12
330.43	105.12
330.658	112.12
330.887	141.12
331.115	113.12
331.344	97.12
331.572	87.12
331.801	96.12
332.03	99.12
332.258	96.12
332.486	100.12
332.715	98.12
332.943	96.12
333.172	107.12
333.4	101.12
333.629	98.12
333.857	102.12
334.085	98.12
334.314	94.12
334.542	98.12
334.771	100.12
334.999	87.12
335.227	92.12
335.455	95.12
335.684	88.12
335.912	79.12
336.14	85.12
336.369	99.12
336.597	95.12
336.825	101.12
337.053	91.12
337.281	95.12
337.51	77.12
337.738	90.12
337.966	99.12
338.194	101.12
338.422	99.12
338.65	81.12
338.878	83.12
339.106	79.12
339.334	92.12
339.562	71.12
339.79	89.12
340.018	87.12
340.246	98.12
340.474	101.12
340.702	91.12
340.93	96.12
341.158	99.12
341.386	97.12
341.614	93.12
341.842	96.12
342.07	105.12
342.298	85.12
342.526	97.12
342.754	74.12
342.981	96.12
343.209	81.12
343.437	93.12
343.665	97.12
343.893	92.12
344.12	92.12
344.348	93.12
344.576	88.12
344.804	107.12
345.031	89.12
345.259	99.12
345.487	107.12
345.714	96.12
345.942	103.12
346.17	98.12
346.397	93.12
346.625	95.12
346.853	91.12
347.08	93.12
347.308	96.12
347.535	96.12
347.763	98.12
347.99	99.12
348.218	95.12
348.445	89.12
348.673	101.12
348.9	104.12
349.128	80.12
349.355	95.12
349.583	87.12
349.81	93.12
350.037	82.12
350.265	96.12
350.492	87.12
350.72	87.12
350.947	108.12
351.174	103.12
351.402	93.12
351.629	115.12
351.856	107.12
352.083	109.12
352.311	116.12
352.538	108.12
352.765	116.12
352.992	106.12
353.22	115.12
353.447	110.12
353.674	96.12
353.901	90.12
354.128	93.12
354.355	113.12
354.583	113.12
354.81	91.12
355.037	93.12
355.264	94.12
355.491	81.12
355.718	97.12
355.945	106.12
356.172	98.12
356.399	112.12
356.626	99.12
356.853	101.12
357.08	84.12
357.307	103.12
357.534	87.12
357.761	89.12
357.988	93.12
358.215	91.12
358.441	98.12
358.668	89.12
358.895	80.12
359.122	87.12
359.349	95.12
359.576	84.12
359.802	112.12
360.029	113.12
360.256	106.12
360.483	74.12
360.709	101.12
360.936	106.12
361.163	87.12
361.39	83.12
361.616	95.12
361.843	83.12
362.07	100.12
362.296	102.12
362.523	77.12
362.749	93.12
362.976	94.12
363.203	84.12
363.429	77.12
363.656	84.12
363.882	92.12
364.109	101.12
364.335	104.12
364.562	79.12
364.788	87.12
365.015	88.12
365.241	93.12
365.468	117.12
365.694	105.12
365.92	97.12
366.147	109.12
366.373	110.12
366.599	97.12
366.826	80.12
367.052	91.12
367.278	81.12
367.505	98.12
367.731	94.12
367.957	98.12
368.184	92.12
368.41	99.12
368.636	104.12
368.862	124.12
369.089	89.12
369.315	107.12
369.541	80.12
369.767	88.12
369.993	85.12
370.219	88.12
370.445	98.12
370.672	92.12
370.898	90.12
371.124	99.12
371.35	83.12
371.576	100.12
371.802	80.12
372.028	88.12
372.254	85.12
372.48	91.12
372.706	94.12
372.932	82.12
373.158	101.12
373.384	96.12
373.61	104.12
373.835	83.12
374.061	81.12
374.287	95.12
374.513	96.12
374.739	85.12
374.965	88.12
375.191	86.12
375.416	75.12
375.642	84.12
375.868	97.12
376.094	79.12
376.319	94.12
376.545	100.12
376.771	86.12
376.997	92.12
377.222	89.12
377.448	91.12
377.674	92.12
377.899	95.12
378.125	81.12
378.35	99.12
378.576	79.12
378.802	80.12
379.027	90.12
379.253	83.12
379.478	95.12
379.704	97.12
379.929	106.12
380.155	94.12
380.38	101.12
380.606	98.12
380.831	87.12
381.057	83.12
381.282	110.12
381.507	84.12
381.733	99.12
381.958	79.12
382.184	100.12
382.409	84.12
382.634	100.12
382.86	106.12
383.085	105.12
383.31	100.12
383.535	94.12
383.761	87.12
383.986	96.12
384.211	88.12
384.436	106.12
384.662	97.12
384.887	107.12
385.112	87.12
385.337	107.12
385.562	114.12
385.787	108.12
386.013	105.12
386.238	118.12
386.463	101.12
386.688	104.12
386.913	83.12
387.138	105.12
387.363	110.12
387.588	100.12
387.813	99.12
388.038	105.12
388.263	113.12
388.488	111.12
388.713	87.12
388.938	90.12
389.163	88.12
389.387	87.12
389.612	81.12
389.837	99.12
390.062	89.12
390.287	105.12
390.512	95.12
390.736	81.12
390.961	95.12
391.186	83.12
391.411	89.12
391.636	97.12
391.86	94.12
392.085	102.12
392.31	81.12
392.534	82.12
392.759	107.12
392.984	92.12
393.208	95.12
393.433	99.12
393.658	100.12
393.882	89.12
394.107	93.12
394.331	84.12
394.556	99.12
394.78	82.12
395.005	97.12
395.229	88.12
395.454	93.12
395.678	98.12
395.903	75.12
396.127	83.12
396.352	96.12
396.576	87.12
396.801	78.12
397.025	90.12
397.249	67.12
397.474	82.12
397.698	89.12
397.922	100.12
398.147	97.12
398.371	87.12
398.595	88.12
398.82	71.12
399.044	87.12
399.268	72.12
399.492	78.12
399.717	100.12
399.941	99.12
400.165	99.12
400.389	92.12
400.613	92.12
400.837	81.12
401.062	94.12
401.286	96.12
401.51	93.12
401.734	103.12
401.958	79.12
402.182	108.12
402.406	136.12
402.63	117.12
402.854	95.12
403.078	91.12
403.302	92.12
403.526	91.12
403.75	85.12
403.974	78.12
404.198	78.12
404.422	96.12
404.645	86.12
404.869	89.12
405.093	91.12
405.317	89.12
405.541	88.12
405.765	103.12
405.988	110.12
406.212	149.12
406.436	183.12
406.66	120.12
406.883	99.12
407.107	90.12
407.331	87.12
407.555	103.12
407.778	96.12
408.002	104.12
408.226	95.12
408.449	91.12
408.673	76.12
408.896	105.12
409.12	90.12
409.344	96.12
409.567	104.12
409.791	98.12
410.014	99.12
410.238	93.12
410.461	90.12
410.685	107.12
410.908	91.12
411.132	93.12
411.355	99.12
411.578	99.12
411.802	91.12
412.025	92.12
412.249	82.12
412.472	75.12
412.695	97.12
412.919	83.12
413.142	73.12
413.365	91.12
413.589	87.12
413.812	65.12
414.035	98.12
414.258	95.12
414.482	92.12
414.705	94.12
414.928	93.12
415.151	97.12
415.374	96.12
415.597	97.12
415.821	98.12
416.044	99.12
416.267	99.12
416.49	89.12
416.713	91.12
416.936	86.12
417.159	87.12
417.382	86.12
417.605	92.12
417.828	100.12
418.051	95.12
418.274	85.12
418.497	90.12
418.72	82.12
418.943	92.12
419.166	84.12
419.389	88.12
419.611	95.12
419.834	90.12
420.057	89.12
420.28	84.12
420.503	87.12
420.726	89.12
420.948	88.12
421.171	90.12
421.394	79.12
421.617	98.12
421.839	85.12
422.062	71.12
422.285	95.12
422.507	105.12
422.73	102.12
422.953	98.12
423.175	88.12
423.398	82.12
423.621	84.12
423.843	94.12
424.066	83.12
424.288	81.12
424.511	85.12
424.733	87.12
424.956	94.12
425.178	100.12
425.401	101.12
425.623	108.12
425.846	86.12
426.068	86.12
426.291	97.12
426.513	87.12
426.735	105.12
426.958	101.12
427.18	101.12
427.402	134.12
427.625	133.12
427.847	114.12
428.069	105.12
428.292	89.12
428.514	77.12
428.736	81.12
428.958	85.12
429.181	97.12
429.403	84.12
429.625	81.12
429.847	95.12
430.069	107.12
430.292	88.12
430.514	93.12
430.736	93.12
430.958	84.12
431.18	89.12
431.402	77.12
431.624	90.12
431.846	71.12
432.068	79.12
432.29	79.12
432.512	104.12
432.734	83.12
432.956	83.12
433.178	86.12
433.4	96.12
433.622	95.12
433.844	96.12
434.066	80.12
434.287	93.12
434.509	83.12
434.731	95.12
434.953	76.12
435.175	96.12
435.397	87.12
435.618	90.12
435.84	112.12
436.062	113.12
436.284	111.12
436.505	95.12
436.727	90.12
436.949	99.12
437.17	86.12
437.392	92.12
437.614	82.12
437.835	91.12
438.057	107.12
438.278	116.12
438.5	107.12
438.721	123.12
438.943	92.12
439.165	87.12
439.386	92.12
439.608	87.12
439.829	97.12
440.05	109.12
440.272	105.12
440.493	93.12
440.715	79.12
440.936	102.12
441.158	79.12
441.379	96.12
441.6	84.12
441.822	107.12
442.043	98.12
442.264	98.12
442.486	94.12
442.707	95.12
442.928	89.12
443.149	107.12
443.371	103.12
443.592	89.12
443.813	104.12
444.034	98.12
444.255	84.12
444.476	84.12
444.698	99.12
444.919	76.12
445.14	141.12
445.361	121.12
445.582	93.12
445.803	116.12
446.024	116.12
446.245	108.12
446.466	92.12
446.687	93.12
446.908	87.12
447.129	78.12
447.35	96.12
447.571	83.12
447.792	98.12
448.013	103.12
448.234	93.12
448.455	116.12
448.675	110.12
448.896	116.12
449.117	99.12
449.338	98.12
449.559	111.12
449.779	131.12
450	114.12
450.221	95.12
450.442	82.12
450.662	99.12
450.883	106.12
451.104	107.12
451.324	90.12
451.545	81.12
451.766	75.12
451.986	98.12
452.207	99.12
452.428	82.12
452.648	94.12
452.869	98.12
453.089	107.12
453.31	101.12
453.53	92.12
453.751	110.12
453.971	90.12
454.192	106.12
454.412	90.12
454.633	96.12
454.853	96.12
455.073	94.12
455.294	96.12
455.514	99.12
455.734	93.12
455.955	78.12
456.175	77.12
456.395	68.12
456.616	87.12
456.836	95.12
457.056	72.12
457.276	70.12
457.497	95.12
457.717	96.12
457.937	68.12
458.157	92.12
458.377	77.12
458.598	101.12
458.818	138.12
459.038	126.12
459.258	105.12
459.478	83.12
459.698	84.12
459.918	90.12
460.138	95.12
460.358	81.12
460.578	100.12
460.798	88.12
461.018	84.12
461.238	92.12
461.458	83.12
461.678	84.12
461.898	89.12
462.118	91.12
462.338	88.12
462.558	90.12
462.777	93.12
462.997	90.12
463.217	92.12
463.437	74.12
463.657	92.12
463.876	87.12
464.096	91.12
464.316	81.12
464.536	95.12
464.755	97.12
464.975	110.12
465.195	140.12
465.414	139.12
465.634	100.12
465.854	90.12
466.073	78.12
466.293	83.12
466.512	84.12
466.732	70.12
466.951	69.12
467.171	87.12
467.391	89.12
467.61	102.12
467.829	86.12
468.049	75.12
468.268	92.12
468.488	78.12
468.707	86.12
468.927	98.12
469.146	93.12
469.365	94.12
469.585	80.12
469.804	91.12
470.023	94.12
470.243	92.12
470.462	82.12
470.681	103.12
470.901	75.12
471.12	87.12
471.339	83.12
471.558	102.12
471.777	90.12
471.997	85.12
472.216	87.12
472.435	96.12
472.654	92.12
472.873	76.12
473.092	87.12
473.311	73.12
473.53	96.12
473.749	96.12
473.968	76.12
474.187	105.12
474.406	82.12
474.625	85.12
474.844	79.12
475.063	90.12
475.282	87.12
475.501	88.12
475.72	93.12
475.939	93.12
476.158	104.12
476.377	84.12
476.596	95.12
476.814	97.12
477.033	95.12
477.252	99.12
477.471	91.12
477.69	95.12
477.908	81.12
478.127	99.12
478.346	89.12
478.564	93.12
478.783	95.12
479.002	90.12
479.22	92.12
479.439	98.12
479.658	97.12
479.876	90.12
480.095	84.12
480.313	81.12
480.532	104.12
480.751	96.12
480.969	90.12
481.188	95.12
481.406	101.12
481.624	97.12
481.843	104.12
482.061	87.12
482.28	100.12
482.498	93.12
482.717	89.12
482.935	93.12
483.153	81.12
483.372	92.12
483.59	87.12
483.808	94.12
484.027	94.12
484.245	103.12
484.463	90.12
484.681	105.12
484.9	88.12
485.118	86.12
485.336	106.12
485.554	101.12
485.772	100.12
485.99	99.12
486.209	106.12
486.427	91.12
486.645	103.12
486.863	115.12
487.081	97.12
487.299	111.12
487.517	90.12
487.735	73.12
487.953	101.12
488.171	87.12
488.389	91.12
488.607	105.12
488.825	89.12
489.043	90.12
489.261	103.12
489.479	95.12
489.696	80.12
489.914	96.12
490.132	102.12
490.35	101.12
490.568	84.12
490.786	91.12
491.003	91.12
491.221	88.12
491.439	89.12
491.657	91.12
491.874	106.12
492.092	95.12
492.31	108.12
492.527	103.12
492.745	101.12
492.963	80.12
493.18	93.12
493.398	110.12
493.615	110.12
493.833	107.12
494.05	93.12
494.268	101.12
494.485	87.12
494.703	105.12
494.92	90.12
495.138	89.12
495.355	79.12
495.573	96.12
495.79	77.12
496.008	91.12
496.225	95.12
496.442	83.12
496.66	89.12
496.877	95.12
497.094	83.12
497.312	95.12
497.529	99.12
497.746	107.12
497.963	90.12
498.181	91.12
498.398	96.12
498.615	108.12
498.832	114.12
499.049	95.12
499.267	88.12
499.484	88.12
499.701	104.12
499.918	80.12
500.135	75.12
500.352	86.12
500.569	84.12
500.786	92.12
501.003	84.12
501.22	91.12
501.437	110.12
501.654	95.12
501.871	96.12
502.088	102.12
502.305	103.12
502.522	95.12
502.739	89.12
502.956	93.12
503.172	77.12
503.389	101.12
503.606	94.12
503.823	82.12
504.04	88.12
504.256	94.12
504.473	84.12
504.69	90.12
504.907	93.12
505.123	94.12
505.34	85.12
505.557	94.12
505.773	107.12
505.99	95.12
506.207	93.12
506.423	90.12
506.64	106.12
506.856	85.12
507.073	85.12
507.289	102.12
507.506	108.12
507.722	99.12
507.939	97.12
508.155	98.12
508.372	98.12
508.588	92.12
508.805	89.12
509.021	107.12
509.238	104.12
509.454	106.12
509.67	108.12
509.887	111.12
510.103	122.12
510.319	192.12
510.536	604.12
510.752	1807.12
510.968	525.12
511.184	143.12
511.401	103.12
511.617	95.12
511.833	87.12
512.049	95.12
512.265	92.12
512.481	87.12
512.698	98.12
512.914	88.12
513.13	90.12
513.346	114.12
513.562	99.12
513.778	105.12
513.994	96.12
514.21	101.12
514.426	108.12
514.642	122.12
514.858	124.12
515.074	149.12
515.29	356.12
515.506	1086.12
515.721	411.12
515.937	137.12
