Data from Uncirc_1997_H10_HRD10591_00041.txt Node
Date: Wed Jan 03 11:28:38 EST 2024
User: Yrep
Spectrometer: HR+D1059
Trigger mode: 1
Integration Time (sec): 1.000000E-1
Scans to average: 1
Electric dark correction enabled: true
Nonlinearity correction enabled: false
Boxcar width: 0
XAxis mode: Wavelengths
Number of Pixels in Spectrum: 2048
>>>>>Begin Spectral Data<<<<<
223.165	-11.5
223.4	-11.5
223.635	-11.5
223.869	-19.5
224.104	-19.5
224.338	-30.5
224.573	-22.5
224.808	-22.5
225.042	-5.5
225.277	-0.5
225.511	9.5
225.746	5.5
225.98	9.5
226.215	25.5
226.449	13.5
226.683	25.5
226.918	17.5
227.152	25.5
227.387	29.5
227.621	51.5
227.856	38.5
228.09	53.5
228.324	43.5
228.559	61.5
228.793	58.5
229.027	65.5
229.262	76.5
229.496	69.5
229.73	86.5
229.964	86.5
230.199	59.5
230.433	71.5
230.667	78.5
230.901	73.5
231.136	76.5
231.37	73.5
231.604	94.5
231.838	89.5
232.072	65.5
232.306	81.5
232.541	84.5
232.775	93.5
233.009	74.5
233.243	73.5
233.477	70.5
233.711	82.5
233.945	81.5
234.179	77.5
234.413	69.5
234.647	64.5
234.881	61.5
235.115	79.5
235.349	89.5
235.583	95.5
235.817	86.5
236.051	81.5
236.285	72.5
236.519	77.5
236.753	75.5
236.987	94.5
237.221	88.5
237.455	83.5
237.689	84.5
237.922	84.5
238.156	72.5
238.39	62.5
238.624	64.5
238.858	76.5
239.091	80.5
239.325	77.5
239.559	85.5
239.793	81.5
240.027	80.5
240.26	86.5
240.494	85.5
240.728	76.5
240.961	70.5
241.195	75.5
241.429	61.5
241.662	60.5
241.896	63.5
242.13	71.5
242.363	65.5
242.597	79.5
242.83	95.5
243.064	79.5
243.298	83.5
243.531	71.5
243.765	78.5
243.998	82.5
244.232	94.5
244.465	81.5
244.699	78.5
244.932	61.5
245.166	64.5
245.399	63.5
245.633	82.5
245.866	96.5
246.099	83.5
246.333	81.5
246.566	79.5
246.8	78.5
247.033	75.5
247.266	85.5
247.5	67.5
247.733	79.5
247.966	90.5
248.2	80.5
248.433	75.5
248.666	63.5
248.899	81.5
249.133	95.5
249.366	96.5
249.599	88.5
249.832	77.5
250.066	82.5
250.299	85.5
250.532	61.5
250.765	73.5
250.998	82.5
251.231	81.5
251.465	104.5
251.698	80.5
251.931	82.5
252.164	96.5
252.397	88.5
252.63	77.5
252.863	77.5
253.096	89.5
253.329	90.5
253.562	74.5
253.795	77.5
254.028	76.5
254.261	76.5
254.494	76.5
254.727	71.5
254.96	86.5
255.193	85.5
255.426	72.5
255.659	79.5
255.892	83.5
256.124	73.5
256.357	89.5
256.59	85.5
256.823	85.5
257.056	86.5
257.289	63.5
257.521	72.5
257.754	83.5
257.987	83.5
258.22	89.5
258.452	87.5
258.685	86.5
258.918	74.5
259.151	70.5
259.383	88.5
259.616	87.5
259.849	71.5
260.081	85.5
260.314	92.5
260.547	77.5
260.779	82.5
261.012	80.5
261.244	86.5
261.477	89.5
261.71	79.5
261.942	107.5
262.175	110.5
262.407	90.5
262.64	82.5
262.872	82.5
263.105	89.5
263.337	79.5
263.57	87.5
263.802	79.5
264.035	77.5
264.267	63.5
264.499	65.5
264.732	76.5
264.964	87.5
265.197	78.5
265.429	87.5
265.661	82.5
265.894	90.5
266.126	81.5
266.358	78.5
266.591	91.5
266.823	80.5
267.055	81.5
267.287	74.5
267.52	78.5
267.752	99.5
267.984	91.5
268.216	73.5
268.448	90.5
268.681	83.5
268.913	81.5
269.145	64.5
269.377	74.5
269.609	82.5
269.841	84.5
270.073	90.5
270.306	74.5
270.538	71.5
270.77	92.5
271.002	83.5
271.234	77.5
271.466	85.5
271.698	93.5
271.93	87.5
272.162	81.5
272.394	85.5
272.626	83.5
272.858	71.5
273.09	75.5
273.322	91.5
273.553	94.5
273.785	90.5
274.017	77.5
274.249	77.5
274.481	78.5
274.713	97.5
274.945	93.5
275.176	82.5
275.408	92.5
275.64	93.5
275.872	81.5
276.104	88.5
276.335	94.5
276.567	85.5
276.799	103.5
277.031	83.5
277.262	86.5
277.494	89.5
277.726	81.5
277.957	79.5
278.189	82.5
278.421	75.5
278.652	78.5
278.884	89.5
279.115	94.5
279.347	88.5
279.579	84.5
279.81	85.5
280.042	92.5
280.273	89.5
280.505	89.5
280.736	90.5
280.968	82.5
281.199	75.5
281.431	81.5
281.662	87.5
281.894	79.5
282.125	87.5
282.356	104.5
282.588	108.5
282.819	98.5
283.051	91.5
283.282	97.5
283.513	81.5
283.745	88.5
283.976	85.5
284.207	89.5
284.439	86.5
284.67	92.5
284.901	88.5
285.132	97.5
285.364	84.5
285.595	88.5
285.826	86.5
286.057	86.5
286.288	83.5
286.52	90.5
286.751	88.5
286.982	79.5
287.213	77.5
287.444	82.5
287.675	78.5
287.906	86.5
288.138	101.5
288.369	90.5
288.6	77.5
288.831	81.5
289.062	85.5
289.293	79.5
289.524	81.5
289.755	72.5
289.986	80.5
290.217	90.5
290.448	91.5
290.679	102.5
290.91	71.5
291.141	87.5
291.371	79.5
291.602	88.5
291.833	104.5
292.064	93.5
292.295	90.5
292.526	77.5
292.757	74.5
292.987	87.5
293.218	77.5
293.449	83.5
293.68	82.5
293.91	105.5
294.141	78.5
294.372	90.5
294.603	88.5
294.833	99.5
295.064	82.5
295.295	68.5
295.525	71.5
295.756	92.5
295.987	100.5
296.217	129.5
296.448	117.5
296.679	89.5
296.909	86.5
297.14	92.5
297.37	89.5
297.601	93.5
297.831	79.5
298.062	89.5
298.292	82.5
298.523	71.5
298.753	86.5
298.984	88.5
299.214	87.5
299.445	82.5
299.675	83.5
299.905	93.5
300.136	100.5
300.366	84.5
300.597	82.5
300.827	84.5
301.057	93.5
301.288	99.5
301.518	90.5
301.748	82.5
301.979	99.5
302.209	98.5
302.439	94.5
302.669	83.5
302.9	84.5
303.13	98.5
303.36	89.5
303.59	90.5
303.82	87.5
304.051	101.5
304.281	95.5
304.511	85.5
304.741	83.5
304.971	81.5
305.201	77.5
305.431	102.5
305.661	80.5
305.891	79.5
306.121	86.5
306.352	102.5
306.582	99.5
306.812	89.5
307.042	99.5
307.272	84.5
307.502	82.5
307.731	89.5
307.961	81.5
308.191	82.5
308.421	91.5
308.651	99.5
308.881	95.5
309.111	92.5
309.341	95.5
309.571	87.5
309.8	110.5
310.03	97.5
310.26	90.5
310.49	96.5
310.72	83.5
310.949	89.5
311.179	91.5
311.409	95.5
311.639	97.5
311.868	94.5
312.098	99.5
312.328	93.5
312.557	90.5
312.787	75.5
313.017	94.5
313.246	95.5
313.476	108.5
313.706	84.5
313.935	90.5
314.165	92.5
314.394	104.5
314.624	89.5
314.853	80.5
315.083	90.5
315.312	93.5
315.542	91.5
315.771	90.5
316.001	97.5
316.23	87.5
316.46	83.5
316.689	96.5
316.919	90.5
317.148	82.5
317.377	98.5
317.607	86.5
317.836	97.5
318.065	88.5
318.295	77.5
318.524	96.5
318.753	83.5
318.983	85.5
319.212	94.5
319.441	90.5
319.67	105.5
319.9	81.5
320.129	95.5
320.358	100.5
320.587	102.5
320.816	92.5
321.046	103.5
321.275	96.5
321.504	100.5
321.733	92.5
321.962	98.5
322.191	101.5
322.42	102.5
322.649	104.5
322.878	97.5
323.108	105.5
323.337	105.5
323.566	107.5
323.795	137.5
324.024	184.5
324.253	338.5
324.482	658.5
324.71	1357.5
324.939	1743.5
325.168	666.5
325.397	211.5
325.626	132.5
325.855	119.5
326.084	117.5
326.313	124.5
326.542	145.5
326.77	194.5
326.999	398.5
327.228	759.5
327.457	1349.5
327.686	1064.5
327.914	306.5
328.143	162.5
328.372	148.5
328.6	107.5
328.829	111.5
329.058	110.5
329.287	107.5
329.515	108.5
329.744	101.5
329.972	94.5
330.201	105.5
330.43	100.5
330.658	122.5
330.887	121.5
331.115	115.5
331.344	106.5
331.572	99.5
331.801	93.5
332.03	90.5
332.258	103.5
332.486	85.5
332.715	91.5
332.943	87.5
333.172	89.5
333.4	89.5
333.629	93.5
333.857	91.5
334.085	109.5
334.314	94.5
334.542	99.5
334.771	99.5
334.999	106.5
335.227	85.5
335.455	98.5
335.684	95.5
335.912	83.5
336.14	97.5
336.369	101.5
336.597	88.5
336.825	88.5
337.053	103.5
337.281	94.5
337.51	106.5
337.738	94.5
337.966	97.5
338.194	87.5
338.422	93.5
338.65	88.5
338.878	78.5
339.106	92.5
339.334	91.5
339.562	90.5
339.79	101.5
340.018	77.5
340.246	82.5
340.474	105.5
340.702	99.5
340.93	93.5
341.158	93.5
341.386	104.5
341.614	93.5
341.842	94.5
342.07	91.5
342.298	79.5
342.526	100.5
342.754	80.5
342.981	77.5
343.209	93.5
343.437	97.5
343.665	86.5
343.893	83.5
344.12	94.5
344.348	80.5
344.576	83.5
344.804	88.5
345.031	94.5
345.259	93.5
345.487	91.5
345.714	87.5
345.942	83.5
346.17	81.5
346.397	86.5
346.625	85.5
346.853	90.5
347.08	76.5
347.308	85.5
347.535	77.5
347.763	92.5
347.99	89.5
348.218	106.5
348.445	105.5
348.673	101.5
348.9	99.5
349.128	89.5
349.355	81.5
349.583	88.5
349.81	96.5
350.037	87.5
350.265	84.5
350.492	86.5
350.72	95.5
350.947	97.5
351.174	96.5
351.402	113.5
351.629	99.5
351.856	104.5
352.083	105.5
352.311	96.5
352.538	95.5
352.765	105.5
352.992	103.5
353.22	109.5
353.447	99.5
353.674	90.5
353.901	94.5
354.128	98.5
354.355	102.5
354.583	106.5
354.81	89.5
355.037	107.5
355.264	89.5
355.491	96.5
355.718	94.5
355.945	78.5
356.172	87.5
356.399	97.5
356.626	83.5
356.853	89.5
357.08	92.5
357.307	97.5
357.534	86.5
357.761	98.5
357.988	95.5
358.215	103.5
358.441	78.5
358.668	82.5
358.895	95.5
359.122	91.5
359.349	87.5
359.576	73.5
359.802	90.5
360.029	95.5
360.256	106.5
360.483	89.5
360.709	88.5
360.936	91.5
361.163	82.5
361.39	94.5
361.616	85.5
361.843	85.5
362.07	96.5
362.296	95.5
362.523	86.5
362.749	83.5
362.976	98.5
363.203	98.5
363.429	83.5
363.656	85.5
363.882	97.5
364.109	104.5
364.335	98.5
364.562	94.5
364.788	96.5
365.015	87.5
365.241	82.5
365.468	87.5
365.694	97.5
365.92	87.5
366.147	91.5
366.373	103.5
366.599	100.5
366.826	107.5
367.052	95.5
367.278	84.5
367.505	102.5
367.731	98.5
367.957	89.5
368.184	84.5
368.41	99.5
368.636	109.5
368.862	113.5
369.089	91.5
369.315	93.5
369.541	91.5
369.767	88.5
369.993	102.5
370.219	97.5
370.445	88.5
370.672	81.5
370.898	98.5
371.124	90.5
371.35	79.5
371.576	93.5
371.802	84.5
372.028	69.5
372.254	81.5
372.48	90.5
372.706	97.5
372.932	82.5
373.158	93.5
373.384	81.5
373.61	89.5
373.835	91.5
374.061	91.5
374.287	95.5
374.513	89.5
374.739	71.5
374.965	91.5
375.191	82.5
375.416	96.5
375.642	81.5
375.868	78.5
376.094	86.5
376.319	81.5
376.545	75.5
376.771	83.5
376.997	88.5
377.222	93.5
377.448	103.5
377.674	91.5
377.899	86.5
378.125	96.5
378.35	89.5
378.576	95.5
378.802	97.5
379.027	94.5
379.253	83.5
379.478	75.5
379.704	94.5
379.929	90.5
380.155	93.5
380.38	94.5
380.606	92.5
380.831	79.5
381.057	101.5
381.282	81.5
381.507	101.5
381.733	90.5
381.958	86.5
382.184	85.5
382.409	89.5
382.634	104.5
382.86	93.5
383.085	82.5
383.31	107.5
383.535	95.5
383.761	93.5
383.986	90.5
384.211	102.5
384.436	83.5
384.662	98.5
384.887	89.5
385.112	98.5
385.337	97.5
385.562	89.5
385.787	101.5
386.013	106.5
386.238	112.5
386.463	92.5
386.688	105.5
386.913	90.5
387.138	96.5
387.363	106.5
387.588	97.5
387.813	98.5
388.038	101.5
388.263	96.5
388.488	97.5
388.713	86.5
388.938	97.5
389.163	96.5
389.387	97.5
389.612	105.5
389.837	86.5
390.062	89.5
390.287	79.5
390.512	83.5
390.736	81.5
390.961	75.5
391.186	89.5
391.411	94.5
391.636	91.5
391.86	87.5
392.085	91.5
392.31	91.5
392.534	81.5
392.759	72.5
392.984	87.5
393.208	81.5
393.433	85.5
393.658	77.5
393.882	85.5
394.107	89.5
394.331	82.5
394.556	86.5
394.78	98.5
395.005	95.5
395.229	80.5
395.454	86.5
395.678	80.5
395.903	94.5
396.127	98.5
396.352	103.5
396.576	91.5
396.801	86.5
397.025	85.5
397.249	85.5
397.474	93.5
397.698	98.5
397.922	82.5
398.147	92.5
398.371	90.5
398.595	84.5
398.82	85.5
399.044	87.5
399.268	86.5
399.492	81.5
399.717	98.5
399.941	91.5
400.165	91.5
400.389	83.5
400.613	91.5
400.837	89.5
401.062	90.5
401.286	80.5
401.51	97.5
401.734	90.5
401.958	99.5
402.182	91.5
402.406	142.5
402.63	103.5
402.854	96.5
403.078	94.5
403.302	78.5
403.526	94.5
403.75	80.5
403.974	89.5
404.198	74.5
404.422	79.5
404.645	79.5
404.869	87.5
405.093	74.5
405.317	93.5
405.541	88.5
405.765	83.5
405.988	125.5
406.212	147.5
406.436	176.5
406.66	131.5
406.883	97.5
407.107	102.5
407.331	96.5
407.555	97.5
407.778	98.5
408.002	88.5
408.226	86.5
408.449	76.5
408.673	87.5
408.896	107.5
409.12	88.5
409.344	94.5
409.567	80.5
409.791	91.5
410.014	96.5
410.238	86.5
410.461	72.5
410.685	91.5
410.908	98.5
411.132	107.5
411.355	99.5
411.578	91.5
411.802	97.5
412.025	87.5
412.249	91.5
412.472	82.5
412.695	89.5
412.919	89.5
413.142	89.5
413.365	87.5
413.589	88.5
413.812	97.5
414.035	82.5
414.258	92.5
414.482	82.5
414.705	95.5
414.928	101.5
415.151	82.5
415.374	86.5
415.597	87.5
415.821	79.5
416.044	89.5
416.267	94.5
416.49	76.5
416.713	92.5
416.936	80.5
417.159	91.5
417.382	88.5
417.605	72.5
417.828	78.5
418.051	95.5
418.274	89.5
418.497	84.5
418.72	99.5
418.943	82.5
419.166	80.5
419.389	85.5
419.611	99.5
419.834	81.5
420.057	77.5
420.28	85.5
420.503	83.5
420.726	89.5
420.948	91.5
421.171	95.5
421.394	78.5
421.617	88.5
421.839	85.5
422.062	87.5
422.285	102.5
422.507	83.5
422.73	99.5
422.953	106.5
423.175	91.5
423.398	85.5
423.621	79.5
423.843	84.5
424.066	67.5
424.288	79.5
424.511	77.5
424.733	88.5
424.956	80.5
425.178	109.5
425.401	95.5
425.623	96.5
425.846	87.5
426.068	83.5
426.291	83.5
426.513	79.5
426.735	81.5
426.958	84.5
427.18	88.5
427.402	107.5
427.625	127.5
427.847	114.5
428.069	97.5
428.292	76.5
428.514	83.5
428.736	80.5
428.958	83.5
429.181	85.5
429.403	83.5
429.625	94.5
429.847	92.5
430.069	91.5
430.292	91.5
430.514	74.5
430.736	74.5
430.958	86.5
431.18	93.5
431.402	83.5
431.624	93.5
431.846	85.5
432.068	97.5
432.29	95.5
432.512	93.5
432.734	91.5
432.956	87.5
433.178	103.5
433.4	92.5
433.622	82.5
433.844	80.5
434.066	79.5
434.287	93.5
434.509	87.5
434.731	90.5
434.953	89.5
435.175	85.5
435.397	72.5
435.618	76.5
435.84	103.5
436.062	103.5
436.284	104.5
436.505	89.5
436.727	94.5
436.949	80.5
437.17	87.5
437.392	83.5
437.614	84.5
437.835	100.5
438.057	117.5
438.278	105.5
438.5	82.5
438.721	115.5
438.943	94.5
439.165	86.5
439.386	85.5
439.608	84.5
439.829	96.5
440.05	95.5
440.272	114.5
440.493	86.5
440.715	87.5
440.936	81.5
441.158	85.5
441.379	75.5
441.6	75.5
441.822	99.5
442.043	91.5
442.264	86.5
442.486	84.5
442.707	70.5
442.928	96.5
443.149	113.5
443.371	99.5
443.592	94.5
443.813	104.5
444.034	82.5
444.255	94.5
444.476	99.5
444.698	75.5
444.919	82.5
445.14	113.5
445.361	116.5
445.582	109.5
445.803	121.5
446.024	117.5
446.245	114.5
446.466	91.5
446.687	89.5
446.908	99.5
447.129	87.5
447.35	83.5
447.571	97.5
447.792	105.5
448.013	88.5
448.234	96.5
448.455	102.5
448.675	98.5
448.896	109.5
449.117	93.5
449.338	88.5
449.559	111.5
449.779	121.5
450	102.5
450.221	88.5
450.442	91.5
450.662	85.5
450.883	80.5
451.104	87.5
451.324	104.5
451.545	77.5
451.766	81.5
451.986	74.5
452.207	81.5
452.428	77.5
452.648	83.5
452.869	99.5
453.089	98.5
453.31	85.5
453.53	96.5
453.751	81.5
453.971	93.5
454.192	110.5
454.412	81.5
454.633	82.5
454.853	63.5
455.073	91.5
455.294	80.5
455.514	90.5
455.734	85.5
455.955	90.5
456.175	78.5
456.395	79.5
456.616	91.5
456.836	89.5
457.056	98.5
457.276	88.5
457.497	69.5
457.717	79.5
457.937	89.5
458.157	79.5
458.377	90.5
458.598	109.5
458.818	127.5
459.038	135.5
459.258	99.5
459.478	77.5
459.698	80.5
459.918	89.5
460.138	94.5
460.358	86.5
460.578	91.5
460.798	98.5
461.018	83.5
461.238	82.5
461.458	82.5
461.678	75.5
461.898	79.5
462.118	88.5
462.338	78.5
462.558	92.5
462.777	81.5
462.997	73.5
463.217	75.5
463.437	80.5
463.657	86.5
463.876	94.5
464.096	93.5
464.316	103.5
464.536	72.5
464.755	97.5
464.975	102.5
465.195	152.5
465.414	137.5
465.634	91.5
465.854	74.5
466.073	73.5
466.293	81.5
466.512	92.5
466.732	86.5
466.951	72.5
467.171	95.5
467.391	93.5
467.61	88.5
467.829	93.5
468.049	98.5
468.268	79.5
468.488	91.5
468.707	70.5
468.927	80.5
469.146	85.5
469.365	80.5
469.585	89.5
469.804	87.5
470.023	94.5
470.243	98.5
470.462	96.5
470.681	91.5
470.901	77.5
471.12	90.5
471.339	94.5
471.558	80.5
471.777	93.5
471.997	85.5
472.216	86.5
472.435	96.5
472.654	77.5
472.873	91.5
473.092	82.5
473.311	87.5
473.53	94.5
473.749	85.5
473.968	92.5
474.187	105.5
474.406	89.5
474.625	72.5
474.844	92.5
475.063	61.5
475.282	84.5
475.501	86.5
475.72	83.5
475.939	85.5
476.158	78.5
476.377	67.5
476.596	80.5
476.814	90.5
477.033	89.5
477.252	86.5
477.471	73.5
477.69	93.5
477.908	86.5
478.127	91.5
478.346	90.5
478.564	80.5
478.783	89.5
479.002	97.5
479.22	89.5
479.439	105.5
479.658	96.5
479.876	89.5
480.095	85.5
480.313	80.5
480.532	84.5
480.751	92.5
480.969	91.5
481.188	117.5
481.406	112.5
481.624	93.5
481.843	88.5
482.061	92.5
482.28	89.5
482.498	106.5
482.717	92.5
482.935	78.5
483.153	86.5
483.372	87.5
483.59	85.5
483.808	87.5
484.027	80.5
484.245	91.5
484.463	81.5
484.681	87.5
484.9	83.5
485.118	103.5
485.336	101.5
485.554	83.5
485.772	98.5
485.99	99.5
486.209	91.5
486.427	92.5
486.645	106.5
486.863	95.5
487.081	95.5
487.299	97.5
487.517	89.5
487.735	92.5
487.953	104.5
488.171	82.5
488.389	75.5
488.607	106.5
488.825	97.5
489.043	99.5
489.261	94.5
489.479	81.5
489.696	91.5
489.914	83.5
490.132	77.5
490.35	89.5
490.568	77.5
490.786	93.5
491.003	93.5
491.221	84.5
491.439	90.5
491.657	87.5
491.874	91.5
492.092	81.5
492.31	84.5
492.527	86.5
492.745	96.5
492.963	94.5
493.18	75.5
493.398	86.5
493.615	95.5
493.833	98.5
494.05	84.5
494.268	86.5
494.485	73.5
494.703	93.5
494.92	74.5
495.138	94.5
495.355	91.5
495.573	81.5
495.79	92.5
496.008	87.5
496.225	90.5
496.442	88.5
496.66	82.5
496.877	82.5
497.094	102.5
497.312	92.5
497.529	94.5
497.746	96.5
497.963	111.5
498.181	93.5
498.398	80.5
498.615	107.5
498.832	94.5
499.049	77.5
499.267	94.5
499.484	97.5
499.701	88.5
499.918	93.5
500.135	105.5
500.352	88.5
500.569	77.5
500.786	82.5
501.003	93.5
501.22	87.5
501.437	88.5
501.654	81.5
501.871	96.5
502.088	92.5
502.305	93.5
502.522	90.5
502.739	84.5
502.956	90.5
503.172	91.5
503.389	87.5
503.606	100.5
503.823	98.5
504.04	89.5
504.256	94.5
504.473	79.5
504.69	70.5
504.907	66.5
505.123	87.5
505.34	78.5
505.557	83.5
505.773	90.5
505.99	93.5
506.207	88.5
506.423	82.5
506.64	98.5
506.856	70.5
507.073	74.5
507.289	96.5
507.506	90.5
507.722	95.5
507.939	107.5
508.155	93.5
508.372	97.5
508.588	85.5
508.805	103.5
509.021	81.5
509.238	100.5
509.454	98.5
509.67	102.5
509.887	109.5
510.103	124.5
510.319	178.5
510.536	613.5
510.752	1821.5
510.968	514.5
511.184	153.5
511.401	109.5
511.617	110.5
511.833	91.5
512.049	90.5
512.265	94.5
512.481	88.5
512.698	92.5
512.914	82.5
513.13	85.5
513.346	100.5
513.562	101.5
513.778	103.5
513.994	105.5
514.21	109.5
514.426	96.5
514.642	115.5
514.858	115.5
515.074	137.5
515.29	364.5
515.506	1097.5
515.721	425.5
515.937	136.5
516.153	104.5
516.369	88.5
516.585	98.5
516.801	92.5
517.016	90.5
517.232	93.5
517.448	97.5
517.664	90.5
517.879	81.5
518.095	88.5
518.311	94.5
518.527	82.5
518.742	82.5
518.958	103.5
519.173	79.5
519.389	97.5
519.605	90.5
519.82	91.5
520.036	79.5
520.251	105.5
520.467	92.5
520.682	90.5
520.898	103.5
521.113	106.5
521.329	133.5
521.544	175.5
521.76	426.5
521.975	1773.5
522.19	1075.5
522.406	253.5
522.621	124.5
522.836	90.5
523.052	92.5
523.267	86.5
523.482	91.5
523.698	98.5
523.913	123.5
524.128	78.5
524.343	84.5
524.559	81.5
524.774	69.5
524.989	100.5
525.204	96.5
525.419	98.5
525.634	91.5
525.849	81.5
526.064	84.5
526.28	97.5
526.495	85.5
526.71	104.5
526.925	83.5
527.14	69.5
527.355	82.5
527.57	91.5
527.785	92.5
527.999	96.5
528.214	96.5
528.429	93.5
528.644	81.5
528.859	83.5
529.074	96.5
529.289	109.5
529.503	140.5
529.718	115.5
529.933	96.5
530.148	85.5
530.363	77.5
530.577	77.5
530.792	85.5
531.007	89.5
531.221	78.5
531.436	89.5
531.651	89.5
531.865	98.5
532.08	89.5
532.295	91.5
532.509	81.5
532.724	90.5
532.938	93.5
533.153	83.5
533.367	88.5
533.582	102.5
533.796	90.5
534.011	95.5
534.225	107.5
534.44	99.5
534.654	87.5
534.868	88.5
535.083	82.5
535.297	105.5
535.511	96.5
535.726	98.5
535.94	93.5
536.154	95.5
536.369	93.5
536.583	89.5
536.797	85.5
537.011	69.5
