Data from Uncirc_1997_H10_HRD10591_00029.txt Node
Date: Wed Jan 03 11:28:36 EST 2024
User: Yrep
Spectrometer: HR+D1059
Trigger mode: 1
Integration Time (sec): 1.000000E-1
Scans to average: 1
Electric dark correction enabled: true
Nonlinearity correction enabled: false
Boxcar width: 0
XAxis mode: Wavelengths
Number of Pixels in Spectrum: 2048
>>>>>Begin Spectral Data<<<<<
223.165	-27.81
223.4	-27.81
223.635	-27.81
223.869	2.19
224.104	-18.81
224.338	-3.81
224.573	-5.81
224.808	-28.81
225.042	-14.81
225.277	-2.81
225.511	-7.81
225.746	21.19
225.98	11.19
226.215	2.19
226.449	25.19
226.683	12.19
226.918	16.19
227.152	20.19
227.387	30.19
227.621	33.19
227.856	32.19
228.09	37.19
228.324	42.19
228.559	43.19
228.793	54.19
229.027	52.19
229.262	65.19
229.496	83.19
229.73	79.19
229.964	73.19
230.199	76.19
230.433	63.19
230.667	79.19
230.901	73.19
231.136	66.19
231.37	71.19
231.604	68.19
231.838	77.19
232.072	83.19
232.306	77.19
232.541	63.19
232.775	73.19
233.009	77.19
233.243	87.19
233.477	81.19
233.711	72.19
233.945	85.19
234.179	69.19
234.413	83.19
234.647	68.19
234.881	72.19
235.115	74.19
235.349	84.19
235.583	79.19
235.817	58.19
236.051	77.19
236.285	65.19
236.519	71.19
236.753	75.19
236.987	69.19
237.221	89.19
237.455	65.19
237.689	84.19
237.922	72.19
238.156	76.19
238.39	74.19
238.624	71.19
238.858	77.19
239.091	73.19
239.325	68.19
239.559	79.19
239.793	73.19
240.027	79.19
240.26	82.19
240.494	65.19
240.728	61.19
240.961	76.19
241.195	74.19
241.429	63.19
241.662	71.19
241.896	68.19
242.13	77.19
242.363	58.19
242.597	68.19
242.83	84.19
243.064	81.19
243.298	74.19
243.531	73.19
243.765	71.19
243.998	63.19
244.232	72.19
244.465	74.19
244.699	64.19
244.932	71.19
245.166	84.19
245.399	78.19
245.633	74.19
245.866	84.19
246.099	74.19
246.333	65.19
246.566	77.19
246.8	73.19
247.033	72.19
247.266	70.19
247.5	66.19
247.733	68.19
247.966	87.19
248.2	78.19
248.433	81.19
248.666	69.19
248.899	85.19
249.133	71.19
249.366	88.19
249.599	83.19
249.832	72.19
250.066	71.19
250.299	66.19
250.532	74.19
250.765	74.19
250.998	67.19
251.231	75.19
251.465	85.19
251.698	79.19
251.931	76.19
252.164	70.19
252.397	69.19
252.63	74.19
252.863	62.19
253.096	74.19
253.329	58.19
253.562	85.19
253.795	72.19
254.028	74.19
254.261	92.19
254.494	65.19
254.727	67.19
254.96	80.19
255.193	67.19
255.426	73.19
255.659	70.19
255.892	68.19
256.124	70.19
256.357	90.19
256.59	76.19
256.823	68.19
257.056	52.19
257.289	77.19
257.521	77.19
257.754	84.19
257.987	92.19
258.22	69.19
258.452	71.19
258.685	71.19
258.918	72.19
259.151	72.19
259.383	76.19
259.616	79.19
259.849	74.19
260.081	79.19
260.314	64.19
260.547	68.19
260.779	71.19
261.012	76.19
261.244	80.19
261.477	80.19
261.71	83.19
261.942	115.19
262.175	108.19
262.407	90.19
262.64	74.19
262.872	81.19
263.105	73.19
263.337	63.19
263.57	82.19
263.802	71.19
264.035	76.19
264.267	75.19
264.499	61.19
264.732	70.19
264.964	71.19
265.197	80.19
265.429	80.19
265.661	76.19
265.894	78.19
266.126	83.19
266.358	78.19
266.591	56.19
266.823	94.19
267.055	87.19
267.287	82.19
267.52	81.19
267.752	88.19
267.984	81.19
268.216	87.19
268.448	78.19
268.681	74.19
268.913	81.19
269.145	82.19
269.377	83.19
269.609	76.19
269.841	75.19
270.073	74.19
270.306	68.19
270.538	74.19
270.77	67.19
271.002	77.19
271.234	65.19
271.466	84.19
271.698	69.19
271.93	83.19
272.162	82.19
272.394	81.19
272.626	85.19
272.858	77.19
273.09	64.19
273.322	58.19
273.553	80.19
273.785	75.19
274.017	93.19
274.249	88.19
274.481	78.19
274.713	83.19
274.945	72.19
275.176	88.19
275.408	83.19
275.64	92.19
275.872	72.19
276.104	69.19
276.335	71.19
276.567	86.19
276.799	91.19
277.031	92.19
277.262	85.19
277.494	79.19
277.726	71.19
277.957	76.19
278.189	79.19
278.421	90.19
278.652	87.19
278.884	74.19
279.115	80.19
279.347	82.19
279.579	91.19
279.81	91.19
280.042	81.19
280.273	81.19
280.505	89.19
280.736	77.19
280.968	85.19
281.199	80.19
281.431	74.19
281.662	87.19
281.894	96.19
282.125	93.19
282.356	103.19
282.588	125.19
282.819	108.19
283.051	87.19
283.282	97.19
283.513	79.19
283.745	72.19
283.976	92.19
284.207	73.19
284.439	83.19
284.67	83.19
284.901	73.19
285.132	93.19
285.364	72.19
285.595	78.19
285.826	80.19
286.057	71.19
286.288	88.19
286.52	75.19
286.751	80.19
286.982	88.19
287.213	63.19
287.444	71.19
287.675	82.19
287.906	85.19
288.138	77.19
288.369	98.19
288.6	99.19
288.831	74.19
289.062	73.19
289.293	76.19
289.524	66.19
289.755	91.19
289.986	87.19
290.217	76.19
290.448	88.19
290.679	66.19
290.91	75.19
291.141	99.19
291.371	82.19
291.602	83.19
291.833	60.19
292.064	84.19
292.295	93.19
292.526	90.19
292.757	86.19
292.987	87.19
293.218	64.19
293.449	83.19
293.68	78.19
293.91	66.19
294.141	97.19
294.372	84.19
294.603	73.19
294.833	87.19
295.064	83.19
295.295	84.19
295.525	80.19
295.756	78.19
295.987	114.19
296.217	123.19
296.448	115.19
296.679	82.19
296.909	93.19
297.14	79.19
297.37	75.19
297.601	71.19
297.831	80.19
298.062	98.19
298.292	85.19
298.523	76.19
298.753	107.19
298.984	90.19
299.214	81.19
299.445	89.19
299.675	79.19
299.905	89.19
300.136	80.19
300.366	84.19
300.597	84.19
300.827	82.19
301.057	100.19
301.288	72.19
301.518	84.19
301.748	83.19
301.979	98.19
302.209	86.19
302.439	84.19
302.669	87.19
302.9	75.19
303.13	82.19
303.36	87.19
303.59	81.19
303.82	92.19
304.051	92.19
304.281	78.19
304.511	99.19
304.741	84.19
304.971	87.19
305.201	74.19
305.431	82.19
305.661	84.19
305.891	92.19
306.121	93.19
306.352	100.19
306.582	93.19
306.812	106.19
307.042	83.19
307.272	86.19
307.502	81.19
307.731	90.19
307.961	86.19
308.191	93.19
308.421	89.19
308.651	81.19
308.881	98.19
309.111	91.19
309.341	94.19
309.571	74.19
309.8	89.19
310.03	97.19
310.26	88.19
310.49	92.19
310.72	98.19
310.949	101.19
311.179	90.19
311.409	105.19
311.639	88.19
311.868	87.19
312.098	92.19
312.328	100.19
312.557	96.19
312.787	104.19
313.017	101.19
313.246	77.19
313.476	86.19
313.706	99.19
313.935	92.19
314.165	96.19
314.394	88.19
314.624	92.19
314.853	104.19
315.083	90.19
315.312	81.19
315.542	82.19
315.771	73.19
316.001	95.19
316.23	86.19
316.46	63.19
316.689	70.19
316.919	85.19
317.148	84.19
317.377	96.19
317.607	82.19
317.836	85.19
318.065	99.19
318.295	87.19
318.524	104.19
318.753	81.19
318.983	88.19
319.212	89.19
319.441	99.19
319.67	83.19
319.9	72.19
320.129	79.19
320.358	76.19
320.587	82.19
320.816	106.19
321.046	96.19
321.275	91.19
321.504	77.19
321.733	96.19
321.962	91.19
322.191	104.19
322.42	100.19
322.649	104.19
322.878	106.19
323.108	96.19
323.337	118.19
323.566	118.19
323.795	128.19
324.024	173.19
324.253	350.19
324.482	719.19
324.71	1400.19
324.939	1885.19
325.168	697.19
325.397	225.19
325.626	127.19
325.855	116.19
326.084	116.19
326.313	112.19
326.542	120.19
326.77	201.19
326.999	403.19
327.228	798.19
327.457	1441.19
327.686	1187.19
327.914	326.19
328.143	163.19
328.372	136.19
328.6	112.19
328.829	111.19
329.058	109.19
329.287	103.19
329.515	98.19
329.744	87.19
329.972	108.19
330.201	102.19
330.43	108.19
330.658	95.19
330.887	107.19
331.115	90.19
331.344	87.19
331.572	83.19
331.801	101.19
332.03	86.19
332.258	83.19
332.486	88.19
332.715	87.19
332.943	71.19
333.172	86.19
333.4	88.19
333.629	99.19
333.857	92.19
334.085	81.19
334.314	98.19
334.542	101.19
334.771	86.19
334.999	91.19
335.227	82.19
335.455	96.19
335.684	82.19
335.912	99.19
336.14	104.19
336.369	84.19
336.597	91.19
336.825	88.19
337.053	85.19
337.281	102.19
337.51	81.19
337.738	80.19
337.966	84.19
338.194	104.19
338.422	91.19
338.65	93.19
338.878	91.19
339.106	85.19
339.334	80.19
339.562	69.19
339.79	85.19
340.018	83.19
340.246	98.19
340.474	101.19
340.702	90.19
340.93	81.19
341.158	82.19
341.386	89.19
341.614	96.19
341.842	77.19
342.07	83.19
342.298	90.19
342.526	76.19
342.754	77.19
342.981	87.19
343.209	80.19
343.437	84.19
343.665	71.19
343.893	88.19
344.12	97.19
344.348	91.19
344.576	71.19
344.804	94.19
345.031	85.19
345.259	93.19
345.487	93.19
345.714	81.19
345.942	83.19
346.17	79.19
346.397	87.19
346.625	89.19
346.853	95.19
347.08	79.19
347.308	81.19
347.535	89.19
347.763	80.19
347.99	102.19
348.218	98.19
348.445	89.19
348.673	80.19
348.9	91.19
349.128	92.19
349.355	68.19
349.583	75.19
349.81	81.19
350.037	101.19
350.265	95.19
350.492	86.19
350.72	97.19
350.947	88.19
351.174	113.19
351.402	111.19
351.629	105.19
351.856	89.19
352.083	98.19
352.311	93.19
352.538	114.19
352.765	89.19
352.992	104.19
353.22	112.19
353.447	91.19
353.674	88.19
353.901	86.19
354.128	96.19
354.355	89.19
354.583	90.19
354.81	89.19
355.037	95.19
355.264	87.19
355.491	87.19
355.718	84.19
355.945	96.19
356.172	95.19
356.399	90.19
356.626	94.19
356.853	96.19
357.08	87.19
357.307	87.19
357.534	92.19
357.761	86.19
357.988	91.19
358.215	93.19
358.441	75.19
358.668	78.19
358.895	83.19
359.122	81.19
359.349	68.19
359.576	90.19
359.802	83.19
360.029	84.19
360.256	85.19
360.483	89.19
360.709	78.19
360.936	92.19
361.163	95.19
361.39	100.19
361.616	92.19
361.843	83.19
362.07	91.19
362.296	86.19
362.523	87.19
362.749	72.19
362.976	88.19
363.203	79.19
363.429	75.19
363.656	81.19
363.882	67.19
364.109	88.19
364.335	90.19
364.562	91.19
364.788	90.19
365.015	89.19
365.241	91.19
365.468	105.19
365.694	99.19
365.92	88.19
366.147	84.19
366.373	77.19
366.599	77.19
366.826	69.19
367.052	84.19
367.278	76.19
367.505	85.19
367.731	91.19
367.957	85.19
368.184	82.19
368.41	77.19
368.636	104.19
368.862	114.19
369.089	97.19
369.315	91.19
369.541	87.19
369.767	98.19
369.993	84.19
370.219	85.19
370.445	89.19
370.672	89.19
370.898	94.19
371.124	87.19
371.35	85.19
371.576	83.19
371.802	76.19
372.028	88.19
372.254	88.19
372.48	80.19
372.706	81.19
372.932	89.19
373.158	79.19
373.384	80.19
373.61	81.19
373.835	99.19
374.061	83.19
374.287	85.19
374.513	93.19
374.739	83.19
374.965	68.19
375.191	70.19
375.416	80.19
375.642	92.19
375.868	94.19
376.094	76.19
376.319	79.19
376.545	81.19
376.771	93.19
376.997	86.19
377.222	85.19
377.448	85.19
377.674	89.19
377.899	92.19
378.125	84.19
378.35	98.19
378.576	89.19
378.802	89.19
379.027	70.19
379.253	83.19
379.478	96.19
379.704	87.19
379.929	82.19
380.155	77.19
380.38	96.19
380.606	89.19
380.831	83.19
381.057	80.19
381.282	84.19
381.507	111.19
381.733	92.19
381.958	77.19
382.184	92.19
382.409	85.19
382.634	89.19
382.86	86.19
383.085	88.19
383.31	98.19
383.535	101.19
383.761	97.19
383.986	89.19
384.211	81.19
384.436	76.19
384.662	87.19
384.887	95.19
385.112	96.19
385.337	99.19
385.562	87.19
385.787	85.19
386.013	98.19
386.238	122.19
386.463	77.19
386.688	93.19
386.913	92.19
387.138	97.19
387.363	93.19
387.588	98.19
387.813	99.19
388.038	93.19
388.263	101.19
388.488	104.19
388.713	92.19
388.938	85.19
389.163	86.19
389.387	89.19
389.612	89.19
389.837	64.19
390.062	80.19
390.287	89.19
390.512	88.19
390.736	89.19
390.961	74.19
391.186	88.19
391.411	84.19
391.636	77.19
391.86	84.19
392.085	84.19
392.31	88.19
392.534	94.19
392.759	78.19
392.984	79.19
393.208	82.19
393.433	89.19
393.658	94.19
393.882	79.19
394.107	66.19
394.331	89.19
394.556	57.19
394.78	78.19
395.005	71.19
395.229	75.19
395.454	89.19
395.678	74.19
395.903	99.19
396.127	93.19
396.352	83.19
396.576	79.19
396.801	70.19
397.025	89.19
397.249	97.19
397.474	81.19
397.698	78.19
397.922	89.19
398.147	68.19
398.371	83.19
398.595	82.19
398.82	76.19
399.044	77.19
399.268	84.19
399.492	91.19
399.717	73.19
399.941	77.19
400.165	82.19
400.389	81.19
400.613	91.19
400.837	74.19
401.062	91.19
401.286	94.19
401.51	94.19
401.734	97.19
401.958	83.19
402.182	101.19
402.406	134.19
402.63	111.19
402.854	79.19
403.078	65.19
403.302	84.19
403.526	83.19
403.75	91.19
403.974	84.19
404.198	81.19
404.422	75.19
404.645	79.19
404.869	75.19
405.093	101.19
405.317	90.19
405.541	90.19
405.765	91.19
405.988	101.19
406.212	155.19
406.436	178.19
406.66	120.19
406.883	87.19
407.107	86.19
407.331	94.19
407.555	93.19
407.778	99.19
408.002	87.19
408.226	87.19
408.449	79.19
408.673	80.19
408.896	81.19
409.12	84.19
409.344	83.19
409.567	80.19
409.791	83.19
410.014	84.19
410.238	85.19
410.461	86.19
410.685	90.19
410.908	113.19
411.132	103.19
411.355	93.19
411.578	91.19
411.802	89.19
412.025	89.19
412.249	85.19
412.472	81.19
412.695	90.19
412.919	83.19
413.142	84.19
413.365	76.19
413.589	86.19
413.812	81.19
414.035	80.19
414.258	81.19
414.482	89.19
414.705	79.19
414.928	80.19
415.151	84.19
415.374	93.19
415.597	82.19
415.821	73.19
416.044	94.19
416.267	84.19
416.49	83.19
416.713	90.19
416.936	80.19
417.159	85.19
417.382	80.19
417.605	99.19
417.828	92.19
418.051	90.19
418.274	91.19
418.497	87.19
418.72	75.19
418.943	86.19
419.166	88.19
419.389	77.19
419.611	76.19
419.834	80.19
420.057	65.19
420.28	93.19
420.503	72.19
420.726	72.19
420.948	83.19
421.171	83.19
421.394	93.19
421.617	85.19
421.839	82.19
422.062	92.19
422.285	97.19
422.507	99.19
422.73	87.19
422.953	82.19
423.175	89.19
423.398	90.19
423.621	89.19
423.843	89.19
424.066	88.19
424.288	66.19
424.511	83.19
424.733	95.19
424.956	92.19
425.178	93.19
425.401	93.19
425.623	101.19
425.846	85.19
426.068	87.19
426.291	79.19
426.513	73.19
426.735	83.19
426.958	77.19
427.18	111.19
427.402	110.19
427.625	138.19
427.847	101.19
428.069	84.19
428.292	66.19
428.514	79.19
428.736	81.19
428.958	84.19
429.181	80.19
429.403	90.19
429.625	86.19
429.847	94.19
430.069	90.19
430.292	72.19
430.514	89.19
430.736	74.19
430.958	81.19
431.18	87.19
431.402	80.19
431.624	85.19
431.846	93.19
432.068	81.19
432.29	70.19
432.512	95.19
432.734	73.19
432.956	79.19
433.178	84.19
433.4	89.19
433.622	77.19
433.844	74.19
434.066	72.19
434.287	75.19
434.509	85.19
434.731	90.19
434.953	82.19
435.175	83.19
435.397	76.19
435.618	84.19
435.84	108.19
436.062	98.19
436.284	112.19
436.505	83.19
436.727	102.19
436.949	86.19
437.17	86.19
437.392	81.19
437.614	89.19
437.835	88.19
438.057	100.19
438.278	88.19
438.5	102.19
438.721	125.19
438.943	74.19
439.165	77.19
439.386	87.19
439.608	101.19
439.829	103.19
440.05	105.19
440.272	122.19
440.493	89.19
440.715	81.19
440.936	74.19
441.158	59.19
441.379	92.19
441.6	80.19
441.822	95.19
442.043	85.19
442.264	96.19
442.486	96.19
442.707	88.19
442.928	95.19
443.149	112.19
443.371	112.19
443.592	93.19
443.813	104.19
444.034	90.19
444.255	90.19
444.476	79.19
444.698	76.19
444.919	74.19
445.14	115.19
445.361	117.19
445.582	108.19
445.803	118.19
446.024	118.19
446.245	112.19
446.466	121.19
446.687	77.19
446.908	67.19
447.129	63.19
447.35	81.19
447.571	86.19
447.792	72.19
448.013	76.19
448.234	82.19
448.455	92.19
448.675	104.19
448.896	105.19
449.117	97.19
449.338	94.19
449.559	110.19
449.779	121.19
450	78.19
450.221	70.19
450.442	81.19
450.662	86.19
450.883	97.19
451.104	93.19
451.324	82.19
451.545	67.19
451.766	90.19
451.986	79.19
452.207	91.19
452.428	75.19
452.648	82.19
452.869	91.19
453.089	96.19
453.31	110.19
453.53	91.19
453.751	74.19
453.971	92.19
454.192	94.19
454.412	95.19
454.633	93.19
454.853	77.19
455.073	83.19
455.294	93.19
455.514	87.19
455.734	89.19
455.955	80.19
456.175	87.19
456.395	79.19
456.616	71.19
456.836	72.19
457.056	81.19
457.276	81.19
457.497	70.19
457.717	81.19
457.937	68.19
458.157	84.19
458.377	91.19
458.598	96.19
458.818	116.19
459.038	141.19
459.258	95.19
459.478	102.19
459.698	82.19
459.918	77.19
460.138	86.19
460.358	75.19
460.578	79.19
460.798	99.19
461.018	85.19
461.238	86.19
461.458	74.19
461.678	72.19
461.898	61.19
462.118	85.19
462.338	67.19
462.558	61.19
462.777	79.19
462.997	82.19
463.217	93.19
463.437	84.19
463.657	77.19
463.876	74.19
464.096	76.19
464.316	78.19
464.536	67.19
464.755	87.19
464.975	89.19
465.195	146.19
465.414	135.19
465.634	86.19
465.854	85.19
466.073	84.19
466.293	81.19
466.512	69.19
466.732	69.19
466.951	78.19
467.171	85.19
467.391	93.19
467.61	102.19
467.829	93.19
468.049	88.19
468.268	73.19
468.488	78.19
468.707	67.19
468.927	75.19
469.146	70.19
469.365	86.19
469.585	87.19
469.804	85.19
470.023	74.19
470.243	76.19
470.462	87.19
470.681	106.19
470.901	77.19
471.12	84.19
471.339	75.19
471.558	78.19
471.777	90.19
471.997	73.19
472.216	89.19
472.435	99.19
472.654	73.19
472.873	98.19
473.092	95.19
473.311	76.19
473.53	99.19
473.749	83.19
473.968	79.19
474.187	90.19
474.406	75.19
474.625	69.19
474.844	92.19
475.063	77.19
475.282	85.19
475.501	92.19
475.72	81.19
475.939	74.19
476.158	74.19
476.377	89.19
476.596	84.19
476.814	88.19
477.033	86.19
477.252	87.19
477.471	69.19
477.69	85.19
477.908	77.19
478.127	71.19
478.346	86.19
478.564	83.19
478.783	99.19
479.002	82.19
479.22	93.19
479.439	80.19
479.658	83.19
479.876	105.19
480.095	80.19
480.313	97.19
480.532	80.19
480.751	79.19
480.969	89.19
481.188	92.19
481.406	105.19
481.624	86.19
481.843	86.19
482.061	78.19
482.28	89.19
482.498	102.19
482.717	82.19
482.935	79.19
483.153	77.19
483.372	88.19
483.59	101.19
483.808	90.19
484.027	91.19
484.245	81.19
484.463	72.19
484.681	84.19
484.9	84.19
485.118	90.19
485.336	90.19
485.554	91.19
485.772	84.19
485.99	94.19
486.209	94.19
486.427	101.19
486.645	104.19
486.863	113.19
487.081	102.19
487.299	91.19
487.517	99.19
487.735	88.19
487.953	97.19
488.171	87.19
488.389	87.19
488.607	86.19
488.825	91.19
489.043	85.19
489.261	88.19
489.479	97.19
489.696	88.19
489.914	81.19
490.132	88.19
490.35	83.19
490.568	91.19
490.786	91.19
491.003	79.19
491.221	67.19
491.439	80.19
491.657	80.19
491.874	78.19
492.092	90.19
492.31	85.19
492.527	82.19
492.745	81.19
492.963	87.19
493.18	87.19
493.398	85.19
493.615	93.19
493.833	91.19
494.05	81.19
494.268	79.19
494.485	84.19
494.703	87.19
494.92	82.19
495.138	82.19
495.355	79.19
495.573	77.19
495.79	99.19
496.008	99.19
496.225	94.19
496.442	81.19
496.66	92.19
496.877	84.19
497.094	89.19
497.312	81.19
497.529	83.19
497.746	73.19
497.963	73.19
498.181	97.19
498.398	97.19
498.615	118.19
498.832	97.19
499.049	91.19
499.267	95.19
499.484	85.19
499.701	82.19
499.918	85.19
500.135	70.19
500.352	93.19
500.569	79.19
500.786	86.19
501.003	85.19
501.22	93.19
501.437	76.19
501.654	81.19
501.871	98.19
502.088	85.19
502.305	69.19
502.522	96.19
502.739	85.19
502.956	75.19
503.172	87.19
503.389	83.19
503.606	102.19
503.823	86.19
504.04	92.19
504.256	82.19
504.473	87.19
504.69	91.19
504.907	105.19
505.123	87.19
505.34	93.19
505.557	90.19
505.773	76.19
505.99	97.19
506.207	77.19
506.423	102.19
506.64	91.19
506.856	74.19
507.073	70.19
507.289	92.19
507.506	83.19
507.722	98.19
507.939	111.19
508.155	95.19
508.372	75.19
508.588	94.19
508.805	86.19
509.021	81.19
509.238	90.19
509.454	91.19
509.67	86.19
509.887	90.19
510.103	106.19
510.319	182.19
510.536	628.19
510.752	1869.19
510.968	545.19
511.184	130.19
511.401	93.19
511.617	95.19
511.833	85.19
512.049	85.19
512.265	87.19
512.481	83.19
512.698	89.19
512.914	89.19
513.13	87.19
513.346	86.19
513.562	76.19
513.778	85.19
513.994	101.19
514.21	79.19
514.426	104.19
514.642	111.19
514.858	111.19
515.074	148.19
515.29	375.19
515.506	1161.19
515.721	429.19
515.937	136.19
516.153	107.19
516.369	81.19
516.585	83.19
516.801	91.19
517.016	84.19
517.232	84.19
517.448	85.19
517.664	73.19
517.879	95.19
