Data from Uncirc_1997_H10_HRD10591_00092.txt Node
Date: Wed Jan 03 11:28:49 EST 2024
User: Yrep
Spectrometer: HR+D1059
Trigger mode: 1
Integration Time (sec): 1.000000E-1
Scans to average: 1
Electric dark correction enabled: true
Nonlinearity correction enabled: false
Boxcar width: 0
XAxis mode: Wavelengths
Number of Pixels in Spectrum: 2048
>>>>>Begin Spectral Data<<<<<
223.165	-7.5
223.4	-7.5
223.635	-7.5
223.869	-5.5
224.104	-28.5
224.338	-26.5
224.573	-33.5
224.808	-2.5
225.042	2.5
225.277	-12.5
225.511	-23.5
225.746	4.5
225.98	16.5
226.215	15.5
226.449	25.5
226.683	29.5
226.918	19.5
227.152	26.5
227.387	38.5
227.621	29.5
227.856	59.5
228.09	64.5
228.324	52.5
228.559	54.5
228.793	54.5
229.027	68.5
229.262	73.5
229.496	70.5
229.73	87.5
229.964	82.5
230.199	78.5
230.433	66.5
230.667	72.5
230.901	67.5
231.136	69.5
231.37	69.5
231.604	66.5
231.838	88.5
232.072	81.5
232.306	80.5
232.541	80.5
232.775	81.5
233.009	91.5
233.243	92.5
233.477	85.5
233.711	79.5
233.945	88.5
234.179	84.5
234.413	85.5
234.647	96.5
234.881	88.5
235.115	72.5
235.349	67.5
235.583	63.5
235.817	80.5
236.051	80.5
236.285	76.5
236.519	75.5
236.753	73.5
236.987	81.5
237.221	82.5
237.455	84.5
237.689	70.5
237.922	77.5
238.156	88.5
238.39	60.5
238.624	77.5
238.858	72.5
239.091	98.5
239.325	81.5
239.559	76.5
239.793	86.5
240.027	82.5
240.26	77.5
240.494	77.5
240.728	81.5
240.961	73.5
241.195	91.5
241.429	82.5
241.662	83.5
241.896	63.5
242.13	80.5
242.363	81.5
242.597	68.5
242.83	65.5
243.064	78.5
243.298	80.5
243.531	78.5
243.765	75.5
243.998	90.5
244.232	76.5
244.465	76.5
244.699	79.5
244.932	82.5
245.166	81.5
245.399	83.5
245.633	77.5
245.866	81.5
246.099	93.5
246.333	77.5
246.566	79.5
246.8	82.5
247.033	91.5
247.266	87.5
247.5	65.5
247.733	81.5
247.966	82.5
248.2	80.5
248.433	80.5
248.666	73.5
248.899	84.5
249.133	80.5
249.366	85.5
249.599	73.5
249.832	85.5
250.066	72.5
250.299	74.5
250.532	77.5
250.765	83.5
250.998	80.5
251.231	84.5
251.465	76.5
251.698	85.5
251.931	73.5
252.164	86.5
252.397	92.5
252.63	82.5
252.863	76.5
253.096	76.5
253.329	80.5
253.562	96.5
253.795	89.5
254.028	83.5
254.261	82.5
254.494	69.5
254.727	77.5
254.96	96.5
255.193	84.5
255.426	87.5
255.659	62.5
255.892	78.5
256.124	103.5
256.357	82.5
256.59	84.5
256.823	88.5
257.056	86.5
257.289	66.5
257.521	77.5
257.754	82.5
257.987	82.5
258.22	85.5
258.452	72.5
258.685	80.5
258.918	90.5
259.151	82.5
259.383	84.5
259.616	92.5
259.849	72.5
260.081	74.5
260.314	83.5
260.547	85.5
260.779	86.5
261.012	83.5
261.244	93.5
261.477	91.5
261.71	93.5
261.942	100.5
262.175	106.5
262.407	96.5
262.64	79.5
262.872	83.5
263.105	93.5
263.337	89.5
263.57	96.5
263.802	83.5
264.035	75.5
264.267	73.5
264.499	80.5
264.732	78.5
264.964	78.5
265.197	85.5
265.429	69.5
265.661	97.5
265.894	81.5
266.126	87.5
266.358	93.5
266.591	94.5
266.823	96.5
267.055	82.5
267.287	88.5
267.52	88.5
267.752	85.5
267.984	96.5
268.216	86.5
268.448	80.5
268.681	78.5
268.913	85.5
269.145	95.5
269.377	82.5
269.609	69.5
269.841	77.5
270.073	94.5
270.306	79.5
270.538	75.5
270.77	72.5
271.002	73.5
271.234	83.5
271.466	81.5
271.698	76.5
271.93	78.5
272.162	80.5
272.394	82.5
272.626	73.5
272.858	83.5
273.09	82.5
273.322	88.5
273.553	98.5
273.785	94.5
274.017	88.5
274.249	73.5
274.481	99.5
274.713	81.5
274.945	90.5
275.176	86.5
275.408	98.5
275.64	66.5
275.872	75.5
276.104	92.5
276.335	75.5
276.567	100.5
276.799	93.5
277.031	91.5
277.262	89.5
277.494	91.5
277.726	87.5
277.957	89.5
278.189	81.5
278.421	83.5
278.652	100.5
278.884	82.5
279.115	87.5
279.347	102.5
279.579	80.5
279.81	90.5
280.042	80.5
280.273	83.5
280.505	76.5
280.736	85.5
280.968	86.5
281.199	85.5
281.431	81.5
281.662	88.5
281.894	82.5
282.125	103.5
282.356	106.5
282.588	107.5
282.819	113.5
283.051	100.5
283.282	87.5
283.513	84.5
283.745	87.5
283.976	82.5
284.207	88.5
284.439	83.5
284.67	99.5
284.901	98.5
285.132	92.5
285.364	88.5
285.595	76.5
285.826	96.5
286.057	95.5
286.288	87.5
286.52	68.5
286.751	76.5
286.982	77.5
287.213	93.5
287.444	92.5
287.675	99.5
287.906	101.5
288.138	83.5
288.369	99.5
288.6	94.5
288.831	78.5
289.062	88.5
289.293	91.5
289.524	96.5
289.755	96.5
289.986	79.5
290.217	100.5
290.448	82.5
290.679	93.5
290.91	91.5
291.141	81.5
291.371	96.5
291.602	82.5
291.833	82.5
292.064	88.5
292.295	101.5
292.526	75.5
292.757	84.5
292.987	93.5
293.218	85.5
293.449	87.5
293.68	92.5
293.91	93.5
294.141	76.5
294.372	82.5
294.603	85.5
294.833	96.5
295.064	85.5
295.295	97.5
295.525	111.5
295.756	109.5
295.987	116.5
296.217	123.5
296.448	113.5
296.679	98.5
296.909	99.5
297.14	92.5
297.37	85.5
297.601	91.5
297.831	99.5
298.062	96.5
298.292	91.5
298.523	96.5
298.753	77.5
298.984	111.5
299.214	101.5
299.445	91.5
299.675	96.5
299.905	99.5
300.136	90.5
300.366	84.5
300.597	83.5
300.827	101.5
301.057	112.5
301.288	95.5
301.518	92.5
301.748	90.5
301.979	96.5
302.209	88.5
302.439	82.5
302.669	91.5
302.9	99.5
303.13	84.5
303.36	92.5
303.59	92.5
303.82	99.5
304.051	99.5
304.281	74.5
304.511	105.5
304.741	91.5
304.971	89.5
305.201	84.5
305.431	96.5
305.661	91.5
305.891	72.5
306.121	103.5
306.352	98.5
306.582	107.5
306.812	88.5
307.042	84.5
307.272	88.5
307.502	99.5
307.731	88.5
307.961	108.5
308.191	96.5
308.421	101.5
308.651	85.5
308.881	100.5
309.111	95.5
309.341	107.5
309.571	91.5
309.8	90.5
310.03	106.5
310.26	108.5
310.49	98.5
310.72	77.5
310.949	103.5
311.179	100.5
311.409	88.5
311.639	100.5
311.868	98.5
312.098	97.5
312.328	101.5
312.557	96.5
312.787	99.5
313.017	95.5
313.246	101.5
313.476	83.5
313.706	86.5
313.935	99.5
314.165	89.5
314.394	103.5
314.624	93.5
314.853	102.5
315.083	102.5
315.312	88.5
315.542	79.5
315.771	108.5
316.001	89.5
316.23	80.5
316.46	85.5
316.689	85.5
316.919	89.5
317.148	98.5
317.377	104.5
317.607	104.5
317.836	82.5
318.065	84.5
318.295	84.5
318.524	80.5
318.753	101.5
318.983	100.5
319.212	86.5
319.441	111.5
319.67	102.5
319.9	92.5
320.129	109.5
320.358	93.5
320.587	97.5
320.816	80.5
321.046	113.5
321.275	99.5
321.504	91.5
321.733	103.5
321.962	100.5
322.191	95.5
322.42	93.5
322.649	106.5
322.878	110.5
323.108	116.5
323.337	107.5
323.566	116.5
323.795	152.5
324.024	215.5
324.253	341.5
324.482	732.5
324.71	1397.5
324.939	1841.5
325.168	682.5
325.397	211.5
325.626	132.5
325.855	129.5
326.084	123.5
326.313	119.5
326.542	141.5
326.77	216.5
326.999	383.5
327.228	782.5
327.457	1433.5
327.686	1128.5
327.914	332.5
328.143	184.5
328.372	123.5
328.6	117.5
328.829	118.5
329.058	109.5
329.287	111.5
329.515	86.5
329.744	111.5
329.972	102.5
330.201	107.5
330.43	102.5
330.658	109.5
330.887	113.5
331.115	101.5
331.344	99.5
331.572	97.5
331.801	116.5
332.03	116.5
332.258	100.5
332.486	93.5
332.715	91.5
332.943	85.5
333.172	88.5
333.4	82.5
333.629	84.5
333.857	110.5
334.085	111.5
334.314	102.5
334.542	97.5
334.771	95.5
334.999	96.5
335.227	113.5
335.455	101.5
335.684	102.5
335.912	99.5
336.14	86.5
336.369	98.5
336.597	91.5
336.825	100.5
337.053	92.5
337.281	81.5
337.51	97.5
337.738	97.5
337.966	88.5
338.194	94.5
338.422	93.5
338.65	104.5
338.878	100.5
339.106	82.5
339.334	83.5
339.562	94.5
339.79	97.5
340.018	106.5
340.246	96.5
340.474	91.5
340.702	91.5
340.93	93.5
341.158	82.5
341.386	88.5
341.614	89.5
341.842	82.5
342.07	98.5
342.298	76.5
342.526	88.5
342.754	82.5
342.981	93.5
343.209	88.5
343.437	97.5
343.665	99.5
343.893	109.5
344.12	113.5
344.348	87.5
344.576	86.5
344.804	85.5
345.031	103.5
345.259	98.5
345.487	100.5
345.714	95.5
345.942	101.5
346.17	93.5
346.397	82.5
346.625	78.5
346.853	98.5
347.08	80.5
347.308	94.5
347.535	93.5
347.763	93.5
347.99	87.5
348.218	105.5
348.445	97.5
348.673	90.5
348.9	92.5
349.128	100.5
349.355	109.5
349.583	106.5
349.81	95.5
350.037	100.5
350.265	99.5
350.492	85.5
350.72	114.5
350.947	104.5
351.174	113.5
351.402	114.5
351.629	101.5
351.856	79.5
352.083	102.5
352.311	104.5
352.538	118.5
352.765	110.5
352.992	100.5
353.22	116.5
353.447	106.5
353.674	104.5
353.901	98.5
354.128	83.5
354.355	99.5
354.583	100.5
354.81	98.5
355.037	103.5
355.264	84.5
355.491	97.5
355.718	99.5
355.945	91.5
356.172	107.5
356.399	94.5
356.626	90.5
356.853	94.5
357.08	97.5
357.307	84.5
357.534	101.5
357.761	92.5
357.988	94.5
358.215	97.5
358.441	82.5
358.668	86.5
358.895	83.5
359.122	86.5
359.349	103.5
359.576	98.5
359.802	102.5
360.029	107.5
360.256	124.5
360.483	95.5
360.709	96.5
360.936	96.5
361.163	108.5
361.39	86.5
361.616	109.5
361.843	95.5
362.07	93.5
362.296	89.5
362.523	93.5
362.749	90.5
362.976	86.5
363.203	99.5
363.429	73.5
363.656	87.5
363.882	86.5
364.109	86.5
364.335	79.5
364.562	96.5
364.788	85.5
365.015	102.5
365.241	120.5
365.468	116.5
365.694	100.5
365.92	104.5
366.147	98.5
366.373	88.5
366.599	95.5
366.826	90.5
367.052	82.5
367.278	94.5
367.505	81.5
367.731	97.5
367.957	99.5
368.184	97.5
368.41	98.5
368.636	118.5
368.862	110.5
369.089	108.5
369.315	84.5
369.541	101.5
369.767	86.5
369.993	104.5
370.219	88.5
370.445	88.5
370.672	85.5
370.898	89.5
371.124	80.5
371.35	82.5
371.576	96.5
371.802	88.5
372.028	90.5
372.254	91.5
372.48	84.5
372.706	81.5
372.932	92.5
373.158	88.5
373.384	91.5
373.61	96.5
373.835	102.5
374.061	85.5
374.287	99.5
374.513	84.5
374.739	99.5
374.965	92.5
375.191	93.5
375.416	101.5
375.642	102.5
375.868	78.5
376.094	90.5
376.319	84.5
376.545	101.5
376.771	91.5
376.997	99.5
377.222	85.5
377.448	94.5
377.674	80.5
377.899	97.5
378.125	96.5
378.35	92.5
378.576	89.5
378.802	75.5
379.027	95.5
379.253	82.5
379.478	86.5
379.704	86.5
379.929	81.5
380.155	85.5
380.38	94.5
380.606	75.5
380.831	102.5
381.057	96.5
381.282	99.5
381.507	99.5
381.733	109.5
381.958	86.5
382.184	92.5
382.409	101.5
382.634	87.5
382.86	93.5
383.085	100.5
383.31	99.5
383.535	97.5
383.761	106.5
383.986	87.5
384.211	93.5
384.436	96.5
384.662	101.5
384.887	84.5
385.112	97.5
385.337	92.5
385.562	102.5
385.787	90.5
386.013	102.5
386.238	114.5
386.463	102.5
386.688	100.5
386.913	83.5
387.138	91.5
387.363	102.5
387.588	100.5
387.813	96.5
388.038	97.5
388.263	98.5
388.488	111.5
388.713	95.5
388.938	91.5
389.163	106.5
389.387	110.5
389.612	88.5
389.837	94.5
390.062	85.5
390.287	95.5
390.512	96.5
390.736	71.5
390.961	83.5
391.186	83.5
391.411	93.5
391.636	105.5
391.86	83.5
392.085	98.5
392.31	81.5
392.534	95.5
392.759	96.5
392.984	96.5
393.208	88.5
393.433	92.5
393.658	96.5
393.882	86.5
394.107	77.5
394.331	92.5
394.556	98.5
394.78	91.5
395.005	90.5
395.229	80.5
395.454	87.5
395.678	94.5
395.903	82.5
396.127	93.5
396.352	83.5
396.576	79.5
396.801	94.5
397.025	96.5
397.249	73.5
397.474	90.5
397.698	89.5
397.922	69.5
398.147	78.5
398.371	77.5
398.595	92.5
398.82	75.5
399.044	76.5
399.268	87.5
399.492	85.5
399.717	84.5
399.941	77.5
400.165	96.5
400.389	96.5
400.613	96.5
400.837	77.5
401.062	88.5
401.286	80.5
401.51	94.5
401.734	99.5
401.958	112.5
402.182	121.5
402.406	140.5
402.63	99.5
402.854	92.5
403.078	87.5
403.302	83.5
403.526	87.5
403.75	84.5
403.974	98.5
404.198	76.5
404.422	95.5
404.645	76.5
404.869	97.5
405.093	94.5
405.317	93.5
405.541	84.5
405.765	103.5
405.988	113.5
406.212	162.5
406.436	212.5
406.66	126.5
406.883	102.5
407.107	97.5
407.331	96.5
407.555	95.5
407.778	109.5
408.002	98.5
408.226	91.5
408.449	85.5
408.673	76.5
408.896	90.5
409.12	99.5
409.344	97.5
409.567	100.5
409.791	91.5
410.014	89.5
410.238	84.5
410.461	88.5
410.685	111.5
410.908	95.5
411.132	112.5
411.355	108.5
411.578	91.5
411.802	83.5
412.025	90.5
412.249	88.5
412.472	91.5
412.695	86.5
412.919	86.5
413.142	86.5
413.365	89.5
413.589	90.5
413.812	85.5
414.035	85.5
414.258	92.5
414.482	90.5
414.705	98.5
414.928	89.5
415.151	97.5
415.374	89.5
415.597	69.5
415.821	96.5
416.044	90.5
416.267	96.5
416.49	90.5
416.713	79.5
416.936	84.5
417.159	92.5
417.382	74.5
417.605	88.5
417.828	100.5
418.051	88.5
418.274	80.5
418.497	86.5
418.72	84.5
418.943	92.5
419.166	82.5
419.389	90.5
419.611	84.5
419.834	83.5
420.057	84.5
420.28	100.5
420.503	84.5
420.726	92.5
420.948	95.5
421.171	100.5
421.394	93.5
421.617	104.5
421.839	86.5
422.062	91.5
422.285	107.5
422.507	99.5
422.73	105.5
422.953	96.5
423.175	88.5
423.398	92.5
423.621	93.5
423.843	93.5
424.066	107.5
424.288	92.5
424.511	93.5
424.733	108.5
424.956	115.5
425.178	76.5
425.401	98.5
425.623	94.5
425.846	96.5
426.068	99.5
426.291	88.5
426.513	88.5
426.735	92.5
426.958	105.5
427.18	102.5
427.402	117.5
427.625	142.5
427.847	113.5
428.069	102.5
428.292	101.5
428.514	101.5
428.736	97.5
428.958	73.5
429.181	74.5
429.403	91.5
429.625	94.5
429.847	80.5
430.069	80.5
430.292	95.5
430.514	80.5
430.736	101.5
430.958	89.5
431.18	83.5
431.402	98.5
431.624	92.5
431.846	83.5
432.068	90.5
432.29	93.5
432.512	92.5
432.734	87.5
432.956	86.5
433.178	92.5
433.4	90.5
433.622	104.5
433.844	95.5
434.066	91.5
434.287	91.5
434.509	83.5
434.731	99.5
434.953	89.5
435.175	107.5
435.397	93.5
435.618	108.5
435.84	102.5
436.062	123.5
436.284	98.5
436.505	101.5
436.727	101.5
436.949	97.5
437.17	100.5
437.392	82.5
437.614	105.5
437.835	103.5
438.057	120.5
438.278	102.5
438.5	97.5
438.721	124.5
438.943	109.5
439.165	83.5
439.386	94.5
439.608	80.5
439.829	104.5
440.05	120.5
440.272	136.5
440.493	94.5
440.715	87.5
440.936	99.5
441.158	104.5
441.379	85.5
441.6	97.5
441.822	94.5
442.043	75.5
442.264	106.5
442.486	97.5
442.707	97.5
442.928	95.5
443.149	109.5
443.371	117.5
443.592	102.5
443.813	104.5
444.034	100.5
444.255	91.5
444.476	77.5
444.698	86.5
444.919	89.5
445.14	140.5
445.361	132.5
445.582	100.5
445.803	127.5
446.024	128.5
446.245	125.5
446.466	104.5
446.687	91.5
446.908	89.5
447.129	96.5
447.35	86.5
447.571	89.5
447.792	101.5
448.013	95.5
448.234	109.5
448.455	94.5
448.675	93.5
448.896	96.5
449.117	94.5
449.338	114.5
449.559	118.5
449.779	118.5
450	84.5
450.221	100.5
450.442	99.5
450.662	102.5
450.883	97.5
451.104	108.5
451.324	97.5
451.545	86.5
451.766	91.5
451.986	92.5
452.207	95.5
452.428	93.5
452.648	86.5
452.869	107.5
453.089	110.5
453.31	121.5
453.53	96.5
453.751	90.5
453.971	94.5
454.192	106.5
454.412	88.5
454.633	93.5
454.853	83.5
455.073	94.5
455.294	90.5
455.514	95.5
455.734	82.5
455.955	81.5
456.175	93.5
456.395	89.5
456.616	83.5
456.836	98.5
457.056	89.5
457.276	85.5
457.497	98.5
457.717	89.5
457.937	90.5
458.157	86.5
458.377	87.5
458.598	105.5
458.818	120.5
459.038	137.5
459.258	105.5
459.478	93.5
459.698	77.5
459.918	85.5
460.138	64.5
460.358	77.5
460.578	92.5
460.798	94.5
461.018	109.5
461.238	86.5
461.458	79.5
461.678	83.5
461.898	94.5
462.118	89.5
462.338	96.5
462.558	82.5
462.777	78.5
462.997	77.5
463.217	85.5
463.437	88.5
463.657	84.5
463.876	81.5
464.096	82.5
464.316	88.5
464.536	106.5
464.755	101.5
464.975	111.5
465.195	140.5
465.414	144.5
465.634	92.5
465.854	75.5
466.073	95.5
466.293	89.5
466.512	80.5
466.732	90.5
466.951	91.5
467.171	97.5
467.391	100.5
467.61	104.5
467.829	102.5
468.049	85.5
468.268	92.5
468.488	89.5
468.707	94.5
468.927	84.5
469.146	90.5
469.365	84.5
469.585	90.5
469.804	102.5
470.023	94.5
470.243	94.5
470.462	101.5
470.681	114.5
470.901	82.5
471.12	91.5
471.339	96.5
471.558	77.5
471.777	88.5
471.997	96.5
472.216	99.5
472.435	85.5
472.654	85.5
472.873	94.5
473.092	89.5
473.311	80.5
473.53	75.5
473.749	85.5
473.968	97.5
474.187	100.5
474.406	89.5
474.625	84.5
474.844	83.5
475.063	93.5
475.282	90.5
475.501	90.5
475.72	90.5
475.939	94.5
476.158	76.5
476.377	67.5
476.596	88.5
476.814	100.5
477.033	94.5
477.252	99.5
477.471	88.5
477.69	84.5
477.908	91.5
478.127	80.5
478.346	78.5
478.564	94.5
478.783	91.5
479.002	90.5
479.22	86.5
479.439	106.5
479.658	93.5
479.876	115.5
480.095	87.5
480.313	76.5
480.532	92.5
480.751	80.5
480.969	81.5
481.188	108.5
481.406	111.5
481.624	79.5
481.843	92.5
482.061	99.5
482.28	85.5
482.498	99.5
482.717	89.5
482.935	88.5
483.153	99.5
483.372	83.5
483.59	98.5
483.808	86.5
484.027	99.5
484.245	89.5
484.463	86.5
484.681	89.5
484.9	93.5
485.118	86.5
485.336	94.5
485.554	78.5
485.772	104.5
485.99	97.5
486.209	95.5
486.427	108.5
486.645	115.5
486.863	97.5
487.081	108.5
487.299	94.5
487.517	85.5
487.735	93.5
487.953	101.5
488.171	94.5
488.389	88.5
488.607	108.5
488.825	86.5
489.043	89.5
489.261	100.5
489.479	90.5
489.696	84.5
489.914	105.5
490.132	94.5
490.35	93.5
490.568	102.5
490.786	100.5
491.003	92.5
491.221	86.5
491.439	80.5
491.657	101.5
491.874	106.5
492.092	92.5
492.31	80.5
492.527	76.5
492.745	86.5
492.963	90.5
493.18	89.5
493.398	85.5
493.615	88.5
493.833	96.5
494.05	74.5
494.268	106.5
494.485	92.5
494.703	104.5
494.92	82.5
495.138	107.5
495.355	75.5
495.573	93.5
495.79	99.5
496.008	98.5
496.225	86.5
496.442	88.5
496.66	78.5
496.877	85.5
497.094	99.5
497.312	90.5
497.529	95.5
497.746	94.5
497.963	93.5
498.181	105.5
498.398	97.5
498.615	122.5
498.832	90.5
499.049	96.5
499.267	96.5
499.484	96.5
499.701	88.5
499.918	92.5
500.135	77.5
500.352	95.5
500.569	85.5
500.786	84.5
501.003	88.5
501.22	94.5
501.437	87.5
501.654	92.5
501.871	108.5
502.088	91.5
502.305	99.5
502.522	96.5
502.739	93.5
502.956	84.5
503.172	95.5
503.389	81.5
503.606	89.5
503.823	87.5
504.04	89.5
504.256	90.5
504.473	106.5
504.69	91.5
504.907	96.5
505.123	106.5
505.34	92.5
505.557	88.5
505.773	100.5
505.99	99.5
506.207	87.5
506.423	87.5
506.64	84.5
506.856	102.5
507.073	100.5
507.289	89.5
507.506	103.5
507.722	115.5
507.939	99.5
508.155	88.5
508.372	90.5
508.588	101.5
508.805	105.5
509.021	101.5
509.238	107.5
509.454	108.5
509.67	92.5
509.887	116.5
510.103	133.5
510.319	195.5
510.536	692.5
510.752	2012.5
510.968	574.5
511.184	154.5
511.401	101.5
511.617	108.5
511.833	90.5
512.049	107.5
512.265	93.5
512.481	86.5
512.698	100.5
512.914	80.5
513.13	99.5
513.346	89.5
513.562	105.5
513.778	106.5
513.994	100.5
514.21	100.5
514.426	101.5
514.642	117.5
514.858	121.5
515.074	151.5
515.29	408.5
515.506	1251.5
515.721	459.5
515.937	133.5
516.153	109.5
516.369	109.5
516.585	92.5
516.801	96.5
517.016	97.5
517.232	87.5
517.448	80.5
517.664	107.5
517.879	89.5
518.095	103.5
518.311	88.5
518.527	100.5
518.742	90.5
518.958	84.5
519.173	85.5
519.389	93.5
519.605	109.5
519.82	91.5
520.036	108.5
520.251	110.5
520.467	96.5
520.682	95.5
520.898	112.5
521.113	109.5
521.329	131.5
521.544	185.5
521.76	487.5
521.975	1999.5
522.19	1208.5
522.406	270.5
522.621	114.5
522.836	97.5
523.052	100.5
523.267	108.5
523.482	93.5
523.698	96.5
523.913	116.5
524.128	114.5
524.343	101.5
524.559	91.5
524.774	97.5
524.989	111.5
525.204	93.5
525.419	105.5
525.634	93.5
525.849	94.5
526.064	94.5
526.28	112.5
526.495	80.5
526.71	99.5
526.925	91.5
527.14	84.5
527.355	97.5
527.57	101.5
527.785	90.5
527.999	84.5
528.214	72.5
528.429	91.5
528.644	97.5
528.859	89.5
529.074	105.5
529.289	102.5
529.503	158.5
529.718	106.5
529.933	102.5
530.148	90.5
530.363	90.5
530.577	84.5
530.792	97.5
531.007	81.5
531.221	90.5
531.436	109.5
531.651	95.5
531.865	94.5
532.08	90.5
532.295	94.5
532.509	86.5
532.724	89.5
532.938	97.5
533.153	103.5
533.367	80.5
533.582	90.5
533.796	91.5
534.011	95.5
534.225	92.5
534.44	91.5
534.654	95.5
534.868	90.5
535.083	91.5
