Data from Uncirc_1997_H10_HRD10591_00014.txt Node
Date: Wed Jan 03 11:28:33 EST 2024
User: Yrep
Spectrometer: HR+D1059
Trigger mode: 1
Integration Time (sec): 1.000000E-1
Scans to average: 1
Electric dark correction enabled: true
Nonlinearity correction enabled: false
Boxcar width: 0
XAxis mode: Wavelengths
Number of Pixels in Spectrum: 2048
>>>>>Begin Spectral Data<<<<<
223.165	-28.69
223.4	-28.69
223.635	-28.69
223.869	-14.69
224.104	-24.69
224.338	-21.69
224.573	-20.69
224.808	-17.69
225.042	-19.69
225.277	-3.69
225.511	9.31
225.746	-3.69
225.98	12.31
226.215	6.31
226.449	19.31
226.683	32.31
226.918	38.31
227.152	37.31
227.387	27.31
227.621	34.31
227.856	52.31
228.09	48.31
228.324	46.31
228.559	56.31
228.793	67.31
229.027	68.31
229.262	68.31
229.496	58.31
229.73	83.31
229.964	68.31
230.199	79.31
230.433	77.31
230.667	71.31
230.901	76.31
231.136	79.31
231.37	83.31
231.604	81.31
231.838	80.31
232.072	81.31
232.306	78.31
232.541	66.31
232.775	93.31
233.009	79.31
233.243	100.31
233.477	81.31
233.711	76.31
233.945	77.31
234.179	85.31
234.413	88.31
234.647	87.31
234.881	76.31
235.115	98.31
235.349	79.31
235.583	73.31
235.817	68.31
236.051	80.31
236.285	83.31
236.519	75.31
236.753	75.31
236.987	81.31
237.221	94.31
237.455	61.31
237.689	59.31
237.922	72.31
238.156	81.31
238.39	80.31
238.624	81.31
238.858	90.31
239.091	80.31
239.325	74.31
239.559	81.31
239.793	79.31
240.027	80.31
240.26	83.31
240.494	80.31
240.728	79.31
240.961	81.31
241.195	81.31
241.429	68.31
241.662	81.31
241.896	61.31
242.13	66.31
242.363	58.31
242.597	77.31
242.83	68.31
243.064	81.31
243.298	91.31
243.531	74.31
243.765	61.31
243.998	83.31
244.232	78.31
244.465	87.31
244.699	75.31
244.932	67.31
245.166	75.31
245.399	84.31
245.633	80.31
245.866	81.31
246.099	67.31
246.333	89.31
246.566	77.31
246.8	67.31
247.033	86.31
247.266	81.31
247.5	84.31
247.733	72.31
247.966	84.31
248.2	91.31
248.433	79.31
248.666	79.31
248.899	61.31
249.133	90.31
249.366	90.31
249.599	92.31
249.832	76.31
250.066	79.31
250.299	85.31
250.532	78.31
250.765	78.31
250.998	71.31
251.231	82.31
251.465	91.31
251.698	78.31
251.931	101.31
252.164	61.31
252.397	76.31
252.63	80.31
252.863	73.31
253.096	89.31
253.329	96.31
253.562	80.31
253.795	87.31
254.028	82.31
254.261	77.31
254.494	91.31
254.727	79.31
254.96	91.31
255.193	76.31
255.426	69.31
255.659	87.31
255.892	68.31
256.124	87.31
256.357	80.31
256.59	91.31
256.823	87.31
257.056	77.31
257.289	101.31
257.521	85.31
257.754	92.31
257.987	70.31
258.22	91.31
258.452	73.31
258.685	84.31
258.918	90.31
259.151	80.31
259.383	71.31
259.616	71.31
259.849	80.31
260.081	84.31
260.314	83.31
260.547	79.31
260.779	85.31
261.012	83.31
261.244	81.31
261.477	83.31
261.71	67.31
261.942	107.31
262.175	108.31
262.407	96.31
262.64	84.31
262.872	92.31
263.105	85.31
263.337	97.31
263.57	81.31
263.802	79.31
264.035	88.31
264.267	82.31
264.499	92.31
264.732	89.31
264.964	85.31
265.197	92.31
265.429	91.31
265.661	75.31
265.894	85.31
266.126	91.31
266.358	64.31
266.591	91.31
266.823	86.31
267.055	83.31
267.287	90.31
267.52	71.31
267.752	81.31
267.984	89.31
268.216	88.31
268.448	76.31
268.681	93.31
268.913	92.31
269.145	75.31
269.377	92.31
269.609	75.31
269.841	74.31
270.073	76.31
270.306	86.31
270.538	66.31
270.77	82.31
271.002	92.31
271.234	98.31
271.466	92.31
271.698	87.31
271.93	85.31
272.162	89.31
272.394	83.31
272.626	75.31
272.858	72.31
273.09	92.31
273.322	73.31
273.553	81.31
273.785	92.31
274.017	82.31
274.249	85.31
274.481	96.31
274.713	84.31
274.945	87.31
275.176	86.31
275.408	78.31
275.64	85.31
275.872	84.31
276.104	99.31
276.335	85.31
276.567	97.31
276.799	101.31
277.031	100.31
277.262	99.31
277.494	97.31
277.726	82.31
277.957	96.31
278.189	90.31
278.421	79.31
278.652	78.31
278.884	92.31
279.115	89.31
279.347	83.31
279.579	83.31
279.81	87.31
280.042	83.31
280.273	88.31
280.505	74.31
280.736	92.31
280.968	93.31
281.199	89.31
281.431	96.31
281.662	88.31
281.894	77.31
282.125	90.31
282.356	126.31
282.588	109.31
282.819	106.31
283.051	91.31
283.282	91.31
283.513	100.31
283.745	102.31
283.976	86.31
284.207	94.31
284.439	104.31
284.67	89.31
284.901	88.31
285.132	94.31
285.364	95.31
285.595	89.31
285.826	80.31
286.057	92.31
286.288	90.31
286.52	88.31
286.751	83.31
286.982	77.31
287.213	82.31
287.444	94.31
287.675	89.31
287.906	102.31
288.138	91.31
288.369	87.31
288.6	93.31
288.831	80.31
289.062	92.31
289.293	81.31
289.524	91.31
289.755	79.31
289.986	77.31
290.217	91.31
290.448	91.31
290.679	89.31
290.91	81.31
291.141	82.31
291.371	86.31
291.602	105.31
291.833	95.31
292.064	98.31
292.295	106.31
292.526	82.31
292.757	88.31
292.987	91.31
293.218	94.31
293.449	98.31
293.68	97.31
293.91	84.31
294.141	91.31
294.372	84.31
294.603	76.31
294.833	83.31
295.064	84.31
295.295	96.31
295.525	90.31
295.756	90.31
295.987	114.31
296.217	120.31
296.448	105.31
296.679	85.31
296.909	106.31
297.14	86.31
297.37	90.31
297.601	80.31
297.831	94.31
298.062	83.31
298.292	93.31
298.523	92.31
298.753	96.31
298.984	96.31
299.214	88.31
299.445	93.31
299.675	89.31
299.905	96.31
300.136	101.31
300.366	79.31
300.597	98.31
300.827	81.31
301.057	91.31
301.288	91.31
301.518	88.31
301.748	86.31
301.979	105.31
302.209	89.31
302.439	97.31
302.669	90.31
302.9	95.31
303.13	114.31
303.36	105.31
303.59	100.31
303.82	97.31
304.051	96.31
304.281	99.31
304.511	72.31
304.741	79.31
304.971	100.31
305.201	97.31
305.431	81.31
305.661	95.31
305.891	96.31
306.121	91.31
306.352	91.31
306.582	91.31
306.812	100.31
307.042	89.31
307.272	84.31
307.502	94.31
307.731	79.31
307.961	95.31
308.191	98.31
308.421	89.31
308.651	89.31
308.881	96.31
309.111	84.31
309.341	98.31
309.571	87.31
309.8	106.31
310.03	101.31
310.26	81.31
310.49	95.31
310.72	97.31
310.949	97.31
311.179	94.31
311.409	108.31
311.639	95.31
311.868	91.31
312.098	101.31
312.328	89.31
312.557	103.31
312.787	108.31
313.017	114.31
313.246	84.31
313.476	90.31
313.706	84.31
313.935	101.31
314.165	98.31
314.394	88.31
314.624	88.31
314.853	97.31
315.083	100.31
315.312	94.31
315.542	85.31
315.771	92.31
316.001	85.31
316.23	99.31
316.46	103.31
316.689	101.31
316.919	81.31
317.148	91.31
317.377	97.31
317.607	93.31
317.836	95.31
318.065	94.31
318.295	88.31
318.524	84.31
318.753	96.31
318.983	82.31
319.212	94.31
319.441	117.31
319.67	106.31
319.9	88.31
320.129	102.31
320.358	105.31
320.587	106.31
320.816	113.31
321.046	105.31
321.275	121.31
321.504	100.31
321.733	99.31
321.962	95.31
322.191	99.31
322.42	103.31
322.649	98.31
322.878	121.31
323.108	99.31
323.337	114.31
323.566	127.31
323.795	153.31
324.024	200.31
324.253	373.31
324.482	806.31
324.71	1655.31
324.939	2174.31
325.168	792.31
325.397	245.31
325.626	167.31
325.855	125.31
326.084	129.31
326.313	141.31
326.542	159.31
326.77	228.31
326.999	476.31
327.228	925.31
327.457	1677.31
327.686	1313.31
327.914	347.31
328.143	185.31
328.372	141.31
328.6	114.31
328.829	113.31
329.058	135.31
329.287	136.31
329.515	109.31
329.744	104.31
329.972	114.31
330.201	105.31
330.43	120.31
330.658	123.31
330.887	133.31
331.115	113.31
331.344	100.31
331.572	96.31
331.801	110.31
332.03	108.31
332.258	109.31
332.486	95.31
332.715	90.31
332.943	92.31
333.172	84.31
333.4	105.31
333.629	114.31
333.857	97.31
334.085	86.31
334.314	87.31
334.542	96.31
334.771	101.31
334.999	90.31
335.227	85.31
335.455	105.31
335.684	106.31
335.912	100.31
336.14	99.31
336.369	107.31
336.597	98.31
336.825	96.31
337.053	107.31
337.281	99.31
337.51	98.31
337.738	95.31
337.966	106.31
338.194	95.31
338.422	100.31
338.65	100.31
338.878	92.31
339.106	91.31
339.334	79.31
339.562	91.31
339.79	87.31
340.018	83.31
340.246	92.31
340.474	94.31
340.702	94.31
340.93	101.31
341.158	98.31
341.386	111.31
341.614	99.31
341.842	103.31
342.07	92.31
342.298	78.31
342.526	82.31
342.754	79.31
342.981	96.31
343.209	99.31
343.437	109.31
343.665	94.31
343.893	91.31
344.12	85.31
344.348	93.31
344.576	91.31
344.804	91.31
345.031	90.31
345.259	87.31
345.487	100.31
345.714	96.31
345.942	84.31
346.17	93.31
346.397	85.31
346.625	90.31
346.853	88.31
347.08	100.31
347.308	100.31
347.535	113.31
347.763	96.31
347.99	95.31
348.218	99.31
348.445	95.31
348.673	110.31
348.9	103.31
349.128	88.31
349.355	96.31
349.583	104.31
349.81	96.31
350.037	112.31
350.265	101.31
350.492	84.31
350.72	97.31
350.947	92.31
351.174	101.31
351.402	108.31
351.629	99.31
351.856	94.31
352.083	105.31
352.311	113.31
352.538	111.31
352.765	111.31
352.992	97.31
353.22	110.31
353.447	96.31
353.674	100.31
353.901	92.31
354.128	110.31
354.355	106.31
354.583	97.31
354.81	93.31
355.037	97.31
355.264	104.31
355.491	91.31
355.718	100.31
355.945	101.31
356.172	91.31
356.399	93.31
356.626	88.31
356.853	92.31
357.08	84.31
357.307	103.31
357.534	96.31
357.761	104.31
357.988	104.31
358.215	91.31
358.441	105.31
358.668	101.31
358.895	98.31
359.122	98.31
359.349	88.31
359.576	100.31
359.802	104.31
360.029	100.31
360.256	107.31
360.483	88.31
360.709	88.31
360.936	87.31
361.163	88.31
361.39	91.31
361.616	96.31
361.843	77.31
362.07	91.31
362.296	86.31
362.523	80.31
362.749	89.31
362.976	92.31
363.203	112.31
363.429	97.31
363.656	99.31
363.882	91.31
364.109	88.31
364.335	95.31
364.562	94.31
364.788	98.31
365.015	98.31
365.241	106.31
365.468	109.31
365.694	99.31
365.92	101.31
366.147	92.31
366.373	82.31
366.599	88.31
366.826	91.31
367.052	88.31
367.278	80.31
367.505	90.31
367.731	93.31
367.957	90.31
368.184	88.31
368.41	92.31
368.636	92.31
368.862	110.31
369.089	105.31
369.315	95.31
369.541	73.31
369.767	82.31
369.993	82.31
370.219	102.31
370.445	89.31
370.672	91.31
370.898	92.31
371.124	99.31
371.35	92.31
371.576	82.31
371.802	83.31
372.028	82.31
372.254	85.31
372.48	87.31
372.706	80.31
372.932	88.31
373.158	96.31
373.384	97.31
373.61	92.31
373.835	92.31
374.061	74.31
374.287	96.31
374.513	75.31
374.739	103.31
374.965	94.31
375.191	83.31
375.416	99.31
375.642	94.31
375.868	101.31
376.094	94.31
376.319	108.31
376.545	79.31
376.771	86.31
376.997	91.31
377.222	89.31
377.448	98.31
377.674	100.31
377.899	89.31
378.125	95.31
378.35	92.31
378.576	92.31
378.802	80.31
379.027	88.31
379.253	95.31
379.478	92.31
379.704	100.31
379.929	98.31
380.155	94.31
380.38	97.31
380.606	106.31
380.831	86.31
381.057	104.31
381.282	112.31
381.507	91.31
381.733	82.31
381.958	91.31
382.184	89.31
382.409	89.31
382.634	110.31
382.86	97.31
383.085	118.31
383.31	103.31
383.535	98.31
383.761	97.31
383.986	116.31
384.211	99.31
384.436	97.31
384.662	80.31
384.887	95.31
385.112	100.31
385.337	90.31
385.562	108.31
385.787	98.31
386.013	112.31
386.238	99.31
386.463	111.31
386.688	106.31
386.913	112.31
387.138	97.31
387.363	94.31
387.588	104.31
387.813	101.31
388.038	105.31
388.263	100.31
388.488	105.31
388.713	104.31
388.938	99.31
389.163	93.31
389.387	95.31
389.612	99.31
389.837	93.31
390.062	83.31
390.287	94.31
390.512	81.31
390.736	82.31
390.961	82.31
391.186	90.31
391.411	96.31
391.636	90.31
391.86	75.31
392.085	93.31
392.31	82.31
392.534	90.31
392.759	97.31
392.984	83.31
393.208	98.31
393.433	95.31
393.658	91.31
393.882	85.31
394.107	82.31
394.331	101.31
394.556	69.31
394.78	98.31
395.005	92.31
395.229	82.31
395.454	99.31
395.678	90.31
395.903	92.31
396.127	86.31
396.352	98.31
396.576	98.31
396.801	113.31
397.025	91.31
397.249	98.31
397.474	95.31
397.698	92.31
397.922	91.31
398.147	93.31
398.371	97.31
398.595	87.31
398.82	99.31
399.044	87.31
399.268	88.31
399.492	102.31
399.717	96.31
399.941	92.31
400.165	78.31
400.389	96.31
400.613	86.31
400.837	88.31
401.062	96.31
401.286	87.31
401.51	87.31
401.734	91.31
401.958	96.31
402.182	126.31
402.406	167.31
402.63	106.31
402.854	90.31
403.078	92.31
403.302	85.31
403.526	90.31
403.75	99.31
403.974	89.31
404.198	82.31
404.422	89.31
404.645	96.31
404.869	94.31
405.093	106.31
405.317	95.31
405.541	86.31
405.765	101.31
405.988	106.31
406.212	168.31
406.436	195.31
406.66	143.31
406.883	105.31
407.107	101.31
407.331	94.31
407.555	100.31
407.778	101.31
408.002	91.31
408.226	80.31
408.449	108.31
408.673	105.31
408.896	105.31
409.12	95.31
409.344	85.31
409.567	76.31
409.791	83.31
410.014	94.31
410.238	100.31
410.461	111.31
410.685	94.31
410.908	104.31
411.132	117.31
411.355	100.31
411.578	98.31
411.802	103.31
412.025	84.31
412.249	105.31
412.472	90.31
412.695	97.31
412.919	82.31
413.142	92.31
413.365	96.31
413.589	86.31
413.812	80.31
414.035	106.31
414.258	99.31
414.482	92.31
414.705	95.31
414.928	97.31
415.151	101.31
415.374	87.31
415.597	80.31
415.821	89.31
416.044	93.31
416.267	87.31
416.49	88.31
416.713	85.31
416.936	87.31
417.159	91.31
417.382	92.31
417.605	96.31
417.828	87.31
418.051	100.31
418.274	87.31
418.497	97.31
418.72	92.31
418.943	86.31
419.166	90.31
419.389	67.31
419.611	96.31
419.834	80.31
420.057	94.31
420.28	91.31
420.503	71.31
420.726	81.31
420.948	94.31
421.171	104.31
421.394	94.31
421.617	90.31
421.839	87.31
422.062	100.31
422.285	109.31
422.507	92.31
422.73	109.31
422.953	100.31
423.175	64.31
423.398	101.31
423.621	88.31
423.843	92.31
424.066	74.31
424.288	84.31
424.511	96.31
424.733	107.31
424.956	121.31
425.178	92.31
425.401	116.31
425.623	90.31
425.846	109.31
426.068	89.31
426.291	84.31
426.513	111.31
426.735	88.31
426.958	83.31
427.18	88.31
427.402	136.31
427.625	160.31
427.847	126.31
428.069	102.31
428.292	84.31
428.514	96.31
428.736	82.31
428.958	93.31
429.181	87.31
429.403	93.31
429.625	81.31
429.847	91.31
430.069	81.31
430.292	95.31
430.514	85.31
430.736	80.31
430.958	97.31
431.18	92.31
431.402	83.31
431.624	86.31
431.846	88.31
432.068	97.31
432.29	90.31
432.512	79.31
432.734	80.31
432.956	91.31
433.178	100.31
433.4	92.31
433.622	91.31
433.844	82.31
434.066	94.31
434.287	91.31
434.509	81.31
434.731	100.31
434.953	102.31
435.175	84.31
435.397	80.31
435.618	104.31
435.84	113.31
436.062	121.31
436.284	128.31
436.505	99.31
436.727	88.31
436.949	96.31
437.17	100.31
437.392	101.31
437.614	83.31
437.835	106.31
438.057	97.31
438.278	101.31
438.5	109.31
438.721	140.31
438.943	103.31
439.165	94.31
439.386	76.31
439.608	88.31
439.829	98.31
440.05	106.31
440.272	129.31
440.493	95.31
440.715	73.31
440.936	91.31
441.158	81.31
441.379	102.31
441.6	98.31
441.822	89.31
442.043	86.31
442.264	111.31
442.486	99.31
442.707	92.31
442.928	109.31
443.149	119.31
443.371	115.31
443.592	107.31
443.813	111.31
444.034	118.31
444.255	82.31
444.476	96.31
444.698	94.31
444.919	99.31
445.14	142.31
445.361	129.31
445.582	119.31
445.803	130.31
446.024	123.31
446.245	122.31
446.466	114.31
446.687	94.31
446.908	106.31
447.129	102.31
447.35	83.31
447.571	92.31
447.792	90.31
448.013	90.31
448.234	101.31
448.455	91.31
448.675	109.31
448.896	110.31
449.117	100.31
449.338	122.31
449.559	140.31
449.779	123.31
450	91.31
450.221	95.31
450.442	95.31
450.662	86.31
450.883	107.31
451.104	116.31
451.324	90.31
451.545	87.31
451.766	93.31
451.986	80.31
452.207	94.31
452.428	84.31
452.648	96.31
452.869	115.31
453.089	110.31
453.31	114.31
453.53	91.31
453.751	98.31
453.971	103.31
454.192	90.31
454.412	96.31
454.633	88.31
454.853	84.31
455.073	77.31
455.294	97.31
455.514	99.31
455.734	99.31
455.955	103.31
456.175	86.31
456.395	87.31
456.616	96.31
456.836	102.31
457.056	90.31
457.276	95.31
457.497	92.31
457.717	95.31
457.937	88.31
458.157	84.31
458.377	80.31
458.598	107.31
458.818	135.31
459.038	152.31
459.258	116.31
459.478	96.31
459.698	79.31
459.918	89.31
460.138	81.31
460.358	98.31
460.578	91.31
460.798	91.31
461.018	85.31
461.238	72.31
461.458	92.31
461.678	92.31
461.898	83.31
462.118	80.31
462.338	89.31
462.558	86.31
462.777	82.31
462.997	99.31
463.217	96.31
463.437	65.31
463.657	81.31
463.876	90.31
464.096	84.31
464.316	92.31
464.536	100.31
464.755	96.31
464.975	109.31
465.195	156.31
465.414	157.31
465.634	95.31
465.854	89.31
466.073	98.31
466.293	100.31
466.512	93.31
466.732	104.31
466.951	94.31
467.171	92.31
467.391	83.31
467.61	114.31
467.829	97.31
468.049	108.31
468.268	94.31
468.488	71.31
468.707	91.31
468.927	99.31
469.146	95.31
469.365	91.31
469.585	90.31
469.804	99.31
470.023	82.31
470.243	86.31
470.462	78.31
470.681	110.31
470.901	73.31
471.12	99.31
471.339	100.31
471.558	82.31
471.777	102.31
471.997	89.31
472.216	93.31
472.435	98.31
472.654	107.31
472.873	85.31
473.092	84.31
473.311	89.31
473.53	81.31
473.749	94.31
473.968	94.31
474.187	99.31
474.406	98.31
474.625	102.31
474.844	89.31
475.063	94.31
475.282	89.31
475.501	88.31
475.72	100.31
475.939	79.31
476.158	88.31
476.377	79.31
476.596	100.31
476.814	91.31
477.033	97.31
477.252	90.31
477.471	89.31
477.69	79.31
477.908	102.31
478.127	106.31
478.346	90.31
478.564	86.31
478.783	99.31
479.002	100.31
479.22	79.31
479.439	97.31
479.658	103.31
479.876	80.31
480.095	71.31
480.313	90.31
480.532	106.31
480.751	89.31
480.969	89.31
481.188	115.31
481.406	109.31
481.624	90.31
481.843	89.31
482.061	77.31
482.28	91.31
482.498	84.31
482.717	99.31
482.935	87.31
483.153	93.31
483.372	93.31
483.59	97.31
483.808	97.31
484.027	111.31
484.245	91.31
484.463	84.31
484.681	92.31
484.9	72.31
485.118	91.31
485.336	98.31
485.554	104.31
485.772	115.31
485.99	116.31
486.209	104.31
486.427	100.31
486.645	108.31
486.863	112.31
487.081	96.31
487.299	89.31
487.517	91.31
487.735	91.31
487.953	97.31
488.171	93.31
488.389	93.31
488.607	86.31
488.825	97.31
489.043	95.31
489.261	92.31
489.479	96.31
489.696	91.31
489.914	107.31
490.132	105.31
490.35	92.31
490.568	95.31
490.786	110.31
491.003	85.31
491.221	92.31
491.439	96.31
491.657	96.31
491.874	106.31
492.092	98.31
492.31	93.31
492.527	92.31
492.745	91.31
492.963	97.31
493.18	96.31
493.398	106.31
493.615	91.31
493.833	93.31
494.05	95.31
494.268	88.31
494.485	83.31
494.703	86.31
494.92	83.31
495.138	100.31
495.355	84.31
495.573	80.31
495.79	91.31
496.008	103.31
496.225	95.31
496.442	89.31
496.66	89.31
496.877	100.31
497.094	88.31
497.312	88.31
497.529	90.31
497.746	88.31
497.963	107.31
498.181	87.31
498.398	94.31
498.615	98.31
498.832	98.31
499.049	90.31
499.267	92.31
499.484	80.31
499.701	93.31
499.918	97.31
500.135	96.31
500.352	81.31
500.569	83.31
500.786	80.31
501.003	117.31
501.22	88.31
501.437	88.31
501.654	91.31
501.871	97.31
502.088	100.31
502.305	98.31
502.522	96.31
502.739	101.31
502.956	99.31
503.172	94.31
503.389	85.31
503.606	102.31
503.823	89.31
504.04	99.31
504.256	94.31
504.473	90.31
504.69	98.31
504.907	96.31
505.123	101.31
505.34	90.31
505.557	97.31
505.773	97.31
505.99	93.31
506.207	91.31
506.423	77.31
506.64	92.31
506.856	98.31
507.073	102.31
507.289	85.31
507.506	100.31
507.722	109.31
507.939	115.31
508.155	94.31
508.372	93.31
508.588	86.31
508.805	98.31
509.021	100.31
509.238	96.31
509.454	93.31
509.67	112.31
509.887	97.31
510.103	133.31
510.319	219.31
510.536	719.31
510.752	2107.31
510.968	593.31
511.184	151.31
511.401	108.31
511.617	101.31
511.833	93.31
512.049	85.31
512.265	89.31
512.481	108.31
512.698	92.31
512.914	92.31
513.13	101.31
513.346	107.31
513.562	89.31
513.778	90.31
513.994	91.31
514.21	109.31
514.426	132.31
514.642	136.31
514.858	120.31
515.074	163.31
515.29	417.31
