Data from Uncirc_1997_H10_HRD10591_00030.txt Node
Date: Wed Jan 03 11:28:36 EST 2024
User: Yrep
Spectrometer: HR+D1059
Trigger mode: 1
Integration Time (sec): 1.000000E-1
Scans to average: 1
Electric dark correction enabled: true
Nonlinearity correction enabled: false
Boxcar width: 0
XAxis mode: Wavelengths
Number of Pixels in Spectrum: 2048
>>>>>Begin Spectral Data<<<<<
223.165	-14.56
223.4	-14.56
223.635	-14.56
223.869	-18.56
224.104	-17.56
224.338	-13.56
224.573	-20.56
224.808	-11.56
225.042	-2.56
225.277	2.44
225.511	-4.56
225.746	-9.56
225.98	16.44
226.215	20.44
226.449	8.44
226.683	16.44
226.918	24.44
227.152	24.44
227.387	29.44
227.621	30.44
227.856	38.44
228.09	42.44
228.324	38.44
228.559	62.44
228.793	65.44
229.027	61.44
229.262	84.44
229.496	82.44
229.73	76.44
229.964	80.44
230.199	90.44
230.433	81.44
230.667	62.44
230.901	83.44
231.136	84.44
231.37	66.44
231.604	91.44
231.838	70.44
232.072	62.44
232.306	79.44
232.541	83.44
232.775	89.44
233.009	76.44
233.243	81.44
233.477	91.44
233.711	80.44
233.945	83.44
234.179	94.44
234.413	94.44
234.647	74.44
234.881	80.44
235.115	88.44
235.349	94.44
235.583	78.44
235.817	79.44
236.051	80.44
236.285	82.44
236.519	91.44
236.753	80.44
236.987	84.44
237.221	76.44
237.455	94.44
237.689	74.44
237.922	72.44
238.156	75.44
238.39	83.44
238.624	81.44
238.858	68.44
239.091	74.44
239.325	80.44
239.559	80.44
239.793	84.44
240.027	92.44
240.26	83.44
240.494	86.44
240.728	71.44
240.961	81.44
241.195	84.44
241.429	83.44
241.662	76.44
241.896	65.44
242.13	70.44
242.363	86.44
242.597	71.44
242.83	88.44
243.064	83.44
243.298	83.44
243.531	88.44
243.765	81.44
243.998	79.44
244.232	72.44
244.465	75.44
244.699	87.44
244.932	68.44
245.166	79.44
245.399	88.44
245.633	82.44
245.866	78.44
246.099	78.44
246.333	77.44
246.566	63.44
246.8	67.44
247.033	80.44
247.266	81.44
247.5	76.44
247.733	77.44
247.966	86.44
248.2	87.44
248.433	79.44
248.666	78.44
248.899	82.44
249.133	95.44
249.366	91.44
249.599	87.44
249.832	84.44
250.066	70.44
250.299	95.44
250.532	82.44
250.765	80.44
250.998	88.44
251.231	85.44
251.465	66.44
251.698	70.44
251.931	81.44
252.164	80.44
252.397	65.44
252.63	69.44
252.863	82.44
253.096	78.44
253.329	82.44
253.562	76.44
253.795	98.44
254.028	72.44
254.261	86.44
254.494	73.44
254.727	82.44
254.96	80.44
255.193	83.44
255.426	88.44
255.659	82.44
255.892	72.44
256.124	89.44
256.357	90.44
256.59	92.44
256.823	77.44
257.056	78.44
257.289	79.44
257.521	90.44
257.754	89.44
257.987	73.44
258.22	82.44
258.452	90.44
258.685	94.44
258.918	82.44
259.151	84.44
259.383	80.44
259.616	94.44
259.849	79.44
260.081	81.44
260.314	86.44
260.547	98.44
260.779	87.44
261.012	81.44
261.244	93.44
261.477	78.44
261.71	78.44
261.942	113.44
262.175	106.44
262.407	71.44
262.64	95.44
262.872	78.44
263.105	97.44
263.337	84.44
263.57	85.44
263.802	87.44
264.035	94.44
264.267	87.44
264.499	85.44
264.732	81.44
264.964	93.44
265.197	87.44
265.429	80.44
265.661	90.44
265.894	93.44
266.126	87.44
266.358	89.44
266.591	88.44
266.823	79.44
267.055	97.44
267.287	76.44
267.52	83.44
267.752	87.44
267.984	86.44
268.216	77.44
268.448	91.44
268.681	89.44
268.913	81.44
269.145	86.44
269.377	92.44
269.609	78.44
269.841	96.44
270.073	86.44
270.306	83.44
270.538	72.44
270.77	78.44
271.002	66.44
271.234	99.44
271.466	99.44
271.698	90.44
271.93	84.44
272.162	90.44
272.394	102.44
272.626	82.44
272.858	94.44
273.09	85.44
273.322	90.44
273.553	86.44
273.785	101.44
274.017	83.44
274.249	78.44
274.481	92.44
274.713	87.44
274.945	94.44
275.176	86.44
275.408	78.44
275.64	95.44
275.872	87.44
276.104	78.44
276.335	87.44
276.567	92.44
276.799	115.44
277.031	104.44
277.262	82.44
277.494	98.44
277.726	96.44
277.957	82.44
278.189	92.44
278.421	83.44
278.652	85.44
278.884	88.44
279.115	71.44
279.347	88.44
279.579	90.44
279.81	85.44
280.042	96.44
280.273	57.44
280.505	95.44
280.736	86.44
280.968	76.44
281.199	100.44
281.431	90.44
281.662	91.44
281.894	101.44
282.125	90.44
282.356	122.44
282.588	131.44
282.819	109.44
283.051	86.44
283.282	87.44
283.513	90.44
283.745	92.44
283.976	74.44
284.207	90.44
284.439	100.44
284.67	93.44
284.901	98.44
285.132	84.44
285.364	84.44
285.595	97.44
285.826	90.44
286.057	87.44
286.288	91.44
286.52	98.44
286.751	95.44
286.982	82.44
287.213	100.44
287.444	83.44
287.675	82.44
287.906	87.44
288.138	76.44
288.369	99.44
288.6	99.44
288.831	88.44
289.062	88.44
289.293	89.44
289.524	91.44
289.755	91.44
289.986	84.44
290.217	90.44
290.448	85.44
290.679	100.44
290.91	100.44
291.141	91.44
291.371	88.44
291.602	71.44
291.833	94.44
292.064	79.44
292.295	95.44
292.526	96.44
292.757	100.44
292.987	95.44
293.218	97.44
293.449	86.44
293.68	84.44
293.91	92.44
294.141	97.44
294.372	83.44
294.603	101.44
294.833	84.44
295.064	89.44
295.295	86.44
295.525	95.44
295.756	94.44
295.987	116.44
296.217	138.44
296.448	121.44
296.679	92.44
296.909	87.44
297.14	78.44
297.37	99.44
297.601	86.44
297.831	82.44
298.062	102.44
298.292	94.44
298.523	84.44
298.753	91.44
298.984	81.44
299.214	97.44
299.445	101.44
299.675	87.44
299.905	75.44
300.136	89.44
300.366	93.44
300.597	92.44
300.827	95.44
301.057	101.44
301.288	101.44
301.518	86.44
301.748	82.44
301.979	108.44
302.209	92.44
302.439	84.44
302.669	88.44
302.9	89.44
303.13	99.44
303.36	94.44
303.59	92.44
303.82	95.44
304.051	88.44
304.281	81.44
304.511	109.44
304.741	98.44
304.971	94.44
305.201	92.44
305.431	105.44
305.661	92.44
305.891	83.44
306.121	100.44
306.352	95.44
306.582	99.44
306.812	100.44
307.042	89.44
307.272	100.44
307.502	90.44
307.731	108.44
307.961	90.44
308.191	107.44
308.421	90.44
308.651	94.44
308.881	87.44
309.111	81.44
309.341	94.44
309.571	94.44
309.8	92.44
310.03	101.44
310.26	91.44
310.49	96.44
310.72	91.44
310.949	94.44
311.179	103.44
311.409	98.44
311.639	102.44
311.868	104.44
312.098	106.44
312.328	97.44
312.557	106.44
312.787	96.44
313.017	97.44
313.246	92.44
313.476	91.44
313.706	89.44
313.935	98.44
314.165	97.44
314.394	106.44
314.624	100.44
314.853	94.44
315.083	91.44
315.312	90.44
315.542	94.44
315.771	87.44
316.001	97.44
316.23	95.44
316.46	78.44
316.689	87.44
316.919	95.44
317.148	87.44
317.377	102.44
317.607	101.44
317.836	92.44
318.065	93.44
318.295	92.44
318.524	86.44
318.753	87.44
318.983	95.44
319.212	113.44
319.441	92.44
319.67	103.44
319.9	101.44
320.129	92.44
320.358	90.44
320.587	90.44
320.816	102.44
321.046	77.44
321.275	104.44
321.504	88.44
321.733	95.44
321.962	92.44
322.191	99.44
322.42	117.44
322.649	115.44
322.878	119.44
323.108	110.44
323.337	127.44
323.566	126.44
323.795	157.44
324.024	221.44
324.253	385.44
324.482	814.44
324.71	1741.44
324.939	2224.44
325.168	779.44
325.397	238.44
325.626	154.44
325.855	140.44
326.084	125.44
326.313	138.44
326.542	148.44
326.77	222.44
326.999	477.44
327.228	971.44
327.457	1762.44
327.686	1348.44
327.914	356.44
328.143	171.44
328.372	145.44
328.6	132.44
328.829	119.44
329.058	125.44
329.287	136.44
329.515	105.44
329.744	92.44
329.972	100.44
330.201	108.44
330.43	95.44
330.658	102.44
330.887	126.44
331.115	131.44
331.344	100.44
331.572	110.44
331.801	94.44
332.03	100.44
332.258	109.44
332.486	93.44
332.715	88.44
332.943	87.44
333.172	104.44
333.4	94.44
333.629	107.44
333.857	127.44
334.085	94.44
334.314	98.44
334.542	99.44
334.771	117.44
334.999	87.44
335.227	92.44
335.455	80.44
335.684	94.44
335.912	91.44
336.14	98.44
336.369	107.44
336.597	94.44
336.825	96.44
337.053	78.44
337.281	95.44
337.51	83.44
337.738	87.44
337.966	92.44
338.194	94.44
338.422	104.44
338.65	96.44
338.878	93.44
339.106	92.44
339.334	96.44
339.562	83.44
339.79	83.44
340.018	86.44
340.246	108.44
340.474	89.44
340.702	93.44
340.93	97.44
341.158	93.44
341.386	98.44
341.614	98.44
341.842	98.44
342.07	108.44
342.298	92.44
342.526	87.44
342.754	77.44
342.981	105.44
343.209	92.44
343.437	88.44
343.665	96.44
343.893	90.44
344.12	100.44
344.348	84.44
344.576	99.44
344.804	74.44
345.031	95.44
345.259	87.44
345.487	91.44
345.714	100.44
345.942	92.44
346.17	104.44
346.397	87.44
346.625	90.44
346.853	83.44
347.08	94.44
347.308	93.44
347.535	82.44
347.763	96.44
347.99	91.44
348.218	107.44
348.445	102.44
348.673	98.44
348.9	98.44
349.128	90.44
349.355	86.44
349.583	99.44
349.81	101.44
350.037	101.44
350.265	97.44
350.492	97.44
350.72	101.44
350.947	91.44
351.174	100.44
351.402	122.44
351.629	96.44
351.856	99.44
352.083	99.44
352.311	95.44
352.538	110.44
352.765	112.44
352.992	107.44
353.22	107.44
353.447	104.44
353.674	95.44
353.901	99.44
354.128	96.44
354.355	107.44
354.583	93.44
354.81	97.44
355.037	97.44
355.264	100.44
355.491	88.44
355.718	82.44
355.945	98.44
356.172	96.44
356.399	108.44
356.626	86.44
356.853	106.44
357.08	91.44
357.307	100.44
357.534	100.44
357.761	82.44
357.988	91.44
358.215	93.44
358.441	88.44
358.668	91.44
358.895	88.44
359.122	86.44
359.349	86.44
359.576	94.44
359.802	98.44
360.029	97.44
360.256	109.44
360.483	89.44
360.709	100.44
360.936	94.44
361.163	92.44
361.39	88.44
361.616	82.44
361.843	90.44
362.07	103.44
362.296	88.44
362.523	100.44
362.749	88.44
362.976	89.44
363.203	79.44
363.429	100.44
363.656	87.44
363.882	86.44
364.109	97.44
364.335	86.44
364.562	86.44
364.788	84.44
365.015	92.44
365.241	101.44
365.468	117.44
365.694	108.44
365.92	107.44
366.147	84.44
366.373	78.44
366.599	80.44
366.826	83.44
367.052	95.44
367.278	90.44
367.505	101.44
367.731	114.44
367.957	92.44
368.184	103.44
368.41	118.44
368.636	118.44
368.862	123.44
369.089	93.44
369.315	92.44
369.541	82.44
369.767	90.44
369.993	83.44
370.219	88.44
370.445	87.44
370.672	86.44
370.898	86.44
371.124	94.44
371.35	88.44
371.576	95.44
371.802	88.44
372.028	82.44
372.254	91.44
372.48	89.44
372.706	85.44
372.932	87.44
373.158	74.44
373.384	66.44
373.61	99.44
373.835	100.44
374.061	100.44
374.287	87.44
374.513	94.44
374.739	78.44
374.965	90.44
375.191	91.44
375.416	86.44
375.642	109.44
375.868	93.44
376.094	98.44
376.319	91.44
376.545	82.44
376.771	97.44
376.997	91.44
377.222	73.44
377.448	91.44
377.674	84.44
377.899	108.44
378.125	96.44
378.35	87.44
378.576	111.44
378.802	80.44
379.027	99.44
379.253	95.44
379.478	97.44
379.704	95.44
379.929	100.44
380.155	85.44
380.38	80.44
380.606	104.44
380.831	109.44
381.057	90.44
381.282	96.44
381.507	82.44
381.733	98.44
381.958	83.44
382.184	103.44
382.409	97.44
382.634	85.44
382.86	87.44
383.085	89.44
383.31	101.44
383.535	99.44
383.761	94.44
383.986	105.44
384.211	90.44
384.436	85.44
384.662	86.44
384.887	104.44
385.112	99.44
385.337	98.44
385.562	86.44
385.787	105.44
386.013	103.44
386.238	114.44
386.463	109.44
386.688	100.44
386.913	103.44
387.138	95.44
387.363	110.44
387.588	100.44
387.813	107.44
388.038	96.44
388.263	113.44
388.488	95.44
388.713	100.44
388.938	92.44
389.163	95.44
389.387	96.44
389.612	106.44
389.837	97.44
390.062	98.44
390.287	106.44
390.512	90.44
390.736	93.44
390.961	92.44
391.186	98.44
391.411	98.44
391.636	90.44
391.86	87.44
392.085	78.44
392.31	97.44
392.534	94.44
392.759	91.44
392.984	100.44
393.208	98.44
393.433	99.44
393.658	89.44
393.882	94.44
394.107	85.44
394.331	92.44
394.556	90.44
394.78	70.44
395.005	83.44
395.229	83.44
395.454	81.44
395.678	84.44
395.903	90.44
396.127	86.44
396.352	85.44
396.576	80.44
396.801	71.44
397.025	87.44
397.249	88.44
397.474	77.44
397.698	81.44
397.922	83.44
398.147	90.44
398.371	80.44
398.595	94.44
398.82	87.44
399.044	91.44
399.268	90.44
399.492	102.44
399.717	98.44
399.941	93.44
400.165	103.44
400.389	88.44
400.613	87.44
400.837	88.44
401.062	83.44
401.286	90.44
401.51	110.44
401.734	93.44
401.958	104.44
402.182	124.44
402.406	148.44
402.63	112.44
402.854	101.44
403.078	86.44
403.302	89.44
403.526	99.44
403.75	93.44
403.974	84.44
404.198	78.44
404.422	91.44
404.645	88.44
404.869	75.44
405.093	98.44
405.317	94.44
405.541	114.44
405.765	97.44
405.988	107.44
406.212	164.44
406.436	218.44
406.66	135.44
406.883	98.44
407.107	99.44
407.331	95.44
407.555	108.44
407.778	93.44
408.002	99.44
408.226	98.44
408.449	70.44
408.673	78.44
408.896	92.44
409.12	86.44
409.344	107.44
409.567	107.44
409.791	72.44
410.014	91.44
410.238	88.44
410.461	92.44
410.685	102.44
410.908	105.44
411.132	108.44
411.355	91.44
411.578	92.44
411.802	94.44
412.025	74.44
412.249	94.44
412.472	97.44
412.695	106.44
412.919	79.44
413.142	93.44
413.365	89.44
413.589	92.44
413.812	94.44
414.035	70.44
414.258	94.44
414.482	83.44
414.705	84.44
414.928	99.44
415.151	88.44
415.374	99.44
415.597	96.44
415.821	86.44
416.044	76.44
416.267	79.44
416.49	88.44
416.713	80.44
416.936	89.44
417.159	86.44
417.382	94.44
417.605	101.44
417.828	105.44
418.051	100.44
418.274	95.44
418.497	96.44
418.72	93.44
418.943	80.44
419.166	84.44
419.389	74.44
419.611	90.44
419.834	90.44
420.057	94.44
420.28	86.44
420.503	83.44
420.726	79.44
420.948	85.44
421.171	98.44
421.394	92.44
421.617	100.44
421.839	94.44
422.062	77.44
422.285	79.44
422.507	107.44
422.73	102.44
422.953	101.44
423.175	95.44
423.398	96.44
423.621	82.44
423.843	79.44
424.066	84.44
424.288	87.44
424.511	76.44
424.733	119.44
424.956	99.44
425.178	90.44
425.401	85.44
425.623	96.44
425.846	96.44
426.068	85.44
426.291	99.44
426.513	94.44
426.735	111.44
426.958	91.44
427.18	103.44
427.402	126.44
427.625	152.44
427.847	107.44
428.069	109.44
428.292	86.44
428.514	90.44
428.736	83.44
428.958	86.44
429.181	86.44
429.403	90.44
429.625	92.44
429.847	87.44
430.069	90.44
430.292	95.44
430.514	76.44
430.736	94.44
430.958	100.44
431.18	106.44
431.402	78.44
431.624	90.44
431.846	81.44
432.068	95.44
432.29	80.44
432.512	101.44
432.734	86.44
432.956	100.44
433.178	96.44
433.4	89.44
433.622	96.44
433.844	87.44
434.066	91.44
434.287	86.44
434.509	99.44
434.731	93.44
434.953	90.44
435.175	94.44
435.397	81.44
435.618	97.44
435.84	107.44
436.062	116.44
436.284	124.44
436.505	97.44
436.727	103.44
436.949	87.44
437.17	94.44
437.392	86.44
437.614	78.44
437.835	103.44
438.057	109.44
438.278	118.44
438.5	97.44
438.721	106.44
438.943	100.44
439.165	82.44
439.386	88.44
439.608	72.44
439.829	106.44
440.05	122.44
440.272	140.44
440.493	102.44
440.715	85.44
440.936	98.44
441.158	80.44
441.379	81.44
441.6	87.44
441.822	93.44
442.043	105.44
442.264	110.44
442.486	88.44
442.707	93.44
442.928	96.44
443.149	112.44
443.371	137.44
443.592	103.44
443.813	122.44
444.034	104.44
444.255	106.44
444.476	100.44
444.698	82.44
444.919	82.44
445.14	142.44
445.361	134.44
445.582	121.44
445.803	123.44
446.024	120.44
446.245	131.44
446.466	98.44
446.687	97.44
446.908	98.44
447.129	96.44
447.35	94.44
447.571	89.44
447.792	89.44
448.013	101.44
448.234	98.44
448.455	110.44
448.675	100.44
448.896	126.44
449.117	95.44
449.338	98.44
449.559	117.44
449.779	128.44
450	105.44
450.221	88.44
450.442	89.44
450.662	96.44
450.883	97.44
451.104	128.44
451.324	89.44
451.545	80.44
451.766	94.44
451.986	98.44
452.207	93.44
452.428	102.44
452.648	94.44
452.869	116.44
453.089	106.44
453.31	121.44
453.53	99.44
453.751	92.44
453.971	105.44
454.192	106.44
454.412	82.44
454.633	86.44
454.853	82.44
455.073	83.44
455.294	88.44
455.514	108.44
455.734	82.44
455.955	78.44
456.175	90.44
456.395	102.44
456.616	85.44
456.836	100.44
457.056	91.44
457.276	85.44
457.497	90.44
457.717	82.44
457.937	96.44
458.157	99.44
458.377	97.44
458.598	99.44
458.818	130.44
459.038	144.44
459.258	120.44
459.478	106.44
459.698	84.44
459.918	91.44
460.138	85.44
460.358	84.44
460.578	75.44
460.798	86.44
461.018	80.44
461.238	64.44
461.458	95.44
461.678	80.44
461.898	80.44
462.118	81.44
462.338	77.44
462.558	74.44
462.777	96.44
462.997	90.44
463.217	88.44
463.437	87.44
463.657	79.44
463.876	80.44
464.096	95.44
464.316	103.44
464.536	95.44
464.755	87.44
464.975	117.44
465.195	158.44
465.414	156.44
465.634	93.44
465.854	98.44
466.073	92.44
466.293	86.44
466.512	87.44
466.732	78.44
466.951	83.44
467.171	80.44
467.391	92.44
467.61	91.44
467.829	95.44
468.049	101.44
468.268	91.44
468.488	94.44
468.707	83.44
468.927	99.44
469.146	93.44
469.365	90.44
469.585	99.44
469.804	91.44
470.023	88.44
470.243	93.44
470.462	95.44
470.681	113.44
470.901	89.44
471.12	95.44
471.339	99.44
471.558	90.44
471.777	93.44
471.997	81.44
472.216	90.44
472.435	93.44
472.654	65.44
472.873	74.44
473.092	83.44
473.311	94.44
473.53	80.44
473.749	75.44
473.968	83.44
474.187	103.44
474.406	100.44
474.625	78.44
474.844	65.44
475.063	83.44
475.282	81.44
475.501	84.44
475.72	92.44
475.939	81.44
476.158	78.44
476.377	86.44
476.596	111.44
476.814	88.44
477.033	93.44
477.252	92.44
477.471	84.44
477.69	95.44
477.908	82.44
478.127	75.44
478.346	95.44
478.564	103.44
478.783	102.44
479.002	96.44
479.22	90.44
479.439	99.44
479.658	93.44
479.876	102.44
480.095	90.44
480.313	91.44
480.532	91.44
480.751	79.44
480.969	82.44
481.188	107.44
481.406	103.44
481.624	95.44
481.843	94.44
482.061	85.44
482.28	89.44
482.498	101.44
482.717	76.44
482.935	96.44
483.153	96.44
483.372	95.44
483.59	77.44
483.808	82.44
484.027	88.44
484.245	79.44
484.463	82.44
484.681	108.44
484.9	90.44
485.118	102.44
485.336	85.44
485.554	96.44
485.772	104.44
485.99	108.44
486.209	108.44
486.427	101.44
486.645	95.44
486.863	106.44
487.081	90.44
487.299	97.44
487.517	103.44
487.735	107.44
487.953	85.44
488.171	91.44
488.389	95.44
488.607	111.44
488.825	85.44
489.043	90.44
489.261	99.44
489.479	84.44
489.696	97.44
489.914	91.44
490.132	71.44
490.35	101.44
490.568	90.44
490.786	76.44
491.003	85.44
491.221	89.44
491.439	89.44
491.657	99.44
491.874	88.44
492.092	89.44
492.31	88.44
492.527	100.44
492.745	97.44
492.963	89.44
493.18	99.44
493.398	91.44
493.615	96.44
493.833	101.44
494.05	95.44
494.268	88.44
494.485	84.44
494.703	94.44
494.92	100.44
495.138	82.44
495.355	76.44
495.573	85.44
495.79	85.44
496.008	109.44
496.225	91.44
496.442	93.44
496.66	92.44
496.877	102.44
497.094	86.44
497.312	89.44
497.529	76.44
497.746	101.44
497.963	99.44
498.181	96.44
498.398	80.44
498.615	109.44
498.832	99.44
499.049	69.44
499.267	86.44
499.484	92.44
499.701	83.44
499.918	90.44
500.135	85.44
500.352	84.44
500.569	84.44
500.786	79.44
501.003	98.44
501.22	74.44
501.437	84.44
501.654	103.44
501.871	94.44
502.088	90.44
502.305	89.44
502.522	97.44
502.739	98.44
502.956	99.44
503.172	93.44
503.389	113.44
503.606	100.44
503.823	98.44
504.04	97.44
504.256	94.44
504.473	79.44
504.69	81.44
504.907	86.44
505.123	83.44
505.34	98.44
505.557	97.44
505.773	86.44
505.99	82.44
506.207	92.44
506.423	94.44
506.64	102.44
506.856	98.44
507.073	95.44
507.289	109.44
507.506	110.44
507.722	116.44
507.939	102.44
508.155	105.44
508.372	79.44
508.588	103.44
508.805	100.44
509.021	102.44
509.238	99.44
509.454	94.44
509.67	102.44
509.887	108.44
510.103	125.44
510.319	195.44
510.536	688.44
510.752	2105.44
510.968	603.44
511.184	153.44
511.401	116.44
511.617	109.44
511.833	90.44
512.049	87.44
512.265	91.44
512.481	98.44
512.698	96.44
512.914	95.44
513.13	87.44
513.346	84.44
513.562	87.44
513.778	93.44
513.994	103.44
514.21	92.44
514.426	108.44
514.642	108.44
514.858	114.44
515.074	169.44
515.29	430.44
515.506	1342.44
515.721	490.44
