Data from Uncirc_1997_H10_HRD10591_00075.txt Node
Date: Wed Jan 03 11:28:45 EST 2024
User: Yrep
Spectrometer: HR+D1059
Trigger mode: 1
Integration Time (sec): 1.000000E-1
Scans to average: 1
Electric dark correction enabled: true
Nonlinearity correction enabled: false
Boxcar width: 0
XAxis mode: Wavelengths
Number of Pixels in Spectrum: 2048
>>>>>Begin Spectral Data<<<<<
223.165	-15.81
223.4	-15.81
223.635	-15.81
223.869	-13.81
224.104	-14.81
224.338	-19.81
224.573	-10.81
224.808	-12.81
225.042	0.19
225.277	-3.81
225.511	-7.81
225.746	-5.81
225.98	-0.81
226.215	14.19
226.449	18.19
226.683	24.19
226.918	25.19
227.152	24.19
227.387	33.19
227.621	26.19
227.856	44.19
228.09	24.19
228.324	47.19
228.559	59.19
228.793	64.19
229.027	47.19
229.262	64.19
229.496	68.19
229.73	78.19
229.964	70.19
230.199	79.19
230.433	72.19
230.667	72.19
230.901	75.19
231.136	77.19
231.37	74.19
231.604	99.19
231.838	83.19
232.072	76.19
232.306	88.19
232.541	94.19
232.775	64.19
233.009	77.19
233.243	89.19
233.477	69.19
233.711	92.19
233.945	87.19
234.179	98.19
234.413	89.19
234.647	76.19
234.881	84.19
235.115	96.19
235.349	85.19
235.583	80.19
235.817	79.19
236.051	70.19
236.285	84.19
236.519	72.19
236.753	64.19
236.987	62.19
237.221	69.19
237.455	91.19
237.689	74.19
237.922	72.19
238.156	70.19
238.39	71.19
238.624	76.19
238.858	77.19
239.091	65.19
239.325	70.19
239.559	76.19
239.793	87.19
240.027	79.19
240.26	73.19
240.494	73.19
240.728	86.19
240.961	84.19
241.195	97.19
241.429	64.19
241.662	76.19
241.896	73.19
242.13	75.19
242.363	89.19
242.597	65.19
242.83	75.19
243.064	89.19
243.298	81.19
243.531	68.19
243.765	78.19
243.998	68.19
244.232	72.19
244.465	70.19
244.699	78.19
244.932	89.19
245.166	74.19
245.399	66.19
245.633	92.19
245.866	72.19
246.099	84.19
246.333	81.19
246.566	90.19
246.8	95.19
247.033	77.19
247.266	72.19
247.5	72.19
247.733	77.19
247.966	65.19
248.2	79.19
248.433	80.19
248.666	81.19
248.899	81.19
249.133	80.19
249.366	87.19
249.599	89.19
249.832	87.19
250.066	87.19
250.299	74.19
250.532	88.19
250.765	76.19
250.998	74.19
251.231	70.19
251.465	71.19
251.698	64.19
251.931	89.19
252.164	68.19
252.397	87.19
252.63	82.19
252.863	86.19
253.096	84.19
253.329	77.19
253.562	75.19
253.795	76.19
254.028	72.19
254.261	83.19
254.494	65.19
254.727	71.19
254.96	90.19
255.193	72.19
255.426	71.19
255.659	84.19
255.892	82.19
256.124	82.19
256.357	75.19
256.59	87.19
256.823	80.19
257.056	80.19
257.289	91.19
257.521	88.19
257.754	74.19
257.987	86.19
258.22	70.19
258.452	74.19
258.685	81.19
258.918	94.19
259.151	73.19
259.383	74.19
259.616	92.19
259.849	87.19
260.081	70.19
260.314	91.19
260.547	84.19
260.779	77.19
261.012	88.19
261.244	81.19
261.477	72.19
261.71	99.19
261.942	97.19
262.175	102.19
262.407	85.19
262.64	89.19
262.872	73.19
263.105	67.19
263.337	81.19
263.57	96.19
263.802	80.19
264.035	82.19
264.267	82.19
264.499	80.19
264.732	85.19
264.964	85.19
265.197	92.19
265.429	81.19
265.661	91.19
265.894	83.19
266.126	87.19
266.358	74.19
266.591	81.19
266.823	82.19
267.055	81.19
267.287	90.19
267.52	76.19
267.752	73.19
267.984	97.19
268.216	86.19
268.448	88.19
268.681	71.19
268.913	69.19
269.145	85.19
269.377	81.19
269.609	79.19
269.841	91.19
270.073	79.19
270.306	72.19
270.538	78.19
270.77	85.19
271.002	78.19
271.234	87.19
271.466	79.19
271.698	99.19
271.93	76.19
272.162	64.19
272.394	92.19
272.626	70.19
272.858	81.19
273.09	86.19
273.322	85.19
273.553	96.19
273.785	87.19
274.017	77.19
274.249	89.19
274.481	82.19
274.713	81.19
274.945	88.19
275.176	85.19
275.408	92.19
275.64	80.19
275.872	88.19
276.104	93.19
276.335	92.19
276.567	97.19
276.799	115.19
277.031	106.19
277.262	96.19
277.494	90.19
277.726	82.19
277.957	80.19
278.189	89.19
278.421	83.19
278.652	75.19
278.884	103.19
279.115	79.19
279.347	100.19
279.579	87.19
279.81	78.19
280.042	78.19
280.273	95.19
280.505	93.19
280.736	75.19
280.968	95.19
281.199	84.19
281.431	90.19
281.662	95.19
281.894	95.19
282.125	87.19
282.356	107.19
282.588	117.19
282.819	109.19
283.051	76.19
283.282	68.19
283.513	72.19
283.745	97.19
283.976	95.19
284.207	78.19
284.439	96.19
284.67	76.19
284.901	95.19
285.132	92.19
285.364	83.19
285.595	82.19
285.826	78.19
286.057	88.19
286.288	92.19
286.52	88.19
286.751	95.19
286.982	80.19
287.213	68.19
287.444	87.19
287.675	85.19
287.906	90.19
288.138	93.19
288.369	86.19
288.6	96.19
288.831	64.19
289.062	79.19
289.293	79.19
289.524	80.19
289.755	66.19
289.986	82.19
290.217	81.19
290.448	88.19
290.679	84.19
290.91	82.19
291.141	74.19
291.371	92.19
291.602	79.19
291.833	88.19
292.064	98.19
292.295	85.19
292.526	90.19
292.757	79.19
292.987	81.19
293.218	94.19
293.449	92.19
293.68	82.19
293.91	79.19
294.141	81.19
294.372	76.19
294.603	80.19
294.833	91.19
295.064	87.19
295.295	99.19
295.525	82.19
295.756	97.19
295.987	95.19
296.217	137.19
296.448	116.19
296.679	90.19
296.909	82.19
297.14	88.19
297.37	85.19
297.601	85.19
297.831	96.19
298.062	90.19
298.292	78.19
298.523	98.19
298.753	88.19
298.984	85.19
299.214	85.19
299.445	80.19
299.675	99.19
299.905	89.19
300.136	83.19
300.366	86.19
300.597	89.19
300.827	86.19
301.057	101.19
301.288	102.19
301.518	85.19
301.748	84.19
301.979	88.19
302.209	93.19
302.439	90.19
302.669	82.19
302.9	81.19
303.13	80.19
303.36	98.19
303.59	101.19
303.82	92.19
304.051	93.19
304.281	92.19
304.511	78.19
304.741	93.19
304.971	71.19
305.201	88.19
305.431	73.19
305.661	90.19
305.891	84.19
306.121	94.19
306.352	104.19
306.582	116.19
306.812	98.19
307.042	87.19
307.272	94.19
307.502	77.19
307.731	87.19
307.961	81.19
308.191	87.19
308.421	88.19
308.651	86.19
308.881	87.19
309.111	91.19
309.341	86.19
309.571	88.19
309.8	93.19
310.03	96.19
310.26	97.19
310.49	97.19
310.72	96.19
310.949	98.19
311.179	104.19
311.409	79.19
311.639	97.19
311.868	100.19
312.098	82.19
312.328	90.19
312.557	92.19
312.787	97.19
313.017	93.19
313.246	76.19
313.476	89.19
313.706	89.19
313.935	96.19
314.165	102.19
314.394	91.19
314.624	95.19
314.853	90.19
315.083	91.19
315.312	79.19
315.542	93.19
315.771	90.19
316.001	95.19
316.23	90.19
316.46	86.19
316.689	90.19
316.919	83.19
317.148	89.19
317.377	95.19
317.607	106.19
317.836	88.19
318.065	90.19
318.295	88.19
318.524	101.19
318.753	89.19
318.983	94.19
319.212	104.19
319.441	104.19
319.67	101.19
319.9	89.19
320.129	90.19
320.358	92.19
320.587	80.19
320.816	95.19
321.046	96.19
321.275	96.19
321.504	90.19
321.733	98.19
321.962	94.19
322.191	95.19
322.42	95.19
322.649	107.19
322.878	103.19
323.108	110.19
323.337	125.19
323.566	131.19
323.795	138.19
324.024	188.19
324.253	345.19
324.482	705.19
324.71	1450.19
324.939	1872.19
325.168	699.19
325.397	217.19
325.626	149.19
325.855	130.19
326.084	125.19
326.313	130.19
326.542	144.19
326.77	198.19
326.999	412.19
327.228	840.19
327.457	1462.19
327.686	1160.19
327.914	317.19
328.143	167.19
328.372	140.19
328.6	125.19
328.829	98.19
329.058	114.19
329.287	118.19
329.515	114.19
329.744	87.19
329.972	92.19
330.201	100.19
330.43	108.19
330.658	123.19
330.887	121.19
331.115	119.19
331.344	91.19
331.572	95.19
331.801	99.19
332.03	102.19
332.258	96.19
332.486	90.19
332.715	79.19
332.943	81.19
333.172	94.19
333.4	95.19
333.629	94.19
333.857	102.19
334.085	100.19
334.314	99.19
334.542	88.19
334.771	89.19
334.999	83.19
335.227	89.19
335.455	95.19
335.684	88.19
335.912	94.19
336.14	90.19
336.369	93.19
336.597	96.19
336.825	77.19
337.053	77.19
337.281	105.19
337.51	81.19
337.738	100.19
337.966	98.19
338.194	96.19
338.422	96.19
338.65	84.19
338.878	93.19
339.106	84.19
339.334	87.19
339.562	90.19
339.79	92.19
340.018	82.19
340.246	91.19
340.474	101.19
340.702	72.19
340.93	91.19
341.158	90.19
341.386	96.19
341.614	85.19
341.842	88.19
342.07	91.19
342.298	90.19
342.526	88.19
342.754	80.19
342.981	94.19
343.209	93.19
343.437	106.19
343.665	88.19
343.893	101.19
344.12	107.19
344.348	74.19
344.576	97.19
344.804	92.19
345.031	96.19
345.259	85.19
345.487	93.19
345.714	98.19
345.942	93.19
346.17	81.19
346.397	89.19
346.625	98.19
346.853	92.19
347.08	90.19
347.308	87.19
347.535	99.19
347.763	87.19
347.99	102.19
348.218	106.19
348.445	89.19
348.673	94.19
348.9	86.19
349.128	94.19
349.355	87.19
349.583	85.19
349.81	110.19
350.037	92.19
350.265	88.19
350.492	73.19
350.72	94.19
350.947	93.19
351.174	110.19
351.402	94.19
351.629	98.19
351.856	91.19
352.083	110.19
352.311	108.19
352.538	103.19
352.765	104.19
352.992	108.19
353.22	104.19
353.447	98.19
353.674	91.19
353.901	89.19
354.128	93.19
354.355	92.19
354.583	91.19
354.81	102.19
355.037	94.19
355.264	76.19
355.491	104.19
355.718	109.19
355.945	75.19
356.172	72.19
356.399	90.19
356.626	93.19
356.853	107.19
357.08	95.19
357.307	90.19
357.534	94.19
357.761	89.19
357.988	105.19
358.215	80.19
358.441	84.19
358.668	85.19
358.895	94.19
359.122	78.19
359.349	83.19
359.576	79.19
359.802	90.19
360.029	106.19
360.256	96.19
360.483	100.19
360.709	74.19
360.936	98.19
361.163	80.19
361.39	78.19
361.616	89.19
361.843	89.19
362.07	101.19
362.296	79.19
362.523	84.19
362.749	88.19
362.976	96.19
363.203	92.19
363.429	80.19
363.656	89.19
363.882	92.19
364.109	85.19
364.335	68.19
364.562	96.19
364.788	93.19
365.015	85.19
365.241	98.19
365.468	112.19
365.694	81.19
365.92	101.19
366.147	93.19
366.373	80.19
366.599	82.19
366.826	74.19
367.052	76.19
367.278	98.19
367.505	100.19
367.731	84.19
367.957	100.19
368.184	87.19
368.41	102.19
368.636	108.19
368.862	113.19
369.089	105.19
369.315	91.19
369.541	89.19
369.767	78.19
369.993	87.19
370.219	86.19
370.445	78.19
370.672	84.19
370.898	70.19
371.124	75.19
371.35	90.19
371.576	102.19
371.802	95.19
372.028	102.19
372.254	90.19
372.48	91.19
372.706	85.19
372.932	92.19
373.158	97.19
373.384	92.19
373.61	104.19
373.835	89.19
374.061	91.19
374.287	72.19
374.513	86.19
374.739	87.19
374.965	88.19
375.191	85.19
375.416	92.19
375.642	77.19
375.868	106.19
376.094	98.19
376.319	88.19
376.545	79.19
376.771	84.19
376.997	89.19
377.222	103.19
377.448	86.19
377.674	95.19
377.899	81.19
378.125	95.19
378.35	79.19
378.576	91.19
378.802	65.19
379.027	95.19
379.253	77.19
379.478	97.19
379.704	90.19
379.929	91.19
380.155	95.19
380.38	91.19
380.606	94.19
380.831	98.19
381.057	94.19
381.282	96.19
381.507	97.19
381.733	93.19
381.958	92.19
382.184	91.19
382.409	83.19
382.634	95.19
382.86	101.19
383.085	90.19
383.31	102.19
383.535	95.19
383.761	88.19
383.986	100.19
384.211	86.19
384.436	92.19
384.662	95.19
384.887	85.19
385.112	111.19
385.337	100.19
385.562	104.19
385.787	96.19
386.013	102.19
386.238	97.19
386.463	95.19
386.688	101.19
386.913	82.19
387.138	102.19
387.363	98.19
387.588	80.19
387.813	85.19
388.038	109.19
388.263	105.19
388.488	96.19
388.713	101.19
388.938	93.19
389.163	98.19
389.387	98.19
389.612	87.19
389.837	110.19
390.062	98.19
390.287	82.19
390.512	96.19
390.736	87.19
390.961	92.19
391.186	82.19
391.411	95.19
391.636	72.19
391.86	84.19
392.085	93.19
392.31	72.19
392.534	79.19
392.759	87.19
392.984	87.19
393.208	94.19
393.433	77.19
393.658	72.19
393.882	74.19
394.107	95.19
394.331	84.19
394.556	79.19
394.78	102.19
395.005	84.19
395.229	82.19
395.454	86.19
395.678	88.19
395.903	75.19
396.127	80.19
396.352	91.19
396.576	81.19
396.801	97.19
397.025	83.19
397.249	87.19
397.474	92.19
397.698	101.19
397.922	75.19
398.147	86.19
398.371	79.19
398.595	94.19
398.82	102.19
399.044	84.19
399.268	87.19
399.492	77.19
399.717	75.19
399.941	81.19
400.165	89.19
400.389	97.19
400.613	80.19
400.837	75.19
401.062	73.19
401.286	80.19
401.51	100.19
401.734	82.19
401.958	91.19
402.182	117.19
402.406	136.19
402.63	95.19
402.854	103.19
403.078	84.19
403.302	82.19
403.526	83.19
403.75	92.19
403.974	88.19
404.198	75.19
404.422	94.19
404.645	79.19
404.869	84.19
405.093	79.19
405.317	87.19
405.541	88.19
405.765	107.19
405.988	102.19
406.212	154.19
406.436	186.19
406.66	131.19
406.883	96.19
407.107	92.19
407.331	101.19
407.555	92.19
407.778	93.19
408.002	82.19
408.226	86.19
408.449	88.19
408.673	92.19
408.896	81.19
409.12	97.19
409.344	81.19
409.567	80.19
409.791	98.19
410.014	90.19
410.238	93.19
410.461	78.19
410.685	88.19
410.908	97.19
411.132	102.19
411.355	93.19
411.578	96.19
411.802	70.19
412.025	73.19
412.249	97.19
412.472	88.19
412.695	98.19
412.919	98.19
413.142	89.19
413.365	100.19
413.589	70.19
413.812	84.19
414.035	89.19
414.258	99.19
414.482	97.19
414.705	72.19
414.928	92.19
415.151	92.19
415.374	111.19
415.597	90.19
415.821	68.19
416.044	78.19
416.267	73.19
416.49	86.19
416.713	90.19
416.936	91.19
417.159	90.19
417.382	80.19
417.605	68.19
417.828	88.19
418.051	80.19
418.274	84.19
418.497	82.19
418.72	84.19
418.943	89.19
419.166	92.19
419.389	99.19
419.611	80.19
419.834	92.19
420.057	78.19
420.28	84.19
420.503	79.19
420.726	76.19
420.948	90.19
421.171	85.19
421.394	94.19
421.617	89.19
421.839	92.19
422.062	89.19
422.285	94.19
422.507	90.19
422.73	81.19
422.953	87.19
423.175	69.19
423.398	77.19
423.621	79.19
423.843	85.19
424.066	87.19
424.288	78.19
424.511	75.19
424.733	91.19
424.956	108.19
425.178	98.19
425.401	96.19
425.623	87.19
425.846	77.19
426.068	88.19
426.291	80.19
426.513	81.19
426.735	95.19
426.958	93.19
427.18	93.19
427.402	118.19
427.625	123.19
427.847	112.19
428.069	116.19
428.292	102.19
428.514	82.19
428.736	81.19
428.958	88.19
429.181	86.19
429.403	78.19
429.625	95.19
429.847	84.19
430.069	88.19
430.292	85.19
430.514	96.19
430.736	82.19
430.958	88.19
431.18	80.19
431.402	78.19
431.624	80.19
431.846	74.19
432.068	87.19
432.29	85.19
432.512	88.19
432.734	76.19
432.956	87.19
433.178	84.19
433.4	92.19
433.622	87.19
433.844	93.19
434.066	88.19
434.287	94.19
434.509	98.19
434.731	90.19
434.953	73.19
435.175	70.19
435.397	89.19
435.618	89.19
435.84	103.19
436.062	113.19
436.284	108.19
436.505	102.19
436.727	105.19
436.949	92.19
437.17	102.19
437.392	84.19
437.614	89.19
437.835	96.19
438.057	112.19
438.278	93.19
438.5	110.19
438.721	115.19
438.943	94.19
439.165	86.19
439.386	90.19
439.608	93.19
439.829	95.19
440.05	104.19
440.272	134.19
440.493	97.19
440.715	94.19
440.936	85.19
441.158	95.19
441.379	93.19
441.6	95.19
441.822	80.19
442.043	69.19
442.264	98.19
442.486	93.19
442.707	108.19
442.928	109.19
443.149	118.19
443.371	113.19
443.592	112.19
443.813	109.19
444.034	100.19
444.255	93.19
444.476	91.19
444.698	73.19
444.919	86.19
445.14	114.19
445.361	125.19
445.582	108.19
445.803	113.19
446.024	124.19
446.245	111.19
446.466	104.19
446.687	84.19
446.908	86.19
447.129	92.19
447.35	105.19
447.571	99.19
447.792	93.19
448.013	97.19
448.234	84.19
448.455	100.19
448.675	79.19
448.896	118.19
449.117	89.19
449.338	98.19
449.559	104.19
449.779	117.19
450	93.19
450.221	85.19
450.442	90.19
450.662	80.19
450.883	110.19
451.104	95.19
451.324	90.19
451.545	79.19
451.766	90.19
451.986	90.19
452.207	94.19
452.428	86.19
452.648	97.19
452.869	98.19
453.089	107.19
453.31	101.19
453.53	73.19
453.751	92.19
453.971	88.19
454.192	95.19
454.412	77.19
454.633	84.19
454.853	73.19
455.073	81.19
455.294	74.19
455.514	88.19
455.734	79.19
455.955	81.19
456.175	93.19
456.395	81.19
456.616	74.19
456.836	80.19
457.056	95.19
457.276	76.19
457.497	86.19
457.717	79.19
457.937	82.19
458.157	91.19
458.377	86.19
458.598	105.19
458.818	139.19
459.038	128.19
459.258	117.19
459.478	70.19
459.698	85.19
459.918	78.19
460.138	80.19
460.358	88.19
460.578	92.19
460.798	84.19
461.018	84.19
461.238	82.19
461.458	86.19
461.678	84.19
461.898	81.19
462.118	80.19
462.338	85.19
462.558	82.19
462.777	80.19
462.997	91.19
463.217	77.19
463.437	79.19
463.657	76.19
463.876	69.19
464.096	87.19
464.316	82.19
464.536	94.19
464.755	90.19
464.975	107.19
465.195	143.19
465.414	143.19
465.634	92.19
465.854	95.19
466.073	81.19
466.293	84.19
466.512	79.19
466.732	81.19
466.951	79.19
467.171	88.19
467.391	95.19
467.61	93.19
467.829	86.19
468.049	71.19
468.268	78.19
468.488	81.19
468.707	88.19
468.927	93.19
469.146	95.19
469.365	94.19
469.585	85.19
469.804	86.19
470.023	91.19
470.243	93.19
470.462	102.19
470.681	94.19
470.901	80.19
471.12	95.19
471.339	89.19
471.558	85.19
471.777	89.19
471.997	89.19
472.216	90.19
472.435	98.19
472.654	88.19
472.873	95.19
473.092	95.19
473.311	96.19
473.53	76.19
473.749	85.19
473.968	101.19
474.187	108.19
474.406	88.19
474.625	76.19
474.844	88.19
475.063	81.19
475.282	84.19
475.501	86.19
475.72	87.19
475.939	83.19
476.158	93.19
476.377	84.19
476.596	88.19
476.814	87.19
477.033	82.19
477.252	88.19
477.471	75.19
477.69	92.19
477.908	100.19
478.127	85.19
478.346	79.19
478.564	77.19
478.783	104.19
479.002	108.19
479.22	94.19
479.439	96.19
479.658	96.19
479.876	95.19
480.095	89.19
480.313	94.19
480.532	84.19
480.751	83.19
480.969	91.19
481.188	103.19
481.406	88.19
481.624	71.19
481.843	74.19
482.061	94.19
482.28	84.19
482.498	89.19
482.717	87.19
482.935	79.19
483.153	68.19
483.372	88.19
483.59	86.19
483.808	88.19
484.027	85.19
484.245	89.19
484.463	92.19
484.681	92.19
484.9	94.19
485.118	89.19
485.336	83.19
485.554	90.19
485.772	90.19
485.99	93.19
486.209	97.19
486.427	89.19
486.645	112.19
486.863	112.19
487.081	95.19
487.299	96.19
487.517	100.19
487.735	91.19
487.953	89.19
488.171	100.19
488.389	86.19
488.607	93.19
488.825	84.19
489.043	88.19
489.261	92.19
489.479	95.19
489.696	97.19
489.914	96.19
490.132	91.19
490.35	90.19
490.568	80.19
490.786	92.19
491.003	84.19
491.221	95.19
491.439	82.19
491.657	90.19
491.874	80.19
492.092	95.19
492.31	85.19
492.527	92.19
492.745	74.19
492.963	93.19
493.18	96.19
493.398	101.19
493.615	92.19
493.833	91.19
494.05	77.19
494.268	85.19
494.485	84.19
494.703	87.19
494.92	96.19
495.138	81.19
495.355	88.19
495.573	89.19
495.79	93.19
496.008	96.19
496.225	91.19
496.442	81.19
496.66	89.19
496.877	94.19
497.094	94.19
497.312	94.19
497.529	101.19
497.746	101.19
497.963	85.19
498.181	91.19
498.398	97.19
498.615	103.19
498.832	96.19
499.049	84.19
499.267	83.19
499.484	95.19
499.701	92.19
499.918	98.19
500.135	97.19
500.352	92.19
500.569	75.19
500.786	85.19
501.003	93.19
501.22	88.19
501.437	75.19
501.654	93.19
501.871	98.19
502.088	91.19
502.305	95.19
502.522	95.19
502.739	83.19
502.956	92.19
503.172	95.19
503.389	100.19
503.606	109.19
503.823	95.19
504.04	103.19
504.256	88.19
504.473	82.19
504.69	92.19
504.907	87.19
505.123	87.19
505.34	93.19
505.557	99.19
505.773	88.19
505.99	89.19
506.207	84.19
506.423	77.19
506.64	101.19
506.856	89.19
507.073	89.19
507.289	78.19
507.506	97.19
507.722	116.19
507.939	102.19
508.155	96.19
508.372	84.19
508.588	94.19
508.805	100.19
509.021	101.19
509.238	94.19
509.454	84.19
509.67	108.19
509.887	95.19
510.103	124.19
510.319	199.19
510.536	660.19
510.752	1942.19
510.968	551.19
511.184	131.19
511.401	107.19
511.617	94.19
511.833	110.19
512.049	90.19
512.265	93.19
512.481	93.19
512.698	82.19
512.914	106.19
513.13	85.19
513.346	90.19
513.562	96.19
513.778	98.19
513.994	92.19
514.21	97.19
514.426	89.19
514.642	108.19
514.858	115.19
515.074	149.19
515.29	400.19
515.506	1220.19
515.721	463.19
515.937	140.19
516.153	95.19
516.369	102.19
516.585	98.19
516.801	99.19
517.016	90.19
