Data from Uncirc_1997_H10_HRD10591_00081.txt Node
Date: Wed Jan 03 11:28:46 EST 2024
User: Yrep
Spectrometer: HR+D1059
Trigger mode: 1
Integration Time (sec): 1.000000E-1
Scans to average: 1
Electric dark correction enabled: true
Nonlinearity correction enabled: false
Boxcar width: 0
XAxis mode: Wavelengths
Number of Pixels in Spectrum: 2048
>>>>>Begin Spectral Data<<<<<
223.165	-1.94
223.4	-1.94
223.635	-1.94
223.869	-20.94
224.104	-22.94
224.338	-23.94
224.573	-17.94
224.808	-12.94
225.042	-1.94
225.277	-11.94
225.511	-5.94
225.746	0.06
225.98	12.06
226.215	15.06
226.449	13.06
226.683	15.06
226.918	24.06
227.152	41.06
227.387	37.06
227.621	40.06
227.856	49.06
228.09	49.06
228.324	50.06
228.559	61.06
228.793	58.06
229.027	61.06
229.262	46.06
229.496	79.06
229.73	71.06
229.964	74.06
230.199	76.06
230.433	80.06
230.667	76.06
230.901	91.06
231.136	75.06
231.37	80.06
231.604	70.06
231.838	75.06
232.072	78.06
232.306	89.06
232.541	82.06
232.775	77.06
233.009	84.06
233.243	84.06
233.477	92.06
233.711	85.06
233.945	59.06
234.179	80.06
234.413	76.06
234.647	84.06
234.881	91.06
235.115	84.06
235.349	96.06
235.583	89.06
235.817	75.06
236.051	64.06
236.285	68.06
236.519	72.06
236.753	75.06
236.987	84.06
237.221	85.06
237.455	85.06
237.689	74.06
237.922	73.06
238.156	71.06
238.39	77.06
238.624	75.06
238.858	87.06
239.091	72.06
239.325	79.06
239.559	91.06
239.793	69.06
240.027	81.06
240.26	62.06
240.494	68.06
240.728	65.06
240.961	73.06
241.195	66.06
241.429	76.06
241.662	69.06
241.896	77.06
242.13	73.06
242.363	81.06
242.597	65.06
242.83	80.06
243.064	71.06
243.298	78.06
243.531	75.06
243.765	76.06
243.998	77.06
244.232	77.06
244.465	89.06
244.699	80.06
244.932	88.06
245.166	85.06
245.399	66.06
245.633	69.06
245.866	63.06
246.099	81.06
246.333	87.06
246.566	86.06
246.8	76.06
247.033	80.06
247.266	72.06
247.5	81.06
247.733	85.06
247.966	88.06
248.2	68.06
248.433	77.06
248.666	62.06
248.899	82.06
249.133	83.06
249.366	88.06
249.599	92.06
249.832	83.06
250.066	79.06
250.299	84.06
250.532	74.06
250.765	77.06
250.998	76.06
251.231	70.06
251.465	85.06
251.698	77.06
251.931	80.06
252.164	73.06
252.397	65.06
252.63	69.06
252.863	82.06
253.096	85.06
253.329	80.06
253.562	77.06
253.795	72.06
254.028	64.06
254.261	85.06
254.494	72.06
254.727	85.06
254.96	69.06
255.193	74.06
255.426	70.06
255.659	84.06
255.892	73.06
256.124	65.06
256.357	79.06
256.59	72.06
256.823	72.06
257.056	69.06
257.289	72.06
257.521	77.06
257.754	80.06
257.987	94.06
258.22	81.06
258.452	73.06
258.685	66.06
258.918	75.06
259.151	68.06
259.383	89.06
259.616	77.06
259.849	89.06
260.081	91.06
260.314	72.06
260.547	85.06
260.779	81.06
261.012	77.06
261.244	91.06
261.477	87.06
261.71	88.06
261.942	101.06
262.175	105.06
262.407	84.06
262.64	86.06
262.872	72.06
263.105	78.06
263.337	84.06
263.57	86.06
263.802	82.06
264.035	66.06
264.267	85.06
264.499	75.06
264.732	86.06
264.964	84.06
265.197	84.06
265.429	83.06
265.661	102.06
265.894	82.06
266.126	88.06
266.358	95.06
266.591	74.06
266.823	74.06
267.055	73.06
267.287	96.06
267.52	85.06
267.752	96.06
267.984	73.06
268.216	69.06
268.448	69.06
268.681	74.06
268.913	93.06
269.145	79.06
269.377	84.06
269.609	68.06
269.841	91.06
270.073	87.06
270.306	87.06
270.538	93.06
270.77	77.06
271.002	84.06
271.234	74.06
271.466	88.06
271.698	81.06
271.93	85.06
272.162	78.06
272.394	99.06
272.626	82.06
272.858	82.06
273.09	96.06
273.322	85.06
273.553	82.06
273.785	80.06
274.017	73.06
274.249	77.06
274.481	87.06
274.713	89.06
274.945	85.06
275.176	87.06
275.408	92.06
275.64	79.06
275.872	94.06
276.104	77.06
276.335	78.06
276.567	91.06
276.799	107.06
277.031	89.06
277.262	81.06
277.494	90.06
277.726	86.06
277.957	69.06
278.189	72.06
278.421	86.06
278.652	98.06
278.884	91.06
279.115	94.06
279.347	87.06
279.579	89.06
279.81	82.06
280.042	78.06
280.273	95.06
280.505	88.06
280.736	83.06
280.968	88.06
281.199	77.06
281.431	84.06
281.662	92.06
281.894	91.06
282.125	95.06
282.356	108.06
282.588	133.06
282.819	113.06
283.051	76.06
283.282	100.06
283.513	87.06
283.745	81.06
283.976	92.06
284.207	85.06
284.439	96.06
284.67	86.06
284.901	76.06
285.132	86.06
285.364	76.06
285.595	83.06
285.826	87.06
286.057	90.06
286.288	66.06
286.52	82.06
286.751	75.06
286.982	73.06
287.213	81.06
287.444	81.06
287.675	84.06
287.906	76.06
288.138	85.06
288.369	82.06
288.6	87.06
288.831	97.06
289.062	88.06
289.293	86.06
289.524	92.06
289.755	90.06
289.986	93.06
290.217	90.06
290.448	90.06
290.679	91.06
290.91	110.06
291.141	105.06
291.371	85.06
291.602	95.06
291.833	94.06
292.064	79.06
292.295	85.06
292.526	89.06
292.757	82.06
292.987	70.06
293.218	80.06
293.449	76.06
293.68	91.06
293.91	81.06
294.141	88.06
294.372	93.06
294.603	86.06
294.833	90.06
295.064	80.06
295.295	87.06
295.525	77.06
295.756	92.06
295.987	105.06
296.217	126.06
296.448	118.06
296.679	103.06
296.909	88.06
297.14	86.06
297.37	74.06
297.601	84.06
297.831	89.06
298.062	102.06
298.292	86.06
298.523	79.06
298.753	84.06
298.984	77.06
299.214	82.06
299.445	96.06
299.675	89.06
299.905	96.06
300.136	82.06
300.366	85.06
300.597	96.06
300.827	89.06
301.057	102.06
301.288	94.06
301.518	111.06
301.748	79.06
301.979	94.06
302.209	90.06
302.439	89.06
302.669	89.06
302.9	77.06
303.13	73.06
303.36	95.06
303.59	108.06
303.82	89.06
304.051	90.06
304.281	86.06
304.511	91.06
304.741	78.06
304.971	80.06
305.201	63.06
305.431	80.06
305.661	90.06
305.891	87.06
306.121	90.06
306.352	89.06
306.582	102.06
306.812	90.06
307.042	87.06
307.272	88.06
307.502	82.06
307.731	78.06
307.961	95.06
308.191	88.06
308.421	95.06
308.651	84.06
308.881	92.06
309.111	86.06
309.341	88.06
309.571	89.06
309.8	92.06
310.03	92.06
310.26	88.06
310.49	93.06
310.72	96.06
310.949	80.06
311.179	95.06
311.409	90.06
311.639	82.06
311.868	94.06
312.098	89.06
312.328	88.06
312.557	92.06
312.787	90.06
313.017	89.06
313.246	86.06
313.476	93.06
313.706	92.06
313.935	83.06
314.165	106.06
314.394	95.06
314.624	82.06
314.853	72.06
315.083	86.06
315.312	98.06
315.542	96.06
315.771	94.06
316.001	105.06
316.23	78.06
316.46	89.06
316.689	90.06
316.919	85.06
317.148	93.06
317.377	98.06
317.607	94.06
317.836	78.06
318.065	83.06
318.295	98.06
318.524	95.06
318.753	104.06
318.983	96.06
319.212	101.06
319.441	102.06
319.67	79.06
319.9	92.06
320.129	86.06
320.358	95.06
320.587	95.06
320.816	88.06
321.046	89.06
321.275	101.06
321.504	90.06
321.733	85.06
321.962	105.06
322.191	113.06
322.42	101.06
322.649	100.06
322.878	97.06
323.108	114.06
323.337	121.06
323.566	113.06
323.795	148.06
324.024	209.06
324.253	385.06
324.482	818.06
324.71	1660.06
324.939	2139.06
325.168	796.06
325.397	234.06
325.626	136.06
325.855	134.06
326.084	126.06
326.313	131.06
326.542	153.06
326.77	225.06
326.999	449.06
327.228	908.06
327.457	1647.06
327.686	1338.06
327.914	365.06
328.143	188.06
328.372	146.06
328.6	117.06
328.829	112.06
329.058	114.06
329.287	121.06
329.515	109.06
329.744	104.06
329.972	84.06
330.201	97.06
330.43	111.06
330.658	125.06
330.887	132.06
331.115	109.06
331.344	99.06
331.572	92.06
331.801	101.06
332.03	93.06
332.258	105.06
332.486	92.06
332.715	90.06
332.943	102.06
333.172	91.06
333.4	96.06
333.629	103.06
333.857	108.06
334.085	104.06
334.314	99.06
334.542	89.06
334.771	94.06
334.999	96.06
335.227	82.06
335.455	96.06
335.684	95.06
335.912	96.06
336.14	97.06
336.369	96.06
336.597	86.06
336.825	92.06
337.053	80.06
337.281	88.06
337.51	94.06
337.738	88.06
337.966	96.06
338.194	77.06
338.422	87.06
338.65	86.06
338.878	102.06
339.106	80.06
339.334	86.06
339.562	83.06
339.79	99.06
340.018	107.06
340.246	86.06
340.474	88.06
340.702	86.06
340.93	77.06
341.158	91.06
341.386	100.06
341.614	89.06
341.842	88.06
342.07	86.06
342.298	88.06
342.526	72.06
342.754	96.06
342.981	95.06
343.209	85.06
343.437	109.06
343.665	79.06
343.893	88.06
344.12	86.06
344.348	86.06
344.576	86.06
344.804	87.06
345.031	87.06
345.259	85.06
345.487	71.06
345.714	91.06
345.942	76.06
346.17	92.06
346.397	75.06
346.625	99.06
346.853	92.06
347.08	86.06
347.308	95.06
347.535	96.06
347.763	88.06
347.99	106.06
348.218	109.06
348.445	113.06
348.673	80.06
348.9	92.06
349.128	92.06
349.355	78.06
349.583	89.06
349.81	80.06
350.037	89.06
350.265	100.06
350.492	78.06
350.72	92.06
350.947	83.06
351.174	108.06
351.402	110.06
351.629	88.06
351.856	92.06
352.083	91.06
352.311	107.06
352.538	97.06
352.765	105.06
352.992	95.06
353.22	121.06
353.447	94.06
353.674	106.06
353.901	96.06
354.128	84.06
354.355	111.06
354.583	90.06
354.81	89.06
355.037	96.06
355.264	94.06
355.491	98.06
355.718	87.06
355.945	87.06
356.172	81.06
356.399	103.06
356.626	93.06
356.853	78.06
357.08	97.06
357.307	86.06
357.534	93.06
357.761	88.06
357.988	84.06
358.215	111.06
358.441	95.06
358.668	96.06
358.895	88.06
359.122	98.06
359.349	84.06
359.576	88.06
359.802	110.06
360.029	109.06
360.256	94.06
360.483	98.06
360.709	75.06
360.936	89.06
361.163	85.06
361.39	98.06
361.616	92.06
361.843	73.06
362.07	88.06
362.296	97.06
362.523	90.06
362.749	87.06
362.976	92.06
363.203	94.06
363.429	87.06
363.656	101.06
363.882	86.06
364.109	99.06
364.335	96.06
364.562	98.06
364.788	87.06
365.015	100.06
365.241	108.06
365.468	103.06
365.694	98.06
365.92	101.06
366.147	81.06
366.373	87.06
366.599	84.06
366.826	87.06
367.052	81.06
367.278	92.06
367.505	90.06
367.731	87.06
367.957	86.06
368.184	95.06
368.41	96.06
368.636	110.06
368.862	112.06
369.089	111.06
369.315	98.06
369.541	80.06
369.767	97.06
369.993	102.06
370.219	104.06
370.445	88.06
370.672	87.06
370.898	79.06
371.124	92.06
371.35	104.06
371.576	83.06
371.802	96.06
372.028	89.06
372.254	80.06
372.48	90.06
372.706	65.06
372.932	84.06
373.158	76.06
373.384	80.06
373.61	88.06
373.835	91.06
374.061	90.06
374.287	85.06
374.513	104.06
374.739	84.06
374.965	81.06
375.191	98.06
375.416	89.06
375.642	88.06
375.868	97.06
376.094	93.06
376.319	90.06
376.545	94.06
376.771	85.06
376.997	90.06
377.222	81.06
377.448	85.06
377.674	87.06
377.899	96.06
378.125	89.06
378.35	86.06
378.576	99.06
378.802	80.06
379.027	93.06
379.253	94.06
379.478	92.06
379.704	91.06
379.929	89.06
380.155	90.06
380.38	84.06
380.606	76.06
380.831	86.06
381.057	91.06
381.282	97.06
381.507	82.06
381.733	97.06
381.958	93.06
382.184	76.06
382.409	109.06
382.634	98.06
382.86	97.06
383.085	96.06
383.31	104.06
383.535	98.06
383.761	85.06
383.986	91.06
384.211	102.06
384.436	80.06
384.662	97.06
384.887	91.06
385.112	94.06
385.337	99.06
385.562	92.06
385.787	93.06
386.013	119.06
386.238	110.06
386.463	81.06
386.688	102.06
386.913	100.06
387.138	100.06
387.363	97.06
387.588	97.06
387.813	93.06
388.038	96.06
388.263	106.06
388.488	93.06
388.713	86.06
388.938	85.06
389.163	102.06
389.387	112.06
389.612	101.06
389.837	98.06
390.062	84.06
390.287	82.06
390.512	93.06
390.736	86.06
390.961	78.06
391.186	87.06
391.411	100.06
391.636	96.06
391.86	81.06
392.085	77.06
392.31	80.06
392.534	100.06
392.759	76.06
392.984	78.06
393.208	90.06
393.433	80.06
393.658	91.06
393.882	85.06
394.107	84.06
394.331	82.06
394.556	95.06
394.78	68.06
395.005	76.06
395.229	85.06
395.454	88.06
395.678	81.06
395.903	81.06
396.127	84.06
396.352	78.06
396.576	83.06
396.801	95.06
397.025	93.06
397.249	90.06
397.474	82.06
397.698	84.06
397.922	90.06
398.147	81.06
398.371	87.06
398.595	85.06
398.82	88.06
399.044	89.06
399.268	84.06
399.492	93.06
399.717	96.06
399.941	86.06
400.165	85.06
400.389	87.06
400.613	88.06
400.837	96.06
401.062	86.06
401.286	96.06
401.51	80.06
401.734	87.06
401.958	84.06
402.182	126.06
402.406	155.06
402.63	102.06
402.854	86.06
403.078	84.06
403.302	75.06
403.526	92.06
403.75	80.06
403.974	77.06
404.198	89.06
404.422	90.06
404.645	92.06
404.869	99.06
405.093	102.06
405.317	106.06
405.541	95.06
405.765	95.06
405.988	117.06
406.212	157.06
406.436	204.06
406.66	127.06
406.883	88.06
407.107	87.06
407.331	98.06
407.555	95.06
407.778	96.06
408.002	97.06
408.226	89.06
408.449	90.06
408.673	89.06
408.896	88.06
409.12	93.06
409.344	97.06
409.567	76.06
409.791	84.06
410.014	97.06
410.238	92.06
410.461	77.06
410.685	94.06
410.908	91.06
411.132	103.06
411.355	95.06
411.578	93.06
411.802	71.06
412.025	78.06
412.249	85.06
412.472	108.06
412.695	90.06
412.919	85.06
413.142	83.06
413.365	88.06
413.589	81.06
413.812	75.06
414.035	90.06
414.258	80.06
414.482	95.06
414.705	85.06
414.928	89.06
415.151	93.06
415.374	89.06
415.597	85.06
415.821	80.06
416.044	76.06
416.267	92.06
416.49	90.06
416.713	74.06
416.936	92.06
417.159	86.06
417.382	78.06
417.605	88.06
417.828	96.06
418.051	88.06
418.274	89.06
418.497	77.06
418.72	78.06
418.943	84.06
419.166	103.06
419.389	88.06
419.611	84.06
419.834	99.06
420.057	81.06
420.28	79.06
420.503	85.06
420.726	73.06
420.948	85.06
421.171	93.06
421.394	82.06
421.617	89.06
421.839	80.06
422.062	77.06
422.285	102.06
422.507	79.06
422.73	111.06
422.953	85.06
423.175	93.06
423.398	84.06
423.621	93.06
423.843	86.06
424.066	91.06
424.288	89.06
424.511	89.06
424.733	93.06
424.956	102.06
425.178	85.06
425.401	94.06
425.623	91.06
425.846	83.06
426.068	81.06
426.291	93.06
426.513	86.06
426.735	86.06
426.958	95.06
427.18	105.06
427.402	131.06
427.625	160.06
427.847	114.06
428.069	81.06
428.292	73.06
428.514	93.06
428.736	94.06
428.958	91.06
429.181	88.06
429.403	93.06
429.625	88.06
429.847	96.06
430.069	103.06
430.292	90.06
430.514	95.06
430.736	75.06
430.958	90.06
431.18	80.06
431.402	71.06
431.624	84.06
431.846	84.06
432.068	92.06
432.29	79.06
432.512	89.06
432.734	85.06
432.956	77.06
433.178	97.06
433.4	105.06
433.622	86.06
433.844	94.06
434.066	97.06
434.287	89.06
434.509	85.06
434.731	96.06
434.953	86.06
435.175	90.06
435.397	74.06
435.618	106.06
435.84	103.06
436.062	121.06
436.284	109.06
436.505	108.06
436.727	108.06
436.949	100.06
437.17	88.06
437.392	96.06
437.614	74.06
437.835	98.06
438.057	116.06
438.278	96.06
438.5	91.06
438.721	117.06
438.943	111.06
439.165	86.06
439.386	94.06
439.608	98.06
439.829	91.06
440.05	124.06
440.272	148.06
440.493	108.06
440.715	95.06
440.936	86.06
441.158	98.06
441.379	79.06
441.6	82.06
441.822	97.06
442.043	85.06
442.264	105.06
442.486	105.06
442.707	80.06
442.928	95.06
443.149	132.06
443.371	123.06
443.592	98.06
443.813	111.06
444.034	122.06
444.255	95.06
444.476	88.06
444.698	94.06
444.919	85.06
445.14	127.06
445.361	111.06
445.582	101.06
445.803	132.06
446.024	129.06
446.245	132.06
446.466	111.06
446.687	100.06
446.908	89.06
447.129	84.06
447.35	97.06
447.571	84.06
447.792	95.06
448.013	85.06
448.234	103.06
448.455	97.06
448.675	114.06
448.896	127.06
449.117	85.06
449.338	100.06
449.559	120.06
449.779	130.06
450	86.06
450.221	96.06
450.442	89.06
450.662	85.06
450.883	96.06
451.104	96.06
451.324	95.06
451.545	96.06
451.766	78.06
451.986	83.06
452.207	93.06
452.428	88.06
452.648	102.06
452.869	110.06
453.089	108.06
453.31	110.06
453.53	111.06
453.751	93.06
453.971	87.06
454.192	100.06
454.412	82.06
454.633	82.06
454.853	72.06
455.073	95.06
455.294	82.06
455.514	97.06
455.734	82.06
455.955	72.06
456.175	82.06
456.395	89.06
456.616	74.06
456.836	87.06
457.056	73.06
457.276	89.06
457.497	80.06
457.717	88.06
457.937	85.06
458.157	86.06
458.377	79.06
458.598	110.06
458.818	149.06
459.038	144.06
459.258	112.06
459.478	86.06
459.698	91.06
459.918	79.06
460.138	82.06
460.358	77.06
460.578	94.06
460.798	85.06
461.018	86.06
461.238	78.06
461.458	86.06
461.678	82.06
461.898	79.06
462.118	98.06
462.338	73.06
462.558	88.06
462.777	92.06
462.997	74.06
463.217	86.06
463.437	99.06
463.657	89.06
463.876	93.06
464.096	85.06
464.316	92.06
464.536	81.06
464.755	94.06
464.975	107.06
465.195	162.06
465.414	152.06
465.634	83.06
465.854	95.06
466.073	80.06
466.293	94.06
466.512	96.06
466.732	85.06
466.951	80.06
467.171	100.06
467.391	97.06
467.61	94.06
467.829	96.06
468.049	84.06
468.268	88.06
468.488	88.06
468.707	82.06
468.927	90.06
469.146	94.06
469.365	85.06
469.585	89.06
469.804	77.06
470.023	88.06
470.243	84.06
470.462	91.06
470.681	117.06
470.901	97.06
471.12	81.06
471.339	76.06
471.558	84.06
471.777	85.06
471.997	80.06
472.216	84.06
472.435	98.06
472.654	96.06
472.873	98.06
473.092	77.06
473.311	83.06
473.53	79.06
473.749	95.06
473.968	87.06
474.187	89.06
474.406	84.06
474.625	96.06
474.844	81.06
475.063	80.06
475.282	76.06
475.501	74.06
475.72	87.06
475.939	87.06
476.158	81.06
476.377	78.06
476.596	74.06
476.814	87.06
477.033	80.06
477.252	90.06
477.471	86.06
477.69	85.06
477.908	94.06
478.127	77.06
478.346	81.06
478.564	80.06
478.783	89.06
479.002	93.06
479.22	97.06
479.439	103.06
479.658	93.06
479.876	94.06
480.095	92.06
480.313	84.06
480.532	88.06
480.751	94.06
480.969	83.06
481.188	104.06
481.406	102.06
481.624	105.06
481.843	81.06
482.061	86.06
482.28	84.06
482.498	79.06
482.717	90.06
482.935	78.06
483.153	90.06
483.372	87.06
483.59	73.06
483.808	83.06
484.027	98.06
484.245	88.06
484.463	82.06
484.681	92.06
484.9	69.06
485.118	93.06
485.336	102.06
485.554	93.06
485.772	88.06
485.99	101.06
486.209	108.06
486.427	106.06
486.645	112.06
486.863	104.06
487.081	89.06
487.299	92.06
487.517	95.06
487.735	86.06
487.953	87.06
488.171	88.06
488.389	98.06
488.607	101.06
488.825	86.06
489.043	86.06
489.261	83.06
489.479	85.06
489.696	75.06
489.914	91.06
490.132	90.06
490.35	92.06
490.568	89.06
490.786	80.06
491.003	110.06
491.221	105.06
491.439	92.06
491.657	92.06
491.874	77.06
492.092	91.06
492.31	95.06
492.527	76.06
492.745	84.06
492.963	76.06
493.18	86.06
493.398	96.06
493.615	86.06
493.833	97.06
494.05	104.06
494.268	80.06
494.485	89.06
494.703	97.06
494.92	91.06
495.138	78.06
495.355	85.06
495.573	92.06
495.79	63.06
496.008	102.06
496.225	84.06
496.442	90.06
496.66	93.06
496.877	84.06
497.094	81.06
497.312	91.06
497.529	85.06
497.746	94.06
497.963	86.06
498.181	84.06
498.398	94.06
498.615	119.06
498.832	91.06
499.049	86.06
499.267	82.06
499.484	93.06
499.701	94.06
499.918	79.06
500.135	98.06
500.352	103.06
500.569	85.06
500.786	80.06
501.003	88.06
501.22	75.06
501.437	83.06
501.654	91.06
501.871	104.06
502.088	90.06
502.305	76.06
502.522	93.06
502.739	81.06
502.956	111.06
503.172	100.06
503.389	84.06
503.606	99.06
503.823	84.06
504.04	107.06
504.256	93.06
504.473	83.06
504.69	97.06
504.907	88.06
505.123	89.06
505.34	94.06
505.557	96.06
505.773	90.06
505.99	92.06
506.207	89.06
506.423	87.06
506.64	91.06
506.856	85.06
507.073	89.06
507.289	99.06
507.506	92.06
507.722	107.06
507.939	89.06
508.155	82.06
508.372	89.06
508.588	88.06
508.805	80.06
509.021	88.06
509.238	101.06
509.454	80.06
509.67	94.06
509.887	110.06
510.103	130.06
510.319	183.06
510.536	708.06
510.752	2137.06
510.968	602.06
511.184	164.06
511.401	110.06
511.617	105.06
511.833	96.06
512.049	81.06
512.265	95.06
512.481	101.06
512.698	94.06
512.914	82.06
513.13	101.06
513.346	90.06
513.562	97.06
513.778	91.06
513.994	100.06
514.21	93.06
514.426	121.06
514.642	126.06
514.858	112.06
515.074	158.06
515.29	454.06
515.506	1404.06
515.721	508.06
515.937	144.06
516.153	106.06
516.369	95.06
516.585	82.06
516.801	84.06
