Data from Uncirc_1997_H10_HRD10591_00068.txt Node
Date: Wed Jan 03 11:28:44 EST 2024
User: Yrep
Spectrometer: HR+D1059
Trigger mode: 1
Integration Time (sec): 1.000000E-1
Scans to average: 1
Electric dark correction enabled: true
Nonlinearity correction enabled: false
Boxcar width: 0
XAxis mode: Wavelengths
Number of Pixels in Spectrum: 2048
>>>>>Begin Spectral Data<<<<<
223.165	-31.81
223.4	-31.81
223.635	-31.81
223.869	-17.81
224.104	-31.81
224.338	-17.81
224.573	-22.81
224.808	-5.81
225.042	-0.81
225.277	-7.81
225.511	-4.81
225.746	7.19
225.98	12.19
226.215	17.19
226.449	18.19
226.683	26.19
226.918	36.19
227.152	24.19
227.387	33.19
227.621	52.19
227.856	39.19
228.09	33.19
228.324	49.19
228.559	57.19
228.793	46.19
229.027	62.19
229.262	61.19
229.496	75.19
229.73	93.19
229.964	78.19
230.199	81.19
230.433	82.19
230.667	78.19
230.901	77.19
231.136	73.19
231.37	89.19
231.604	78.19
231.838	87.19
232.072	72.19
232.306	93.19
232.541	74.19
232.775	80.19
233.009	73.19
233.243	92.19
233.477	93.19
233.711	81.19
233.945	78.19
234.179	73.19
234.413	76.19
234.647	80.19
234.881	74.19
235.115	69.19
235.349	84.19
235.583	86.19
235.817	81.19
236.051	60.19
236.285	81.19
236.519	64.19
236.753	73.19
236.987	81.19
237.221	78.19
237.455	68.19
237.689	82.19
237.922	73.19
238.156	82.19
238.39	69.19
238.624	73.19
238.858	88.19
239.091	76.19
239.325	84.19
239.559	64.19
239.793	83.19
240.027	72.19
240.26	75.19
240.494	69.19
240.728	68.19
240.961	72.19
241.195	76.19
241.429	73.19
241.662	68.19
241.896	71.19
242.13	72.19
242.363	79.19
242.597	70.19
242.83	73.19
243.064	76.19
243.298	77.19
243.531	72.19
243.765	74.19
243.998	90.19
244.232	89.19
244.465	80.19
244.699	74.19
244.932	89.19
245.166	80.19
245.399	82.19
245.633	71.19
245.866	66.19
246.099	68.19
246.333	72.19
246.566	76.19
246.8	82.19
247.033	71.19
247.266	77.19
247.5	74.19
247.733	86.19
247.966	88.19
248.2	81.19
248.433	81.19
248.666	86.19
248.899	86.19
249.133	77.19
249.366	80.19
249.599	92.19
249.832	68.19
250.066	69.19
250.299	92.19
250.532	80.19
250.765	87.19
250.998	76.19
251.231	75.19
251.465	73.19
251.698	81.19
251.931	75.19
252.164	86.19
252.397	86.19
252.63	78.19
252.863	80.19
253.096	89.19
253.329	86.19
253.562	75.19
253.795	93.19
254.028	70.19
254.261	87.19
254.494	68.19
254.727	72.19
254.96	84.19
255.193	78.19
255.426	81.19
255.659	75.19
255.892	86.19
256.124	90.19
256.357	84.19
256.59	84.19
256.823	82.19
257.056	75.19
257.289	90.19
257.521	88.19
257.754	76.19
257.987	64.19
258.22	73.19
258.452	79.19
258.685	86.19
258.918	84.19
259.151	75.19
259.383	70.19
259.616	83.19
259.849	72.19
260.081	79.19
260.314	82.19
260.547	79.19
260.779	86.19
261.012	82.19
261.244	73.19
261.477	85.19
261.71	97.19
261.942	93.19
262.175	109.19
262.407	80.19
262.64	88.19
262.872	79.19
263.105	68.19
263.337	88.19
263.57	76.19
263.802	80.19
264.035	82.19
264.267	75.19
264.499	78.19
264.732	81.19
264.964	90.19
265.197	81.19
265.429	82.19
265.661	77.19
265.894	77.19
266.126	69.19
266.358	71.19
266.591	80.19
266.823	81.19
267.055	78.19
267.287	78.19
267.52	69.19
267.752	83.19
267.984	83.19
268.216	95.19
268.448	87.19
268.681	90.19
268.913	91.19
269.145	66.19
269.377	79.19
269.609	75.19
269.841	91.19
270.073	82.19
270.306	87.19
270.538	81.19
270.77	105.19
271.002	87.19
271.234	79.19
271.466	81.19
271.698	77.19
271.93	88.19
272.162	95.19
272.394	93.19
272.626	75.19
272.858	98.19
273.09	79.19
273.322	78.19
273.553	84.19
273.785	81.19
274.017	74.19
274.249	87.19
274.481	88.19
274.713	85.19
274.945	91.19
275.176	84.19
275.408	78.19
275.64	78.19
275.872	93.19
276.104	102.19
276.335	95.19
276.567	113.19
276.799	94.19
277.031	104.19
277.262	80.19
277.494	91.19
277.726	94.19
277.957	68.19
278.189	86.19
278.421	86.19
278.652	85.19
278.884	70.19
279.115	88.19
279.347	84.19
279.579	73.19
279.81	84.19
280.042	84.19
280.273	103.19
280.505	97.19
280.736	79.19
280.968	88.19
281.199	79.19
281.431	85.19
281.662	81.19
281.894	84.19
282.125	98.19
282.356	111.19
282.588	113.19
282.819	95.19
283.051	88.19
283.282	80.19
283.513	97.19
283.745	87.19
283.976	77.19
284.207	93.19
284.439	87.19
284.67	82.19
284.901	95.19
285.132	84.19
285.364	79.19
285.595	97.19
285.826	88.19
286.057	79.19
286.288	80.19
286.52	85.19
286.751	80.19
286.982	83.19
287.213	80.19
287.444	80.19
287.675	85.19
287.906	75.19
288.138	97.19
288.369	103.19
288.6	89.19
288.831	74.19
289.062	88.19
289.293	93.19
289.524	85.19
289.755	98.19
289.986	98.19
290.217	82.19
290.448	72.19
290.679	87.19
290.91	85.19
291.141	95.19
291.371	85.19
291.602	87.19
291.833	91.19
292.064	90.19
292.295	86.19
292.526	80.19
292.757	73.19
292.987	78.19
293.218	78.19
293.449	88.19
293.68	75.19
293.91	76.19
294.141	94.19
294.372	86.19
294.603	87.19
294.833	93.19
295.064	77.19
295.295	93.19
295.525	86.19
295.756	97.19
295.987	104.19
296.217	124.19
296.448	122.19
296.679	93.19
296.909	83.19
297.14	84.19
297.37	88.19
297.601	88.19
297.831	98.19
298.062	86.19
298.292	74.19
298.523	83.19
298.753	99.19
298.984	92.19
299.214	98.19
299.445	95.19
299.675	82.19
299.905	90.19
300.136	90.19
300.366	83.19
300.597	88.19
300.827	96.19
301.057	92.19
301.288	78.19
301.518	86.19
301.748	92.19
301.979	93.19
302.209	85.19
302.439	82.19
302.669	80.19
302.9	93.19
303.13	87.19
303.36	88.19
303.59	88.19
303.82	95.19
304.051	78.19
304.281	72.19
304.511	98.19
304.741	93.19
304.971	71.19
305.201	105.19
305.431	76.19
305.661	79.19
305.891	82.19
306.121	97.19
306.352	105.19
306.582	87.19
306.812	80.19
307.042	102.19
307.272	99.19
307.502	83.19
307.731	80.19
307.961	79.19
308.191	93.19
308.421	91.19
308.651	91.19
308.881	94.19
309.111	96.19
309.341	93.19
309.571	104.19
309.8	95.19
310.03	93.19
310.26	88.19
310.49	92.19
310.72	92.19
310.949	106.19
311.179	97.19
311.409	84.19
311.639	104.19
311.868	89.19
312.098	92.19
312.328	95.19
312.557	96.19
312.787	105.19
313.017	100.19
313.246	98.19
313.476	85.19
313.706	92.19
313.935	92.19
314.165	106.19
314.394	83.19
314.624	93.19
314.853	84.19
315.083	83.19
315.312	86.19
315.542	86.19
315.771	87.19
316.001	95.19
316.23	84.19
316.46	90.19
316.689	85.19
316.919	103.19
317.148	85.19
317.377	95.19
317.607	90.19
317.836	95.19
318.065	87.19
318.295	87.19
318.524	98.19
318.753	85.19
318.983	106.19
319.212	106.19
319.441	101.19
319.67	89.19
319.9	94.19
320.129	86.19
320.358	97.19
320.587	103.19
320.816	85.19
321.046	97.19
321.275	85.19
321.504	111.19
321.733	98.19
321.962	98.19
322.191	103.19
322.42	103.19
322.649	94.19
322.878	104.19
323.108	118.19
323.337	124.19
323.566	117.19
323.795	142.19
324.024	193.19
324.253	364.19
324.482	756.19
324.71	1576.19
324.939	2107.19
325.168	736.19
325.397	238.19
325.626	133.19
325.855	134.19
326.084	119.19
326.313	132.19
326.542	129.19
326.77	239.19
326.999	419.19
327.228	896.19
327.457	1604.19
327.686	1281.19
327.914	350.19
328.143	180.19
328.372	132.19
328.6	121.19
328.829	108.19
329.058	112.19
329.287	98.19
329.515	112.19
329.744	95.19
329.972	101.19
330.201	106.19
330.43	112.19
330.658	116.19
330.887	142.19
331.115	103.19
331.344	90.19
331.572	95.19
331.801	99.19
332.03	112.19
332.258	96.19
332.486	94.19
332.715	92.19
332.943	85.19
333.172	92.19
333.4	103.19
333.629	116.19
333.857	102.19
334.085	113.19
334.314	98.19
334.542	99.19
334.771	100.19
334.999	92.19
335.227	110.19
335.455	88.19
335.684	97.19
335.912	89.19
336.14	82.19
336.369	97.19
336.597	93.19
336.825	95.19
337.053	91.19
337.281	98.19
337.51	91.19
337.738	89.19
337.966	89.19
338.194	103.19
338.422	84.19
338.65	90.19
338.878	94.19
339.106	95.19
339.334	81.19
339.562	90.19
339.79	92.19
340.018	96.19
340.246	101.19
340.474	90.19
340.702	76.19
340.93	90.19
341.158	93.19
341.386	103.19
341.614	81.19
341.842	90.19
342.07	77.19
342.298	94.19
342.526	84.19
342.754	89.19
342.981	101.19
343.209	86.19
343.437	81.19
343.665	80.19
343.893	96.19
344.12	82.19
344.348	84.19
344.576	97.19
344.804	85.19
345.031	90.19
345.259	88.19
345.487	98.19
345.714	89.19
345.942	87.19
346.17	104.19
346.397	100.19
346.625	86.19
346.853	91.19
347.08	97.19
347.308	84.19
347.535	94.19
347.763	74.19
347.99	109.19
348.218	118.19
348.445	104.19
348.673	99.19
348.9	97.19
349.128	98.19
349.355	95.19
349.583	100.19
349.81	96.19
350.037	91.19
350.265	89.19
350.492	77.19
350.72	79.19
350.947	88.19
351.174	97.19
351.402	95.19
351.629	100.19
351.856	101.19
352.083	93.19
352.311	97.19
352.538	114.19
352.765	101.19
352.992	107.19
353.22	104.19
353.447	89.19
353.674	96.19
353.901	99.19
354.128	95.19
354.355	80.19
354.583	96.19
354.81	92.19
355.037	95.19
355.264	88.19
355.491	91.19
355.718	77.19
355.945	80.19
356.172	105.19
356.399	92.19
356.626	97.19
356.853	102.19
357.08	105.19
357.307	97.19
357.534	86.19
357.761	74.19
357.988	96.19
358.215	90.19
358.441	93.19
358.668	79.19
358.895	89.19
359.122	90.19
359.349	99.19
359.576	85.19
359.802	78.19
360.029	98.19
360.256	103.19
360.483	91.19
360.709	87.19
360.936	96.19
361.163	86.19
361.39	92.19
361.616	91.19
361.843	84.19
362.07	87.19
362.296	102.19
362.523	89.19
362.749	93.19
362.976	87.19
363.203	90.19
363.429	86.19
363.656	84.19
363.882	91.19
364.109	100.19
364.335	94.19
364.562	86.19
364.788	76.19
365.015	108.19
365.241	105.19
365.468	102.19
365.694	93.19
365.92	85.19
366.147	96.19
366.373	89.19
366.599	101.19
366.826	85.19
367.052	80.19
367.278	86.19
367.505	88.19
367.731	92.19
367.957	93.19
368.184	91.19
368.41	98.19
368.636	109.19
368.862	105.19
369.089	101.19
369.315	84.19
369.541	86.19
369.767	92.19
369.993	93.19
370.219	91.19
370.445	98.19
370.672	85.19
370.898	82.19
371.124	82.19
371.35	95.19
371.576	91.19
371.802	73.19
372.028	93.19
372.254	90.19
372.48	93.19
372.706	85.19
372.932	90.19
373.158	78.19
373.384	93.19
373.61	89.19
373.835	98.19
374.061	90.19
374.287	89.19
374.513	82.19
374.739	88.19
374.965	100.19
375.191	86.19
375.416	87.19
375.642	86.19
375.868	90.19
376.094	95.19
376.319	74.19
376.545	86.19
376.771	88.19
376.997	81.19
377.222	84.19
377.448	103.19
377.674	101.19
377.899	88.19
378.125	78.19
378.35	93.19
378.576	94.19
378.802	86.19
379.027	79.19
379.253	89.19
379.478	95.19
379.704	101.19
379.929	102.19
380.155	91.19
380.38	89.19
380.606	88.19
380.831	96.19
381.057	92.19
381.282	81.19
381.507	88.19
381.733	80.19
381.958	90.19
382.184	101.19
382.409	105.19
382.634	88.19
382.86	87.19
383.085	85.19
383.31	93.19
383.535	100.19
383.761	108.19
383.986	101.19
384.211	95.19
384.436	88.19
384.662	97.19
384.887	90.19
385.112	95.19
385.337	95.19
385.562	86.19
385.787	103.19
386.013	104.19
386.238	108.19
386.463	100.19
386.688	91.19
386.913	86.19
387.138	95.19
387.363	112.19
387.588	96.19
387.813	91.19
388.038	92.19
388.263	98.19
388.488	101.19
388.713	93.19
388.938	100.19
389.163	99.19
389.387	95.19
389.612	105.19
389.837	96.19
390.062	98.19
390.287	81.19
390.512	90.19
390.736	78.19
390.961	97.19
391.186	97.19
391.411	101.19
391.636	89.19
391.86	72.19
392.085	75.19
392.31	74.19
392.534	90.19
392.759	85.19
392.984	102.19
393.208	89.19
393.433	89.19
393.658	84.19
393.882	90.19
394.107	85.19
394.331	84.19
394.556	84.19
394.78	90.19
395.005	90.19
395.229	87.19
395.454	96.19
395.678	82.19
395.903	95.19
396.127	87.19
396.352	77.19
396.576	96.19
396.801	80.19
397.025	101.19
397.249	96.19
397.474	84.19
397.698	74.19
397.922	85.19
398.147	93.19
398.371	94.19
398.595	75.19
398.82	85.19
399.044	88.19
399.268	87.19
399.492	90.19
399.717	93.19
399.941	98.19
400.165	84.19
400.389	91.19
400.613	79.19
400.837	100.19
401.062	84.19
401.286	77.19
401.51	88.19
401.734	80.19
401.958	111.19
402.182	125.19
402.406	132.19
402.63	111.19
402.854	104.19
403.078	98.19
403.302	84.19
403.526	81.19
403.75	84.19
403.974	93.19
404.198	91.19
404.422	75.19
404.645	103.19
404.869	89.19
405.093	85.19
405.317	95.19
405.541	99.19
405.765	110.19
405.988	101.19
406.212	162.19
406.436	190.19
406.66	125.19
406.883	87.19
407.107	94.19
407.331	93.19
407.555	96.19
407.778	88.19
408.002	74.19
408.226	90.19
408.449	74.19
408.673	78.19
408.896	75.19
409.12	100.19
409.344	87.19
409.567	102.19
409.791	90.19
410.014	76.19
410.238	86.19
410.461	86.19
410.685	93.19
410.908	111.19
411.132	103.19
411.355	93.19
411.578	102.19
411.802	99.19
412.025	84.19
412.249	89.19
412.472	93.19
412.695	80.19
412.919	88.19
413.142	91.19
413.365	88.19
413.589	92.19
413.812	82.19
414.035	72.19
414.258	85.19
414.482	88.19
414.705	95.19
414.928	88.19
415.151	93.19
415.374	88.19
415.597	72.19
415.821	80.19
416.044	90.19
416.267	82.19
416.49	93.19
416.713	78.19
416.936	97.19
417.159	92.19
417.382	91.19
417.605	94.19
417.828	95.19
418.051	92.19
418.274	91.19
418.497	83.19
418.72	81.19
418.943	84.19
419.166	87.19
419.389	82.19
419.611	73.19
419.834	57.19
420.057	76.19
420.28	95.19
420.503	89.19
420.726	81.19
420.948	100.19
421.171	96.19
421.394	103.19
421.617	105.19
421.839	81.19
422.062	88.19
422.285	94.19
422.507	97.19
422.73	102.19
422.953	86.19
423.175	86.19
423.398	93.19
423.621	83.19
423.843	93.19
424.066	75.19
424.288	84.19
424.511	91.19
424.733	89.19
424.956	96.19
425.178	91.19
425.401	97.19
425.623	103.19
425.846	94.19
426.068	89.19
426.291	92.19
426.513	87.19
426.735	90.19
426.958	95.19
427.18	96.19
427.402	125.19
427.625	143.19
427.847	111.19
428.069	96.19
428.292	83.19
428.514	92.19
428.736	92.19
428.958	78.19
429.181	86.19
429.403	86.19
429.625	69.19
429.847	91.19
430.069	93.19
430.292	85.19
430.514	88.19
430.736	90.19
430.958	86.19
431.18	77.19
431.402	76.19
431.624	80.19
431.846	91.19
432.068	76.19
432.29	96.19
432.512	83.19
432.734	74.19
432.956	84.19
433.178	94.19
433.4	98.19
433.622	90.19
433.844	74.19
434.066	88.19
434.287	83.19
434.509	96.19
434.731	84.19
434.953	83.19
435.175	105.19
435.397	102.19
435.618	90.19
435.84	98.19
436.062	105.19
436.284	114.19
436.505	98.19
436.727	92.19
436.949	90.19
437.17	77.19
437.392	84.19
437.614	79.19
437.835	90.19
438.057	103.19
438.278	104.19
438.5	105.19
438.721	100.19
438.943	85.19
439.165	84.19
439.386	102.19
439.608	93.19
439.829	92.19
440.05	108.19
440.272	127.19
440.493	93.19
440.715	91.19
440.936	88.19
441.158	88.19
441.379	80.19
441.6	84.19
441.822	99.19
442.043	89.19
442.264	104.19
442.486	101.19
442.707	82.19
442.928	100.19
443.149	120.19
443.371	115.19
443.592	102.19
443.813	111.19
444.034	105.19
444.255	82.19
444.476	94.19
444.698	74.19
444.919	86.19
445.14	122.19
445.361	113.19
445.582	107.19
445.803	122.19
446.024	123.19
446.245	130.19
446.466	109.19
446.687	98.19
446.908	81.19
447.129	82.19
447.35	85.19
447.571	68.19
447.792	98.19
448.013	99.19
448.234	104.19
448.455	89.19
448.675	99.19
448.896	111.19
449.117	76.19
449.338	110.19
449.559	111.19
449.779	120.19
450	99.19
450.221	95.19
450.442	93.19
450.662	93.19
450.883	97.19
451.104	102.19
451.324	89.19
451.545	74.19
451.766	89.19
451.986	88.19
452.207	102.19
452.428	93.19
452.648	94.19
452.869	100.19
453.089	96.19
453.31	109.19
453.53	85.19
453.751	105.19
453.971	110.19
454.192	106.19
454.412	95.19
454.633	90.19
454.853	86.19
455.073	83.19
455.294	86.19
455.514	92.19
455.734	83.19
455.955	85.19
456.175	85.19
456.395	77.19
456.616	86.19
456.836	90.19
457.056	84.19
457.276	75.19
457.497	78.19
457.717	93.19
457.937	93.19
458.157	85.19
458.377	80.19
458.598	88.19
458.818	134.19
459.038	128.19
459.258	111.19
459.478	102.19
459.698	81.19
459.918	76.19
460.138	84.19
460.358	74.19
460.578	76.19
460.798	84.19
461.018	88.19
461.238	73.19
461.458	77.19
461.678	63.19
461.898	81.19
462.118	93.19
462.338	71.19
462.558	86.19
462.777	80.19
462.997	94.19
463.217	81.19
463.437	68.19
463.657	84.19
463.876	79.19
464.096	78.19
464.316	100.19
464.536	95.19
464.755	100.19
464.975	93.19
465.195	155.19
465.414	138.19
465.634	96.19
465.854	84.19
466.073	88.19
466.293	88.19
466.512	83.19
466.732	88.19
466.951	94.19
467.171	88.19
467.391	76.19
467.61	92.19
467.829	83.19
468.049	85.19
468.268	86.19
468.488	76.19
468.707	79.19
468.927	86.19
469.146	92.19
469.365	76.19
469.585	94.19
469.804	105.19
470.023	86.19
470.243	101.19
470.462	100.19
470.681	96.19
470.901	93.19
471.12	92.19
471.339	87.19
471.558	85.19
471.777	72.19
471.997	79.19
472.216	82.19
472.435	83.19
472.654	87.19
472.873	86.19
473.092	64.19
473.311	76.19
473.53	77.19
473.749	82.19
473.968	70.19
474.187	96.19
474.406	99.19
474.625	89.19
474.844	79.19
475.063	89.19
475.282	82.19
475.501	81.19
475.72	88.19
475.939	74.19
476.158	89.19
476.377	83.19
476.596	92.19
476.814	82.19
477.033	93.19
477.252	84.19
477.471	81.19
477.69	73.19
477.908	89.19
478.127	77.19
478.346	83.19
478.564	84.19
478.783	78.19
479.002	89.19
479.22	88.19
479.439	99.19
479.658	115.19
479.876	95.19
480.095	80.19
480.313	92.19
480.532	88.19
480.751	79.19
480.969	96.19
481.188	101.19
481.406	87.19
481.624	89.19
481.843	89.19
482.061	85.19
482.28	90.19
482.498	91.19
482.717	94.19
482.935	94.19
483.153	96.19
483.372	85.19
483.59	93.19
483.808	86.19
484.027	76.19
484.245	96.19
484.463	97.19
484.681	91.19
484.9	106.19
485.118	92.19
485.336	78.19
485.554	88.19
485.772	93.19
485.99	108.19
486.209	102.19
486.427	96.19
486.645	100.19
486.863	103.19
487.081	98.19
487.299	93.19
487.517	102.19
487.735	94.19
487.953	96.19
488.171	93.19
488.389	92.19
488.607	106.19
488.825	90.19
489.043	85.19
489.261	73.19
489.479	93.19
489.696	91.19
489.914	92.19
490.132	86.19
490.35	104.19
490.568	85.19
490.786	81.19
491.003	79.19
491.221	85.19
491.439	89.19
491.657	99.19
491.874	95.19
492.092	94.19
492.31	97.19
492.527	80.19
492.745	71.19
492.963	93.19
493.18	89.19
493.398	82.19
493.615	98.19
493.833	100.19
494.05	91.19
494.268	80.19
494.485	98.19
494.703	85.19
494.92	81.19
495.138	87.19
495.355	90.19
495.573	88.19
495.79	77.19
496.008	89.19
496.225	88.19
496.442	80.19
496.66	89.19
496.877	100.19
497.094	86.19
497.312	86.19
497.529	88.19
497.746	91.19
497.963	95.19
498.181	91.19
498.398	88.19
498.615	118.19
498.832	113.19
499.049	83.19
499.267	86.19
499.484	98.19
499.701	91.19
499.918	104.19
500.135	80.19
500.352	85.19
500.569	89.19
500.786	82.19
501.003	73.19
501.22	92.19
501.437	82.19
501.654	79.19
501.871	103.19
502.088	90.19
502.305	88.19
502.522	70.19
502.739	78.19
502.956	71.19
503.172	97.19
503.389	91.19
503.606	106.19
503.823	100.19
504.04	85.19
504.256	90.19
504.473	74.19
504.69	92.19
504.907	93.19
505.123	91.19
505.34	81.19
505.557	89.19
505.773	88.19
505.99	84.19
506.207	93.19
506.423	80.19
506.64	93.19
506.856	88.19
507.073	81.19
507.289	90.19
507.506	104.19
507.722	95.19
507.939	110.19
508.155	91.19
508.372	93.19
508.588	96.19
508.805	86.19
509.021	89.19
509.238	84.19
509.454	87.19
509.67	89.19
509.887	104.19
510.103	126.19
510.319	196.19
510.536	692.19
510.752	2103.19
510.968	586.19
511.184	132.19
511.401	108.19
511.617	93.19
511.833	90.19
512.049	72.19
512.265	87.19
512.481	80.19
512.698	88.19
512.914	81.19
513.13	79.19
513.346	81.19
513.562	99.19
513.778	102.19
513.994	89.19
514.21	92.19
514.426	104.19
514.642	125.19
514.858	112.19
515.074	162.19
515.29	408.19
515.506	1310.19
515.721	470.19
515.937	134.19
516.153	95.19
516.369	97.19
516.585	88.19
516.801	97.19
