Data from Uncirc_1997_H10_HRD10591_00069.txt Node
Date: Wed Jan 03 11:28:44 EST 2024
User: Yrep
Spectrometer: HR+D1059
Trigger mode: 1
Integration Time (sec): 1.000000E-1
Scans to average: 1
Electric dark correction enabled: true
Nonlinearity correction enabled: false
Boxcar width: 0
XAxis mode: Wavelengths
Number of Pixels in Spectrum: 2048
>>>>>Begin Spectral Data<<<<<
223.165	-24.06
223.4	-24.06
223.635	-24.06
223.869	-21.06
224.104	-22.06
224.338	-18.06
224.573	-15.06
224.808	-17.06
225.042	-20.06
225.277	1.94
225.511	9.94
225.746	6.94
225.98	13.94
226.215	13.94
226.449	10.94
226.683	19.94
226.918	22.94
227.152	36.94
227.387	35.94
227.621	37.94
227.856	48.94
228.09	51.94
228.324	58.94
228.559	52.94
228.793	51.94
229.027	58.94
229.262	61.94
229.496	78.94
229.73	85.94
229.964	92.94
230.199	73.94
230.433	62.94
230.667	74.94
230.901	74.94
231.136	74.94
231.37	86.94
231.604	58.94
231.838	72.94
232.072	74.94
232.306	79.94
232.541	88.94
232.775	61.94
233.009	82.94
233.243	74.94
233.477	86.94
233.711	96.94
233.945	87.94
234.179	83.94
234.413	70.94
234.647	76.94
234.881	79.94
235.115	79.94
235.349	102.94
235.583	64.94
235.817	81.94
236.051	81.94
236.285	73.94
236.519	62.94
236.753	76.94
236.987	79.94
237.221	79.94
237.455	82.94
237.689	79.94
237.922	88.94
238.156	82.94
238.39	74.94
238.624	80.94
238.858	75.94
239.091	80.94
239.325	69.94
239.559	85.94
239.793	81.94
240.027	73.94
240.26	70.94
240.494	64.94
240.728	56.94
240.961	67.94
241.195	73.94
241.429	84.94
241.662	67.94
241.896	77.94
242.13	65.94
242.363	77.94
242.597	71.94
242.83	90.94
243.064	81.94
243.298	85.94
243.531	90.94
243.765	77.94
243.998	82.94
244.232	88.94
244.465	86.94
244.699	70.94
244.932	80.94
245.166	76.94
245.399	88.94
245.633	79.94
245.866	72.94
246.099	72.94
246.333	77.94
246.566	68.94
246.8	88.94
247.033	94.94
247.266	78.94
247.5	78.94
247.733	81.94
247.966	86.94
248.2	77.94
248.433	77.94
248.666	81.94
248.899	68.94
249.133	88.94
249.366	93.94
249.599	99.94
249.832	81.94
250.066	86.94
250.299	77.94
250.532	84.94
250.765	86.94
250.998	83.94
251.231	77.94
251.465	74.94
251.698	81.94
251.931	77.94
252.164	82.94
252.397	78.94
252.63	88.94
252.863	81.94
253.096	78.94
253.329	81.94
253.562	78.94
253.795	81.94
254.028	88.94
254.261	83.94
254.494	86.94
254.727	79.94
254.96	79.94
255.193	78.94
255.426	99.94
255.659	84.94
255.892	89.94
256.124	80.94
256.357	78.94
256.59	86.94
256.823	77.94
257.056	87.94
257.289	68.94
257.521	81.94
257.754	82.94
257.987	106.94
258.22	95.94
258.452	79.94
258.685	71.94
258.918	67.94
259.151	76.94
259.383	84.94
259.616	78.94
259.849	78.94
260.081	68.94
260.314	86.94
260.547	80.94
260.779	81.94
261.012	93.94
261.244	82.94
261.477	100.94
261.71	76.94
261.942	100.94
262.175	100.94
262.407	94.94
262.64	98.94
262.872	73.94
263.105	71.94
263.337	79.94
263.57	79.94
263.802	87.94
264.035	90.94
264.267	82.94
264.499	84.94
264.732	75.94
264.964	90.94
265.197	80.94
265.429	84.94
265.661	82.94
265.894	87.94
266.126	86.94
266.358	83.94
266.591	88.94
266.823	89.94
267.055	76.94
267.287	82.94
267.52	96.94
267.752	90.94
267.984	70.94
268.216	72.94
268.448	83.94
268.681	93.94
268.913	82.94
269.145	78.94
269.377	75.94
269.609	76.94
269.841	88.94
270.073	92.94
270.306	85.94
270.538	80.94
270.77	92.94
271.002	72.94
271.234	97.94
271.466	75.94
271.698	76.94
271.93	92.94
272.162	90.94
272.394	92.94
272.626	65.94
272.858	72.94
273.09	86.94
273.322	82.94
273.553	74.94
273.785	81.94
274.017	91.94
274.249	78.94
274.481	78.94
274.713	77.94
274.945	89.94
275.176	84.94
275.408	70.94
275.64	88.94
275.872	88.94
276.104	72.94
276.335	98.94
276.567	106.94
276.799	98.94
277.031	90.94
277.262	75.94
277.494	74.94
277.726	70.94
277.957	84.94
278.189	82.94
278.421	93.94
278.652	96.94
278.884	84.94
279.115	80.94
279.347	74.94
279.579	93.94
279.81	97.94
280.042	78.94
280.273	84.94
280.505	78.94
280.736	83.94
280.968	94.94
281.199	82.94
281.431	82.94
281.662	96.94
281.894	96.94
282.125	100.94
282.356	125.94
282.588	126.94
282.819	107.94
283.051	95.94
283.282	77.94
283.513	80.94
283.745	83.94
283.976	73.94
284.207	70.94
284.439	81.94
284.67	96.94
284.901	77.94
285.132	89.94
285.364	81.94
285.595	85.94
285.826	90.94
286.057	101.94
286.288	82.94
286.52	91.94
286.751	79.94
286.982	67.94
287.213	100.94
287.444	99.94
287.675	92.94
287.906	83.94
288.138	97.94
288.369	83.94
288.6	94.94
288.831	95.94
289.062	91.94
289.293	97.94
289.524	82.94
289.755	98.94
289.986	76.94
290.217	94.94
290.448	91.94
290.679	98.94
290.91	82.94
291.141	87.94
291.371	73.94
291.602	82.94
291.833	78.94
292.064	91.94
292.295	66.94
292.526	90.94
292.757	79.94
292.987	87.94
293.218	95.94
293.449	93.94
293.68	91.94
293.91	81.94
294.141	99.94
294.372	90.94
294.603	95.94
294.833	83.94
295.064	89.94
295.295	98.94
295.525	80.94
295.756	90.94
295.987	99.94
296.217	100.94
296.448	104.94
296.679	98.94
296.909	97.94
297.14	80.94
297.37	98.94
297.601	73.94
297.831	76.94
298.062	76.94
298.292	84.94
298.523	78.94
298.753	85.94
298.984	97.94
299.214	92.94
299.445	103.94
299.675	98.94
299.905	100.94
300.136	80.94
300.366	77.94
300.597	99.94
300.827	90.94
301.057	90.94
301.288	103.94
301.518	94.94
301.748	81.94
301.979	91.94
302.209	94.94
302.439	79.94
302.669	78.94
302.9	92.94
303.13	80.94
303.36	85.94
303.59	100.94
303.82	103.94
304.051	107.94
304.281	97.94
304.511	90.94
304.741	97.94
304.971	79.94
305.201	95.94
305.431	86.94
305.661	96.94
305.891	84.94
306.121	83.94
306.352	101.94
306.582	109.94
306.812	91.94
307.042	97.94
307.272	101.94
307.502	91.94
307.731	94.94
307.961	79.94
308.191	75.94
308.421	96.94
308.651	78.94
308.881	95.94
309.111	94.94
309.341	85.94
309.571	100.94
309.8	95.94
310.03	109.94
310.26	95.94
310.49	82.94
310.72	102.94
310.949	91.94
311.179	106.94
311.409	97.94
311.639	90.94
311.868	103.94
312.098	100.94
312.328	98.94
312.557	96.94
312.787	103.94
313.017	98.94
313.246	96.94
313.476	95.94
313.706	87.94
313.935	93.94
314.165	95.94
314.394	87.94
314.624	91.94
314.853	88.94
315.083	88.94
315.312	91.94
315.542	84.94
315.771	89.94
316.001	90.94
316.23	89.94
316.46	98.94
316.689	96.94
316.919	98.94
317.148	97.94
317.377	92.94
317.607	104.94
317.836	83.94
318.065	104.94
318.295	99.94
318.524	93.94
318.753	89.94
318.983	81.94
319.212	80.94
319.441	99.94
319.67	103.94
319.9	88.94
320.129	99.94
320.358	91.94
320.587	92.94
320.816	99.94
321.046	98.94
321.275	99.94
321.504	93.94
321.733	97.94
321.962	95.94
322.191	94.94
322.42	104.94
322.649	107.94
322.878	105.94
323.108	112.94
323.337	125.94
323.566	99.94
323.795	129.94
324.024	199.94
324.253	352.94
324.482	735.94
324.71	1448.94
324.939	1878.94
325.168	695.94
325.397	221.94
325.626	138.94
325.855	134.94
326.084	124.94
326.313	125.94
326.542	136.94
326.77	202.94
326.999	414.94
327.228	842.94
327.457	1472.94
327.686	1196.94
327.914	321.94
328.143	163.94
328.372	136.94
328.6	109.94
328.829	107.94
329.058	115.94
329.287	120.94
329.515	105.94
329.744	98.94
329.972	106.94
330.201	100.94
330.43	105.94
330.658	102.94
330.887	151.94
331.115	122.94
331.344	90.94
331.572	90.94
331.801	108.94
332.03	102.94
332.258	100.94
332.486	82.94
332.715	104.94
332.943	87.94
333.172	86.94
333.4	94.94
333.629	97.94
333.857	99.94
334.085	98.94
334.314	95.94
334.542	108.94
334.771	105.94
334.999	86.94
335.227	88.94
335.455	99.94
335.684	90.94
335.912	95.94
336.14	92.94
336.369	93.94
336.597	94.94
336.825	81.94
337.053	92.94
337.281	92.94
337.51	96.94
337.738	104.94
337.966	106.94
338.194	99.94
338.422	98.94
338.65	114.94
338.878	98.94
339.106	89.94
339.334	100.94
339.562	86.94
339.79	94.94
340.018	99.94
340.246	89.94
340.474	88.94
340.702	106.94
340.93	98.94
341.158	100.94
341.386	98.94
341.614	92.94
341.842	82.94
342.07	87.94
342.298	87.94
342.526	86.94
342.754	95.94
342.981	90.94
343.209	98.94
343.437	104.94
343.665	90.94
343.893	96.94
344.12	94.94
344.348	98.94
344.576	90.94
344.804	90.94
345.031	90.94
345.259	86.94
345.487	89.94
345.714	99.94
345.942	109.94
346.17	108.94
346.397	107.94
346.625	79.94
346.853	92.94
347.08	100.94
347.308	95.94
347.535	97.94
347.763	95.94
347.99	105.94
348.218	101.94
348.445	98.94
348.673	110.94
348.9	95.94
349.128	84.94
349.355	102.94
349.583	95.94
349.81	86.94
350.037	94.94
350.265	88.94
350.492	100.94
350.72	98.94
350.947	104.94
351.174	110.94
351.402	99.94
351.629	101.94
351.856	94.94
352.083	102.94
352.311	91.94
352.538	98.94
352.765	99.94
352.992	106.94
353.22	99.94
353.447	104.94
353.674	104.94
353.901	91.94
354.128	91.94
354.355	104.94
354.583	84.94
354.81	90.94
355.037	90.94
355.264	91.94
355.491	97.94
355.718	88.94
355.945	90.94
356.172	93.94
356.399	82.94
356.626	95.94
356.853	82.94
357.08	104.94
357.307	92.94
357.534	82.94
357.761	100.94
357.988	90.94
358.215	98.94
358.441	85.94
358.668	95.94
358.895	86.94
359.122	89.94
359.349	87.94
359.576	86.94
359.802	97.94
360.029	87.94
360.256	95.94
360.483	91.94
360.709	100.94
360.936	83.94
361.163	90.94
361.39	113.94
361.616	105.94
361.843	97.94
362.07	90.94
362.296	100.94
362.523	83.94
362.749	96.94
362.976	80.94
363.203	84.94
363.429	80.94
363.656	88.94
363.882	86.94
364.109	76.94
364.335	88.94
364.562	104.94
364.788	82.94
365.015	83.94
365.241	91.94
365.468	89.94
365.694	87.94
365.92	96.94
366.147	92.94
366.373	86.94
366.599	95.94
366.826	82.94
367.052	92.94
367.278	91.94
367.505	89.94
367.731	86.94
367.957	90.94
368.184	94.94
368.41	106.94
368.636	116.94
368.862	111.94
369.089	97.94
369.315	90.94
369.541	108.94
369.767	81.94
369.993	81.94
370.219	95.94
370.445	88.94
370.672	80.94
370.898	78.94
371.124	92.94
371.35	79.94
371.576	86.94
371.802	96.94
372.028	82.94
372.254	86.94
372.48	91.94
372.706	88.94
372.932	87.94
373.158	91.94
373.384	96.94
373.61	80.94
373.835	79.94
374.061	83.94
374.287	93.94
374.513	103.94
374.739	92.94
374.965	91.94
375.191	95.94
375.416	91.94
375.642	93.94
375.868	91.94
376.094	81.94
376.319	90.94
376.545	91.94
376.771	88.94
376.997	76.94
377.222	99.94
377.448	102.94
377.674	89.94
377.899	94.94
378.125	92.94
378.35	78.94
378.576	84.94
378.802	84.94
379.027	71.94
379.253	86.94
379.478	94.94
379.704	99.94
379.929	96.94
380.155	91.94
380.38	103.94
380.606	90.94
380.831	89.94
381.057	99.94
381.282	96.94
381.507	82.94
381.733	84.94
381.958	92.94
382.184	106.94
382.409	104.94
382.634	104.94
382.86	111.94
383.085	95.94
383.31	94.94
383.535	102.94
383.761	91.94
383.986	88.94
384.211	98.94
384.436	104.94
384.662	97.94
384.887	82.94
385.112	86.94
385.337	95.94
385.562	87.94
385.787	95.94
386.013	95.94
386.238	98.94
386.463	92.94
386.688	114.94
386.913	99.94
387.138	101.94
387.363	82.94
387.588	95.94
387.813	99.94
388.038	97.94
388.263	109.94
388.488	96.94
388.713	85.94
388.938	94.94
389.163	89.94
389.387	94.94
389.612	77.94
389.837	91.94
390.062	100.94
390.287	79.94
390.512	86.94
390.736	100.94
390.961	83.94
391.186	95.94
391.411	97.94
391.636	76.94
391.86	90.94
392.085	74.94
392.31	100.94
392.534	89.94
392.759	81.94
392.984	93.94
393.208	95.94
393.433	84.94
393.658	81.94
393.882	93.94
394.107	88.94
394.331	99.94
394.556	81.94
394.78	92.94
395.005	97.94
395.229	78.94
395.454	78.94
395.678	80.94
395.903	86.94
396.127	87.94
396.352	71.94
396.576	87.94
396.801	82.94
397.025	78.94
397.249	86.94
397.474	89.94
397.698	92.94
397.922	88.94
398.147	81.94
398.371	88.94
398.595	93.94
398.82	83.94
399.044	81.94
399.268	83.94
399.492	89.94
399.717	83.94
399.941	99.94
400.165	73.94
400.389	102.94
400.613	80.94
400.837	92.94
401.062	87.94
401.286	91.94
401.51	87.94
401.734	94.94
401.958	87.94
402.182	117.94
402.406	134.94
402.63	111.94
402.854	89.94
403.078	91.94
403.302	90.94
403.526	73.94
403.75	82.94
403.974	88.94
404.198	93.94
404.422	84.94
404.645	96.94
404.869	98.94
405.093	95.94
405.317	86.94
405.541	97.94
405.765	88.94
405.988	103.94
406.212	156.94
406.436	192.94
406.66	134.94
406.883	85.94
407.107	97.94
407.331	96.94
407.555	87.94
407.778	90.94
408.002	76.94
408.226	79.94
408.449	85.94
408.673	75.94
408.896	101.94
409.12	87.94
409.344	91.94
409.567	88.94
409.791	87.94
410.014	89.94
410.238	83.94
410.461	90.94
410.685	100.94
410.908	90.94
411.132	99.94
411.355	96.94
411.578	106.94
411.802	83.94
412.025	94.94
412.249	78.94
412.472	89.94
412.695	94.94
412.919	86.94
413.142	86.94
413.365	86.94
413.589	96.94
413.812	91.94
414.035	94.94
414.258	94.94
414.482	92.94
414.705	84.94
414.928	91.94
415.151	94.94
415.374	106.94
415.597	78.94
415.821	81.94
416.044	82.94
416.267	89.94
416.49	92.94
416.713	96.94
416.936	93.94
417.159	95.94
417.382	94.94
417.605	83.94
417.828	86.94
418.051	81.94
418.274	98.94
418.497	94.94
418.72	83.94
418.943	94.94
419.166	105.94
419.389	90.94
419.611	87.94
419.834	86.94
420.057	80.94
420.28	79.94
420.503	78.94
420.726	74.94
420.948	85.94
421.171	86.94
421.394	98.94
421.617	74.94
421.839	74.94
422.062	84.94
422.285	100.94
422.507	98.94
422.73	92.94
422.953	93.94
423.175	96.94
423.398	79.94
423.621	91.94
423.843	92.94
424.066	76.94
424.288	79.94
424.511	90.94
424.733	101.94
424.956	103.94
425.178	97.94
425.401	96.94
425.623	94.94
425.846	89.94
426.068	98.94
426.291	89.94
426.513	80.94
426.735	87.94
426.958	94.94
427.18	105.94
427.402	112.94
427.625	146.94
427.847	125.94
428.069	93.94
428.292	89.94
428.514	67.94
428.736	74.94
428.958	84.94
429.181	97.94
429.403	89.94
429.625	81.94
429.847	72.94
430.069	83.94
430.292	89.94
430.514	84.94
430.736	87.94
430.958	90.94
431.18	86.94
431.402	82.94
431.624	83.94
431.846	83.94
432.068	96.94
432.29	93.94
432.512	77.94
432.734	88.94
432.956	84.94
433.178	94.94
433.4	95.94
433.622	84.94
433.844	78.94
434.066	95.94
434.287	82.94
434.509	96.94
434.731	91.94
434.953	79.94
435.175	88.94
435.397	82.94
435.618	98.94
435.84	96.94
436.062	109.94
436.284	105.94
436.505	98.94
436.727	95.94
436.949	90.94
437.17	91.94
437.392	98.94
437.614	80.94
437.835	100.94
438.057	107.94
438.278	91.94
438.5	104.94
438.721	121.94
438.943	110.94
439.165	89.94
439.386	94.94
439.608	86.94
439.829	104.94
440.05	104.94
440.272	110.94
440.493	97.94
440.715	95.94
440.936	86.94
441.158	88.94
441.379	86.94
441.6	82.94
441.822	112.94
442.043	90.94
442.264	99.94
442.486	94.94
442.707	95.94
442.928	95.94
443.149	111.94
443.371	106.94
443.592	111.94
443.813	107.94
444.034	114.94
444.255	78.94
444.476	87.94
444.698	96.94
444.919	99.94
445.14	130.94
445.361	122.94
445.582	115.94
445.803	124.94
446.024	123.94
446.245	115.94
446.466	100.94
446.687	92.94
446.908	77.94
447.129	81.94
447.35	79.94
447.571	85.94
447.792	76.94
448.013	90.94
448.234	105.94
448.455	80.94
448.675	108.94
448.896	107.94
449.117	89.94
449.338	102.94
449.559	123.94
449.779	115.94
450	92.94
450.221	74.94
450.442	92.94
450.662	93.94
450.883	100.94
451.104	97.94
451.324	89.94
451.545	98.94
451.766	94.94
451.986	82.94
452.207	82.94
452.428	79.94
452.648	97.94
452.869	97.94
453.089	100.94
453.31	111.94
453.53	83.94
453.751	92.94
453.971	106.94
454.192	98.94
454.412	100.94
454.633	80.94
454.853	76.94
455.073	86.94
455.294	86.94
455.514	106.94
455.734	84.94
455.955	78.94
456.175	88.94
456.395	79.94
456.616	87.94
456.836	90.94
457.056	81.94
457.276	87.94
457.497	102.94
457.717	86.94
457.937	97.94
458.157	99.94
458.377	90.94
458.598	102.94
458.818	123.94
459.038	137.94
459.258	100.94
459.478	98.94
459.698	88.94
459.918	88.94
460.138	85.94
460.358	84.94
460.578	86.94
460.798	88.94
461.018	94.94
461.238	82.94
461.458	88.94
461.678	97.94
461.898	86.94
462.118	84.94
462.338	87.94
462.558	83.94
462.777	90.94
462.997	88.94
463.217	99.94
463.437	92.94
463.657	88.94
463.876	92.94
464.096	92.94
464.316	97.94
464.536	105.94
464.755	103.94
464.975	108.94
465.195	136.94
465.414	147.94
465.634	105.94
465.854	95.94
466.073	94.94
466.293	86.94
466.512	96.94
466.732	78.94
466.951	80.94
467.171	105.94
467.391	103.94
467.61	96.94
467.829	91.94
468.049	84.94
468.268	92.94
468.488	81.94
468.707	84.94
468.927	75.94
469.146	81.94
469.365	87.94
469.585	92.94
469.804	85.94
470.023	95.94
470.243	93.94
470.462	88.94
470.681	118.94
470.901	78.94
471.12	74.94
471.339	96.94
471.558	87.94
471.777	88.94
471.997	99.94
472.216	91.94
472.435	108.94
472.654	108.94
472.873	85.94
473.092	92.94
473.311	85.94
473.53	104.94
473.749	91.94
473.968	94.94
474.187	107.94
474.406	92.94
474.625	82.94
474.844	87.94
475.063	73.94
475.282	82.94
475.501	87.94
475.72	90.94
475.939	89.94
476.158	68.94
476.377	79.94
476.596	90.94
476.814	87.94
477.033	93.94
477.252	92.94
477.471	84.94
477.69	93.94
477.908	94.94
478.127	84.94
478.346	84.94
478.564	99.94
478.783	102.94
479.002	87.94
479.22	92.94
479.439	93.94
479.658	96.94
479.876	93.94
480.095	77.94
480.313	86.94
480.532	87.94
480.751	87.94
480.969	92.94
481.188	113.94
481.406	99.94
481.624	100.94
481.843	82.94
482.061	81.94
482.28	78.94
482.498	84.94
482.717	91.94
482.935	94.94
483.153	88.94
483.372	87.94
483.59	98.94
483.808	77.94
484.027	96.94
484.245	96.94
484.463	92.94
484.681	98.94
484.9	86.94
485.118	82.94
485.336	103.94
485.554	100.94
485.772	91.94
485.99	94.94
486.209	104.94
486.427	94.94
486.645	110.94
486.863	102.94
487.081	97.94
487.299	100.94
487.517	85.94
487.735	89.94
487.953	103.94
488.171	94.94
488.389	85.94
488.607	103.94
488.825	89.94
489.043	88.94
489.261	71.94
489.479	98.94
489.696	94.94
489.914	82.94
490.132	89.94
490.35	86.94
490.568	99.94
490.786	87.94
491.003	92.94
491.221	80.94
491.439	90.94
491.657	79.94
491.874	91.94
492.092	88.94
492.31	86.94
492.527	93.94
492.745	96.94
492.963	84.94
493.18	85.94
493.398	93.94
493.615	92.94
493.833	86.94
494.05	81.94
494.268	95.94
494.485	87.94
494.703	89.94
494.92	92.94
495.138	89.94
495.355	84.94
495.573	81.94
495.79	103.94
496.008	95.94
496.225	92.94
496.442	83.94
496.66	96.94
496.877	87.94
497.094	103.94
497.312	92.94
497.529	91.94
497.746	82.94
497.963	89.94
498.181	93.94
498.398	95.94
498.615	101.94
498.832	96.94
499.049	77.94
499.267	81.94
499.484	92.94
499.701	96.94
499.918	84.94
500.135	100.94
500.352	86.94
500.569	81.94
500.786	84.94
501.003	93.94
501.22	87.94
501.437	91.94
501.654	92.94
501.871	103.94
502.088	98.94
502.305	92.94
502.522	88.94
502.739	93.94
502.956	88.94
503.172	110.94
503.389	102.94
503.606	100.94
503.823	98.94
504.04	87.94
504.256	92.94
504.473	91.94
504.69	91.94
504.907	82.94
505.123	101.94
505.34	85.94
505.557	87.94
505.773	83.94
505.99	81.94
506.207	83.94
506.423	94.94
506.64	89.94
506.856	87.94
507.073	96.94
507.289	100.94
507.506	94.94
507.722	99.94
507.939	114.94
508.155	96.94
508.372	96.94
508.588	91.94
508.805	104.94
509.021	95.94
509.238	106.94
509.454	92.94
509.67	106.94
509.887	89.94
510.103	145.94
510.319	190.94
510.536	631.94
510.752	1865.94
510.968	526.94
511.184	147.94
511.401	118.94
511.617	90.94
511.833	104.94
512.049	91.94
512.265	85.94
512.481	84.94
512.698	93.94
512.914	82.94
513.13	95.94
513.346	94.94
513.562	89.94
513.778	87.94
513.994	88.94
514.21	103.94
514.426	110.94
514.642	118.94
514.858	113.94
515.074	137.94
515.29	349.94
515.506	1174.94
515.721	451.94
515.937	121.94
516.153	115.94
516.369	100.94
516.585	95.94
