Data from Uncirc_1997_H10_HRD10591_00017.txt Node
Date: Wed Jan 03 11:28:34 EST 2024
User: Yrep
Spectrometer: HR+D1059
Trigger mode: 1
Integration Time (sec): 1.000000E-1
Scans to average: 1
Electric dark correction enabled: true
Nonlinearity correction enabled: false
Boxcar width: 0
XAxis mode: Wavelengths
Number of Pixels in Spectrum: 2048
>>>>>Begin Spectral Data<<<<<
223.165	-19.06
223.4	-19.06
223.635	-19.06
223.869	-9.06
224.104	-34.06
224.338	-7.06
224.573	-9.06
224.808	-2.06
225.042	-8.06
225.277	-7.06
225.511	-5.06
225.746	9.94
225.98	14.94
226.215	5.94
226.449	7.94
226.683	13.94
226.918	21.94
227.152	25.94
227.387	41.94
227.621	47.94
227.856	37.94
228.09	48.94
228.324	55.94
228.559	51.94
228.793	64.94
229.027	67.94
229.262	56.94
229.496	76.94
229.73	65.94
229.964	77.94
230.199	65.94
230.433	60.94
230.667	96.94
230.901	74.94
231.136	81.94
231.37	73.94
231.604	73.94
231.838	75.94
232.072	80.94
232.306	72.94
232.541	76.94
232.775	83.94
233.009	100.94
233.243	86.94
233.477	77.94
233.711	80.94
233.945	79.94
234.179	92.94
234.413	75.94
234.647	85.94
234.881	82.94
235.115	81.94
235.349	90.94
235.583	85.94
235.817	87.94
236.051	77.94
236.285	71.94
236.519	70.94
236.753	82.94
236.987	79.94
237.221	83.94
237.455	82.94
237.689	83.94
237.922	80.94
238.156	64.94
238.39	82.94
238.624	83.94
238.858	74.94
239.091	81.94
239.325	89.94
239.559	90.94
239.793	80.94
240.027	81.94
240.26	65.94
240.494	93.94
240.728	70.94
240.961	82.94
241.195	80.94
241.429	69.94
241.662	69.94
241.896	59.94
242.13	75.94
242.363	73.94
242.597	76.94
242.83	74.94
243.064	76.94
243.298	79.94
243.531	77.94
243.765	85.94
243.998	77.94
244.232	64.94
244.465	96.94
244.699	77.94
244.932	81.94
245.166	76.94
245.399	71.94
245.633	79.94
245.866	85.94
246.099	66.94
246.333	72.94
246.566	79.94
246.8	81.94
247.033	80.94
247.266	86.94
247.5	81.94
247.733	77.94
247.966	69.94
248.2	59.94
248.433	78.94
248.666	95.94
248.899	82.94
249.133	90.94
249.366	97.94
249.599	94.94
249.832	80.94
250.066	85.94
250.299	84.94
250.532	78.94
250.765	95.94
250.998	84.94
251.231	83.94
251.465	79.94
251.698	93.94
251.931	83.94
252.164	85.94
252.397	79.94
252.63	86.94
252.863	81.94
253.096	97.94
253.329	81.94
253.562	83.94
253.795	83.94
254.028	83.94
254.261	102.94
254.494	91.94
254.727	80.94
254.96	69.94
255.193	66.94
255.426	87.94
255.659	70.94
255.892	83.94
256.124	80.94
256.357	87.94
256.59	70.94
256.823	74.94
257.056	91.94
257.289	78.94
257.521	81.94
257.754	79.94
257.987	65.94
258.22	83.94
258.452	80.94
258.685	67.94
258.918	88.94
259.151	79.94
259.383	91.94
259.616	69.94
259.849	88.94
260.081	87.94
260.314	73.94
260.547	81.94
260.779	87.94
261.012	85.94
261.244	93.94
261.477	74.94
261.71	74.94
261.942	99.94
262.175	105.94
262.407	68.94
262.64	76.94
262.872	69.94
263.105	87.94
263.337	82.94
263.57	70.94
263.802	83.94
264.035	81.94
264.267	74.94
264.499	73.94
264.732	83.94
264.964	87.94
265.197	85.94
265.429	77.94
265.661	99.94
265.894	73.94
266.126	78.94
266.358	73.94
266.591	90.94
266.823	86.94
267.055	87.94
267.287	79.94
267.52	74.94
267.752	81.94
267.984	75.94
268.216	69.94
268.448	77.94
268.681	82.94
268.913	92.94
269.145	89.94
269.377	80.94
269.609	98.94
269.841	90.94
270.073	73.94
270.306	90.94
270.538	79.94
270.77	83.94
271.002	83.94
271.234	83.94
271.466	71.94
271.698	74.94
271.93	83.94
272.162	95.94
272.394	87.94
272.626	83.94
272.858	85.94
273.09	99.94
273.322	96.94
273.553	86.94
273.785	91.94
274.017	80.94
274.249	89.94
274.481	82.94
274.713	77.94
274.945	85.94
275.176	83.94
275.408	85.94
275.64	97.94
275.872	89.94
276.104	96.94
276.335	89.94
276.567	93.94
276.799	94.94
277.031	89.94
277.262	90.94
277.494	86.94
277.726	83.94
277.957	75.94
278.189	86.94
278.421	90.94
278.652	77.94
278.884	73.94
279.115	80.94
279.347	88.94
279.579	82.94
279.81	81.94
280.042	93.94
280.273	98.94
280.505	96.94
280.736	83.94
280.968	73.94
281.199	92.94
281.431	86.94
281.662	86.94
281.894	89.94
282.125	100.94
282.356	117.94
282.588	130.94
282.819	99.94
283.051	81.94
283.282	94.94
283.513	89.94
283.745	74.94
283.976	83.94
284.207	78.94
284.439	89.94
284.67	91.94
284.901	95.94
285.132	78.94
285.364	84.94
285.595	87.94
285.826	79.94
286.057	94.94
286.288	91.94
286.52	92.94
286.751	88.94
286.982	88.94
287.213	88.94
287.444	83.94
287.675	88.94
287.906	107.94
288.138	89.94
288.369	97.94
288.6	81.94
288.831	84.94
289.062	85.94
289.293	77.94
289.524	88.94
289.755	95.94
289.986	76.94
290.217	107.94
290.448	84.94
290.679	99.94
290.91	99.94
291.141	74.94
291.371	103.94
291.602	91.94
291.833	91.94
292.064	78.94
292.295	98.94
292.526	89.94
292.757	83.94
292.987	92.94
293.218	85.94
293.449	82.94
293.68	88.94
293.91	78.94
294.141	84.94
294.372	90.94
294.603	96.94
294.833	85.94
295.064	89.94
295.295	75.94
295.525	64.94
295.756	85.94
295.987	103.94
296.217	121.94
296.448	105.94
296.679	90.94
296.909	71.94
297.14	90.94
297.37	96.94
297.601	81.94
297.831	76.94
298.062	94.94
298.292	89.94
298.523	73.94
298.753	90.94
298.984	87.94
299.214	93.94
299.445	94.94
299.675	94.94
299.905	89.94
300.136	87.94
300.366	89.94
300.597	97.94
300.827	88.94
301.057	91.94
301.288	105.94
301.518	107.94
301.748	92.94
301.979	105.94
302.209	88.94
302.439	104.94
302.669	80.94
302.9	70.94
303.13	87.94
303.36	89.94
303.59	95.94
303.82	112.94
304.051	95.94
304.281	92.94
304.511	94.94
304.741	83.94
304.971	81.94
305.201	84.94
305.431	81.94
305.661	90.94
305.891	86.94
306.121	100.94
306.352	88.94
306.582	90.94
306.812	82.94
307.042	90.94
307.272	89.94
307.502	85.94
307.731	86.94
307.961	87.94
308.191	101.94
308.421	75.94
308.651	99.94
308.881	90.94
309.111	91.94
309.341	75.94
309.571	87.94
309.8	80.94
310.03	87.94
310.26	105.94
310.49	97.94
310.72	95.94
310.949	96.94
311.179	91.94
311.409	95.94
311.639	96.94
311.868	99.94
312.098	94.94
312.328	90.94
312.557	100.94
312.787	85.94
313.017	81.94
313.246	105.94
313.476	87.94
313.706	97.94
313.935	91.94
314.165	93.94
314.394	89.94
314.624	95.94
314.853	87.94
315.083	90.94
315.312	96.94
315.542	92.94
315.771	87.94
316.001	104.94
316.23	96.94
316.46	88.94
316.689	77.94
316.919	90.94
317.148	101.94
317.377	85.94
317.607	99.94
317.836	78.94
318.065	97.94
318.295	81.94
318.524	94.94
318.753	87.94
318.983	82.94
319.212	100.94
319.441	90.94
319.67	88.94
319.9	101.94
320.129	93.94
320.358	103.94
320.587	110.94
320.816	86.94
321.046	97.94
321.275	91.94
321.504	102.94
321.733	87.94
321.962	91.94
322.191	96.94
322.42	82.94
322.649	92.94
322.878	103.94
323.108	103.94
323.337	117.94
323.566	130.94
323.795	144.94
324.024	168.94
324.253	334.94
324.482	691.94
324.71	1365.94
324.939	1803.94
325.168	648.94
325.397	201.94
325.626	114.94
325.855	130.94
326.084	126.94
326.313	115.94
326.542	151.94
326.77	203.94
326.999	374.94
327.228	826.94
327.457	1434.94
327.686	1113.94
327.914	327.94
328.143	157.94
328.372	135.94
328.6	107.94
328.829	107.94
329.058	93.94
329.287	109.94
329.515	102.94
329.744	92.94
329.972	97.94
330.201	93.94
330.43	102.94
330.658	98.94
330.887	114.94
331.115	99.94
331.344	97.94
331.572	80.94
331.801	91.94
332.03	102.94
332.258	100.94
332.486	86.94
332.715	84.94
332.943	93.94
333.172	99.94
333.4	110.94
333.629	94.94
333.857	100.94
334.085	98.94
334.314	87.94
334.542	88.94
334.771	97.94
334.999	91.94
335.227	94.94
335.455	84.94
335.684	90.94
335.912	87.94
336.14	105.94
336.369	101.94
336.597	102.94
336.825	85.94
337.053	94.94
337.281	80.94
337.51	93.94
337.738	105.94
337.966	99.94
338.194	91.94
338.422	93.94
338.65	94.94
338.878	80.94
339.106	87.94
339.334	88.94
339.562	91.94
339.79	105.94
340.018	86.94
340.246	78.94
340.474	90.94
340.702	94.94
340.93	87.94
341.158	95.94
341.386	95.94
341.614	109.94
341.842	91.94
342.07	91.94
342.298	94.94
342.526	80.94
342.754	94.94
342.981	108.94
343.209	97.94
343.437	102.94
343.665	89.94
343.893	91.94
344.12	101.94
344.348	92.94
344.576	105.94
344.804	101.94
345.031	87.94
345.259	82.94
345.487	78.94
345.714	94.94
345.942	102.94
346.17	89.94
346.397	90.94
346.625	90.94
346.853	92.94
347.08	74.94
347.308	78.94
347.535	97.94
347.763	85.94
347.99	93.94
348.218	89.94
348.445	97.94
348.673	108.94
348.9	89.94
349.128	92.94
349.355	89.94
349.583	97.94
349.81	98.94
350.037	88.94
350.265	87.94
350.492	94.94
350.72	95.94
350.947	97.94
351.174	95.94
351.402	104.94
351.629	103.94
351.856	90.94
352.083	100.94
352.311	103.94
352.538	104.94
352.765	102.94
352.992	122.94
353.22	107.94
353.447	110.94
353.674	89.94
353.901	94.94
354.128	104.94
354.355	109.94
354.583	100.94
354.81	86.94
355.037	88.94
355.264	99.94
355.491	98.94
355.718	70.94
355.945	91.94
356.172	83.94
356.399	107.94
356.626	84.94
356.853	81.94
357.08	93.94
357.307	97.94
357.534	98.94
357.761	107.94
357.988	94.94
358.215	85.94
358.441	87.94
358.668	86.94
358.895	91.94
359.122	85.94
359.349	96.94
359.576	103.94
359.802	88.94
360.029	111.94
360.256	98.94
360.483	87.94
360.709	86.94
360.936	89.94
361.163	89.94
361.39	94.94
361.616	79.94
361.843	89.94
362.07	100.94
362.296	93.94
362.523	98.94
362.749	92.94
362.976	92.94
363.203	98.94
363.429	94.94
363.656	105.94
363.882	91.94
364.109	91.94
364.335	96.94
364.562	90.94
364.788	90.94
365.015	97.94
365.241	91.94
365.468	103.94
365.694	96.94
365.92	95.94
366.147	98.94
366.373	94.94
366.599	86.94
366.826	83.94
367.052	98.94
367.278	89.94
367.505	95.94
367.731	99.94
367.957	89.94
368.184	89.94
368.41	84.94
368.636	99.94
368.862	115.94
369.089	99.94
369.315	79.94
369.541	89.94
369.767	84.94
369.993	83.94
370.219	87.94
370.445	92.94
370.672	75.94
370.898	96.94
371.124	94.94
371.35	82.94
371.576	86.94
371.802	79.94
372.028	85.94
372.254	97.94
372.48	89.94
372.706	84.94
372.932	96.94
373.158	93.94
373.384	90.94
373.61	88.94
373.835	103.94
374.061	96.94
374.287	85.94
374.513	79.94
374.739	95.94
374.965	81.94
375.191	81.94
375.416	73.94
375.642	76.94
375.868	89.94
376.094	102.94
376.319	75.94
376.545	93.94
376.771	91.94
376.997	97.94
377.222	94.94
377.448	105.94
377.674	93.94
377.899	91.94
378.125	85.94
378.35	98.94
378.576	94.94
378.802	71.94
379.027	81.94
379.253	85.94
379.478	104.94
379.704	96.94
379.929	94.94
380.155	100.94
380.38	82.94
380.606	89.94
380.831	86.94
381.057	99.94
381.282	82.94
381.507	85.94
381.733	89.94
381.958	93.94
382.184	97.94
382.409	97.94
382.634	110.94
382.86	87.94
383.085	106.94
383.31	108.94
383.535	88.94
383.761	103.94
383.986	97.94
384.211	96.94
384.436	87.94
384.662	96.94
384.887	94.94
385.112	92.94
385.337	104.94
385.562	98.94
385.787	94.94
386.013	107.94
386.238	93.94
386.463	98.94
386.688	94.94
386.913	83.94
387.138	90.94
387.363	96.94
387.588	110.94
387.813	107.94
388.038	90.94
388.263	102.94
388.488	105.94
388.713	89.94
388.938	103.94
389.163	87.94
389.387	95.94
389.612	97.94
389.837	87.94
390.062	97.94
390.287	96.94
390.512	88.94
390.736	99.94
390.961	83.94
391.186	79.94
391.411	94.94
391.636	92.94
391.86	77.94
392.085	74.94
392.31	81.94
392.534	80.94
392.759	87.94
392.984	89.94
393.208	96.94
393.433	90.94
393.658	90.94
393.882	90.94
394.107	89.94
394.331	82.94
394.556	80.94
394.78	93.94
395.005	103.94
395.229	89.94
395.454	75.94
395.678	78.94
395.903	80.94
396.127	83.94
396.352	77.94
396.576	73.94
396.801	79.94
397.025	97.94
397.249	92.94
397.474	99.94
397.698	99.94
397.922	82.94
398.147	86.94
398.371	96.94
398.595	83.94
398.82	98.94
399.044	89.94
399.268	79.94
399.492	80.94
399.717	93.94
399.941	90.94
400.165	103.94
400.389	101.94
400.613	98.94
400.837	87.94
401.062	83.94
401.286	93.94
401.51	94.94
401.734	105.94
401.958	107.94
402.182	103.94
402.406	114.94
402.63	102.94
402.854	95.94
403.078	89.94
403.302	81.94
403.526	77.94
403.75	93.94
403.974	84.94
404.198	102.94
404.422	90.94
404.645	82.94
404.869	85.94
405.093	89.94
405.317	90.94
405.541	86.94
405.765	86.94
405.988	108.94
406.212	143.94
406.436	168.94
406.66	120.94
406.883	80.94
407.107	88.94
407.331	94.94
407.555	87.94
407.778	96.94
408.002	89.94
408.226	93.94
408.449	81.94
408.673	89.94
408.896	89.94
409.12	86.94
409.344	104.94
409.567	88.94
409.791	93.94
410.014	87.94
410.238	89.94
410.461	92.94
410.685	87.94
410.908	99.94
411.132	98.94
411.355	109.94
411.578	86.94
411.802	73.94
412.025	98.94
412.249	91.94
412.472	93.94
412.695	94.94
412.919	81.94
413.142	92.94
413.365	89.94
413.589	87.94
413.812	88.94
414.035	92.94
414.258	88.94
414.482	76.94
414.705	89.94
414.928	97.94
415.151	90.94
415.374	70.94
415.597	83.94
415.821	83.94
416.044	96.94
416.267	85.94
416.49	84.94
416.713	82.94
416.936	82.94
417.159	73.94
417.382	91.94
417.605	80.94
417.828	88.94
418.051	89.94
418.274	88.94
418.497	80.94
418.72	86.94
418.943	91.94
419.166	99.94
419.389	88.94
419.611	74.94
419.834	89.94
420.057	93.94
420.28	94.94
420.503	88.94
420.726	87.94
420.948	91.94
421.171	88.94
421.394	86.94
421.617	99.94
421.839	83.94
422.062	82.94
422.285	100.94
422.507	97.94
422.73	85.94
422.953	100.94
423.175	89.94
423.398	97.94
423.621	89.94
423.843	92.94
424.066	76.94
424.288	80.94
424.511	90.94
424.733	94.94
424.956	103.94
425.178	85.94
425.401	101.94
425.623	103.94
425.846	109.94
426.068	85.94
426.291	94.94
426.513	94.94
426.735	81.94
426.958	87.94
427.18	117.94
427.402	125.94
427.625	152.94
427.847	107.94
428.069	95.94
428.292	87.94
428.514	90.94
428.736	75.94
428.958	80.94
429.181	65.94
429.403	73.94
429.625	82.94
429.847	82.94
430.069	86.94
430.292	103.94
430.514	99.94
430.736	93.94
430.958	93.94
431.18	94.94
431.402	74.94
431.624	81.94
431.846	89.94
432.068	80.94
432.29	85.94
432.512	74.94
432.734	88.94
432.956	92.94
433.178	91.94
433.4	89.94
433.622	88.94
433.844	81.94
434.066	89.94
434.287	79.94
434.509	99.94
434.731	89.94
434.953	75.94
435.175	72.94
435.397	80.94
435.618	100.94
435.84	85.94
436.062	98.94
436.284	89.94
436.505	96.94
436.727	87.94
436.949	90.94
437.17	94.94
437.392	75.94
437.614	86.94
437.835	102.94
438.057	104.94
438.278	97.94
438.5	108.94
438.721	103.94
438.943	91.94
439.165	88.94
439.386	78.94
439.608	84.94
439.829	101.94
440.05	111.94
440.272	103.94
440.493	95.94
440.715	93.94
440.936	73.94
441.158	82.94
441.379	92.94
441.6	90.94
441.822	87.94
442.043	97.94
442.264	94.94
442.486	90.94
442.707	96.94
442.928	105.94
443.149	119.94
443.371	107.94
443.592	96.94
443.813	93.94
444.034	95.94
444.255	90.94
444.476	89.94
444.698	88.94
444.919	80.94
445.14	126.94
445.361	108.94
445.582	105.94
445.803	123.94
446.024	113.94
446.245	113.94
446.466	104.94
446.687	82.94
446.908	73.94
447.129	85.94
447.35	85.94
447.571	86.94
447.792	90.94
448.013	89.94
448.234	99.94
448.455	87.94
448.675	98.94
448.896	105.94
449.117	82.94
449.338	91.94
449.559	127.94
449.779	117.94
450	93.94
450.221	76.94
450.442	96.94
450.662	97.94
450.883	100.94
451.104	100.94
451.324	93.94
451.545	91.94
451.766	80.94
451.986	100.94
452.207	94.94
452.428	82.94
452.648	96.94
452.869	108.94
453.089	91.94
453.31	101.94
453.53	89.94
453.751	78.94
453.971	101.94
454.192	98.94
454.412	88.94
454.633	80.94
454.853	81.94
455.073	88.94
455.294	88.94
455.514	95.94
455.734	99.94
455.955	78.94
456.175	100.94
456.395	63.94
456.616	71.94
456.836	87.94
457.056	72.94
457.276	79.94
457.497	69.94
457.717	93.94
457.937	88.94
458.157	94.94
458.377	80.94
458.598	101.94
458.818	125.94
459.038	138.94
459.258	89.94
459.478	94.94
459.698	87.94
459.918	68.94
460.138	80.94
460.358	85.94
460.578	99.94
460.798	93.94
461.018	74.94
461.238	85.94
461.458	103.94
461.678	92.94
461.898	89.94
462.118	85.94
462.338	87.94
462.558	98.94
462.777	89.94
462.997	90.94
463.217	74.94
463.437	95.94
463.657	90.94
463.876	74.94
464.096	76.94
464.316	85.94
464.536	79.94
464.755	97.94
464.975	92.94
465.195	125.94
465.414	121.94
465.634	84.94
465.854	82.94
466.073	81.94
466.293	72.94
466.512	91.94
466.732	85.94
466.951	91.94
467.171	89.94
467.391	89.94
467.61	101.94
467.829	82.94
468.049	79.94
468.268	89.94
468.488	92.94
468.707	77.94
468.927	86.94
469.146	85.94
469.365	86.94
469.585	92.94
469.804	94.94
470.023	85.94
470.243	89.94
470.462	92.94
470.681	97.94
470.901	98.94
471.12	99.94
471.339	87.94
471.558	85.94
471.777	90.94
471.997	75.94
472.216	88.94
472.435	89.94
472.654	96.94
472.873	97.94
473.092	85.94
473.311	89.94
473.53	91.94
473.749	94.94
473.968	104.94
474.187	105.94
474.406	89.94
474.625	88.94
474.844	85.94
475.063	93.94
475.282	78.94
475.501	79.94
475.72	86.94
475.939	83.94
476.158	82.94
476.377	97.94
476.596	83.94
476.814	98.94
477.033	80.94
477.252	90.94
477.471	81.94
477.69	81.94
477.908	86.94
478.127	98.94
478.346	94.94
478.564	89.94
478.783	99.94
479.002	92.94
479.22	69.94
479.439	104.94
479.658	100.94
479.876	91.94
480.095	81.94
480.313	90.94
480.532	86.94
480.751	105.94
480.969	92.94
481.188	108.94
481.406	89.94
481.624	75.94
481.843	103.94
482.061	98.94
482.28	92.94
482.498	96.94
482.717	86.94
482.935	88.94
483.153	81.94
483.372	79.94
483.59	80.94
483.808	77.94
484.027	90.94
484.245	89.94
484.463	95.94
484.681	97.94
484.9	94.94
485.118	97.94
485.336	81.94
485.554	99.94
485.772	103.94
485.99	93.94
486.209	110.94
486.427	104.94
486.645	96.94
486.863	113.94
487.081	81.94
487.299	96.94
487.517	97.94
487.735	92.94
487.953	99.94
488.171	91.94
488.389	110.94
488.607	109.94
488.825	93.94
489.043	88.94
489.261	89.94
489.479	77.94
489.696	77.94
489.914	95.94
490.132	90.94
490.35	91.94
490.568	81.94
490.786	87.94
491.003	85.94
491.221	90.94
491.439	80.94
491.657	95.94
491.874	102.94
492.092	93.94
492.31	90.94
492.527	71.94
492.745	83.94
492.963	88.94
493.18	79.94
493.398	83.94
493.615	91.94
493.833	93.94
494.05	86.94
494.268	91.94
494.485	85.94
494.703	74.94
494.92	94.94
495.138	94.94
495.355	97.94
495.573	75.94
495.79	89.94
496.008	99.94
496.225	88.94
496.442	77.94
496.66	89.94
496.877	92.94
497.094	85.94
497.312	85.94
497.529	96.94
497.746	83.94
497.963	94.94
498.181	77.94
498.398	94.94
498.615	99.94
498.832	96.94
499.049	93.94
499.267	95.94
499.484	95.94
499.701	98.94
499.918	97.94
500.135	82.94
500.352	66.94
500.569	95.94
500.786	77.94
501.003	91.94
501.22	101.94
501.437	91.94
501.654	93.94
501.871	99.94
502.088	94.94
502.305	93.94
502.522	83.94
502.739	98.94
502.956	85.94
503.172	90.94
503.389	94.94
503.606	98.94
503.823	80.94
504.04	96.94
504.256	91.94
504.473	82.94
504.69	85.94
504.907	97.94
505.123	80.94
505.34	80.94
505.557	86.94
505.773	101.94
505.99	89.94
506.207	83.94
506.423	90.94
506.64	98.94
506.856	98.94
507.073	86.94
507.289	83.94
507.506	91.94
507.722	91.94
507.939	96.94
508.155	82.94
508.372	101.94
508.588	95.94
508.805	97.94
509.021	102.94
509.238	107.94
509.454	99.94
509.67	87.94
509.887	94.94
510.103	105.94
510.319	181.94
510.536	593.94
510.752	1758.94
510.968	496.94
511.184	129.94
511.401	100.94
511.617	94.94
511.833	93.94
512.049	97.94
512.265	88.94
512.481	88.94
512.698	92.94
512.914	96.94
513.13	98.94
513.346	95.94
513.562	80.94
513.778	86.94
513.994	106.94
514.21	99.94
514.426	111.94
514.642	116.94
514.858	104.94
515.074	142.94
515.29	350.94
515.506	1031.94
515.721	408.94
515.937	133.94
516.153	89.94
516.369	98.94
516.585	90.94
516.801	81.94
517.016	104.94
517.232	93.94
