Data from Uncirc_1997_H10_HRD10591_00032.txt Node
Date: Wed Jan 03 11:28:37 EST 2024
User: Yrep
Spectrometer: HR+D1059
Trigger mode: 1
Integration Time (sec): 1.000000E-1
Scans to average: 1
Electric dark correction enabled: true
Nonlinearity correction enabled: false
Boxcar width: 0
XAxis mode: Wavelengths
Number of Pixels in Spectrum: 2048
>>>>>Begin Spectral Data<<<<<
223.165	-22.19
223.4	-22.19
223.635	-22.19
223.869	-18.19
224.104	-16.19
224.338	-12.19
224.573	-17.19
224.808	-28.19
225.042	-3.19
225.277	7.81
225.511	-1.19
225.746	-2.19
225.98	15.81
226.215	-1.19
226.449	11.81
226.683	25.81
226.918	24.81
227.152	35.81
227.387	38.81
227.621	27.81
227.856	56.81
228.09	58.81
228.324	60.81
228.559	48.81
228.793	56.81
229.027	57.81
229.262	74.81
229.496	81.81
229.73	86.81
229.964	79.81
230.199	65.81
230.433	81.81
230.667	87.81
230.901	79.81
231.136	84.81
231.37	78.81
231.604	89.81
231.838	87.81
232.072	75.81
232.306	80.81
232.541	79.81
232.775	90.81
233.009	63.81
233.243	83.81
233.477	71.81
233.711	79.81
233.945	77.81
234.179	90.81
234.413	87.81
234.647	77.81
234.881	72.81
235.115	69.81
235.349	76.81
235.583	75.81
235.817	88.81
236.051	79.81
236.285	85.81
236.519	79.81
236.753	80.81
236.987	72.81
237.221	71.81
237.455	84.81
237.689	74.81
237.922	89.81
238.156	69.81
238.39	66.81
238.624	74.81
238.858	81.81
239.091	53.81
239.325	73.81
239.559	75.81
239.793	83.81
240.027	86.81
240.26	71.81
240.494	74.81
240.728	75.81
240.961	87.81
241.195	87.81
241.429	79.81
241.662	72.81
241.896	74.81
242.13	83.81
242.363	70.81
242.597	66.81
242.83	73.81
243.064	77.81
243.298	75.81
243.531	64.81
243.765	69.81
243.998	91.81
244.232	71.81
244.465	83.81
244.699	66.81
244.932	69.81
245.166	81.81
245.399	71.81
245.633	67.81
245.866	73.81
246.099	74.81
246.333	74.81
246.566	95.81
246.8	90.81
247.033	67.81
247.266	74.81
247.5	71.81
247.733	82.81
247.966	67.81
248.2	58.81
248.433	94.81
248.666	75.81
248.899	68.81
249.133	79.81
249.366	89.81
249.599	69.81
249.832	71.81
250.066	81.81
250.299	71.81
250.532	85.81
250.765	77.81
250.998	67.81
251.231	77.81
251.465	83.81
251.698	84.81
251.931	91.81
252.164	81.81
252.397	86.81
252.63	80.81
252.863	82.81
253.096	85.81
253.329	65.81
253.562	80.81
253.795	78.81
254.028	90.81
254.261	82.81
254.494	73.81
254.727	71.81
254.96	92.81
255.193	74.81
255.426	66.81
255.659	75.81
255.892	78.81
256.124	85.81
256.357	82.81
256.59	73.81
256.823	69.81
257.056	81.81
257.289	92.81
257.521	73.81
257.754	75.81
257.987	90.81
258.22	82.81
258.452	69.81
258.685	71.81
258.918	70.81
259.151	80.81
259.383	90.81
259.616	75.81
259.849	84.81
260.081	80.81
260.314	84.81
260.547	82.81
260.779	89.81
261.012	98.81
261.244	88.81
261.477	84.81
261.71	79.81
261.942	107.81
262.175	99.81
262.407	85.81
262.64	75.81
262.872	90.81
263.105	75.81
263.337	80.81
263.57	75.81
263.802	81.81
264.035	74.81
264.267	85.81
264.499	104.81
264.732	80.81
264.964	89.81
265.197	82.81
265.429	85.81
265.661	80.81
265.894	77.81
266.126	88.81
266.358	82.81
266.591	74.81
266.823	79.81
267.055	69.81
267.287	91.81
267.52	79.81
267.752	92.81
267.984	77.81
268.216	87.81
268.448	79.81
268.681	72.81
268.913	66.81
269.145	89.81
269.377	83.81
269.609	81.81
269.841	94.81
270.073	88.81
270.306	93.81
270.538	85.81
270.77	86.81
271.002	96.81
271.234	70.81
271.466	87.81
271.698	76.81
271.93	86.81
272.162	94.81
272.394	107.81
272.626	94.81
272.858	90.81
273.09	87.81
273.322	86.81
273.553	71.81
273.785	80.81
274.017	74.81
274.249	74.81
274.481	73.81
274.713	89.81
274.945	84.81
275.176	73.81
275.408	93.81
275.64	85.81
275.872	81.81
276.104	82.81
276.335	87.81
276.567	88.81
276.799	98.81
277.031	86.81
277.262	93.81
277.494	92.81
277.726	80.81
277.957	79.81
278.189	93.81
278.421	74.81
278.652	77.81
278.884	81.81
279.115	76.81
279.347	75.81
279.579	91.81
279.81	79.81
280.042	86.81
280.273	83.81
280.505	99.81
280.736	95.81
280.968	75.81
281.199	94.81
281.431	78.81
281.662	89.81
281.894	80.81
282.125	85.81
282.356	110.81
282.588	109.81
282.819	119.81
283.051	89.81
283.282	91.81
283.513	85.81
283.745	88.81
283.976	82.81
284.207	87.81
284.439	73.81
284.67	82.81
284.901	94.81
285.132	90.81
285.364	91.81
285.595	88.81
285.826	74.81
286.057	96.81
286.288	81.81
286.52	87.81
286.751	80.81
286.982	87.81
287.213	83.81
287.444	78.81
287.675	81.81
287.906	104.81
288.138	87.81
288.369	89.81
288.6	78.81
288.831	79.81
289.062	86.81
289.293	93.81
289.524	87.81
289.755	76.81
289.986	84.81
290.217	83.81
290.448	81.81
290.679	88.81
290.91	83.81
291.141	95.81
291.371	87.81
291.602	85.81
291.833	78.81
292.064	85.81
292.295	94.81
292.526	101.81
292.757	96.81
292.987	73.81
293.218	71.81
293.449	71.81
293.68	84.81
293.91	91.81
294.141	99.81
294.372	102.81
294.603	81.81
294.833	71.81
295.064	70.81
295.295	96.81
295.525	95.81
295.756	90.81
295.987	108.81
296.217	113.81
296.448	117.81
296.679	94.81
296.909	94.81
297.14	84.81
297.37	84.81
297.601	91.81
297.831	83.81
298.062	89.81
298.292	75.81
298.523	73.81
298.753	84.81
298.984	94.81
299.214	74.81
299.445	80.81
299.675	82.81
299.905	86.81
300.136	75.81
300.366	88.81
300.597	80.81
300.827	94.81
301.057	96.81
301.288	97.81
301.518	87.81
301.748	97.81
301.979	103.81
302.209	85.81
302.439	73.81
302.669	81.81
302.9	86.81
303.13	91.81
303.36	93.81
303.59	85.81
303.82	98.81
304.051	93.81
304.281	85.81
304.511	82.81
304.741	93.81
304.971	81.81
305.201	83.81
305.431	93.81
305.661	85.81
305.891	66.81
306.121	93.81
306.352	91.81
306.582	114.81
306.812	88.81
307.042	78.81
307.272	94.81
307.502	89.81
307.731	95.81
307.961	86.81
308.191	89.81
308.421	95.81
308.651	95.81
308.881	93.81
309.111	97.81
309.341	91.81
309.571	96.81
309.8	107.81
310.03	103.81
310.26	93.81
310.49	98.81
310.72	100.81
310.949	102.81
311.179	97.81
311.409	96.81
311.639	101.81
311.868	82.81
312.098	95.81
312.328	89.81
312.557	92.81
312.787	113.81
313.017	103.81
313.246	105.81
313.476	85.81
313.706	83.81
313.935	79.81
314.165	100.81
314.394	96.81
314.624	95.81
314.853	83.81
315.083	81.81
315.312	89.81
315.542	90.81
315.771	82.81
316.001	96.81
316.23	90.81
316.46	101.81
316.689	83.81
316.919	98.81
317.148	93.81
317.377	98.81
317.607	87.81
317.836	75.81
318.065	91.81
318.295	94.81
318.524	82.81
318.753	93.81
318.983	97.81
319.212	104.81
319.441	99.81
319.67	100.81
319.9	90.81
320.129	97.81
320.358	88.81
320.587	98.81
320.816	83.81
321.046	103.81
321.275	90.81
321.504	86.81
321.733	105.81
321.962	106.81
322.191	99.81
322.42	102.81
322.649	109.81
322.878	104.81
323.108	131.81
323.337	119.81
323.566	114.81
323.795	140.81
324.024	183.81
324.253	335.81
324.482	734.81
324.71	1518.81
324.939	2039.81
325.168	731.81
325.397	241.81
325.626	140.81
325.855	125.81
326.084	118.81
326.313	135.81
326.542	126.81
326.77	213.81
326.999	421.81
327.228	881.81
327.457	1596.81
327.686	1250.81
327.914	333.81
328.143	169.81
328.372	137.81
328.6	115.81
328.829	106.81
329.058	118.81
329.287	120.81
329.515	103.81
329.744	99.81
329.972	105.81
330.201	103.81
330.43	106.81
330.658	100.81
330.887	122.81
331.115	118.81
331.344	95.81
331.572	92.81
331.801	96.81
332.03	88.81
332.258	94.81
332.486	86.81
332.715	91.81
332.943	90.81
333.172	88.81
333.4	90.81
333.629	104.81
333.857	107.81
334.085	98.81
334.314	87.81
334.542	102.81
334.771	111.81
334.999	90.81
335.227	93.81
335.455	87.81
335.684	103.81
335.912	78.81
336.14	97.81
336.369	81.81
336.597	87.81
336.825	95.81
337.053	103.81
337.281	103.81
337.51	87.81
337.738	86.81
337.966	86.81
338.194	79.81
338.422	97.81
338.65	100.81
338.878	93.81
339.106	97.81
339.334	96.81
339.562	74.81
339.79	90.81
340.018	85.81
340.246	74.81
340.474	91.81
340.702	105.81
340.93	94.81
341.158	91.81
341.386	90.81
341.614	99.81
341.842	102.81
342.07	90.81
342.298	85.81
342.526	92.81
342.754	84.81
342.981	83.81
343.209	95.81
343.437	106.81
343.665	95.81
343.893	94.81
344.12	97.81
344.348	97.81
344.576	90.81
344.804	84.81
345.031	100.81
345.259	89.81
345.487	95.81
345.714	88.81
345.942	76.81
346.17	91.81
346.397	93.81
346.625	97.81
346.853	93.81
347.08	96.81
347.308	103.81
347.535	99.81
347.763	95.81
347.99	89.81
348.218	105.81
348.445	103.81
348.673	98.81
348.9	103.81
349.128	83.81
349.355	89.81
349.583	96.81
349.81	105.81
350.037	97.81
350.265	95.81
350.492	83.81
350.72	106.81
350.947	112.81
351.174	95.81
351.402	106.81
351.629	93.81
351.856	95.81
352.083	101.81
352.311	102.81
352.538	89.81
352.765	102.81
352.992	89.81
353.22	93.81
353.447	101.81
353.674	98.81
353.901	101.81
354.128	86.81
354.355	94.81
354.583	101.81
354.81	103.81
355.037	93.81
355.264	88.81
355.491	92.81
355.718	93.81
355.945	97.81
356.172	94.81
356.399	100.81
356.626	82.81
356.853	89.81
357.08	73.81
357.307	92.81
357.534	103.81
357.761	82.81
357.988	101.81
358.215	112.81
358.441	87.81
358.668	90.81
358.895	91.81
359.122	90.81
359.349	73.81
359.576	87.81
359.802	92.81
360.029	104.81
360.256	108.81
360.483	90.81
360.709	74.81
360.936	80.81
361.163	95.81
361.39	94.81
361.616	88.81
361.843	71.81
362.07	89.81
362.296	97.81
362.523	91.81
362.749	82.81
362.976	97.81
363.203	83.81
363.429	86.81
363.656	101.81
363.882	89.81
364.109	89.81
364.335	85.81
364.562	89.81
364.788	94.81
365.015	89.81
365.241	98.81
365.468	97.81
365.694	101.81
365.92	86.81
366.147	85.81
366.373	85.81
366.599	80.81
366.826	79.81
367.052	85.81
367.278	106.81
367.505	83.81
367.731	102.81
367.957	79.81
368.184	89.81
368.41	91.81
368.636	101.81
368.862	118.81
369.089	107.81
369.315	90.81
369.541	93.81
369.767	89.81
369.993	85.81
370.219	91.81
370.445	92.81
370.672	69.81
370.898	75.81
371.124	97.81
371.35	91.81
371.576	89.81
371.802	75.81
372.028	98.81
372.254	78.81
372.48	93.81
372.706	90.81
372.932	87.81
373.158	92.81
373.384	86.81
373.61	78.81
373.835	91.81
374.061	87.81
374.287	89.81
374.513	94.81
374.739	81.81
374.965	87.81
375.191	90.81
375.416	95.81
375.642	73.81
375.868	92.81
376.094	87.81
376.319	91.81
376.545	90.81
376.771	90.81
376.997	81.81
377.222	82.81
377.448	97.81
377.674	79.81
377.899	98.81
378.125	85.81
378.35	87.81
378.576	92.81
378.802	89.81
379.027	89.81
379.253	86.81
379.478	100.81
379.704	94.81
379.929	76.81
380.155	90.81
380.38	83.81
380.606	91.81
380.831	94.81
381.057	105.81
381.282	93.81
381.507	99.81
381.733	88.81
381.958	89.81
382.184	93.81
382.409	95.81
382.634	111.81
382.86	95.81
383.085	115.81
383.31	93.81
383.535	98.81
383.761	92.81
383.986	97.81
384.211	88.81
384.436	82.81
384.662	90.81
384.887	117.81
385.112	102.81
385.337	103.81
385.562	104.81
385.787	108.81
386.013	98.81
386.238	103.81
386.463	104.81
386.688	87.81
386.913	102.81
387.138	77.81
387.363	104.81
387.588	95.81
387.813	105.81
388.038	93.81
388.263	110.81
388.488	110.81
388.713	88.81
388.938	94.81
389.163	94.81
389.387	95.81
389.612	78.81
389.837	95.81
390.062	92.81
390.287	95.81
390.512	106.81
390.736	82.81
390.961	91.81
391.186	89.81
391.411	95.81
391.636	81.81
391.86	79.81
392.085	78.81
392.31	82.81
392.534	99.81
392.759	90.81
392.984	75.81
393.208	96.81
393.433	78.81
393.658	83.81
393.882	91.81
394.107	87.81
394.331	78.81
394.556	87.81
394.78	85.81
395.005	90.81
395.229	86.81
395.454	72.81
395.678	81.81
395.903	82.81
396.127	103.81
396.352	90.81
396.576	89.81
396.801	89.81
397.025	90.81
397.249	88.81
397.474	89.81
397.698	90.81
397.922	89.81
398.147	78.81
398.371	73.81
398.595	103.81
398.82	92.81
399.044	67.81
399.268	89.81
399.492	85.81
399.717	81.81
399.941	79.81
400.165	81.81
400.389	102.81
400.613	82.81
400.837	85.81
401.062	94.81
401.286	101.81
401.51	80.81
401.734	78.81
401.958	83.81
402.182	110.81
402.406	145.81
402.63	116.81
402.854	96.81
403.078	90.81
403.302	86.81
403.526	81.81
403.75	84.81
403.974	94.81
404.198	80.81
404.422	87.81
404.645	76.81
404.869	99.81
405.093	83.81
405.317	89.81
405.541	88.81
405.765	91.81
405.988	94.81
406.212	163.81
406.436	213.81
406.66	124.81
406.883	87.81
407.107	100.81
407.331	79.81
407.555	91.81
407.778	100.81
408.002	103.81
408.226	92.81
408.449	87.81
408.673	92.81
408.896	88.81
409.12	90.81
409.344	99.81
409.567	86.81
409.791	87.81
410.014	103.81
410.238	89.81
410.461	75.81
410.685	81.81
410.908	88.81
411.132	105.81
411.355	101.81
411.578	75.81
411.802	103.81
412.025	94.81
412.249	97.81
412.472	94.81
412.695	107.81
412.919	85.81
413.142	86.81
413.365	81.81
413.589	93.81
413.812	82.81
414.035	89.81
414.258	89.81
414.482	82.81
414.705	80.81
414.928	86.81
415.151	90.81
415.374	97.81
415.597	92.81
415.821	81.81
416.044	92.81
416.267	83.81
416.49	87.81
416.713	82.81
416.936	86.81
417.159	83.81
417.382	88.81
417.605	83.81
417.828	92.81
418.051	90.81
418.274	92.81
418.497	93.81
418.72	74.81
418.943	79.81
419.166	88.81
419.389	80.81
419.611	83.81
419.834	88.81
420.057	81.81
420.28	80.81
420.503	89.81
420.726	80.81
420.948	90.81
421.171	92.81
421.394	103.81
421.617	81.81
421.839	75.81
422.062	81.81
422.285	84.81
422.507	93.81
422.73	102.81
422.953	85.81
423.175	93.81
423.398	94.81
423.621	92.81
423.843	95.81
424.066	90.81
424.288	74.81
424.511	97.81
424.733	106.81
424.956	82.81
425.178	91.81
425.401	86.81
425.623	96.81
425.846	81.81
426.068	95.81
426.291	88.81
426.513	96.81
426.735	93.81
426.958	78.81
427.18	121.81
427.402	124.81
427.625	133.81
427.847	134.81
428.069	88.81
428.292	82.81
428.514	78.81
428.736	89.81
428.958	82.81
429.181	90.81
429.403	87.81
429.625	87.81
429.847	91.81
430.069	99.81
430.292	90.81
430.514	91.81
430.736	82.81
430.958	91.81
431.18	89.81
431.402	87.81
431.624	88.81
431.846	86.81
432.068	90.81
432.29	81.81
432.512	81.81
432.734	82.81
432.956	87.81
433.178	102.81
433.4	98.81
433.622	91.81
433.844	91.81
434.066	90.81
434.287	100.81
434.509	96.81
434.731	91.81
434.953	77.81
435.175	93.81
435.397	94.81
435.618	95.81
435.84	98.81
436.062	120.81
436.284	103.81
436.505	107.81
436.727	92.81
436.949	82.81
437.17	82.81
437.392	82.81
437.614	95.81
437.835	89.81
438.057	105.81
438.278	93.81
438.5	112.81
438.721	117.81
438.943	95.81
439.165	92.81
439.386	78.81
439.608	105.81
439.829	92.81
440.05	119.81
440.272	122.81
440.493	83.81
440.715	73.81
440.936	85.81
441.158	77.81
441.379	78.81
441.6	85.81
441.822	73.81
442.043	86.81
442.264	79.81
442.486	81.81
442.707	88.81
442.928	98.81
443.149	122.81
443.371	128.81
443.592	89.81
443.813	100.81
444.034	81.81
444.255	95.81
444.476	87.81
444.698	88.81
444.919	80.81
445.14	123.81
445.361	119.81
445.582	108.81
445.803	115.81
446.024	127.81
446.245	113.81
446.466	105.81
446.687	82.81
446.908	93.81
447.129	93.81
447.35	85.81
447.571	87.81
447.792	90.81
448.013	94.81
448.234	102.81
448.455	83.81
448.675	106.81
448.896	94.81
449.117	88.81
449.338	105.81
449.559	120.81
449.779	117.81
450	93.81
450.221	90.81
450.442	88.81
450.662	82.81
450.883	111.81
451.104	98.81
451.324	85.81
451.545	81.81
451.766	75.81
451.986	91.81
452.207	79.81
452.428	83.81
452.648	94.81
452.869	109.81
453.089	98.81
453.31	111.81
453.53	93.81
453.751	74.81
453.971	98.81
454.192	111.81
454.412	99.81
454.633	91.81
454.853	91.81
455.073	77.81
455.294	88.81
455.514	98.81
455.734	91.81
455.955	81.81
456.175	81.81
456.395	90.81
456.616	96.81
456.836	98.81
457.056	100.81
457.276	86.81
457.497	91.81
457.717	99.81
457.937	75.81
458.157	96.81
458.377	91.81
458.598	88.81
458.818	120.81
459.038	132.81
459.258	113.81
459.478	84.81
459.698	88.81
459.918	86.81
460.138	82.81
460.358	91.81
460.578	90.81
460.798	83.81
461.018	88.81
461.238	84.81
461.458	86.81
461.678	79.81
461.898	77.81
462.118	86.81
462.338	84.81
462.558	82.81
462.777	73.81
462.997	82.81
463.217	82.81
463.437	77.81
463.657	74.81
463.876	75.81
464.096	83.81
464.316	88.81
464.536	81.81
464.755	106.81
464.975	110.81
465.195	135.81
465.414	121.81
465.634	91.81
465.854	101.81
466.073	75.81
466.293	101.81
466.512	91.81
466.732	78.81
466.951	76.81
467.171	92.81
467.391	89.81
467.61	94.81
467.829	87.81
468.049	87.81
468.268	89.81
468.488	77.81
468.707	83.81
468.927	91.81
469.146	89.81
469.365	71.81
469.585	97.81
469.804	70.81
470.023	78.81
470.243	97.81
470.462	100.81
470.681	95.81
470.901	97.81
471.12	74.81
471.339	90.81
471.558	88.81
471.777	93.81
471.997	85.81
472.216	84.81
472.435	96.81
472.654	72.81
472.873	82.81
473.092	81.81
473.311	82.81
473.53	71.81
473.749	94.81
473.968	102.81
474.187	91.81
474.406	98.81
474.625	87.81
474.844	86.81
475.063	85.81
475.282	96.81
475.501	91.81
475.72	97.81
475.939	83.81
476.158	99.81
476.377	73.81
476.596	90.81
476.814	87.81
477.033	102.81
477.252	79.81
477.471	91.81
477.69	89.81
477.908	87.81
478.127	70.81
478.346	92.81
478.564	105.81
478.783	88.81
479.002	88.81
479.22	102.81
479.439	75.81
479.658	95.81
479.876	91.81
480.095	80.81
480.313	93.81
480.532	87.81
480.751	85.81
480.969	94.81
481.188	107.81
481.406	91.81
481.624	95.81
481.843	100.81
482.061	82.81
482.28	88.81
482.498	93.81
482.717	96.81
482.935	80.81
483.153	93.81
483.372	87.81
483.59	86.81
483.808	102.81
484.027	79.81
484.245	94.81
484.463	96.81
484.681	93.81
484.9	90.81
485.118	100.81
485.336	93.81
485.554	99.81
485.772	105.81
485.99	91.81
486.209	102.81
486.427	102.81
486.645	111.81
486.863	106.81
487.081	98.81
487.299	98.81
487.517	98.81
487.735	91.81
487.953	86.81
488.171	97.81
488.389	107.81
488.607	102.81
488.825	93.81
489.043	77.81
489.261	96.81
489.479	86.81
489.696	95.81
489.914	75.81
490.132	90.81
490.35	89.81
490.568	95.81
490.786	99.81
491.003	83.81
491.221	92.81
491.439	95.81
491.657	88.81
491.874	91.81
492.092	87.81
492.31	89.81
492.527	85.81
492.745	100.81
492.963	80.81
493.18	83.81
493.398	105.81
493.615	102.81
493.833	80.81
494.05	84.81
494.268	87.81
494.485	89.81
494.703	83.81
494.92	101.81
495.138	97.81
495.355	106.81
495.573	89.81
495.79	90.81
496.008	83.81
496.225	75.81
496.442	88.81
496.66	92.81
496.877	86.81
497.094	91.81
497.312	79.81
497.529	75.81
497.746	87.81
497.963	91.81
498.181	86.81
498.398	107.81
498.615	110.81
498.832	94.81
499.049	98.81
499.267	93.81
499.484	94.81
499.701	95.81
499.918	72.81
500.135	82.81
500.352	96.81
500.569	93.81
500.786	86.81
501.003	85.81
501.22	80.81
501.437	85.81
501.654	95.81
501.871	105.81
502.088	98.81
502.305	89.81
502.522	90.81
502.739	71.81
502.956	86.81
503.172	96.81
503.389	83.81
503.606	78.81
503.823	87.81
504.04	83.81
504.256	85.81
504.473	90.81
504.69	106.81
504.907	92.81
505.123	75.81
505.34	81.81
505.557	82.81
505.773	79.81
505.99	93.81
506.207	94.81
506.423	108.81
506.64	83.81
506.856	91.81
507.073	81.81
507.289	91.81
507.506	101.81
507.722	119.81
507.939	107.81
508.155	86.81
508.372	95.81
508.588	99.81
508.805	100.81
509.021	89.81
509.238	96.81
509.454	107.81
509.67	91.81
509.887	89.81
510.103	128.81
510.319	200.81
510.536	634.81
510.752	1946.81
510.968	546.81
511.184	141.81
511.401	117.81
511.617	107.81
511.833	97.81
512.049	99.81
512.265	92.81
512.481	90.81
512.698	91.81
512.914	82.81
513.13	102.81
513.346	95.81
513.562	86.81
513.778	101.81
513.994	82.81
514.21	91.81
514.426	111.81
514.642	120.81
514.858	113.81
515.074	155.81
515.29	387.81
515.506	1197.81
515.721	455.81
515.937	139.81
516.153	114.81
516.369	94.81
516.585	89.81
