Data from Uncirc_1997_H10_HRD10591_00038.txt Node
Date: Wed Jan 03 11:28:38 EST 2024
User: Yrep
Spectrometer: HR+D1059
Trigger mode: 1
Integration Time (sec): 1.000000E-1
Scans to average: 1
Electric dark correction enabled: true
Nonlinearity correction enabled: false
Boxcar width: 0
XAxis mode: Wavelengths
Number of Pixels in Spectrum: 2048
>>>>>Begin Spectral Data<<<<<
223.165	-21.12
223.4	-21.12
223.635	-21.12
223.869	-11.12
224.104	-17.12
224.338	-6.12
224.573	-25.12
224.808	-23.12
225.042	-6.12
225.277	-4.12
225.511	-7.12
225.746	3.88
225.98	16.88
226.215	11.88
226.449	18.88
226.683	29.88
226.918	15.88
227.152	23.88
227.387	36.88
227.621	39.88
227.856	42.88
228.09	45.88
228.324	51.88
228.559	54.88
228.793	51.88
229.027	58.88
229.262	68.88
229.496	60.88
229.73	59.88
229.964	68.88
230.199	74.88
230.433	85.88
230.667	68.88
230.901	80.88
231.136	88.88
231.37	71.88
231.604	78.88
231.838	69.88
232.072	58.88
232.306	73.88
232.541	59.88
232.775	83.88
233.009	79.88
233.243	82.88
233.477	71.88
233.711	76.88
233.945	64.88
234.179	86.88
234.413	69.88
234.647	81.88
234.881	80.88
235.115	87.88
235.349	73.88
235.583	68.88
235.817	64.88
236.051	83.88
236.285	62.88
236.519	76.88
236.753	72.88
236.987	83.88
237.221	78.88
237.455	86.88
237.689	83.88
237.922	77.88
238.156	73.88
238.39	71.88
238.624	71.88
238.858	64.88
239.091	87.88
239.325	70.88
239.559	63.88
239.793	62.88
240.027	81.88
240.26	67.88
240.494	67.88
240.728	73.88
240.961	74.88
241.195	79.88
241.429	64.88
241.662	60.88
241.896	68.88
242.13	67.88
242.363	77.88
242.597	81.88
242.83	78.88
243.064	71.88
243.298	73.88
243.531	77.88
243.765	66.88
243.998	79.88
244.232	76.88
244.465	85.88
244.699	82.88
244.932	77.88
245.166	85.88
245.399	79.88
245.633	83.88
245.866	62.88
246.099	70.88
246.333	67.88
246.566	56.88
246.8	69.88
247.033	64.88
247.266	71.88
247.5	77.88
247.733	67.88
247.966	71.88
248.2	80.88
248.433	62.88
248.666	72.88
248.899	76.88
249.133	83.88
249.366	88.88
249.599	89.88
249.832	87.88
250.066	80.88
250.299	81.88
250.532	84.88
250.765	96.88
250.998	77.88
251.231	67.88
251.465	84.88
251.698	75.88
251.931	73.88
252.164	70.88
252.397	87.88
252.63	77.88
252.863	67.88
253.096	71.88
253.329	88.88
253.562	81.88
253.795	71.88
254.028	74.88
254.261	77.88
254.494	64.88
254.727	86.88
254.96	86.88
255.193	80.88
255.426	77.88
255.659	71.88
255.892	73.88
256.124	68.88
256.357	80.88
256.59	83.88
256.823	75.88
257.056	83.88
257.289	85.88
257.521	81.88
257.754	82.88
257.987	84.88
258.22	74.88
258.452	77.88
258.685	76.88
258.918	79.88
259.151	79.88
259.383	76.88
259.616	77.88
259.849	80.88
260.081	68.88
260.314	84.88
260.547	84.88
260.779	77.88
261.012	85.88
261.244	64.88
261.477	61.88
261.71	80.88
261.942	116.88
262.175	92.88
262.407	71.88
262.64	81.88
262.872	75.88
263.105	94.88
263.337	84.88
263.57	77.88
263.802	76.88
264.035	81.88
264.267	76.88
264.499	71.88
264.732	83.88
264.964	67.88
265.197	92.88
265.429	81.88
265.661	76.88
265.894	72.88
266.126	79.88
266.358	81.88
266.591	95.88
266.823	93.88
267.055	73.88
267.287	84.88
267.52	78.88
267.752	89.88
267.984	76.88
268.216	67.88
268.448	81.88
268.681	72.88
268.913	76.88
269.145	93.88
269.377	88.88
269.609	91.88
269.841	75.88
270.073	85.88
270.306	72.88
270.538	71.88
270.77	75.88
271.002	81.88
271.234	95.88
271.466	84.88
271.698	80.88
271.93	83.88
272.162	75.88
272.394	94.88
272.626	85.88
272.858	85.88
273.09	96.88
273.322	88.88
273.553	92.88
273.785	80.88
274.017	85.88
274.249	77.88
274.481	70.88
274.713	80.88
274.945	85.88
275.176	78.88
275.408	93.88
275.64	75.88
275.872	76.88
276.104	82.88
276.335	82.88
276.567	79.88
276.799	104.88
277.031	80.88
277.262	98.88
277.494	75.88
277.726	91.88
277.957	80.88
278.189	77.88
278.421	72.88
278.652	84.88
278.884	76.88
279.115	84.88
279.347	73.88
279.579	87.88
279.81	88.88
280.042	95.88
280.273	85.88
280.505	53.88
280.736	78.88
280.968	83.88
281.199	93.88
281.431	92.88
281.662	89.88
281.894	75.88
282.125	93.88
282.356	90.88
282.588	105.88
282.819	104.88
283.051	88.88
283.282	70.88
283.513	81.88
283.745	89.88
283.976	81.88
284.207	83.88
284.439	78.88
284.67	89.88
284.901	90.88
285.132	89.88
285.364	87.88
285.595	95.88
285.826	86.88
286.057	70.88
286.288	87.88
286.52	82.88
286.751	76.88
286.982	67.88
287.213	85.88
287.444	85.88
287.675	75.88
287.906	95.88
288.138	92.88
288.369	84.88
288.6	82.88
288.831	68.88
289.062	92.88
289.293	89.88
289.524	100.88
289.755	76.88
289.986	91.88
290.217	83.88
290.448	82.88
290.679	95.88
290.91	74.88
291.141	89.88
291.371	100.88
291.602	87.88
291.833	81.88
292.064	103.88
292.295	86.88
292.526	71.88
292.757	83.88
292.987	73.88
293.218	79.88
293.449	83.88
293.68	86.88
293.91	95.88
294.141	74.88
294.372	99.88
294.603	88.88
294.833	84.88
295.064	86.88
295.295	79.88
295.525	88.88
295.756	90.88
295.987	103.88
296.217	119.88
296.448	112.88
296.679	78.88
296.909	83.88
297.14	89.88
297.37	76.88
297.601	94.88
297.831	77.88
298.062	91.88
298.292	94.88
298.523	84.88
298.753	83.88
298.984	96.88
299.214	102.88
299.445	96.88
299.675	81.88
299.905	88.88
300.136	86.88
300.366	79.88
300.597	77.88
300.827	82.88
301.057	93.88
301.288	101.88
301.518	94.88
301.748	85.88
301.979	104.88
302.209	93.88
302.439	92.88
302.669	92.88
302.9	87.88
303.13	89.88
303.36	83.88
303.59	97.88
303.82	98.88
304.051	102.88
304.281	87.88
304.511	63.88
304.741	98.88
304.971	79.88
305.201	83.88
305.431	94.88
305.661	98.88
305.891	90.88
306.121	93.88
306.352	77.88
306.582	76.88
306.812	93.88
307.042	86.88
307.272	108.88
307.502	95.88
307.731	88.88
307.961	83.88
308.191	80.88
308.421	78.88
308.651	86.88
308.881	91.88
309.111	93.88
309.341	95.88
309.571	96.88
309.8	103.88
310.03	98.88
310.26	90.88
310.49	93.88
310.72	95.88
310.949	105.88
311.179	91.88
311.409	85.88
311.639	91.88
311.868	99.88
312.098	87.88
312.328	90.88
312.557	91.88
312.787	90.88
313.017	87.88
313.246	94.88
313.476	76.88
313.706	95.88
313.935	85.88
314.165	105.88
314.394	98.88
314.624	92.88
314.853	85.88
315.083	86.88
315.312	81.88
315.542	80.88
315.771	87.88
316.001	108.88
316.23	93.88
316.46	79.88
316.689	93.88
316.919	82.88
317.148	86.88
317.377	90.88
317.607	102.88
317.836	96.88
318.065	88.88
318.295	86.88
318.524	87.88
318.753	100.88
318.983	89.88
319.212	92.88
319.441	103.88
319.67	84.88
319.9	102.88
320.129	80.88
320.358	93.88
320.587	99.88
320.816	74.88
321.046	106.88
321.275	96.88
321.504	106.88
321.733	101.88
321.962	87.88
322.191	94.88
322.42	117.88
322.649	99.88
322.878	111.88
323.108	117.88
323.337	117.88
323.566	118.88
323.795	131.88
324.024	167.88
324.253	326.88
324.482	643.88
324.71	1336.88
324.939	1729.88
325.168	671.88
325.397	204.88
325.626	124.88
325.855	119.88
326.084	111.88
326.313	109.88
326.542	131.88
326.77	195.88
326.999	377.88
327.228	778.88
327.457	1363.88
327.686	1073.88
327.914	295.88
328.143	168.88
328.372	138.88
328.6	111.88
328.829	99.88
329.058	106.88
329.287	120.88
329.515	108.88
329.744	95.88
329.972	88.88
330.201	93.88
330.43	114.88
330.658	101.88
330.887	124.88
331.115	120.88
331.344	95.88
331.572	84.88
331.801	77.88
332.03	92.88
332.258	81.88
332.486	80.88
332.715	84.88
332.943	90.88
333.172	76.88
333.4	89.88
333.629	95.88
333.857	106.88
334.085	99.88
334.314	106.88
334.542	92.88
334.771	115.88
334.999	93.88
335.227	76.88
335.455	85.88
335.684	102.88
335.912	89.88
336.14	93.88
336.369	78.88
336.597	104.88
336.825	106.88
337.053	87.88
337.281	100.88
337.51	96.88
337.738	87.88
337.966	92.88
338.194	87.88
338.422	91.88
338.65	76.88
338.878	99.88
339.106	85.88
339.334	99.88
339.562	91.88
339.79	90.88
340.018	88.88
340.246	85.88
340.474	98.88
340.702	85.88
340.93	71.88
341.158	89.88
341.386	88.88
341.614	91.88
341.842	84.88
342.07	83.88
342.298	87.88
342.526	77.88
342.754	85.88
342.981	77.88
343.209	86.88
343.437	96.88
343.665	90.88
343.893	85.88
344.12	83.88
344.348	99.88
344.576	82.88
344.804	88.88
345.031	84.88
345.259	92.88
345.487	93.88
345.714	93.88
345.942	87.88
346.17	87.88
346.397	84.88
346.625	91.88
346.853	83.88
347.08	98.88
347.308	87.88
347.535	98.88
347.763	80.88
347.99	94.88
348.218	98.88
348.445	103.88
348.673	88.88
348.9	71.88
349.128	91.88
349.355	85.88
349.583	97.88
349.81	88.88
350.037	90.88
350.265	90.88
350.492	92.88
350.72	99.88
350.947	91.88
351.174	87.88
351.402	104.88
351.629	103.88
351.856	91.88
352.083	91.88
352.311	95.88
352.538	94.88
352.765	119.88
352.992	102.88
353.22	111.88
353.447	96.88
353.674	93.88
353.901	87.88
354.128	94.88
354.355	84.88
354.583	72.88
354.81	95.88
355.037	83.88
355.264	91.88
355.491	93.88
355.718	93.88
355.945	85.88
356.172	98.88
356.399	82.88
356.626	93.88
356.853	94.88
357.08	94.88
357.307	93.88
357.534	88.88
357.761	95.88
357.988	89.88
358.215	85.88
358.441	104.88
358.668	82.88
358.895	82.88
359.122	85.88
359.349	88.88
359.576	85.88
359.802	100.88
360.029	100.88
360.256	97.88
360.483	93.88
360.709	88.88
360.936	82.88
361.163	90.88
361.39	99.88
361.616	80.88
361.843	95.88
362.07	89.88
362.296	75.88
362.523	85.88
362.749	86.88
362.976	82.88
363.203	88.88
363.429	102.88
363.656	83.88
363.882	87.88
364.109	96.88
364.335	99.88
364.562	89.88
364.788	83.88
365.015	89.88
365.241	98.88
365.468	90.88
365.694	85.88
365.92	97.88
366.147	87.88
366.373	83.88
366.599	83.88
366.826	78.88
367.052	79.88
367.278	94.88
367.505	97.88
367.731	88.88
367.957	88.88
368.184	90.88
368.41	91.88
368.636	106.88
368.862	107.88
369.089	100.88
369.315	93.88
369.541	83.88
369.767	91.88
369.993	92.88
370.219	94.88
370.445	95.88
370.672	80.88
370.898	81.88
371.124	55.88
371.35	89.88
371.576	87.88
371.802	77.88
372.028	77.88
372.254	84.88
372.48	86.88
372.706	87.88
372.932	86.88
373.158	82.88
373.384	75.88
373.61	95.88
373.835	92.88
374.061	74.88
374.287	82.88
374.513	88.88
374.739	86.88
374.965	87.88
375.191	101.88
375.416	88.88
375.642	82.88
375.868	84.88
376.094	85.88
376.319	89.88
376.545	84.88
376.771	93.88
376.997	95.88
377.222	77.88
377.448	87.88
377.674	85.88
377.899	89.88
378.125	94.88
378.35	96.88
378.576	73.88
378.802	93.88
379.027	97.88
379.253	98.88
379.478	93.88
379.704	81.88
379.929	88.88
380.155	84.88
380.38	76.88
380.606	89.88
380.831	79.88
381.057	101.88
381.282	83.88
381.507	80.88
381.733	96.88
381.958	97.88
382.184	95.88
382.409	79.88
382.634	100.88
382.86	84.88
383.085	83.88
383.31	93.88
383.535	103.88
383.761	95.88
383.986	79.88
384.211	89.88
384.436	86.88
384.662	99.88
384.887	105.88
385.112	102.88
385.337	97.88
385.562	106.88
385.787	111.88
386.013	103.88
386.238	80.88
386.463	104.88
386.688	103.88
386.913	105.88
387.138	86.88
387.363	100.88
387.588	92.88
387.813	91.88
388.038	83.88
388.263	105.88
388.488	97.88
388.713	94.88
388.938	113.88
389.163	92.88
389.387	92.88
389.612	84.88
389.837	93.88
390.062	86.88
390.287	92.88
390.512	79.88
390.736	87.88
390.961	91.88
391.186	86.88
391.411	101.88
391.636	73.88
391.86	89.88
392.085	77.88
392.31	99.88
392.534	91.88
392.759	87.88
392.984	77.88
393.208	83.88
393.433	112.88
393.658	83.88
393.882	88.88
394.107	69.88
394.331	76.88
394.556	84.88
394.78	95.88
395.005	89.88
395.229	69.88
395.454	78.88
395.678	80.88
395.903	77.88
396.127	74.88
396.352	90.88
396.576	83.88
396.801	81.88
397.025	86.88
397.249	83.88
397.474	92.88
397.698	78.88
397.922	60.88
398.147	95.88
398.371	81.88
398.595	85.88
398.82	83.88
399.044	75.88
399.268	83.88
399.492	83.88
399.717	91.88
399.941	81.88
400.165	90.88
400.389	83.88
400.613	95.88
400.837	83.88
401.062	75.88
401.286	84.88
401.51	81.88
401.734	79.88
401.958	89.88
402.182	100.88
402.406	133.88
402.63	96.88
402.854	94.88
403.078	82.88
403.302	80.88
403.526	87.88
403.75	85.88
403.974	90.88
404.198	98.88
404.422	80.88
404.645	83.88
404.869	87.88
405.093	90.88
405.317	101.88
405.541	91.88
405.765	100.88
405.988	107.88
406.212	147.88
406.436	193.88
406.66	120.88
406.883	99.88
407.107	88.88
407.331	94.88
407.555	93.88
407.778	84.88
408.002	80.88
408.226	99.88
408.449	89.88
408.673	75.88
408.896	79.88
409.12	91.88
409.344	87.88
409.567	92.88
409.791	84.88
410.014	94.88
410.238	82.88
410.461	85.88
410.685	107.88
410.908	92.88
411.132	102.88
411.355	103.88
411.578	74.88
411.802	81.88
412.025	82.88
412.249	91.88
412.472	72.88
412.695	95.88
412.919	89.88
413.142	70.88
413.365	81.88
413.589	88.88
413.812	87.88
414.035	82.88
414.258	103.88
414.482	77.88
414.705	85.88
414.928	78.88
415.151	78.88
415.374	86.88
415.597	81.88
415.821	88.88
416.044	84.88
416.267	87.88
416.49	77.88
416.713	96.88
416.936	88.88
417.159	87.88
417.382	89.88
417.605	93.88
417.828	93.88
418.051	90.88
418.274	89.88
418.497	96.88
418.72	80.88
418.943	82.88
419.166	83.88
419.389	81.88
419.611	90.88
419.834	96.88
420.057	85.88
420.28	91.88
420.503	85.88
420.726	89.88
420.948	81.88
421.171	95.88
421.394	92.88
421.617	83.88
421.839	74.88
422.062	87.88
422.285	93.88
422.507	83.88
422.73	88.88
422.953	88.88
423.175	97.88
423.398	86.88
423.621	92.88
423.843	79.88
424.066	83.88
424.288	98.88
424.511	76.88
424.733	89.88
424.956	100.88
425.178	87.88
425.401	93.88
425.623	97.88
425.846	73.88
426.068	83.88
426.291	89.88
426.513	94.88
426.735	87.88
426.958	75.88
427.18	103.88
427.402	125.88
427.625	126.88
427.847	120.88
428.069	100.88
428.292	89.88
428.514	82.88
428.736	83.88
428.958	90.88
429.181	67.88
429.403	68.88
429.625	95.88
429.847	85.88
430.069	79.88
430.292	94.88
430.514	80.88
430.736	81.88
430.958	73.88
431.18	76.88
431.402	95.88
431.624	84.88
431.846	71.88
432.068	85.88
432.29	67.88
432.512	88.88
432.734	82.88
432.956	91.88
433.178	77.88
433.4	91.88
433.622	66.88
433.844	82.88
434.066	89.88
434.287	82.88
434.509	84.88
434.731	99.88
434.953	70.88
435.175	71.88
435.397	82.88
435.618	100.88
435.84	81.88
436.062	99.88
436.284	111.88
436.505	96.88
436.727	99.88
436.949	92.88
437.17	80.88
437.392	69.88
437.614	98.88
437.835	103.88
438.057	96.88
438.278	99.88
438.5	93.88
438.721	95.88
438.943	85.88
439.165	68.88
439.386	80.88
439.608	86.88
439.829	85.88
440.05	103.88
440.272	117.88
440.493	81.88
440.715	89.88
440.936	84.88
441.158	83.88
441.379	85.88
441.6	99.88
441.822	93.88
442.043	83.88
442.264	89.88
442.486	92.88
442.707	80.88
442.928	100.88
443.149	98.88
443.371	97.88
443.592	98.88
443.813	103.88
444.034	93.88
444.255	101.88
444.476	71.88
444.698	93.88
444.919	97.88
445.14	114.88
445.361	105.88
445.582	118.88
445.803	123.88
446.024	111.88
446.245	109.88
446.466	104.88
446.687	89.88
446.908	95.88
447.129	105.88
447.35	82.88
447.571	93.88
447.792	87.88
448.013	87.88
448.234	90.88
448.455	94.88
448.675	105.88
448.896	106.88
449.117	95.88
449.338	87.88
449.559	116.88
449.779	127.88
450	92.88
450.221	86.88
450.442	83.88
450.662	77.88
450.883	92.88
451.104	102.88
451.324	85.88
451.545	94.88
451.766	88.88
451.986	88.88
452.207	87.88
452.428	104.88
452.648	89.88
452.869	104.88
453.089	85.88
453.31	105.88
453.53	85.88
453.751	75.88
453.971	103.88
454.192	94.88
454.412	99.88
454.633	88.88
454.853	91.88
455.073	73.88
455.294	92.88
455.514	103.88
455.734	93.88
455.955	93.88
456.175	75.88
456.395	78.88
456.616	92.88
456.836	83.88
457.056	83.88
457.276	79.88
457.497	85.88
457.717	84.88
457.937	83.88
458.157	85.88
458.377	80.88
458.598	99.88
458.818	119.88
459.038	128.88
459.258	100.88
459.478	85.88
459.698	71.88
459.918	86.88
460.138	85.88
460.358	80.88
460.578	84.88
460.798	80.88
461.018	72.88
461.238	75.88
461.458	90.88
461.678	96.88
461.898	89.88
462.118	83.88
462.338	87.88
462.558	77.88
462.777	88.88
462.997	67.88
463.217	90.88
463.437	82.88
463.657	88.88
463.876	91.88
464.096	70.88
464.316	92.88
464.536	72.88
464.755	93.88
464.975	87.88
465.195	156.88
465.414	132.88
465.634	96.88
465.854	87.88
466.073	85.88
466.293	90.88
466.512	88.88
466.732	75.88
466.951	92.88
467.171	88.88
467.391	112.88
467.61	104.88
467.829	92.88
468.049	86.88
468.268	97.88
468.488	87.88
468.707	67.88
468.927	88.88
469.146	86.88
469.365	85.88
469.585	72.88
469.804	90.88
470.023	87.88
470.243	87.88
470.462	93.88
470.681	102.88
470.901	87.88
471.12	95.88
471.339	75.88
471.558	77.88
471.777	86.88
471.997	81.88
472.216	88.88
472.435	92.88
472.654	93.88
472.873	85.88
473.092	91.88
473.311	84.88
473.53	92.88
473.749	89.88
473.968	85.88
474.187	110.88
474.406	93.88
474.625	104.88
474.844	89.88
475.063	67.88
475.282	87.88
475.501	98.88
475.72	88.88
475.939	92.88
476.158	91.88
476.377	83.88
476.596	72.88
476.814	82.88
477.033	79.88
477.252	92.88
477.471	71.88
477.69	94.88
477.908	68.88
478.127	69.88
478.346	85.88
478.564	82.88
478.783	81.88
479.002	86.88
479.22	86.88
479.439	93.88
479.658	100.88
479.876	103.88
480.095	88.88
480.313	76.88
480.532	95.88
480.751	87.88
480.969	101.88
481.188	103.88
481.406	94.88
481.624	81.88
481.843	86.88
482.061	73.88
482.28	88.88
482.498	84.88
482.717	91.88
482.935	82.88
483.153	95.88
483.372	75.88
483.59	83.88
483.808	89.88
484.027	96.88
484.245	57.88
484.463	88.88
484.681	80.88
484.9	83.88
485.118	82.88
485.336	87.88
485.554	98.88
485.772	83.88
485.99	94.88
486.209	91.88
486.427	99.88
486.645	108.88
486.863	93.88
487.081	101.88
487.299	91.88
487.517	99.88
487.735	88.88
487.953	99.88
488.171	91.88
488.389	84.88
488.607	97.88
488.825	95.88
489.043	87.88
489.261	81.88
489.479	86.88
489.696	86.88
489.914	83.88
490.132	78.88
490.35	87.88
490.568	77.88
490.786	89.88
491.003	92.88
491.221	93.88
491.439	100.88
491.657	97.88
491.874	83.88
492.092	77.88
492.31	80.88
492.527	91.88
492.745	74.88
492.963	80.88
493.18	85.88
493.398	98.88
493.615	94.88
493.833	75.88
494.05	87.88
494.268	80.88
494.485	83.88
494.703	94.88
494.92	83.88
495.138	96.88
495.355	94.88
495.573	86.88
495.79	88.88
496.008	91.88
496.225	77.88
496.442	97.88
496.66	83.88
496.877	91.88
497.094	101.88
497.312	96.88
497.529	83.88
497.746	94.88
497.963	95.88
498.181	74.88
498.398	85.88
498.615	100.88
498.832	88.88
499.049	68.88
499.267	83.88
499.484	88.88
499.701	82.88
499.918	83.88
500.135	69.88
500.352	86.88
500.569	80.88
500.786	91.88
501.003	83.88
501.22	94.88
501.437	88.88
501.654	95.88
501.871	106.88
502.088	97.88
502.305	86.88
502.522	91.88
502.739	70.88
502.956	72.88
503.172	87.88
503.389	91.88
503.606	85.88
503.823	80.88
504.04	84.88
504.256	96.88
504.473	91.88
504.69	94.88
504.907	91.88
505.123	83.88
505.34	93.88
505.557	69.88
505.773	79.88
505.99	83.88
506.207	89.88
506.423	93.88
506.64	84.88
506.856	95.88
507.073	94.88
507.289	99.88
507.506	96.88
507.722	92.88
507.939	98.88
508.155	89.88
508.372	90.88
508.588	88.88
508.805	105.88
509.021	89.88
509.238	94.88
509.454	99.88
509.67	99.88
509.887	100.88
510.103	124.88
510.319	204.88
510.536	613.88
510.752	1839.88
510.968	505.88
511.184	133.88
511.401	99.88
511.617	89.88
511.833	93.88
512.049	95.88
512.265	94.88
512.481	96.88
512.698	92.88
512.914	83.88
513.13	80.88
513.346	86.88
513.562	98.88
513.778	100.88
513.994	92.88
514.21	92.88
514.426	99.88
514.642	105.88
514.858	113.88
515.074	144.88
515.29	363.88
515.506	1143.88
515.721	423.88
515.937	135.88
516.153	93.88
516.369	86.88
516.585	100.88
516.801	88.88
517.016	82.88
517.232	90.88
517.448	96.88
