Data from Uncirc_1997_H10_HRD10591_00049.txt Node
Date: Wed Jan 03 11:28:40 EST 2024
User: Yrep
Spectrometer: HR+D1059
Trigger mode: 1
Integration Time (sec): 1.000000E-1
Scans to average: 1
Electric dark correction enabled: true
Nonlinearity correction enabled: false
Boxcar width: 0
XAxis mode: Wavelengths
Number of Pixels in Spectrum: 2048
>>>>>Begin Spectral Data<<<<<
223.165	-11.06
223.4	-11.06
223.635	-11.06
223.869	-25.06
224.104	-21.06
224.338	-17.06
224.573	-7.06
224.808	17.94
225.042	-11.06
225.277	-20.06
225.511	-1.06
225.746	7.94
225.98	-5.06
226.215	6.94
226.449	6.94
226.683	17.94
226.918	26.94
227.152	33.94
227.387	30.94
227.621	34.94
227.856	56.94
228.09	49.94
228.324	55.94
228.559	42.94
228.793	61.94
229.027	51.94
229.262	57.94
229.496	58.94
229.73	82.94
229.964	80.94
230.199	70.94
230.433	81.94
230.667	86.94
230.901	87.94
231.136	85.94
231.37	83.94
231.604	85.94
231.838	79.94
232.072	98.94
232.306	86.94
232.541	88.94
232.775	85.94
233.009	88.94
233.243	82.94
233.477	73.94
233.711	76.94
233.945	80.94
234.179	78.94
234.413	82.94
234.647	74.94
234.881	90.94
235.115	79.94
235.349	72.94
235.583	76.94
235.817	80.94
236.051	72.94
236.285	79.94
236.519	76.94
236.753	74.94
236.987	72.94
237.221	80.94
237.455	80.94
237.689	77.94
237.922	82.94
238.156	70.94
238.39	81.94
238.624	81.94
238.858	78.94
239.091	83.94
239.325	78.94
239.559	84.94
239.793	76.94
240.027	63.94
240.26	63.94
240.494	73.94
240.728	63.94
240.961	77.94
241.195	72.94
241.429	62.94
241.662	60.94
241.896	64.94
242.13	86.94
242.363	74.94
242.597	72.94
242.83	70.94
243.064	68.94
243.298	91.94
243.531	74.94
243.765	73.94
243.998	73.94
244.232	75.94
244.465	80.94
244.699	78.94
244.932	75.94
245.166	71.94
245.399	82.94
245.633	79.94
245.866	80.94
246.099	75.94
246.333	67.94
246.566	70.94
246.8	89.94
247.033	70.94
247.266	73.94
247.5	77.94
247.733	69.94
247.966	62.94
248.2	77.94
248.433	82.94
248.666	73.94
248.899	92.94
249.133	80.94
249.366	84.94
249.599	104.94
249.832	80.94
250.066	73.94
250.299	90.94
250.532	79.94
250.765	65.94
250.998	85.94
251.231	77.94
251.465	79.94
251.698	75.94
251.931	71.94
252.164	85.94
252.397	93.94
252.63	84.94
252.863	85.94
253.096	63.94
253.329	79.94
253.562	84.94
253.795	68.94
254.028	74.94
254.261	70.94
254.494	82.94
254.727	81.94
254.96	72.94
255.193	71.94
255.426	77.94
255.659	69.94
255.892	70.94
256.124	82.94
256.357	76.94
256.59	78.94
256.823	69.94
257.056	69.94
257.289	70.94
257.521	94.94
257.754	64.94
257.987	68.94
258.22	92.94
258.452	76.94
258.685	82.94
258.918	81.94
259.151	76.94
259.383	89.94
259.616	66.94
259.849	94.94
260.081	74.94
260.314	81.94
260.547	90.94
260.779	68.94
261.012	80.94
261.244	82.94
261.477	74.94
261.71	88.94
261.942	102.94
262.175	108.94
262.407	76.94
262.64	70.94
262.872	85.94
263.105	82.94
263.337	82.94
263.57	84.94
263.802	72.94
264.035	84.94
264.267	70.94
264.499	79.94
264.732	80.94
264.964	81.94
265.197	72.94
265.429	70.94
265.661	78.94
265.894	83.94
266.126	76.94
266.358	75.94
266.591	87.94
266.823	85.94
267.055	80.94
267.287	70.94
267.52	77.94
267.752	87.94
267.984	77.94
268.216	86.94
268.448	89.94
268.681	91.94
268.913	89.94
269.145	71.94
269.377	77.94
269.609	88.94
269.841	74.94
270.073	89.94
270.306	98.94
270.538	88.94
270.77	83.94
271.002	83.94
271.234	82.94
271.466	82.94
271.698	86.94
271.93	82.94
272.162	76.94
272.394	89.94
272.626	66.94
272.858	80.94
273.09	88.94
273.322	98.94
273.553	76.94
273.785	85.94
274.017	87.94
274.249	87.94
274.481	85.94
274.713	74.94
274.945	82.94
275.176	75.94
275.408	80.94
275.64	63.94
275.872	71.94
276.104	86.94
276.335	86.94
276.567	101.94
276.799	88.94
277.031	74.94
277.262	88.94
277.494	80.94
277.726	78.94
277.957	84.94
278.189	84.94
278.421	88.94
278.652	87.94
278.884	97.94
279.115	88.94
279.347	79.94
279.579	93.94
279.81	80.94
280.042	63.94
280.273	80.94
280.505	88.94
280.736	77.94
280.968	88.94
281.199	85.94
281.431	75.94
281.662	72.94
281.894	98.94
282.125	81.94
282.356	98.94
282.588	122.94
282.819	97.94
283.051	78.94
283.282	77.94
283.513	91.94
283.745	95.94
283.976	83.94
284.207	82.94
284.439	86.94
284.67	96.94
284.901	76.94
285.132	95.94
285.364	88.94
285.595	77.94
285.826	84.94
286.057	99.94
286.288	77.94
286.52	101.94
286.751	90.94
286.982	86.94
287.213	85.94
287.444	91.94
287.675	84.94
287.906	78.94
288.138	92.94
288.369	88.94
288.6	76.94
288.831	96.94
289.062	75.94
289.293	84.94
289.524	88.94
289.755	95.94
289.986	82.94
290.217	89.94
290.448	93.94
290.679	74.94
290.91	77.94
291.141	92.94
291.371	84.94
291.602	81.94
291.833	86.94
292.064	89.94
292.295	81.94
292.526	78.94
292.757	89.94
292.987	79.94
293.218	70.94
293.449	78.94
293.68	74.94
293.91	84.94
294.141	93.94
294.372	86.94
294.603	95.94
294.833	82.94
295.064	88.94
295.295	80.94
295.525	94.94
295.756	88.94
295.987	116.94
296.217	127.94
296.448	108.94
296.679	81.94
296.909	88.94
297.14	81.94
297.37	100.94
297.601	86.94
297.831	84.94
298.062	82.94
298.292	87.94
298.523	85.94
298.753	88.94
298.984	71.94
299.214	90.94
299.445	88.94
299.675	96.94
299.905	89.94
300.136	93.94
300.366	95.94
300.597	103.94
300.827	94.94
301.057	92.94
301.288	102.94
301.518	93.94
301.748	84.94
301.979	97.94
302.209	85.94
302.439	87.94
302.669	81.94
302.9	102.94
303.13	96.94
303.36	99.94
303.59	92.94
303.82	106.94
304.051	89.94
304.281	101.94
304.511	90.94
304.741	89.94
304.971	71.94
305.201	72.94
305.431	93.94
305.661	100.94
305.891	90.94
306.121	97.94
306.352	95.94
306.582	89.94
306.812	74.94
307.042	94.94
307.272	98.94
307.502	90.94
307.731	93.94
307.961	86.94
308.191	82.94
308.421	88.94
308.651	82.94
308.881	83.94
309.111	87.94
309.341	90.94
309.571	99.94
309.8	105.94
310.03	97.94
310.26	95.94
310.49	89.94
310.72	93.94
310.949	112.94
311.179	91.94
311.409	68.94
311.639	94.94
311.868	88.94
312.098	98.94
312.328	93.94
312.557	108.94
312.787	97.94
313.017	92.94
313.246	93.94
313.476	98.94
313.706	89.94
313.935	88.94
314.165	102.94
314.394	92.94
314.624	85.94
314.853	92.94
315.083	88.94
315.312	83.94
315.542	80.94
315.771	86.94
316.001	95.94
316.23	94.94
316.46	74.94
316.689	81.94
316.919	95.94
317.148	94.94
317.377	81.94
317.607	106.94
317.836	86.94
318.065	89.94
318.295	85.94
318.524	94.94
318.753	90.94
318.983	97.94
319.212	98.94
319.441	97.94
319.67	101.94
319.9	81.94
320.129	93.94
320.358	99.94
320.587	91.94
320.816	90.94
321.046	81.94
321.275	105.94
321.504	103.94
321.733	94.94
321.962	104.94
322.191	90.94
322.42	94.94
322.649	96.94
322.878	102.94
323.108	118.94
323.337	100.94
323.566	121.94
323.795	148.94
324.024	180.94
324.253	336.94
324.482	705.94
324.71	1436.94
324.939	1880.94
325.168	710.94
325.397	232.94
325.626	132.94
325.855	110.94
326.084	108.94
326.313	120.94
326.542	127.94
326.77	200.94
326.999	398.94
327.228	815.94
327.457	1444.94
327.686	1151.94
327.914	327.94
328.143	178.94
328.372	138.94
328.6	109.94
328.829	117.94
329.058	107.94
329.287	113.94
329.515	95.94
329.744	94.94
329.972	88.94
330.201	96.94
330.43	112.94
330.658	109.94
330.887	119.94
331.115	117.94
331.344	89.94
331.572	102.94
331.801	92.94
332.03	97.94
332.258	89.94
332.486	89.94
332.715	98.94
332.943	88.94
333.172	87.94
333.4	96.94
333.629	109.94
333.857	112.94
334.085	99.94
334.314	94.94
334.542	88.94
334.771	106.94
334.999	103.94
335.227	85.94
335.455	96.94
335.684	93.94
335.912	97.94
336.14	102.94
336.369	95.94
336.597	100.94
336.825	88.94
337.053	93.94
337.281	89.94
337.51	96.94
337.738	103.94
337.966	87.94
338.194	88.94
338.422	94.94
338.65	96.94
338.878	105.94
339.106	94.94
339.334	88.94
339.562	89.94
339.79	97.94
340.018	76.94
340.246	89.94
340.474	94.94
340.702	100.94
340.93	85.94
341.158	96.94
341.386	95.94
341.614	100.94
341.842	95.94
342.07	92.94
342.298	91.94
342.526	74.94
342.754	86.94
342.981	98.94
343.209	101.94
343.437	88.94
343.665	88.94
343.893	82.94
344.12	110.94
344.348	92.94
344.576	104.94
344.804	90.94
345.031	78.94
345.259	73.94
345.487	85.94
345.714	88.94
345.942	97.94
346.17	87.94
346.397	92.94
346.625	83.94
346.853	103.94
347.08	83.94
347.308	79.94
347.535	111.94
347.763	82.94
347.99	119.94
348.218	102.94
348.445	95.94
348.673	90.94
348.9	96.94
349.128	94.94
349.355	93.94
349.583	90.94
349.81	89.94
350.037	91.94
350.265	100.94
350.492	93.94
350.72	96.94
350.947	97.94
351.174	91.94
351.402	89.94
351.629	95.94
351.856	95.94
352.083	105.94
352.311	97.94
352.538	98.94
352.765	96.94
352.992	94.94
353.22	110.94
353.447	106.94
353.674	105.94
353.901	108.94
354.128	99.94
354.355	96.94
354.583	95.94
354.81	91.94
355.037	94.94
355.264	80.94
355.491	92.94
355.718	89.94
355.945	84.94
356.172	88.94
356.399	98.94
356.626	106.94
356.853	93.94
357.08	78.94
357.307	95.94
357.534	91.94
357.761	92.94
357.988	94.94
358.215	109.94
358.441	86.94
358.668	84.94
358.895	85.94
359.122	91.94
359.349	85.94
359.576	94.94
359.802	95.94
360.029	109.94
360.256	104.94
360.483	92.94
360.709	89.94
360.936	92.94
361.163	93.94
361.39	80.94
361.616	98.94
361.843	79.94
362.07	89.94
362.296	98.94
362.523	96.94
362.749	88.94
362.976	83.94
363.203	89.94
363.429	74.94
363.656	73.94
363.882	90.94
364.109	96.94
364.335	98.94
364.562	106.94
364.788	86.94
365.015	79.94
365.241	88.94
365.468	92.94
365.694	94.94
365.92	101.94
366.147	83.94
366.373	80.94
366.599	88.94
366.826	86.94
367.052	105.94
367.278	98.94
367.505	94.94
367.731	92.94
367.957	105.94
368.184	105.94
368.41	105.94
368.636	102.94
368.862	111.94
369.089	95.94
369.315	88.94
369.541	93.94
369.767	88.94
369.993	86.94
370.219	91.94
370.445	77.94
370.672	71.94
370.898	79.94
371.124	105.94
371.35	82.94
371.576	81.94
371.802	71.94
372.028	89.94
372.254	97.94
372.48	94.94
372.706	106.94
372.932	73.94
373.158	82.94
373.384	92.94
373.61	81.94
373.835	92.94
374.061	78.94
374.287	95.94
374.513	84.94
374.739	97.94
374.965	111.94
375.191	95.94
375.416	77.94
375.642	90.94
375.868	88.94
376.094	81.94
376.319	91.94
376.545	98.94
376.771	96.94
376.997	90.94
377.222	96.94
377.448	87.94
377.674	83.94
377.899	78.94
378.125	90.94
378.35	104.94
378.576	87.94
378.802	98.94
379.027	84.94
379.253	91.94
379.478	84.94
379.704	85.94
379.929	83.94
380.155	75.94
380.38	85.94
380.606	88.94
380.831	104.94
381.057	106.94
381.282	81.94
381.507	82.94
381.733	99.94
381.958	95.94
382.184	92.94
382.409	103.94
382.634	88.94
382.86	83.94
383.085	92.94
383.31	98.94
383.535	100.94
383.761	109.94
383.986	90.94
384.211	86.94
384.436	95.94
384.662	96.94
384.887	96.94
385.112	91.94
385.337	92.94
385.562	102.94
385.787	105.94
386.013	103.94
386.238	111.94
386.463	101.94
386.688	96.94
386.913	96.94
387.138	89.94
387.363	81.94
387.588	94.94
387.813	106.94
388.038	99.94
388.263	103.94
388.488	101.94
388.713	91.94
388.938	89.94
389.163	99.94
389.387	101.94
389.612	84.94
389.837	88.94
390.062	78.94
390.287	88.94
390.512	90.94
390.736	96.94
390.961	98.94
391.186	92.94
391.411	103.94
391.636	89.94
391.86	84.94
392.085	85.94
392.31	73.94
392.534	103.94
392.759	88.94
392.984	93.94
393.208	89.94
393.433	88.94
393.658	87.94
393.882	86.94
394.107	95.94
394.331	94.94
394.556	84.94
394.78	88.94
395.005	89.94
395.229	100.94
395.454	82.94
395.678	92.94
395.903	95.94
396.127	73.94
396.352	86.94
396.576	86.94
396.801	87.94
397.025	85.94
397.249	81.94
397.474	95.94
397.698	79.94
397.922	85.94
398.147	82.94
398.371	81.94
398.595	91.94
398.82	85.94
399.044	86.94
399.268	81.94
399.492	90.94
399.717	94.94
399.941	88.94
400.165	95.94
400.389	83.94
400.613	79.94
400.837	72.94
401.062	96.94
401.286	88.94
401.51	91.94
401.734	74.94
401.958	89.94
402.182	127.94
402.406	169.94
402.63	103.94
402.854	89.94
403.078	88.94
403.302	87.94
403.526	86.94
403.75	93.94
403.974	95.94
404.198	80.94
404.422	89.94
404.645	85.94
404.869	86.94
405.093	95.94
405.317	97.94
405.541	100.94
405.765	91.94
405.988	113.94
406.212	148.94
406.436	200.94
406.66	114.94
406.883	97.94
407.107	104.94
407.331	90.94
407.555	96.94
407.778	82.94
408.002	89.94
408.226	72.94
408.449	98.94
408.673	97.94
408.896	90.94
409.12	95.94
409.344	85.94
409.567	99.94
409.791	104.94
410.014	85.94
410.238	104.94
410.461	92.94
410.685	90.94
410.908	102.94
411.132	95.94
411.355	105.94
411.578	105.94
411.802	97.94
412.025	82.94
412.249	77.94
412.472	86.94
412.695	79.94
412.919	86.94
413.142	97.94
413.365	90.94
413.589	80.94
413.812	72.94
414.035	92.94
414.258	92.94
414.482	96.94
414.705	87.94
414.928	88.94
415.151	83.94
415.374	95.94
415.597	67.94
415.821	88.94
416.044	86.94
416.267	77.94
416.49	81.94
416.713	95.94
416.936	98.94
417.159	92.94
417.382	81.94
417.605	92.94
417.828	93.94
418.051	85.94
418.274	87.94
418.497	78.94
418.72	75.94
418.943	82.94
419.166	88.94
419.389	104.94
419.611	87.94
419.834	76.94
420.057	83.94
420.28	86.94
420.503	87.94
420.726	88.94
420.948	87.94
421.171	98.94
421.394	94.94
421.617	79.94
421.839	79.94
422.062	77.94
422.285	94.94
422.507	97.94
422.73	82.94
422.953	91.94
423.175	94.94
423.398	85.94
423.621	89.94
423.843	86.94
424.066	95.94
424.288	84.94
424.511	80.94
424.733	100.94
424.956	96.94
425.178	100.94
425.401	89.94
425.623	92.94
425.846	96.94
426.068	93.94
426.291	95.94
426.513	74.94
426.735	91.94
426.958	91.94
427.18	97.94
427.402	140.94
427.625	140.94
427.847	130.94
428.069	89.94
428.292	75.94
428.514	98.94
428.736	65.94
428.958	95.94
429.181	81.94
429.403	103.94
429.625	85.94
429.847	85.94
430.069	79.94
430.292	84.94
430.514	87.94
430.736	82.94
430.958	77.94
431.18	85.94
431.402	77.94
431.624	93.94
431.846	76.94
432.068	91.94
432.29	79.94
432.512	85.94
432.734	92.94
432.956	81.94
433.178	83.94
433.4	90.94
433.622	79.94
433.844	90.94
434.066	93.94
434.287	89.94
434.509	95.94
434.731	91.94
434.953	78.94
435.175	93.94
435.397	92.94
435.618	92.94
435.84	87.94
436.062	96.94
436.284	96.94
436.505	92.94
436.727	93.94
436.949	81.94
437.17	88.94
437.392	64.94
437.614	85.94
437.835	97.94
438.057	102.94
438.278	91.94
438.5	83.94
438.721	110.94
438.943	95.94
439.165	85.94
439.386	86.94
439.608	89.94
439.829	108.94
440.05	97.94
440.272	128.94
440.493	101.94
440.715	97.94
440.936	92.94
441.158	84.94
441.379	86.94
441.6	79.94
441.822	80.94
442.043	91.94
442.264	92.94
442.486	96.94
442.707	105.94
442.928	95.94
443.149	126.94
443.371	120.94
443.592	104.94
443.813	100.94
444.034	92.94
444.255	92.94
444.476	95.94
444.698	88.94
444.919	87.94
445.14	127.94
445.361	114.94
445.582	111.94
445.803	113.94
446.024	125.94
446.245	120.94
446.466	98.94
446.687	94.94
446.908	84.94
447.129	92.94
447.35	92.94
447.571	89.94
447.792	85.94
448.013	73.94
448.234	96.94
448.455	103.94
448.675	111.94
448.896	101.94
449.117	86.94
449.338	91.94
449.559	129.94
449.779	105.94
450	95.94
450.221	94.94
450.442	95.94
450.662	87.94
450.883	93.94
451.104	103.94
451.324	97.94
451.545	81.94
451.766	88.94
451.986	88.94
452.207	87.94
452.428	87.94
452.648	76.94
452.869	111.94
453.089	94.94
453.31	109.94
453.53	102.94
453.751	84.94
453.971	109.94
454.192	91.94
454.412	84.94
454.633	92.94
454.853	93.94
455.073	90.94
455.294	92.94
455.514	92.94
455.734	89.94
455.955	96.94
456.175	82.94
456.395	101.94
456.616	91.94
456.836	65.94
457.056	82.94
457.276	73.94
457.497	83.94
457.717	90.94
457.937	82.94
458.157	68.94
458.377	90.94
458.598	114.94
458.818	117.94
459.038	133.94
459.258	105.94
459.478	88.94
459.698	92.94
459.918	95.94
460.138	82.94
460.358	92.94
460.578	88.94
460.798	87.94
461.018	85.94
461.238	75.94
461.458	84.94
461.678	76.94
461.898	87.94
462.118	92.94
462.338	60.94
462.558	81.94
462.777	93.94
462.997	96.94
463.217	75.94
463.437	74.94
463.657	96.94
463.876	92.94
464.096	97.94
464.316	79.94
464.536	92.94
464.755	83.94
464.975	92.94
465.195	153.94
465.414	129.94
465.634	87.94
465.854	82.94
466.073	87.94
466.293	74.94
466.512	87.94
466.732	89.94
466.951	81.94
467.171	86.94
467.391	95.94
467.61	88.94
467.829	83.94
468.049	74.94
468.268	84.94
468.488	92.94
468.707	87.94
468.927	80.94
469.146	82.94
469.365	90.94
469.585	86.94
469.804	91.94
470.023	94.94
470.243	90.94
470.462	89.94
470.681	96.94
470.901	80.94
471.12	86.94
471.339	95.94
471.558	90.94
471.777	90.94
471.997	81.94
472.216	92.94
472.435	88.94
472.654	97.94
472.873	90.94
473.092	79.94
473.311	77.94
473.53	87.94
473.749	84.94
473.968	85.94
474.187	89.94
474.406	94.94
474.625	78.94
474.844	83.94
475.063	80.94
475.282	78.94
475.501	75.94
475.72	81.94
475.939	70.94
476.158	72.94
476.377	74.94
476.596	95.94
476.814	88.94
477.033	84.94
477.252	84.94
477.471	99.94
477.69	98.94
477.908	78.94
478.127	86.94
478.346	79.94
478.564	93.94
478.783	82.94
479.002	86.94
479.22	90.94
479.439	92.94
479.658	93.94
479.876	82.94
480.095	80.94
480.313	91.94
480.532	76.94
480.751	88.94
480.969	93.94
481.188	98.94
481.406	100.94
481.624	77.94
481.843	95.94
482.061	81.94
482.28	87.94
482.498	88.94
482.717	89.94
482.935	86.94
483.153	73.94
483.372	87.94
483.59	88.94
483.808	80.94
484.027	93.94
484.245	98.94
484.463	94.94
484.681	93.94
484.9	97.94
485.118	97.94
485.336	109.94
485.554	89.94
485.772	94.94
485.99	105.94
486.209	105.94
486.427	105.94
486.645	98.94
486.863	98.94
487.081	101.94
487.299	94.94
487.517	97.94
487.735	91.94
487.953	81.94
488.171	83.94
488.389	101.94
488.607	94.94
488.825	101.94
489.043	82.94
489.261	98.94
489.479	93.94
489.696	99.94
489.914	97.94
490.132	84.94
490.35	81.94
490.568	74.94
490.786	82.94
491.003	90.94
491.221	81.94
491.439	83.94
491.657	93.94
491.874	76.94
492.092	84.94
492.31	91.94
492.527	94.94
492.745	93.94
492.963	88.94
493.18	87.94
493.398	98.94
493.615	101.94
493.833	103.94
494.05	106.94
494.268	88.94
494.485	77.94
494.703	97.94
494.92	86.94
495.138	71.94
495.355	90.94
495.573	104.94
495.79	76.94
496.008	92.94
496.225	87.94
496.442	95.94
496.66	92.94
496.877	86.94
497.094	91.94
497.312	89.94
497.529	94.94
497.746	79.94
497.963	91.94
498.181	88.94
498.398	96.94
498.615	106.94
498.832	101.94
499.049	92.94
499.267	102.94
499.484	91.94
499.701	78.94
499.918	93.94
500.135	87.94
500.352	97.94
500.569	72.94
500.786	94.94
501.003	96.94
501.22	104.94
501.437	80.94
501.654	98.94
501.871	89.94
502.088	93.94
502.305	93.94
502.522	86.94
502.739	65.94
502.956	82.94
503.172	86.94
503.389	94.94
503.606	108.94
503.823	103.94
504.04	101.94
504.256	96.94
504.473	97.94
504.69	100.94
504.907	84.94
505.123	84.94
505.34	97.94
505.557	85.94
505.773	91.94
505.99	98.94
506.207	89.94
506.423	98.94
506.64	77.94
506.856	86.94
507.073	85.94
507.289	85.94
507.506	92.94
507.722	106.94
507.939	97.94
508.155	94.94
508.372	77.94
508.588	88.94
508.805	83.94
509.021	96.94
509.238	97.94
509.454	84.94
509.67	95.94
509.887	110.94
510.103	116.94
510.319	198.94
510.536	654.94
510.752	2049.94
510.968	552.94
511.184	148.94
511.401	115.94
511.617	93.94
511.833	81.94
512.049	82.94
512.265	85.94
512.481	80.94
512.698	87.94
512.914	86.94
513.13	93.94
513.346	88.94
513.562	102.94
513.778	91.94
513.994	97.94
514.21	96.94
514.426	110.94
514.642	134.94
514.858	120.94
515.074	159.94
515.29	394.94
515.506	1250.94
515.721	464.94
515.937	133.94
516.153	95.94
516.369	85.94
516.585	89.94
516.801	88.94
517.016	97.94
517.232	87.94
