Data from Uncirc_1997_H10_HRD10591_00002.txt Node
Date: Wed Jan 03 11:28:31 EST 2024
User: Yrep
Spectrometer: HR+D1059
Trigger mode: 1
Integration Time (sec): 1.000000E-1
Scans to average: 1
Electric dark correction enabled: true
Nonlinearity correction enabled: false
Boxcar width: 0
XAxis mode: Wavelengths
Number of Pixels in Spectrum: 2048
>>>>>Begin Spectral Data<<<<<
223.165	-15
223.4	-15
223.635	-15
223.869	-24
224.104	-24
224.338	-19
224.573	-22
224.808	-4
225.042	-14
225.277	-3
225.511	8
225.746	-2
225.98	7
226.215	22
226.449	22
226.683	16
226.918	20
227.152	32
227.387	34
227.621	42
227.856	31
228.09	38
228.324	48
228.559	57
228.793	62
229.027	63
229.262	70
229.496	65
229.73	63
229.964	68
230.199	73
230.433	76
230.667	66
230.901	66
231.136	74
231.37	78
231.604	76
231.838	74
232.072	80
232.306	84
232.541	89
232.775	90
233.009	88
233.243	81
233.477	86
233.711	77
233.945	89
234.179	81
234.413	91
234.647	82
234.881	83
235.115	82
235.349	80
235.583	86
235.817	76
236.051	72
236.285	79
236.519	65
236.753	76
236.987	84
237.221	72
237.455	87
237.689	84
237.922	74
238.156	61
238.39	76
238.624	78
238.858	69
239.091	79
239.325	65
239.559	78
239.793	76
240.027	73
240.26	74
240.494	85
240.728	67
240.961	78
241.195	76
241.429	57
241.662	65
241.896	69
242.13	77
242.363	73
242.597	75
242.83	81
243.064	70
243.298	82
243.531	69
243.765	78
243.998	69
244.232	80
244.465	84
244.699	86
244.932	62
245.166	76
245.399	76
245.633	74
245.866	80
246.099	72
246.333	74
246.566	78
246.8	69
247.033	77
247.266	80
247.5	64
247.733	79
247.966	74
248.2	94
248.433	76
248.666	91
248.899	68
249.133	70
249.366	95
249.599	88
249.832	86
250.066	74
250.299	88
250.532	78
250.765	55
250.998	72
251.231	73
251.465	76
251.698	74
251.931	79
252.164	88
252.397	70
252.63	77
252.863	88
253.096	62
253.329	70
253.562	54
253.795	76
254.028	88
254.261	80
254.494	82
254.727	85
254.96	73
255.193	78
255.426	68
255.659	87
255.892	88
256.124	84
256.357	70
256.59	71
256.823	79
257.056	80
257.289	72
257.521	78
257.754	93
257.987	71
258.22	74
258.452	74
258.685	88
258.918	81
259.151	70
259.383	77
259.616	81
259.849	89
260.081	75
260.314	82
260.547	78
260.779	78
261.012	82
261.244	69
261.477	76
261.71	82
261.942	95
262.175	96
262.407	83
262.64	77
262.872	89
263.105	65
263.337	81
263.57	71
263.802	63
264.035	77
264.267	70
264.499	89
264.732	98
264.964	84
265.197	90
265.429	81
265.661	97
265.894	72
266.126	76
266.358	79
266.591	80
266.823	84
267.055	90
267.287	77
267.52	81
267.752	77
267.984	86
268.216	91
268.448	74
268.681	84
268.913	82
269.145	71
269.377	74
269.609	84
269.841	74
270.073	73
270.306	89
270.538	86
270.77	87
271.002	88
271.234	90
271.466	89
271.698	80
271.93	86
272.162	70
272.394	85
272.626	94
272.858	78
273.09	98
273.322	66
273.553	84
273.785	101
274.017	81
274.249	74
274.481	75
274.713	92
274.945	88
275.176	87
275.408	75
275.64	82
275.872	72
276.104	86
276.335	89
276.567	96
276.799	98
277.031	102
277.262	100
277.494	83
277.726	82
277.957	92
278.189	84
278.421	77
278.652	77
278.884	89
279.115	82
279.347	89
279.579	88
279.81	74
280.042	77
280.273	75
280.505	93
280.736	92
280.968	78
281.199	73
281.431	88
281.662	75
281.894	85
282.125	93
282.356	96
282.588	105
282.819	105
283.051	86
283.282	88
283.513	84
283.745	80
283.976	95
284.207	81
284.439	76
284.67	85
284.901	98
285.132	83
285.364	69
285.595	78
285.826	81
286.057	76
286.288	84
286.52	80
286.751	70
286.982	81
287.213	85
287.444	80
287.675	93
287.906	90
288.138	76
288.369	80
288.6	89
288.831	87
289.062	85
289.293	83
289.524	80
289.755	69
289.986	74
290.217	88
290.448	81
290.679	90
290.91	90
291.141	81
291.371	94
291.602	87
291.833	80
292.064	91
292.295	90
292.526	89
292.757	81
292.987	69
293.218	87
293.449	76
293.68	69
293.91	94
294.141	96
294.372	78
294.603	82
294.833	90
295.064	93
295.295	86
295.525	86
295.756	79
295.987	114
296.217	109
296.448	116
296.679	97
296.909	92
297.14	90
297.37	82
297.601	88
297.831	82
298.062	70
298.292	106
298.523	94
298.753	86
298.984	92
299.214	104
299.445	84
299.675	89
299.905	97
300.136	69
300.366	96
300.597	93
300.827	93
301.057	87
301.288	94
301.518	106
301.748	85
301.979	96
302.209	77
302.439	84
302.669	96
302.9	97
303.13	85
303.36	90
303.59	102
303.82	102
304.051	98
304.281	97
304.511	96
304.741	81
304.971	81
305.201	99
305.431	97
305.661	90
305.891	90
306.121	87
306.352	103
306.582	99
306.812	96
307.042	83
307.272	86
307.502	88
307.731	96
307.961	101
308.191	92
308.421	87
308.651	79
308.881	80
309.111	94
309.341	88
309.571	89
309.8	88
310.03	84
310.26	88
310.49	87
310.72	87
310.949	93
311.179	86
311.409	88
311.639	92
311.868	95
312.098	80
312.328	92
312.557	93
312.787	97
313.017	91
313.246	89
313.476	89
313.706	94
313.935	85
314.165	92
314.394	96
314.624	101
314.853	92
315.083	89
315.312	93
315.542	86
315.771	93
316.001	95
316.23	83
316.46	91
316.689	82
316.919	76
317.148	96
317.377	90
317.607	92
317.836	94
318.065	83
318.295	85
318.524	76
318.753	103
318.983	99
319.212	86
319.441	98
319.67	94
319.9	88
320.129	78
320.358	97
320.587	95
320.816	92
321.046	101
321.275	84
321.504	95
321.733	97
321.962	100
322.191	114
322.42	100
322.649	96
322.878	113
323.108	94
323.337	114
323.566	117
323.795	138
324.024	165
324.253	318
324.482	680
324.71	1315
324.939	1712
325.168	644
325.397	218
325.626	135
325.855	114
326.084	110
326.313	138
326.542	140
326.77	221
326.999	409
327.228	754
327.457	1400
327.686	1076
327.914	303
328.143	137
328.372	134
328.6	104
328.829	94
329.058	103
329.287	112
329.515	95
329.744	101
329.972	97
330.201	97
330.43	112
330.658	99
330.887	112
331.115	104
331.344	109
331.572	95
331.801	96
332.03	100
332.258	76
332.486	85
332.715	97
332.943	105
333.172	92
333.4	99
333.629	105
333.857	99
334.085	97
334.314	102
334.542	100
334.771	102
334.999	95
335.227	94
335.455	96
335.684	101
335.912	97
336.14	95
336.369	76
336.597	90
336.825	77
337.053	99
337.281	80
337.51	83
337.738	97
337.966	83
338.194	80
338.422	96
338.65	101
338.878	89
339.106	76
339.334	86
339.562	93
339.79	92
340.018	91
340.246	87
340.474	89
340.702	92
340.93	104
341.158	89
341.386	80
341.614	87
341.842	78
342.07	89
342.298	96
342.526	65
342.754	83
342.981	94
343.209	74
343.437	87
343.665	88
343.893	82
344.12	93
344.348	88
344.576	97
344.804	74
345.031	103
345.259	89
345.487	99
345.714	77
345.942	96
346.17	90
346.397	91
346.625	99
346.853	89
347.08	94
347.308	91
347.535	93
347.763	96
347.99	91
348.218	99
348.445	83
348.673	89
348.9	85
349.128	94
349.355	95
349.583	98
349.81	76
350.037	93
350.265	102
350.492	103
350.72	74
350.947	98
351.174	109
351.402	109
351.629	84
351.856	92
352.083	91
352.311	100
352.538	102
352.765	106
352.992	100
353.22	106
353.447	93
353.674	104
353.901	91
354.128	108
354.355	99
354.583	87
354.81	88
355.037	105
355.264	88
355.491	101
355.718	90
355.945	94
356.172	91
356.399	92
356.626	80
356.853	90
357.08	92
357.307	83
357.534	83
357.761	87
357.988	80
358.215	90
358.441	87
358.668	79
358.895	88
359.122	93
359.349	88
359.576	88
359.802	78
360.029	92
360.256	98
360.483	89
360.709	81
360.936	92
361.163	94
361.39	98
361.616	79
361.843	95
362.07	95
362.296	105
362.523	84
362.749	80
362.976	84
363.203	92
363.429	94
363.656	82
363.882	75
364.109	90
364.335	91
364.562	94
364.788	90
365.015	85
365.241	95
365.468	96
365.694	99
365.92	90
366.147	85
366.373	82
366.599	85
366.826	80
367.052	84
367.278	96
367.505	93
367.731	88
367.957	94
368.184	99
368.41	90
368.636	107
368.862	100
369.089	87
369.315	85
369.541	96
369.767	92
369.993	92
370.219	80
370.445	97
370.672	97
370.898	91
371.124	82
371.35	89
371.576	87
371.802	77
372.028	88
372.254	80
372.48	99
372.706	90
372.932	92
373.158	84
373.384	89
373.61	79
373.835	77
374.061	88
374.287	88
374.513	92
374.739	90
374.965	79
375.191	91
375.416	98
375.642	100
375.868	101
376.094	98
376.319	80
376.545	84
376.771	85
376.997	93
377.222	85
377.448	77
377.674	82
377.899	94
378.125	73
378.35	101
378.576	86
378.802	90
379.027	89
379.253	86
379.478	103
379.704	86
379.929	79
380.155	81
380.38	94
380.606	87
380.831	95
381.057	103
381.282	92
381.507	92
381.733	94
381.958	95
382.184	92
382.409	86
382.634	81
382.86	93
383.085	111
383.31	99
383.535	78
383.761	97
383.986	89
384.211	83
384.436	94
384.662	78
384.887	88
385.112	92
385.337	94
385.562	95
385.787	86
386.013	109
386.238	116
386.463	98
386.688	109
386.913	102
387.138	110
387.363	108
387.588	92
387.813	110
388.038	108
388.263	116
388.488	116
388.713	105
388.938	97
389.163	95
389.387	102
389.612	93
389.837	96
390.062	88
390.287	97
390.512	84
390.736	94
390.961	93
391.186	89
391.411	98
391.636	84
391.86	66
392.085	86
392.31	72
392.534	71
392.759	90
392.984	85
393.208	84
393.433	92
393.658	92
393.882	75
394.107	89
394.331	87
394.556	71
394.78	104
395.005	87
395.229	85
395.454	85
395.678	77
395.903	87
396.127	96
396.352	84
396.576	80
396.801	87
397.025	89
397.249	92
397.474	86
397.698	78
397.922	86
398.147	90
398.371	77
398.595	82
398.82	90
399.044	92
399.268	73
399.492	79
399.717	94
399.941	96
400.165	84
400.389	82
400.613	97
400.837	88
401.062	79
401.286	82
401.51	87
401.734	81
401.958	86
402.182	108
402.406	120
402.63	94
402.854	81
403.078	89
403.302	96
403.526	89
403.75	81
403.974	76
404.198	82
404.422	81
404.645	89
404.869	92
405.093	74
405.317	85
405.541	96
405.765	99
405.988	113
406.212	121
406.436	168
406.66	117
406.883	101
407.107	93
407.331	81
407.555	98
407.778	100
408.002	91
408.226	89
408.449	88
408.673	86
408.896	76
409.12	95
409.344	92
409.567	88
409.791	97
410.014	85
410.238	89
410.461	100
410.685	99
410.908	95
411.132	96
411.355	96
411.578	97
411.802	100
412.025	92
412.249	90
412.472	84
412.695	90
412.919	82
413.142	80
413.365	82
413.589	96
413.812	95
414.035	87
414.258	77
414.482	85
414.705	106
414.928	81
415.151	94
415.374	75
415.597	82
415.821	85
416.044	91
416.267	91
416.49	85
416.713	86
416.936	93
417.159	91
417.382	75
417.605	89
417.828	88
418.051	84
418.274	95
418.497	86
418.72	72
418.943	75
419.166	81
419.389	79
419.611	90
419.834	82
420.057	87
420.28	71
420.503	97
420.726	94
420.948	79
421.171	92
421.394	81
421.617	76
421.839	76
422.062	91
422.285	80
422.507	100
422.73	106
422.953	77
423.175	96
423.398	102
423.621	90
423.843	87
424.066	79
424.288	91
424.511	87
424.733	95
424.956	93
425.178	91
425.401	93
425.623	85
425.846	93
426.068	90
426.291	84
426.513	77
426.735	86
426.958	89
427.18	95
427.402	111
427.625	132
427.847	111
428.069	101
428.292	97
428.514	76
428.736	86
428.958	87
429.181	88
429.403	75
429.625	68
429.847	95
430.069	81
430.292	94
430.514	79
430.736	90
430.958	92
431.18	78
431.402	97
431.624	79
431.846	79
432.068	74
432.29	92
432.512	81
432.734	95
432.956	80
433.178	87
433.4	92
433.622	92
433.844	81
434.066	78
434.287	95
434.509	92
434.731	80
434.953	78
435.175	85
435.397	77
435.618	102
435.84	94
436.062	102
436.284	84
436.505	75
436.727	104
436.949	81
437.17	76
437.392	88
437.614	76
437.835	91
438.057	114
438.278	100
438.5	95
438.721	101
438.943	97
439.165	72
439.386	88
439.608	89
439.829	77
440.05	103
440.272	123
440.493	95
440.715	101
440.936	80
441.158	83
441.379	94
441.6	94
441.822	89
442.043	87
442.264	96
442.486	82
442.707	83
442.928	102
443.149	99
443.371	120
443.592	97
443.813	92
444.034	96
444.255	73
444.476	84
444.698	73
444.919	70
445.14	130
445.361	134
445.582	107
445.803	109
446.024	118
446.245	123
446.466	78
446.687	80
446.908	87
447.129	86
447.35	86
447.571	82
447.792	96
448.013	87
448.234	85
448.455	104
448.675	105
448.896	113
449.117	94
449.338	93
449.559	109
449.779	120
450	60
450.221	73
450.442	74
450.662	95
450.883	82
451.104	87
451.324	87
451.545	75
451.766	81
451.986	87
452.207	95
452.428	92
452.648	89
452.869	110
453.089	98
453.31	94
453.53	69
453.751	86
453.971	88
454.192	101
454.412	88
454.633	82
454.853	97
455.073	88
455.294	95
455.514	68
455.734	77
455.955	96
456.175	80
456.395	76
456.616	81
456.836	69
457.056	85
457.276	80
457.497	90
457.717	81
457.937	78
458.157	97
458.377	98
458.598	99
458.818	116
459.038	126
459.258	98
459.478	94
459.698	88
459.918	81
460.138	97
460.358	84
460.578	85
460.798	89
461.018	90
461.238	92
461.458	81
461.678	77
461.898	93
462.118	80
462.338	77
462.558	77
462.777	79
462.997	85
463.217	83
463.437	92
463.657	85
463.876	82
464.096	90
464.316	87
464.536	105
464.755	84
464.975	103
465.195	142
465.414	110
465.634	88
465.854	74
466.073	87
466.293	79
466.512	81
466.732	86
466.951	84
467.171	83
467.391	92
467.61	91
467.829	84
468.049	75
468.268	87
468.488	87
468.707	82
468.927	86
469.146	90
469.365	83
469.585	83
469.804	95
470.023	81
470.243	91
470.462	92
470.681	91
470.901	94
471.12	77
471.339	72
471.558	75
471.777	73
471.997	66
472.216	81
472.435	107
472.654	83
472.873	82
473.092	87
473.311	84
473.53	76
473.749	80
473.968	94
474.187	90
474.406	90
474.625	94
474.844	85
475.063	87
475.282	87
475.501	88
475.72	83
475.939	85
476.158	79
476.377	94
476.596	76
476.814	98
477.033	91
477.252	82
477.471	89
477.69	96
477.908	70
478.127	81
478.346	80
478.564	90
478.783	94
479.002	90
479.22	89
479.439	88
479.658	93
479.876	107
480.095	86
480.313	88
480.532	105
480.751	94
480.969	84
481.188	96
481.406	104
481.624	102
481.843	105
482.061	86
482.28	94
482.498	101
482.717	82
482.935	88
483.153	84
483.372	81
483.59	89
483.808	81
484.027	95
484.245	97
484.463	102
484.681	90
484.9	89
485.118	90
485.336	98
485.554	108
485.772	94
485.99	95
486.209	92
486.427	95
486.645	98
486.863	111
487.081	106
487.299	78
487.517	87
487.735	99
487.953	93
488.171	81
488.389	91
488.607	91
488.825	83
489.043	82
489.261	96
489.479	104
489.696	105
489.914	89
490.132	88
490.35	93
490.568	99
490.786	86
491.003	78
491.221	84
491.439	102
491.657	94
491.874	86
492.092	89
492.31	80
492.527	94
492.745	88
492.963	88
493.18	79
493.398	95
493.615	99
493.833	79
494.05	87
494.268	85
494.485	91
494.703	90
494.92	102
495.138	86
495.355	99
495.573	92
495.79	92
496.008	90
496.225	88
496.442	93
496.66	87
496.877	73
497.094	101
497.312	98
497.529	101
497.746	88
497.963	98
498.181	89
498.398	84
498.615	102
498.832	92
499.049	101
499.267	96
499.484	95
499.701	80
499.918	86
500.135	85
500.352	77
500.569	84
500.786	85
501.003	95
501.22	82
501.437	86
501.654	85
501.871	109
502.088	86
502.305	86
502.522	84
502.739	74
502.956	88
503.172	86
503.389	70
503.606	98
503.823	98
504.04	91
504.256	84
504.473	90
504.69	95
504.907	94
505.123	92
505.34	101
505.557	89
505.773	101
505.99	90
506.207	85
506.423	97
506.64	96
506.856	87
507.073	94
507.289	82
507.506	91
507.722	98
507.939	101
508.155	83
508.372	86
508.588	95
508.805	97
509.021	77
509.238	81
509.454	93
509.67	90
509.887	90
510.103	122
510.319	172
510.536	520
510.752	1546
510.968	446
511.184	118
511.401	90
511.617	77
511.833	90
512.049	94
512.265	97
512.481	84
512.698	98
512.914	88
513.13	78
513.346	70
513.562	94
513.778	93
513.994	99
514.21	101
514.426	101
514.642	113
514.858	112
515.074	130
515.29	321
515.506	989
515.721	367
515.937	120
516.153	102
516.369	100
516.585	95
516.801	96
517.016	93
517.232	96
517.448	87
517.664	101
517.879	100
518.095	83
518.311	94
518.527	91
518.742	85
518.958	91
519.173	81
519.389	105
519.605	95
519.82	87
520.036	102
520.251	97
520.467	105
520.682	92
520.898	95
521.113	102
521.329	113
521.544	166
521.76	399
521.975	1552
522.19	938
522.406	231
522.621	107
522.836	89
523.052	84
523.267	87
523.482	114
523.698	98
523.913	106
524.128	102
524.343	85
524.559	91
524.774	84
524.989	92
525.204	94
525.419	99
525.634	96
525.849	93
526.064	70
526.28	100
526.495	78
526.71	97
526.925	91
527.14	104
527.355	99
527.57	95
527.785	89
527.999	93
528.214	85
528.429	79
528.644	93
528.859	96
529.074	86
529.289	115
529.503	132
529.718	98
529.933	96
530.148	79
530.363	88
530.577	74
530.792	91
531.007	89
531.221	95
531.436	86
531.651	103
531.865	89
532.08	83
532.295	82
532.509	90
532.724	96
532.938	93
533.153	89
533.367	96
533.582	84
533.796	82
534.011	89
534.225	80
534.44	93
534.654	78
534.868	94
535.083	88
535.297	88
535.511	87
535.726	105
535.94	112
536.154	91
536.369	98
536.583	93
536.797	86
537.011	96
537.225	88
537.44	89
537.654	90
537.868	79
538.082	76
538.296	81
538.51	89
538.724	76
538.938	98
539.153	88
539.367	94
539.581	84
539.795	84
540.009	86
540.222	90
540.436	86
540.65	82
540.864	80
541.078	84
541.292	104
541.506	86
541.72	82
541.934	85
542.147	81
542.361	90
542.575	79
542.789	78
543.002	79
543.216	80
543.43	83
543.644	90
543.857	75
544.071	85
544.285	78
544.498	93
544.712	83
544.925	89
545.139	83
545.352	83
545.566	80
545.779	71
545.993	87
546.206	105
546.42	86
546.633	76
546.847	92
547.06	76
547.274	89
547.487	92
547.7	87
547.914	96
548.127	95
548.34	85
548.554	89
548.767	89
548.98	103
549.193	84
549.407	87
549.62	91
549.833	75
550.046	90
550.259	83
550.473	73
550.686	91
550.899	94
551.112	87
551.325	84
551.538	80
551.751	88
551.964	82
552.177	91
552.39	74
552.603	95
552.816	90
553.029	88
553.242	82
553.455	104
553.667	85
553.88	92
554.093	76
554.306	87
554.519	89
554.732	102
554.944	91
555.157	92
555.37	95
555.583	82
555.795	91
556.008	93
556.221	97
556.433	80
556.646	97
556.859	102
557.071	82
557.284	89
557.496	86
557.709	82
557.921	90
558.134	84
558.346	94
558.559	98
558.771	88
558.984	91
559.196	87
559.409	80
559.621	75
559.833	88
560.046	85
560.258	76
560.47	81
560.683	80
560.895	104
561.107	76
561.32	90
561.532	97
561.744	101
561.956	83
562.168	88
562.381	92
562.593	94
562.805	93
563.017	102
563.229	86
563.441	77
563.653	95
563.865	95
564.077	88
564.289	96
564.501	95
564.713	87
564.925	97
565.137	93
565.349	82
565.561	73
565.773	82
565.985	88
566.197	80
566.408	79
566.62	93
566.832	93
567.044	87
567.255	80
567.467	79
567.679	91
567.891	91
568.102	77
568.314	80
568.526	76
568.737	77
568.949	70
569.161	86
569.372	81
569.584	80
569.795	87
570.007	108
570.218	200
570.43	126
570.641	89
570.853	81
571.064	79
571.276	80
571.487	95
571.698	79
571.91	95
572.121	102
572.333	87
572.544	81
572.755	84
572.966	85
573.178	97
573.389	88
573.6	86
573.811	82
574.023	90
574.234	70
574.445	84
574.656	85
574.867	93
575.078	81
575.289	71
575.501	96
575.712	92
575.923	78
576.134	79
576.345	68
576.556	79
576.767	87
576.978	100
577.188	79
577.399	102
577.61	88
577.821	86
578.032	99
578.243	210
578.454	533
578.665	177
578.875	99
579.086	88
579.297	94
579.508	82
579.718	82
579.929	92
580.14	91
580.35	90
580.561	96
580.772	88
580.982	98
581.193	101
581.403	78
581.614	89
581.825	80
582.035	91
582.246	106
582.456	80
582.667	77
582.877	94
583.087	74
583.298	86
583.508	82
583.719	69
583.929	89
584.139	85
584.35	86
584.56	102
584.77	91
584.981	77
585.191	87
585.401	78
585.611	85
585.821	90
586.032	90
586.242	87
586.452	70
586.662	78
586.872	81
