Data from Uncirc_1997_H10_HRD10591_00067.txt Node
Date: Wed Jan 03 11:28:44 EST 2024
User: Yrep
Spectrometer: HR+D1059
Trigger mode: 1
Integration Time (sec): 1.000000E-1
Scans to average: 1
Electric dark correction enabled: true
Nonlinearity correction enabled: false
Boxcar width: 0
XAxis mode: Wavelengths
Number of Pixels in Spectrum: 2048
>>>>>Begin Spectral Data<<<<<
223.165	-21.5
223.4	-21.5
223.635	-21.5
223.869	-8.5
224.104	-22.5
224.338	-17.5
224.573	-14.5
224.808	-11.5
225.042	7.5
225.277	-12.5
225.511	7.5
225.746	7.5
225.98	6.5
226.215	12.5
226.449	1.5
226.683	13.5
226.918	20.5
227.152	31.5
227.387	26.5
227.621	31.5
227.856	43.5
228.09	45.5
228.324	48.5
228.559	51.5
228.793	52.5
229.027	52.5
229.262	54.5
229.496	58.5
229.73	69.5
229.964	70.5
230.199	61.5
230.433	72.5
230.667	65.5
230.901	84.5
231.136	65.5
231.37	82.5
231.604	77.5
231.838	74.5
232.072	74.5
232.306	74.5
232.541	77.5
232.775	71.5
233.009	90.5
233.243	75.5
233.477	63.5
233.711	72.5
233.945	72.5
234.179	75.5
234.413	90.5
234.647	71.5
234.881	75.5
235.115	69.5
235.349	73.5
235.583	66.5
235.817	79.5
236.051	81.5
236.285	73.5
236.519	80.5
236.753	67.5
236.987	67.5
237.221	71.5
237.455	71.5
237.689	72.5
237.922	73.5
238.156	68.5
238.39	64.5
238.624	70.5
238.858	75.5
239.091	57.5
239.325	47.5
239.559	73.5
239.793	75.5
240.027	65.5
240.26	77.5
240.494	83.5
240.728	51.5
240.961	64.5
241.195	69.5
241.429	80.5
241.662	85.5
241.896	64.5
242.13	81.5
242.363	77.5
242.597	72.5
242.83	60.5
243.064	79.5
243.298	88.5
243.531	79.5
243.765	81.5
243.998	88.5
244.232	80.5
244.465	72.5
244.699	75.5
244.932	76.5
245.166	79.5
245.399	77.5
245.633	71.5
245.866	75.5
246.099	83.5
246.333	82.5
246.566	81.5
246.8	58.5
247.033	71.5
247.266	65.5
247.5	62.5
247.733	74.5
247.966	75.5
248.2	81.5
248.433	72.5
248.666	75.5
248.899	74.5
249.133	65.5
249.366	99.5
249.599	92.5
249.832	73.5
250.066	77.5
250.299	89.5
250.532	76.5
250.765	63.5
250.998	71.5
251.231	75.5
251.465	66.5
251.698	71.5
251.931	79.5
252.164	83.5
252.397	79.5
252.63	82.5
252.863	71.5
253.096	76.5
253.329	73.5
253.562	70.5
253.795	75.5
254.028	73.5
254.261	79.5
254.494	72.5
254.727	80.5
254.96	77.5
255.193	81.5
255.426	61.5
255.659	81.5
255.892	81.5
256.124	93.5
256.357	74.5
256.59	78.5
256.823	74.5
257.056	67.5
257.289	71.5
257.521	77.5
257.754	75.5
257.987	74.5
258.22	79.5
258.452	76.5
258.685	69.5
258.918	70.5
259.151	75.5
259.383	86.5
259.616	67.5
259.849	77.5
260.081	73.5
260.314	73.5
260.547	93.5
260.779	82.5
261.012	81.5
261.244	76.5
261.477	86.5
261.71	88.5
261.942	104.5
262.175	91.5
262.407	61.5
262.64	83.5
262.872	81.5
263.105	83.5
263.337	69.5
263.57	70.5
263.802	84.5
264.035	83.5
264.267	72.5
264.499	84.5
264.732	87.5
264.964	67.5
265.197	98.5
265.429	72.5
265.661	76.5
265.894	74.5
266.126	76.5
266.358	71.5
266.591	79.5
266.823	82.5
267.055	79.5
267.287	74.5
267.52	89.5
267.752	65.5
267.984	82.5
268.216	78.5
268.448	85.5
268.681	85.5
268.913	73.5
269.145	67.5
269.377	82.5
269.609	68.5
269.841	87.5
270.073	71.5
270.306	69.5
270.538	67.5
270.77	75.5
271.002	77.5
271.234	75.5
271.466	91.5
271.698	72.5
271.93	74.5
272.162	87.5
272.394	72.5
272.626	75.5
272.858	83.5
273.09	67.5
273.322	71.5
273.553	82.5
273.785	66.5
274.017	76.5
274.249	92.5
274.481	82.5
274.713	79.5
274.945	79.5
275.176	92.5
275.408	68.5
275.64	81.5
275.872	72.5
276.104	83.5
276.335	96.5
276.567	79.5
276.799	86.5
277.031	103.5
277.262	81.5
277.494	72.5
277.726	81.5
277.957	82.5
278.189	76.5
278.421	82.5
278.652	71.5
278.884	81.5
279.115	87.5
279.347	82.5
279.579	90.5
279.81	68.5
280.042	61.5
280.273	80.5
280.505	73.5
280.736	69.5
280.968	77.5
281.199	69.5
281.431	91.5
281.662	75.5
281.894	81.5
282.125	78.5
282.356	101.5
282.588	118.5
282.819	91.5
283.051	83.5
283.282	73.5
283.513	77.5
283.745	83.5
283.976	76.5
284.207	81.5
284.439	75.5
284.67	67.5
284.901	68.5
285.132	74.5
285.364	57.5
285.595	74.5
285.826	81.5
286.057	76.5
286.288	86.5
286.52	87.5
286.751	88.5
286.982	76.5
287.213	72.5
287.444	81.5
287.675	80.5
287.906	79.5
288.138	87.5
288.369	80.5
288.6	91.5
288.831	88.5
289.062	85.5
289.293	97.5
289.524	81.5
289.755	87.5
289.986	67.5
290.217	87.5
290.448	69.5
290.679	75.5
290.91	76.5
291.141	83.5
291.371	77.5
291.602	79.5
291.833	71.5
292.064	93.5
292.295	84.5
292.526	78.5
292.757	68.5
292.987	72.5
293.218	81.5
293.449	80.5
293.68	86.5
293.91	85.5
294.141	84.5
294.372	108.5
294.603	91.5
294.833	73.5
295.064	96.5
295.295	91.5
295.525	91.5
295.756	87.5
295.987	103.5
296.217	120.5
296.448	125.5
296.679	67.5
296.909	87.5
297.14	90.5
297.37	80.5
297.601	74.5
297.831	76.5
298.062	75.5
298.292	87.5
298.523	83.5
298.753	77.5
298.984	67.5
299.214	72.5
299.445	75.5
299.675	100.5
299.905	91.5
300.136	75.5
300.366	70.5
300.597	80.5
300.827	92.5
301.057	81.5
301.288	80.5
301.518	75.5
301.748	75.5
301.979	88.5
302.209	89.5
302.439	89.5
302.669	73.5
302.9	81.5
303.13	76.5
303.36	98.5
303.59	82.5
303.82	92.5
304.051	98.5
304.281	74.5
304.511	85.5
304.741	79.5
304.971	71.5
305.201	77.5
305.431	88.5
305.661	82.5
305.891	81.5
306.121	75.5
306.352	95.5
306.582	89.5
306.812	89.5
307.042	91.5
307.272	80.5
307.502	86.5
307.731	77.5
307.961	75.5
308.191	82.5
308.421	88.5
308.651	81.5
308.881	90.5
309.111	83.5
309.341	90.5
309.571	85.5
309.8	81.5
310.03	97.5
310.26	90.5
310.49	77.5
310.72	77.5
310.949	99.5
311.179	92.5
311.409	87.5
311.639	88.5
311.868	90.5
312.098	92.5
312.328	104.5
312.557	94.5
312.787	113.5
313.017	80.5
313.246	83.5
313.476	84.5
313.706	72.5
313.935	83.5
314.165	74.5
314.394	99.5
314.624	86.5
314.853	110.5
315.083	96.5
315.312	83.5
315.542	89.5
315.771	80.5
316.001	87.5
316.23	80.5
316.46	85.5
316.689	80.5
316.919	88.5
317.148	88.5
317.377	97.5
317.607	89.5
317.836	96.5
318.065	97.5
318.295	82.5
318.524	81.5
318.753	85.5
318.983	88.5
319.212	93.5
319.441	87.5
319.67	90.5
319.9	71.5
320.129	91.5
320.358	86.5
320.587	86.5
320.816	93.5
321.046	82.5
321.275	98.5
321.504	87.5
321.733	92.5
321.962	87.5
322.191	92.5
322.42	102.5
322.649	107.5
322.878	96.5
323.108	111.5
323.337	117.5
323.566	120.5
323.795	157.5
324.024	201.5
324.253	334.5
324.482	724.5
324.71	1401.5
324.939	1836.5
325.168	688.5
325.397	204.5
325.626	136.5
325.855	116.5
326.084	127.5
326.313	112.5
326.542	131.5
326.77	203.5
326.999	424.5
327.228	820.5
327.457	1452.5
327.686	1126.5
327.914	313.5
328.143	169.5
328.372	145.5
328.6	111.5
328.829	110.5
329.058	119.5
329.287	122.5
329.515	98.5
329.744	85.5
329.972	91.5
330.201	90.5
330.43	84.5
330.658	108.5
330.887	108.5
331.115	92.5
331.344	100.5
331.572	83.5
331.801	93.5
332.03	96.5
332.258	85.5
332.486	84.5
332.715	89.5
332.943	88.5
333.172	82.5
333.4	93.5
333.629	79.5
333.857	97.5
334.085	96.5
334.314	86.5
334.542	87.5
334.771	78.5
334.999	94.5
335.227	81.5
335.455	78.5
335.684	99.5
335.912	84.5
336.14	73.5
336.369	68.5
336.597	74.5
336.825	79.5
337.053	89.5
337.281	88.5
337.51	72.5
337.738	80.5
337.966	97.5
338.194	82.5
338.422	82.5
338.65	79.5
338.878	83.5
339.106	77.5
339.334	82.5
339.562	88.5
339.79	75.5
340.018	77.5
340.246	87.5
340.474	89.5
340.702	68.5
340.93	84.5
341.158	79.5
341.386	90.5
341.614	83.5
341.842	81.5
342.07	93.5
342.298	77.5
342.526	96.5
342.754	79.5
342.981	79.5
343.209	90.5
343.437	92.5
343.665	79.5
343.893	78.5
344.12	88.5
344.348	84.5
344.576	83.5
344.804	85.5
345.031	102.5
345.259	90.5
345.487	68.5
345.714	81.5
345.942	90.5
346.17	84.5
346.397	83.5
346.625	90.5
346.853	82.5
347.08	76.5
347.308	79.5
347.535	95.5
347.763	98.5
347.99	93.5
348.218	89.5
348.445	94.5
348.673	85.5
348.9	78.5
349.128	101.5
349.355	104.5
349.583	90.5
349.81	86.5
350.037	86.5
350.265	99.5
350.492	85.5
350.72	84.5
350.947	92.5
351.174	105.5
351.402	105.5
351.629	98.5
351.856	85.5
352.083	82.5
352.311	100.5
352.538	93.5
352.765	89.5
352.992	105.5
353.22	99.5
353.447	98.5
353.674	87.5
353.901	92.5
354.128	83.5
354.355	91.5
354.583	91.5
354.81	92.5
355.037	81.5
355.264	87.5
355.491	85.5
355.718	88.5
355.945	87.5
356.172	87.5
356.399	88.5
356.626	95.5
356.853	90.5
357.08	87.5
357.307	84.5
357.534	76.5
357.761	67.5
357.988	88.5
358.215	81.5
358.441	89.5
358.668	88.5
358.895	82.5
359.122	74.5
359.349	68.5
359.576	76.5
359.802	106.5
360.029	113.5
360.256	108.5
360.483	87.5
360.709	86.5
360.936	87.5
361.163	94.5
361.39	74.5
361.616	76.5
361.843	84.5
362.07	98.5
362.296	91.5
362.523	83.5
362.749	103.5
362.976	76.5
363.203	89.5
363.429	88.5
363.656	81.5
363.882	86.5
364.109	87.5
364.335	71.5
364.562	76.5
364.788	87.5
365.015	83.5
365.241	94.5
365.468	74.5
365.694	96.5
365.92	73.5
366.147	90.5
366.373	77.5
366.599	76.5
366.826	73.5
367.052	82.5
367.278	87.5
367.505	83.5
367.731	89.5
367.957	89.5
368.184	83.5
368.41	82.5
368.636	96.5
368.862	123.5
369.089	82.5
369.315	91.5
369.541	76.5
369.767	89.5
369.993	67.5
370.219	86.5
370.445	72.5
370.672	78.5
370.898	88.5
371.124	82.5
371.35	88.5
371.576	85.5
371.802	88.5
372.028	64.5
372.254	77.5
372.48	88.5
372.706	88.5
372.932	84.5
373.158	79.5
373.384	82.5
373.61	77.5
373.835	68.5
374.061	73.5
374.287	96.5
374.513	85.5
374.739	95.5
374.965	81.5
375.191	69.5
375.416	90.5
375.642	81.5
375.868	90.5
376.094	73.5
376.319	91.5
376.545	78.5
376.771	84.5
376.997	84.5
377.222	78.5
377.448	65.5
377.674	75.5
377.899	72.5
378.125	74.5
378.35	89.5
378.576	87.5
378.802	92.5
379.027	77.5
379.253	76.5
379.478	87.5
379.704	94.5
379.929	98.5
380.155	102.5
380.38	88.5
380.606	73.5
380.831	83.5
381.057	99.5
381.282	84.5
381.507	79.5
381.733	88.5
381.958	84.5
382.184	84.5
382.409	91.5
382.634	77.5
382.86	93.5
383.085	92.5
383.31	94.5
383.535	93.5
383.761	85.5
383.986	80.5
384.211	74.5
384.436	82.5
384.662	75.5
384.887	79.5
385.112	90.5
385.337	94.5
385.562	87.5
385.787	98.5
386.013	108.5
386.238	103.5
386.463	84.5
386.688	101.5
386.913	88.5
387.138	83.5
387.363	93.5
387.588	70.5
387.813	92.5
388.038	90.5
388.263	104.5
388.488	95.5
388.713	81.5
388.938	96.5
389.163	83.5
389.387	85.5
389.612	84.5
389.837	73.5
390.062	89.5
390.287	66.5
390.512	84.5
390.736	87.5
390.961	83.5
391.186	69.5
391.411	89.5
391.636	86.5
391.86	100.5
392.085	92.5
392.31	80.5
392.534	80.5
392.759	97.5
392.984	81.5
393.208	87.5
393.433	78.5
393.658	77.5
393.882	72.5
394.107	87.5
394.331	78.5
394.556	74.5
394.78	64.5
395.005	81.5
395.229	76.5
395.454	75.5
395.678	76.5
395.903	89.5
396.127	97.5
396.352	90.5
396.576	89.5
396.801	96.5
397.025	80.5
397.249	82.5
397.474	84.5
397.698	74.5
397.922	81.5
398.147	83.5
398.371	71.5
398.595	85.5
398.82	72.5
399.044	87.5
399.268	72.5
399.492	80.5
399.717	88.5
399.941	82.5
400.165	103.5
400.389	93.5
400.613	67.5
400.837	82.5
401.062	77.5
401.286	73.5
401.51	90.5
401.734	74.5
401.958	73.5
402.182	100.5
402.406	143.5
402.63	97.5
402.854	86.5
403.078	76.5
403.302	80.5
403.526	88.5
403.75	90.5
403.974	76.5
404.198	93.5
404.422	70.5
404.645	84.5
404.869	96.5
405.093	93.5
405.317	80.5
405.541	93.5
405.765	96.5
405.988	98.5
406.212	161.5
406.436	197.5
406.66	120.5
406.883	75.5
407.107	90.5
407.331	85.5
407.555	90.5
407.778	81.5
408.002	85.5
408.226	93.5
408.449	61.5
408.673	85.5
408.896	84.5
409.12	85.5
409.344	79.5
409.567	86.5
409.791	79.5
410.014	84.5
410.238	74.5
410.461	88.5
410.685	75.5
410.908	83.5
411.132	88.5
411.355	78.5
411.578	90.5
411.802	84.5
412.025	82.5
412.249	84.5
412.472	69.5
412.695	79.5
412.919	68.5
413.142	79.5
413.365	90.5
413.589	69.5
413.812	78.5
414.035	89.5
414.258	84.5
414.482	94.5
414.705	83.5
414.928	92.5
415.151	80.5
415.374	89.5
415.597	81.5
415.821	81.5
416.044	76.5
416.267	88.5
416.49	76.5
416.713	87.5
416.936	69.5
417.159	76.5
417.382	81.5
417.605	82.5
417.828	79.5
418.051	89.5
418.274	92.5
418.497	76.5
418.72	76.5
418.943	88.5
419.166	86.5
419.389	87.5
419.611	84.5
419.834	80.5
420.057	86.5
420.28	67.5
420.503	93.5
420.726	87.5
420.948	76.5
421.171	83.5
421.394	93.5
421.617	96.5
421.839	87.5
422.062	90.5
422.285	85.5
422.507	108.5
422.73	103.5
422.953	97.5
423.175	74.5
423.398	86.5
423.621	76.5
423.843	78.5
424.066	81.5
424.288	57.5
424.511	81.5
424.733	90.5
424.956	71.5
425.178	95.5
425.401	111.5
425.623	90.5
425.846	89.5
426.068	65.5
426.291	76.5
426.513	83.5
426.735	89.5
426.958	103.5
427.18	83.5
427.402	132.5
427.625	143.5
427.847	111.5
428.069	80.5
428.292	77.5
428.514	66.5
428.736	89.5
428.958	77.5
429.181	91.5
429.403	79.5
429.625	81.5
429.847	80.5
430.069	92.5
430.292	79.5
430.514	72.5
430.736	82.5
430.958	88.5
431.18	79.5
431.402	77.5
431.624	82.5
431.846	81.5
432.068	68.5
432.29	82.5
432.512	77.5
432.734	85.5
432.956	80.5
433.178	90.5
433.4	92.5
433.622	80.5
433.844	65.5
434.066	80.5
434.287	79.5
434.509	93.5
434.731	92.5
434.953	90.5
435.175	76.5
435.397	79.5
435.618	92.5
435.84	92.5
436.062	107.5
436.284	115.5
436.505	89.5
436.727	95.5
436.949	82.5
437.17	80.5
437.392	72.5
437.614	80.5
437.835	84.5
438.057	97.5
438.278	103.5
438.5	90.5
438.721	115.5
438.943	88.5
439.165	74.5
439.386	71.5
439.608	90.5
439.829	80.5
440.05	105.5
440.272	115.5
440.493	84.5
440.715	83.5
440.936	74.5
441.158	80.5
441.379	73.5
441.6	75.5
441.822	90.5
442.043	74.5
442.264	92.5
442.486	91.5
442.707	80.5
442.928	84.5
443.149	117.5
443.371	104.5
443.592	109.5
443.813	96.5
444.034	96.5
444.255	75.5
444.476	81.5
444.698	80.5
444.919	80.5
445.14	120.5
445.361	114.5
445.582	110.5
445.803	109.5
446.024	106.5
446.245	117.5
446.466	95.5
446.687	93.5
446.908	74.5
447.129	84.5
447.35	68.5
447.571	97.5
447.792	80.5
448.013	88.5
448.234	86.5
448.455	85.5
448.675	94.5
448.896	103.5
449.117	93.5
449.338	90.5
449.559	99.5
449.779	123.5
450	82.5
450.221	87.5
450.442	73.5
450.662	87.5
450.883	103.5
451.104	93.5
451.324	68.5
451.545	77.5
451.766	88.5
451.986	83.5
452.207	78.5
452.428	90.5
452.648	86.5
452.869	110.5
453.089	79.5
453.31	111.5
453.53	89.5
453.751	97.5
453.971	90.5
454.192	88.5
454.412	64.5
454.633	85.5
454.853	87.5
455.073	65.5
455.294	75.5
455.514	91.5
455.734	68.5
455.955	80.5
456.175	87.5
456.395	84.5
456.616	76.5
456.836	87.5
457.056	81.5
457.276	72.5
457.497	71.5
457.717	72.5
457.937	77.5
458.157	80.5
458.377	75.5
458.598	100.5
458.818	132.5
459.038	149.5
459.258	115.5
459.478	72.5
459.698	77.5
459.918	76.5
460.138	87.5
460.358	75.5
460.578	80.5
460.798	78.5
461.018	94.5
461.238	84.5
461.458	93.5
461.678	73.5
461.898	73.5
462.118	83.5
462.338	76.5
462.558	91.5
462.777	79.5
462.997	74.5
463.217	74.5
463.437	78.5
463.657	78.5
463.876	80.5
464.096	77.5
464.316	91.5
464.536	92.5
464.755	82.5
464.975	96.5
465.195	125.5
465.414	153.5
465.634	76.5
465.854	88.5
466.073	70.5
466.293	83.5
466.512	60.5
466.732	76.5
466.951	81.5
467.171	73.5
467.391	83.5
467.61	93.5
467.829	81.5
468.049	83.5
468.268	85.5
468.488	79.5
468.707	79.5
468.927	69.5
469.146	69.5
469.365	97.5
469.585	67.5
469.804	82.5
470.023	65.5
470.243	78.5
470.462	98.5
470.681	106.5
470.901	88.5
471.12	84.5
471.339	83.5
471.558	87.5
471.777	85.5
471.997	94.5
472.216	84.5
472.435	83.5
472.654	82.5
472.873	89.5
473.092	90.5
473.311	70.5
473.53	67.5
473.749	80.5
473.968	87.5
474.187	90.5
474.406	89.5
474.625	73.5
474.844	76.5
475.063	77.5
475.282	78.5
475.501	82.5
475.72	69.5
475.939	83.5
476.158	76.5
476.377	90.5
476.596	82.5
476.814	89.5
477.033	97.5
477.252	74.5
477.471	91.5
477.69	79.5
477.908	82.5
478.127	90.5
478.346	85.5
478.564	72.5
478.783	89.5
479.002	84.5
479.22	81.5
479.439	92.5
479.658	89.5
479.876	80.5
480.095	72.5
480.313	70.5
480.532	91.5
480.751	83.5
480.969	96.5
481.188	112.5
481.406	100.5
481.624	94.5
481.843	73.5
482.061	79.5
482.28	85.5
482.498	89.5
482.717	81.5
482.935	76.5
483.153	79.5
483.372	82.5
483.59	86.5
483.808	90.5
484.027	84.5
484.245	81.5
484.463	84.5
484.681	85.5
484.9	91.5
485.118	89.5
485.336	95.5
485.554	89.5
485.772	70.5
485.99	101.5
486.209	97.5
486.427	82.5
486.645	103.5
486.863	99.5
487.081	88.5
487.299	89.5
487.517	81.5
487.735	78.5
487.953	86.5
488.171	86.5
488.389	69.5
488.607	90.5
488.825	78.5
489.043	97.5
489.261	92.5
489.479	81.5
489.696	85.5
489.914	90.5
490.132	91.5
490.35	71.5
490.568	73.5
490.786	91.5
491.003	75.5
491.221	85.5
491.439	85.5
491.657	75.5
491.874	81.5
492.092	65.5
492.31	87.5
492.527	88.5
492.745	83.5
492.963	97.5
493.18	89.5
493.398	87.5
493.615	88.5
493.833	92.5
494.05	81.5
494.268	79.5
494.485	90.5
494.703	88.5
494.92	81.5
495.138	77.5
495.355	89.5
495.573	84.5
495.79	85.5
496.008	93.5
496.225	111.5
496.442	83.5
496.66	93.5
496.877	86.5
497.094	80.5
497.312	88.5
497.529	83.5
497.746	79.5
497.963	100.5
498.181	82.5
498.398	83.5
498.615	96.5
498.832	82.5
499.049	70.5
499.267	88.5
499.484	80.5
499.701	94.5
499.918	73.5
500.135	68.5
500.352	81.5
500.569	80.5
500.786	82.5
501.003	88.5
501.22	77.5
501.437	78.5
501.654	83.5
501.871	81.5
502.088	89.5
502.305	72.5
502.522	94.5
502.739	92.5
502.956	79.5
503.172	92.5
503.389	97.5
503.606	101.5
503.823	84.5
504.04	90.5
504.256	79.5
504.473	84.5
504.69	84.5
504.907	75.5
505.123	98.5
505.34	86.5
505.557	81.5
505.773	79.5
505.99	79.5
506.207	80.5
506.423	75.5
506.64	79.5
506.856	87.5
507.073	84.5
507.289	85.5
507.506	69.5
507.722	93.5
507.939	120.5
508.155	86.5
508.372	79.5
508.588	89.5
508.805	96.5
509.021	92.5
509.238	106.5
509.454	99.5
509.67	102.5
509.887	103.5
510.103	121.5
510.319	173.5
510.536	652.5
510.752	1963.5
510.968	557.5
511.184	151.5
511.401	99.5
511.617	113.5
511.833	94.5
512.049	95.5
512.265	82.5
512.481	75.5
512.698	83.5
512.914	84.5
513.13	84.5
513.346	89.5
513.562	100.5
513.778	95.5
513.994	80.5
514.21	84.5
514.426	99.5
514.642	105.5
514.858	116.5
515.074	148.5
515.29	387.5
515.506	1196.5
515.721	440.5
515.937	140.5
516.153	102.5
516.369	95.5
516.585	86.5
516.801	91.5
517.016	85.5
517.232	79.5
517.448	83.5
517.664	87.5
517.879	81.5
518.095	84.5
518.311	95.5
518.527	84.5
518.742	97.5
518.958	87.5
519.173	81.5
519.389	92.5
519.605	103.5
519.82	95.5
520.036	93.5
520.251	102.5
520.467	91.5
520.682	90.5
520.898	105.5
521.113	102.5
521.329	132.5
521.544	179.5
521.76	487.5
521.975	2055.5
522.19	1202.5
522.406	257.5
522.621	110.5
522.836	92.5
523.052	84.5
523.267	89.5
523.482	94.5
523.698	111.5
523.913	117.5
524.128	102.5
524.343	82.5
524.559	103.5
524.774	83.5
524.989	86.5
525.204	95.5
525.419	90.5
525.634	80.5
525.849	86.5
526.064	73.5
526.28	85.5
526.495	77.5
526.71	82.5
526.925	79.5
527.14	82.5
527.355	77.5
527.57	74.5
527.785	98.5
527.999	77.5
528.214	90.5
528.429	91.5
528.644	81.5
528.859	77.5
529.074	81.5
529.289	109.5
529.503	125.5
529.718	95.5
529.933	75.5
530.148	76.5
530.363	91.5
530.577	93.5
530.792	82.5
531.007	77.5
531.221	89.5
531.436	83.5
531.651	92.5
531.865	79.5
532.08	80.5
532.295	86.5
532.509	87.5
532.724	89.5
532.938	85.5
533.153	97.5
533.367	86.5
533.582	83.5
533.796	90.5
534.011	90.5
534.225	83.5
534.44	80.5
534.654	94.5
534.868	77.5
535.083	91.5
535.297	68.5
535.511	101.5
535.726	97.5
535.94	94.5
536.154	84.5
536.369	84.5
536.583	88.5
536.797	80.5
537.011	78.5
537.225	93.5
537.44	78.5
537.654	89.5
537.868	83.5
538.082	76.5
538.296	94.5
