Data from Uncirc_1997_H10_HRD10591_00089.txt Node
Date: Wed Jan 03 11:28:48 EST 2024
User: Yrep
Spectrometer: HR+D1059
Trigger mode: 1
Integration Time (sec): 1.000000E-1
Scans to average: 1
Electric dark correction enabled: true
Nonlinearity correction enabled: false
Boxcar width: 0
XAxis mode: Wavelengths
Number of Pixels in Spectrum: 2048
>>>>>Begin Spectral Data<<<<<
223.165	-24.75
223.4	-24.75
223.635	-24.75
223.869	-11.75
224.104	-18.75
224.338	-31.75
224.573	-10.75
224.808	-5.75
225.042	-20.75
225.277	-0.75
225.511	-1.75
225.746	8.25
225.98	13.25
226.215	23.25
226.449	9.25
226.683	14.25
226.918	27.25
227.152	31.25
227.387	27.25
227.621	27.25
227.856	48.25
228.09	48.25
228.324	40.25
228.559	53.25
228.793	46.25
229.027	64.25
229.262	65.25
229.496	69.25
229.73	67.25
229.964	64.25
230.199	71.25
230.433	87.25
230.667	77.25
230.901	75.25
231.136	78.25
231.37	81.25
231.604	75.25
231.838	76.25
232.072	78.25
232.306	71.25
232.541	71.25
232.775	72.25
233.009	72.25
233.243	81.25
233.477	74.25
233.711	68.25
233.945	70.25
234.179	95.25
234.413	79.25
234.647	76.25
234.881	73.25
235.115	89.25
235.349	68.25
235.583	64.25
235.817	74.25
236.051	75.25
236.285	68.25
236.519	69.25
236.753	80.25
236.987	62.25
237.221	84.25
237.455	81.25
237.689	85.25
237.922	68.25
238.156	86.25
238.39	77.25
238.624	65.25
238.858	72.25
239.091	84.25
239.325	80.25
239.559	71.25
239.793	81.25
240.027	79.25
240.26	68.25
240.494	81.25
240.728	63.25
240.961	73.25
241.195	83.25
241.429	72.25
241.662	68.25
241.896	68.25
242.13	64.25
242.363	72.25
242.597	86.25
242.83	71.25
243.064	73.25
243.298	79.25
243.531	73.25
243.765	75.25
243.998	86.25
244.232	91.25
244.465	74.25
244.699	79.25
244.932	79.25
245.166	65.25
245.399	72.25
245.633	84.25
245.866	81.25
246.099	76.25
246.333	68.25
246.566	68.25
246.8	54.25
247.033	77.25
247.266	93.25
247.5	79.25
247.733	84.25
247.966	61.25
248.2	79.25
248.433	80.25
248.666	76.25
248.899	93.25
249.133	84.25
249.366	79.25
249.599	88.25
249.832	78.25
250.066	70.25
250.299	85.25
250.532	67.25
250.765	73.25
250.998	90.25
251.231	77.25
251.465	74.25
251.698	95.25
251.931	72.25
252.164	78.25
252.397	71.25
252.63	73.25
252.863	86.25
253.096	70.25
253.329	71.25
253.562	71.25
253.795	64.25
254.028	81.25
254.261	72.25
254.494	89.25
254.727	90.25
254.96	72.25
255.193	63.25
255.426	83.25
255.659	75.25
255.892	72.25
256.124	81.25
256.357	56.25
256.59	70.25
256.823	94.25
257.056	82.25
257.289	74.25
257.521	90.25
257.754	75.25
257.987	83.25
258.22	69.25
258.452	71.25
258.685	80.25
258.918	81.25
259.151	72.25
259.383	97.25
259.616	78.25
259.849	82.25
260.081	76.25
260.314	65.25
260.547	67.25
260.779	78.25
261.012	73.25
261.244	81.25
261.477	74.25
261.71	95.25
261.942	97.25
262.175	103.25
262.407	99.25
262.64	63.25
262.872	66.25
263.105	89.25
263.337	73.25
263.57	76.25
263.802	72.25
264.035	84.25
264.267	88.25
264.499	79.25
264.732	67.25
264.964	69.25
265.197	72.25
265.429	78.25
265.661	77.25
265.894	96.25
266.126	71.25
266.358	82.25
266.591	95.25
266.823	86.25
267.055	75.25
267.287	76.25
267.52	82.25
267.752	73.25
267.984	89.25
268.216	83.25
268.448	78.25
268.681	87.25
268.913	70.25
269.145	66.25
269.377	81.25
269.609	81.25
269.841	87.25
270.073	89.25
270.306	72.25
270.538	78.25
270.77	74.25
271.002	72.25
271.234	83.25
271.466	88.25
271.698	82.25
271.93	70.25
272.162	103.25
272.394	84.25
272.626	79.25
272.858	85.25
273.09	73.25
273.322	90.25
273.553	83.25
273.785	92.25
274.017	70.25
274.249	70.25
274.481	57.25
274.713	86.25
274.945	93.25
275.176	77.25
275.408	84.25
275.64	86.25
275.872	76.25
276.104	74.25
276.335	109.25
276.567	84.25
276.799	104.25
277.031	104.25
277.262	83.25
277.494	84.25
277.726	65.25
277.957	88.25
278.189	76.25
278.421	76.25
278.652	79.25
278.884	87.25
279.115	77.25
279.347	74.25
279.579	76.25
279.81	87.25
280.042	87.25
280.273	79.25
280.505	98.25
280.736	81.25
280.968	86.25
281.199	78.25
281.431	77.25
281.662	79.25
281.894	89.25
282.125	105.25
282.356	106.25
282.588	141.25
282.819	110.25
283.051	85.25
283.282	88.25
283.513	100.25
283.745	92.25
283.976	92.25
284.207	77.25
284.439	88.25
284.67	85.25
284.901	85.25
285.132	71.25
285.364	75.25
285.595	77.25
285.826	93.25
286.057	78.25
286.288	76.25
286.52	75.25
286.751	85.25
286.982	87.25
287.213	99.25
287.444	77.25
287.675	83.25
287.906	89.25
288.138	94.25
288.369	100.25
288.6	92.25
288.831	71.25
289.062	80.25
289.293	80.25
289.524	87.25
289.755	83.25
289.986	65.25
290.217	88.25
290.448	96.25
290.679	79.25
290.91	75.25
291.141	86.25
291.371	83.25
291.602	73.25
291.833	72.25
292.064	95.25
292.295	91.25
292.526	69.25
292.757	97.25
292.987	101.25
293.218	91.25
293.449	95.25
293.68	86.25
293.91	90.25
294.141	87.25
294.372	79.25
294.603	101.25
294.833	87.25
295.064	81.25
295.295	93.25
295.525	91.25
295.756	101.25
295.987	109.25
296.217	134.25
296.448	120.25
296.679	95.25
296.909	97.25
297.14	92.25
297.37	88.25
297.601	76.25
297.831	87.25
298.062	82.25
298.292	89.25
298.523	83.25
298.753	86.25
298.984	97.25
299.214	90.25
299.445	92.25
299.675	102.25
299.905	70.25
300.136	79.25
300.366	75.25
300.597	88.25
300.827	97.25
301.057	104.25
301.288	99.25
301.518	96.25
301.748	76.25
301.979	104.25
302.209	88.25
302.439	85.25
302.669	70.25
302.9	84.25
303.13	65.25
303.36	79.25
303.59	87.25
303.82	106.25
304.051	94.25
304.281	84.25
304.511	95.25
304.741	96.25
304.971	79.25
305.201	92.25
305.431	77.25
305.661	87.25
305.891	89.25
306.121	100.25
306.352	111.25
306.582	97.25
306.812	97.25
307.042	91.25
307.272	86.25
307.502	95.25
307.731	100.25
307.961	89.25
308.191	93.25
308.421	94.25
308.651	84.25
308.881	82.25
309.111	95.25
309.341	90.25
309.571	98.25
309.8	97.25
310.03	92.25
310.26	101.25
310.49	96.25
310.72	94.25
310.949	104.25
311.179	97.25
311.409	84.25
311.639	86.25
311.868	91.25
312.098	84.25
312.328	92.25
312.557	89.25
312.787	91.25
313.017	96.25
313.246	94.25
313.476	95.25
313.706	93.25
313.935	88.25
314.165	92.25
314.394	101.25
314.624	87.25
314.853	99.25
315.083	96.25
315.312	80.25
315.542	87.25
315.771	85.25
316.001	98.25
316.23	95.25
316.46	86.25
316.689	90.25
316.919	92.25
317.148	93.25
317.377	85.25
317.607	89.25
317.836	84.25
318.065	92.25
318.295	102.25
318.524	103.25
318.753	80.25
318.983	96.25
319.212	86.25
319.441	104.25
319.67	93.25
319.9	83.25
320.129	90.25
320.358	100.25
320.587	98.25
320.816	79.25
321.046	85.25
321.275	91.25
321.504	95.25
321.733	108.25
321.962	85.25
322.191	99.25
322.42	93.25
322.649	110.25
322.878	115.25
323.108	96.25
323.337	110.25
323.566	137.25
323.795	147.25
324.024	207.25
324.253	375.25
324.482	783.25
324.71	1583.25
324.939	2131.25
325.168	777.25
325.397	233.25
325.626	133.25
325.855	129.25
326.084	122.25
326.313	144.25
326.542	151.25
326.77	209.25
326.999	430.25
327.228	904.25
327.457	1607.25
327.686	1270.25
327.914	338.25
328.143	174.25
328.372	142.25
328.6	111.25
328.829	112.25
329.058	116.25
329.287	117.25
329.515	102.25
329.744	110.25
329.972	98.25
330.201	99.25
330.43	92.25
330.658	116.25
330.887	116.25
331.115	118.25
331.344	89.25
331.572	99.25
331.801	100.25
332.03	104.25
332.258	91.25
332.486	91.25
332.715	87.25
332.943	91.25
333.172	103.25
333.4	94.25
333.629	101.25
333.857	90.25
334.085	110.25
334.314	91.25
334.542	89.25
334.771	89.25
334.999	96.25
335.227	100.25
335.455	88.25
335.684	94.25
335.912	84.25
336.14	100.25
336.369	79.25
336.597	87.25
336.825	93.25
337.053	81.25
337.281	74.25
337.51	80.25
337.738	104.25
337.966	86.25
338.194	93.25
338.422	92.25
338.65	89.25
338.878	91.25
339.106	89.25
339.334	87.25
339.562	71.25
339.79	96.25
340.018	77.25
340.246	80.25
340.474	69.25
340.702	91.25
340.93	85.25
341.158	89.25
341.386	87.25
341.614	91.25
341.842	88.25
342.07	70.25
342.298	87.25
342.526	87.25
342.754	83.25
342.981	88.25
343.209	88.25
343.437	107.25
343.665	94.25
343.893	99.25
344.12	85.25
344.348	84.25
344.576	93.25
344.804	96.25
345.031	93.25
345.259	86.25
345.487	79.25
345.714	79.25
345.942	81.25
346.17	91.25
346.397	94.25
346.625	90.25
346.853	78.25
347.08	92.25
347.308	91.25
347.535	78.25
347.763	102.25
347.99	94.25
348.218	97.25
348.445	101.25
348.673	102.25
348.9	81.25
349.128	84.25
349.355	87.25
349.583	91.25
349.81	86.25
350.037	85.25
350.265	79.25
350.492	88.25
350.72	104.25
350.947	90.25
351.174	112.25
351.402	109.25
351.629	105.25
351.856	93.25
352.083	107.25
352.311	87.25
352.538	112.25
352.765	107.25
352.992	104.25
353.22	105.25
353.447	96.25
353.674	93.25
353.901	98.25
354.128	103.25
354.355	99.25
354.583	89.25
354.81	95.25
355.037	110.25
355.264	94.25
355.491	83.25
355.718	100.25
355.945	86.25
356.172	103.25
356.399	82.25
356.626	89.25
356.853	103.25
357.08	90.25
357.307	96.25
357.534	89.25
357.761	90.25
357.988	99.25
358.215	93.25
358.441	79.25
358.668	77.25
358.895	87.25
359.122	80.25
359.349	83.25
359.576	83.25
359.802	102.25
360.029	98.25
360.256	111.25
360.483	98.25
360.709	80.25
360.936	85.25
361.163	79.25
361.39	84.25
361.616	90.25
361.843	98.25
362.07	94.25
362.296	79.25
362.523	86.25
362.749	73.25
362.976	81.25
363.203	98.25
363.429	75.25
363.656	73.25
363.882	76.25
364.109	89.25
364.335	101.25
364.562	91.25
364.788	82.25
365.015	88.25
365.241	113.25
365.468	109.25
365.694	95.25
365.92	97.25
366.147	80.25
366.373	86.25
366.599	78.25
366.826	73.25
367.052	80.25
367.278	81.25
367.505	85.25
367.731	92.25
367.957	92.25
368.184	85.25
368.41	94.25
368.636	91.25
368.862	121.25
369.089	106.25
369.315	86.25
369.541	85.25
369.767	82.25
369.993	88.25
370.219	95.25
370.445	68.25
370.672	101.25
370.898	96.25
371.124	96.25
371.35	77.25
371.576	78.25
371.802	88.25
372.028	88.25
372.254	88.25
372.48	79.25
372.706	73.25
372.932	60.25
373.158	87.25
373.384	93.25
373.61	79.25
373.835	92.25
374.061	80.25
374.287	80.25
374.513	87.25
374.739	75.25
374.965	88.25
375.191	95.25
375.416	87.25
375.642	82.25
375.868	81.25
376.094	81.25
376.319	98.25
376.545	84.25
376.771	89.25
376.997	79.25
377.222	100.25
377.448	89.25
377.674	87.25
377.899	95.25
378.125	82.25
378.35	84.25
378.576	83.25
378.802	91.25
379.027	86.25
379.253	86.25
379.478	87.25
379.704	88.25
379.929	100.25
380.155	86.25
380.38	87.25
380.606	80.25
380.831	92.25
381.057	103.25
381.282	81.25
381.507	100.25
381.733	96.25
381.958	97.25
382.184	80.25
382.409	89.25
382.634	90.25
382.86	97.25
383.085	96.25
383.31	99.25
383.535	90.25
383.761	97.25
383.986	94.25
384.211	94.25
384.436	102.25
384.662	96.25
384.887	105.25
385.112	107.25
385.337	92.25
385.562	98.25
385.787	87.25
386.013	100.25
386.238	86.25
386.463	94.25
386.688	106.25
386.913	96.25
387.138	101.25
387.363	95.25
387.588	110.25
387.813	84.25
388.038	100.25
388.263	110.25
388.488	92.25
388.713	99.25
388.938	100.25
389.163	86.25
389.387	79.25
389.612	99.25
389.837	104.25
390.062	84.25
390.287	73.25
390.512	81.25
390.736	81.25
390.961	92.25
391.186	89.25
391.411	84.25
391.636	78.25
391.86	90.25
392.085	100.25
392.31	76.25
392.534	87.25
392.759	73.25
392.984	76.25
393.208	88.25
393.433	85.25
393.658	77.25
393.882	83.25
394.107	71.25
394.331	72.25
394.556	78.25
394.78	82.25
395.005	87.25
395.229	74.25
395.454	93.25
395.678	91.25
395.903	83.25
396.127	91.25
396.352	83.25
396.576	89.25
396.801	74.25
397.025	75.25
397.249	77.25
397.474	76.25
397.698	93.25
397.922	91.25
398.147	92.25
398.371	87.25
398.595	78.25
398.82	73.25
399.044	95.25
399.268	71.25
399.492	81.25
399.717	86.25
399.941	78.25
400.165	83.25
400.389	69.25
400.613	82.25
400.837	96.25
401.062	84.25
401.286	88.25
401.51	80.25
401.734	100.25
401.958	94.25
402.182	112.25
402.406	133.25
402.63	102.25
402.854	91.25
403.078	87.25
403.302	98.25
403.526	84.25
403.75	93.25
403.974	77.25
404.198	81.25
404.422	84.25
404.645	88.25
404.869	90.25
405.093	88.25
405.317	82.25
405.541	92.25
405.765	102.25
405.988	117.25
406.212	135.25
406.436	209.25
406.66	132.25
406.883	110.25
407.107	100.25
407.331	90.25
407.555	100.25
407.778	92.25
408.002	65.25
408.226	81.25
408.449	77.25
408.673	83.25
408.896	94.25
409.12	90.25
409.344	89.25
409.567	93.25
409.791	95.25
410.014	95.25
410.238	84.25
410.461	86.25
410.685	89.25
410.908	84.25
411.132	93.25
411.355	111.25
411.578	107.25
411.802	93.25
412.025	81.25
412.249	101.25
412.472	77.25
412.695	85.25
412.919	85.25
413.142	84.25
413.365	80.25
413.589	84.25
413.812	89.25
414.035	78.25
414.258	73.25
414.482	94.25
414.705	89.25
414.928	67.25
415.151	81.25
415.374	98.25
415.597	83.25
415.821	82.25
416.044	80.25
416.267	88.25
416.49	81.25
416.713	80.25
416.936	82.25
417.159	87.25
417.382	89.25
417.605	72.25
417.828	104.25
418.051	99.25
418.274	93.25
418.497	75.25
418.72	73.25
418.943	84.25
419.166	87.25
419.389	88.25
419.611	87.25
419.834	83.25
420.057	79.25
420.28	82.25
420.503	78.25
420.726	80.25
420.948	85.25
421.171	86.25
421.394	84.25
421.617	81.25
421.839	89.25
422.062	68.25
422.285	71.25
422.507	104.25
422.73	106.25
422.953	103.25
423.175	92.25
423.398	92.25
423.621	80.25
423.843	89.25
424.066	81.25
424.288	71.25
424.511	74.25
424.733	92.25
424.956	99.25
425.178	86.25
425.401	100.25
425.623	78.25
425.846	86.25
426.068	85.25
426.291	83.25
426.513	89.25
426.735	85.25
426.958	88.25
427.18	108.25
427.402	132.25
427.625	141.25
427.847	130.25
428.069	100.25
428.292	109.25
428.514	100.25
428.736	75.25
428.958	84.25
429.181	90.25
429.403	74.25
429.625	73.25
429.847	89.25
430.069	85.25
430.292	86.25
430.514	80.25
430.736	75.25
430.958	83.25
431.18	87.25
431.402	79.25
431.624	91.25
431.846	78.25
432.068	75.25
432.29	81.25
432.512	92.25
432.734	93.25
432.956	86.25
433.178	99.25
433.4	85.25
433.622	86.25
433.844	94.25
434.066	91.25
434.287	83.25
434.509	87.25
434.731	84.25
434.953	84.25
435.175	84.25
435.397	88.25
435.618	79.25
435.84	90.25
436.062	116.25
436.284	114.25
436.505	105.25
436.727	106.25
436.949	92.25
437.17	89.25
437.392	81.25
437.614	100.25
437.835	108.25
438.057	106.25
438.278	102.25
438.5	104.25
438.721	105.25
438.943	87.25
439.165	72.25
439.386	85.25
439.608	92.25
439.829	86.25
440.05	112.25
440.272	127.25
440.493	98.25
440.715	91.25
440.936	89.25
441.158	88.25
441.379	98.25
441.6	86.25
441.822	79.25
442.043	91.25
442.264	112.25
442.486	110.25
442.707	95.25
442.928	112.25
443.149	110.25
443.371	118.25
443.592	117.25
443.813	109.25
444.034	103.25
444.255	97.25
444.476	81.25
444.698	92.25
444.919	93.25
445.14	112.25
445.361	132.25
445.582	99.25
445.803	126.25
446.024	118.25
446.245	127.25
446.466	103.25
446.687	94.25
446.908	79.25
447.129	85.25
447.35	85.25
447.571	80.25
447.792	104.25
448.013	103.25
448.234	94.25
448.455	93.25
448.675	97.25
448.896	102.25
449.117	112.25
449.338	98.25
449.559	131.25
449.779	137.25
450	88.25
450.221	90.25
450.442	73.25
450.662	88.25
450.883	88.25
451.104	109.25
451.324	83.25
451.545	80.25
451.766	76.25
451.986	93.25
452.207	95.25
452.428	89.25
452.648	88.25
452.869	92.25
453.089	103.25
453.31	118.25
453.53	89.25
453.751	85.25
453.971	85.25
454.192	113.25
454.412	91.25
454.633	72.25
454.853	83.25
455.073	91.25
455.294	73.25
455.514	100.25
455.734	93.25
455.955	77.25
456.175	81.25
456.395	93.25
456.616	87.25
456.836	78.25
457.056	70.25
457.276	93.25
457.497	86.25
457.717	83.25
457.937	100.25
458.157	79.25
458.377	89.25
458.598	90.25
458.818	148.25
459.038	128.25
459.258	94.25
459.478	71.25
459.698	85.25
459.918	80.25
460.138	83.25
460.358	72.25
460.578	76.25
460.798	76.25
461.018	83.25
461.238	77.25
461.458	83.25
461.678	76.25
461.898	77.25
462.118	63.25
462.338	87.25
462.558	77.25
462.777	80.25
462.997	79.25
463.217	79.25
463.437	95.25
463.657	96.25
463.876	74.25
464.096	71.25
464.316	89.25
464.536	82.25
464.755	82.25
464.975	93.25
465.195	145.25
465.414	136.25
465.634	82.25
465.854	82.25
466.073	83.25
466.293	80.25
466.512	82.25
466.732	73.25
466.951	94.25
467.171	87.25
467.391	86.25
467.61	91.25
467.829	91.25
468.049	84.25
468.268	84.25
468.488	78.25
468.707	73.25
468.927	83.25
469.146	77.25
469.365	68.25
469.585	76.25
469.804	85.25
470.023	91.25
470.243	97.25
470.462	97.25
470.681	96.25
470.901	85.25
471.12	87.25
471.339	75.25
471.558	89.25
471.777	95.25
471.997	76.25
472.216	86.25
472.435	86.25
472.654	84.25
472.873	81.25
473.092	84.25
473.311	83.25
473.53	86.25
473.749	83.25
473.968	96.25
474.187	107.25
474.406	79.25
474.625	79.25
474.844	91.25
475.063	75.25
475.282	82.25
475.501	92.25
475.72	84.25
475.939	88.25
476.158	87.25
476.377	85.25
476.596	71.25
476.814	67.25
477.033	87.25
477.252	79.25
477.471	75.25
477.69	99.25
477.908	84.25
478.127	86.25
478.346	84.25
478.564	87.25
478.783	67.25
479.002	91.25
479.22	92.25
479.439	97.25
479.658	100.25
479.876	87.25
480.095	88.25
480.313	94.25
480.532	88.25
480.751	68.25
480.969	100.25
481.188	117.25
481.406	100.25
481.624	89.25
481.843	96.25
482.061	91.25
482.28	92.25
482.498	73.25
482.717	87.25
482.935	80.25
483.153	79.25
483.372	74.25
483.59	100.25
483.808	93.25
484.027	88.25
484.245	103.25
484.463	106.25
484.681	88.25
484.9	79.25
485.118	65.25
485.336	87.25
485.554	90.25
485.772	108.25
485.99	108.25
486.209	107.25
486.427	105.25
486.645	93.25
486.863	105.25
487.081	97.25
487.299	95.25
487.517	86.25
487.735	83.25
487.953	92.25
488.171	86.25
488.389	95.25
488.607	91.25
488.825	84.25
489.043	87.25
489.261	88.25
489.479	89.25
489.696	88.25
489.914	105.25
490.132	85.25
490.35	95.25
490.568	82.25
490.786	83.25
491.003	90.25
491.221	78.25
491.439	81.25
491.657	86.25
491.874	101.25
492.092	88.25
492.31	81.25
492.527	93.25
492.745	86.25
492.963	81.25
493.18	79.25
493.398	81.25
493.615	95.25
493.833	91.25
494.05	107.25
494.268	91.25
494.485	76.25
494.703	62.25
494.92	94.25
495.138	99.25
495.355	77.25
495.573	86.25
495.79	83.25
496.008	88.25
496.225	95.25
496.442	86.25
496.66	83.25
496.877	79.25
497.094	83.25
497.312	102.25
497.529	93.25
497.746	93.25
497.963	86.25
498.181	92.25
498.398	85.25
498.615	111.25
498.832	93.25
499.049	90.25
499.267	99.25
499.484	86.25
499.701	91.25
499.918	83.25
500.135	75.25
500.352	79.25
500.569	90.25
500.786	83.25
501.003	84.25
501.22	81.25
501.437	79.25
501.654	101.25
501.871	95.25
502.088	86.25
502.305	95.25
502.522	102.25
502.739	71.25
502.956	76.25
503.172	94.25
503.389	78.25
503.606	108.25
503.823	88.25
504.04	78.25
504.256	85.25
504.473	83.25
504.69	90.25
504.907	98.25
505.123	86.25
505.34	89.25
505.557	88.25
505.773	77.25
505.99	93.25
506.207	78.25
506.423	78.25
506.64	88.25
506.856	85.25
507.073	96.25
507.289	85.25
507.506	101.25
507.722	118.25
507.939	87.25
508.155	95.25
508.372	91.25
508.588	83.25
508.805	103.25
509.021	100.25
509.238	92.25
509.454	95.25
509.67	107.25
509.887	90.25
510.103	112.25
510.319	185.25
510.536	719.25
510.752	2229.25
510.968	620.25
511.184	147.25
511.401	118.25
511.617	102.25
511.833	88.25
512.049	93.25
512.265	88.25
512.481	103.25
512.698	93.25
512.914	89.25
513.13	80.25
513.346	101.25
513.562	84.25
513.778	87.25
513.994	75.25
514.21	95.25
514.426	106.25
514.642	120.25
514.858	94.25
515.074	161.25
515.29	438.25
515.506	1391.25
515.721	516.25
515.937	137.25
516.153	109.25
516.369	92.25
516.585	84.25
516.801	91.25
