Data from Uncirc_1997_H10_HRD10591_00065.txt Node
Date: Wed Jan 03 11:28:43 EST 2024
User: Yrep
Spectrometer: HR+D1059
Trigger mode: 1
Integration Time (sec): 1.000000E-1
Scans to average: 1
Electric dark correction enabled: true
Nonlinearity correction enabled: false
Boxcar width: 0
XAxis mode: Wavelengths
Number of Pixels in Spectrum: 2048
>>>>>Begin Spectral Data<<<<<
223.165	-33.69
223.4	-33.69
223.635	-33.69
223.869	-13.69
224.104	-26.69
224.338	-29.69
224.573	-23.69
224.808	-12.69
225.042	-12.69
225.277	2.31
225.511	-7.69
225.746	1.31
225.98	7.31
226.215	15.31
226.449	27.31
226.683	26.31
226.918	37.31
227.152	43.31
227.387	46.31
227.621	37.31
227.856	39.31
228.09	34.31
228.324	49.31
228.559	58.31
228.793	52.31
229.027	54.31
229.262	58.31
229.496	64.31
229.73	80.31
229.964	84.31
230.199	77.31
230.433	74.31
230.667	75.31
230.901	86.31
231.136	84.31
231.37	79.31
231.604	89.31
231.838	91.31
232.072	79.31
232.306	72.31
232.541	78.31
232.775	70.31
233.009	70.31
233.243	85.31
233.477	81.31
233.711	85.31
233.945	84.31
234.179	80.31
234.413	87.31
234.647	79.31
234.881	87.31
235.115	77.31
235.349	81.31
235.583	92.31
235.817	78.31
236.051	71.31
236.285	80.31
236.519	79.31
236.753	78.31
236.987	77.31
237.221	74.31
237.455	82.31
237.689	71.31
237.922	84.31
238.156	91.31
238.39	67.31
238.624	70.31
238.858	76.31
239.091	81.31
239.325	75.31
239.559	68.31
239.793	79.31
240.027	80.31
240.26	83.31
240.494	79.31
240.728	66.31
240.961	80.31
241.195	63.31
241.429	70.31
241.662	72.31
241.896	72.31
242.13	67.31
242.363	87.31
242.597	79.31
242.83	83.31
243.064	105.31
243.298	86.31
243.531	84.31
243.765	68.31
243.998	95.31
244.232	97.31
244.465	83.31
244.699	82.31
244.932	76.31
245.166	80.31
245.399	88.31
245.633	74.31
245.866	79.31
246.099	78.31
246.333	84.31
246.566	78.31
246.8	80.31
247.033	81.31
247.266	81.31
247.5	86.31
247.733	86.31
247.966	72.31
248.2	73.31
248.433	78.31
248.666	83.31
248.899	82.31
249.133	81.31
249.366	85.31
249.599	79.31
249.832	79.31
250.066	83.31
250.299	80.31
250.532	75.31
250.765	76.31
250.998	72.31
251.231	82.31
251.465	72.31
251.698	71.31
251.931	77.31
252.164	82.31
252.397	68.31
252.63	86.31
252.863	93.31
253.096	73.31
253.329	77.31
253.562	83.31
253.795	87.31
254.028	70.31
254.261	90.31
254.494	87.31
254.727	91.31
254.96	90.31
255.193	91.31
255.426	77.31
255.659	95.31
255.892	78.31
256.124	90.31
256.357	89.31
256.59	76.31
256.823	63.31
257.056	75.31
257.289	104.31
257.521	84.31
257.754	79.31
257.987	79.31
258.22	90.31
258.452	76.31
258.685	70.31
258.918	71.31
259.151	82.31
259.383	98.31
259.616	88.31
259.849	92.31
260.081	92.31
260.314	87.31
260.547	89.31
260.779	91.31
261.012	84.31
261.244	78.31
261.477	87.31
261.71	99.31
261.942	97.31
262.175	98.31
262.407	101.31
262.64	79.31
262.872	81.31
263.105	94.31
263.337	77.31
263.57	81.31
263.802	85.31
264.035	76.31
264.267	64.31
264.499	75.31
264.732	81.31
264.964	95.31
265.197	81.31
265.429	84.31
265.661	75.31
265.894	73.31
266.126	82.31
266.358	75.31
266.591	78.31
266.823	67.31
267.055	92.31
267.287	92.31
267.52	94.31
267.752	90.31
267.984	91.31
268.216	96.31
268.448	92.31
268.681	79.31
268.913	88.31
269.145	91.31
269.377	84.31
269.609	82.31
269.841	88.31
270.073	80.31
270.306	84.31
270.538	87.31
270.77	75.31
271.002	83.31
271.234	87.31
271.466	103.31
271.698	82.31
271.93	76.31
272.162	86.31
272.394	85.31
272.626	87.31
272.858	91.31
273.09	82.31
273.322	80.31
273.553	103.31
273.785	90.31
274.017	87.31
274.249	81.31
274.481	94.31
274.713	88.31
274.945	82.31
275.176	84.31
275.408	101.31
275.64	74.31
275.872	88.31
276.104	85.31
276.335	86.31
276.567	83.31
276.799	106.31
277.031	95.31
277.262	92.31
277.494	82.31
277.726	91.31
277.957	71.31
278.189	83.31
278.421	76.31
278.652	97.31
278.884	79.31
279.115	84.31
279.347	86.31
279.579	78.31
279.81	81.31
280.042	82.31
280.273	86.31
280.505	92.31
280.736	84.31
280.968	86.31
281.199	80.31
281.431	103.31
281.662	92.31
281.894	89.31
282.125	97.31
282.356	106.31
282.588	126.31
282.819	98.31
283.051	91.31
283.282	88.31
283.513	96.31
283.745	83.31
283.976	83.31
284.207	100.31
284.439	86.31
284.67	88.31
284.901	83.31
285.132	87.31
285.364	90.31
285.595	105.31
285.826	90.31
286.057	87.31
286.288	80.31
286.52	84.31
286.751	87.31
286.982	87.31
287.213	82.31
287.444	95.31
287.675	66.31
287.906	96.31
288.138	99.31
288.369	87.31
288.6	91.31
288.831	97.31
289.062	86.31
289.293	87.31
289.524	82.31
289.755	84.31
289.986	93.31
290.217	81.31
290.448	86.31
290.679	100.31
290.91	84.31
291.141	79.31
291.371	87.31
291.602	95.31
291.833	98.31
292.064	94.31
292.295	86.31
292.526	83.31
292.757	97.31
292.987	79.31
293.218	90.31
293.449	87.31
293.68	89.31
293.91	90.31
294.141	88.31
294.372	94.31
294.603	83.31
294.833	91.31
295.064	84.31
295.295	95.31
295.525	102.31
295.756	95.31
295.987	100.31
296.217	108.31
296.448	99.31
296.679	96.31
296.909	88.31
297.14	89.31
297.37	86.31
297.601	92.31
297.831	80.31
298.062	89.31
298.292	86.31
298.523	91.31
298.753	89.31
298.984	79.31
299.214	88.31
299.445	88.31
299.675	88.31
299.905	91.31
300.136	96.31
300.366	92.31
300.597	81.31
300.827	96.31
301.057	98.31
301.288	96.31
301.518	82.31
301.748	77.31
301.979	105.31
302.209	83.31
302.439	84.31
302.669	88.31
302.9	90.31
303.13	82.31
303.36	102.31
303.59	106.31
303.82	100.31
304.051	96.31
304.281	101.31
304.511	84.31
304.741	90.31
304.971	91.31
305.201	81.31
305.431	101.31
305.661	93.31
305.891	85.31
306.121	93.31
306.352	106.31
306.582	88.31
306.812	89.31
307.042	84.31
307.272	87.31
307.502	106.31
307.731	92.31
307.961	85.31
308.191	91.31
308.421	94.31
308.651	83.31
308.881	89.31
309.111	104.31
309.341	95.31
309.571	86.31
309.8	90.31
310.03	94.31
310.26	88.31
310.49	87.31
310.72	102.31
310.949	103.31
311.179	85.31
311.409	81.31
311.639	101.31
311.868	100.31
312.098	102.31
312.328	94.31
312.557	105.31
312.787	88.31
313.017	99.31
313.246	100.31
313.476	100.31
313.706	82.31
313.935	98.31
314.165	91.31
314.394	101.31
314.624	90.31
314.853	98.31
315.083	106.31
315.312	94.31
315.542	104.31
315.771	98.31
316.001	93.31
316.23	86.31
316.46	106.31
316.689	88.31
316.919	102.31
317.148	101.31
317.377	95.31
317.607	100.31
317.836	88.31
318.065	94.31
318.295	107.31
318.524	79.31
318.753	97.31
318.983	96.31
319.212	101.31
319.441	100.31
319.67	98.31
319.9	100.31
320.129	82.31
320.358	89.31
320.587	105.31
320.816	75.31
321.046	103.31
321.275	95.31
321.504	95.31
321.733	83.31
321.962	105.31
322.191	109.31
322.42	82.31
322.649	100.31
322.878	106.31
323.108	113.31
323.337	111.31
323.566	124.31
323.795	136.31
324.024	183.31
324.253	364.31
324.482	735.31
324.71	1486.31
324.939	1949.31
325.168	730.31
325.397	224.31
325.626	127.31
325.855	108.31
326.084	121.31
326.313	119.31
326.542	149.31
326.77	215.31
326.999	432.31
327.228	821.31
327.457	1467.31
327.686	1187.31
327.914	319.31
328.143	178.31
328.372	152.31
328.6	112.31
328.829	115.31
329.058	109.31
329.287	119.31
329.515	92.31
329.744	92.31
329.972	95.31
330.201	107.31
330.43	97.31
330.658	110.31
330.887	137.31
331.115	122.31
331.344	91.31
331.572	97.31
331.801	116.31
332.03	98.31
332.258	100.31
332.486	102.31
332.715	104.31
332.943	91.31
333.172	89.31
333.4	106.31
333.629	114.31
333.857	101.31
334.085	109.31
334.314	89.31
334.542	107.31
334.771	101.31
334.999	94.31
335.227	97.31
335.455	108.31
335.684	95.31
335.912	95.31
336.14	104.31
336.369	110.31
336.597	90.31
336.825	95.31
337.053	96.31
337.281	96.31
337.51	90.31
337.738	90.31
337.966	94.31
338.194	95.31
338.422	92.31
338.65	91.31
338.878	103.31
339.106	90.31
339.334	77.31
339.562	80.31
339.79	85.31
340.018	98.31
340.246	81.31
340.474	102.31
340.702	95.31
340.93	95.31
341.158	111.31
341.386	97.31
341.614	81.31
341.842	89.31
342.07	110.31
342.298	93.31
342.526	93.31
342.754	97.31
342.981	93.31
343.209	82.31
343.437	98.31
343.665	93.31
343.893	88.31
344.12	87.31
344.348	91.31
344.576	92.31
344.804	93.31
345.031	90.31
345.259	107.31
345.487	97.31
345.714	96.31
345.942	100.31
346.17	103.31
346.397	90.31
346.625	93.31
346.853	89.31
347.08	92.31
347.308	84.31
347.535	89.31
347.763	85.31
347.99	86.31
348.218	95.31
348.445	107.31
348.673	100.31
348.9	94.31
349.128	99.31
349.355	90.31
349.583	110.31
349.81	98.31
350.037	88.31
350.265	72.31
350.492	88.31
350.72	102.31
350.947	103.31
351.174	111.31
351.402	108.31
351.629	93.31
351.856	92.31
352.083	111.31
352.311	86.31
352.538	100.31
352.765	110.31
352.992	115.31
353.22	105.31
353.447	108.31
353.674	91.31
353.901	97.31
354.128	97.31
354.355	100.31
354.583	97.31
354.81	87.31
355.037	99.31
355.264	71.31
355.491	87.31
355.718	98.31
355.945	80.31
356.172	83.31
356.399	102.31
356.626	91.31
356.853	85.31
357.08	108.31
357.307	82.31
357.534	79.31
357.761	89.31
357.988	113.31
358.215	104.31
358.441	95.31
358.668	77.31
358.895	96.31
359.122	76.31
359.349	80.31
359.576	99.31
359.802	102.31
360.029	98.31
360.256	90.31
360.483	93.31
360.709	87.31
360.936	88.31
361.163	99.31
361.39	89.31
361.616	83.31
361.843	102.31
362.07	102.31
362.296	109.31
362.523	94.31
362.749	90.31
362.976	82.31
363.203	96.31
363.429	78.31
363.656	86.31
363.882	89.31
364.109	95.31
364.335	106.31
364.562	92.31
364.788	76.31
365.015	83.31
365.241	79.31
365.468	107.31
365.694	98.31
365.92	91.31
366.147	87.31
366.373	74.31
366.599	103.31
366.826	99.31
367.052	87.31
367.278	94.31
367.505	97.31
367.731	85.31
367.957	92.31
368.184	93.31
368.41	92.31
368.636	111.31
368.862	109.31
369.089	109.31
369.315	91.31
369.541	91.31
369.767	89.31
369.993	102.31
370.219	107.31
370.445	89.31
370.672	82.31
370.898	90.31
371.124	79.31
371.35	84.31
371.576	90.31
371.802	87.31
372.028	90.31
372.254	83.31
372.48	98.31
372.706	94.31
372.932	93.31
373.158	87.31
373.384	98.31
373.61	103.31
373.835	89.31
374.061	91.31
374.287	87.31
374.513	90.31
374.739	104.31
374.965	89.31
375.191	92.31
375.416	87.31
375.642	97.31
375.868	100.31
376.094	90.31
376.319	82.31
376.545	81.31
376.771	89.31
376.997	78.31
377.222	90.31
377.448	89.31
377.674	89.31
377.899	99.31
378.125	92.31
378.35	89.31
378.576	84.31
378.802	79.31
379.027	95.31
379.253	98.31
379.478	99.31
379.704	92.31
379.929	104.31
380.155	95.31
380.38	97.31
380.606	84.31
380.831	91.31
381.057	95.31
381.282	93.31
381.507	80.31
381.733	105.31
381.958	106.31
382.184	98.31
382.409	90.31
382.634	83.31
382.86	96.31
383.085	97.31
383.31	85.31
383.535	96.31
383.761	88.31
383.986	95.31
384.211	101.31
384.436	96.31
384.662	95.31
384.887	98.31
385.112	89.31
385.337	88.31
385.562	95.31
385.787	95.31
386.013	115.31
386.238	118.31
386.463	109.31
386.688	101.31
386.913	86.31
387.138	92.31
387.363	99.31
387.588	91.31
387.813	106.31
388.038	111.31
388.263	98.31
388.488	95.31
388.713	100.31
388.938	91.31
389.163	114.31
389.387	93.31
389.612	76.31
389.837	95.31
390.062	99.31
390.287	78.31
390.512	98.31
390.736	85.31
390.961	83.31
391.186	98.31
391.411	107.31
391.636	102.31
391.86	90.31
392.085	81.31
392.31	95.31
392.534	91.31
392.759	101.31
392.984	83.31
393.208	75.31
393.433	77.31
393.658	92.31
393.882	96.31
394.107	77.31
394.331	90.31
394.556	94.31
394.78	83.31
395.005	92.31
395.229	78.31
395.454	88.31
395.678	82.31
395.903	92.31
396.127	91.31
396.352	90.31
396.576	78.31
396.801	92.31
397.025	74.31
397.249	83.31
397.474	95.31
397.698	95.31
397.922	95.31
398.147	95.31
398.371	81.31
398.595	81.31
398.82	96.31
399.044	85.31
399.268	93.31
399.492	78.31
399.717	90.31
399.941	83.31
400.165	94.31
400.389	80.31
400.613	93.31
400.837	88.31
401.062	92.31
401.286	102.31
401.51	78.31
401.734	82.31
401.958	102.31
402.182	108.31
402.406	152.31
402.63	113.31
402.854	103.31
403.078	86.31
403.302	81.31
403.526	88.31
403.75	94.31
403.974	92.31
404.198	95.31
404.422	83.31
404.645	82.31
404.869	92.31
405.093	89.31
405.317	92.31
405.541	92.31
405.765	91.31
405.988	106.31
406.212	130.31
406.436	198.31
406.66	128.31
406.883	98.31
407.107	85.31
407.331	103.31
407.555	91.31
407.778	91.31
408.002	90.31
408.226	95.31
408.449	83.31
408.673	76.31
408.896	85.31
409.12	102.31
409.344	94.31
409.567	84.31
409.791	100.31
410.014	101.31
410.238	93.31
410.461	82.31
410.685	89.31
410.908	98.31
411.132	111.31
411.355	100.31
411.578	98.31
411.802	77.31
412.025	92.31
412.249	79.31
412.472	88.31
412.695	94.31
412.919	81.31
413.142	86.31
413.365	92.31
413.589	77.31
413.812	92.31
414.035	82.31
414.258	75.31
414.482	89.31
414.705	94.31
414.928	96.31
415.151	93.31
415.374	96.31
415.597	86.31
415.821	90.31
416.044	89.31
416.267	81.31
416.49	86.31
416.713	69.31
416.936	80.31
417.159	77.31
417.382	100.31
417.605	86.31
417.828	80.31
418.051	88.31
418.274	61.31
418.497	78.31
418.72	70.31
418.943	101.31
419.166	105.31
419.389	87.31
419.611	86.31
419.834	74.31
420.057	76.31
420.28	91.31
420.503	72.31
420.726	80.31
420.948	79.31
421.171	106.31
421.394	74.31
421.617	88.31
421.839	90.31
422.062	83.31
422.285	87.31
422.507	98.31
422.73	105.31
422.953	81.31
423.175	96.31
423.398	92.31
423.621	80.31
423.843	89.31
424.066	89.31
424.288	83.31
424.511	93.31
424.733	79.31
424.956	97.31
425.178	103.31
425.401	102.31
425.623	89.31
425.846	82.31
426.068	96.31
426.291	96.31
426.513	98.31
426.735	90.31
426.958	106.31
427.18	100.31
427.402	128.31
427.625	159.31
427.847	123.31
428.069	96.31
428.292	84.31
428.514	90.31
428.736	99.31
428.958	82.31
429.181	88.31
429.403	90.31
429.625	83.31
429.847	97.31
430.069	96.31
430.292	89.31
430.514	78.31
430.736	89.31
430.958	85.31
431.18	89.31
431.402	75.31
431.624	85.31
431.846	87.31
432.068	92.31
432.29	75.31
432.512	88.31
432.734	86.31
432.956	88.31
433.178	111.31
433.4	99.31
433.622	92.31
433.844	83.31
434.066	99.31
434.287	93.31
434.509	88.31
434.731	92.31
434.953	86.31
435.175	90.31
435.397	82.31
435.618	86.31
435.84	98.31
436.062	115.31
436.284	105.31
436.505	90.31
436.727	82.31
436.949	89.31
437.17	80.31
437.392	85.31
437.614	95.31
437.835	103.31
438.057	122.31
438.278	107.31
438.5	90.31
438.721	112.31
438.943	95.31
439.165	95.31
439.386	83.31
439.608	104.31
439.829	92.31
440.05	119.31
440.272	131.31
440.493	97.31
440.715	76.31
440.936	86.31
441.158	103.31
441.379	87.31
441.6	81.31
441.822	91.31
442.043	83.31
442.264	111.31
442.486	92.31
442.707	90.31
442.928	96.31
443.149	114.31
443.371	97.31
443.592	101.31
443.813	104.31
444.034	89.31
444.255	95.31
444.476	93.31
444.698	83.31
444.919	96.31
445.14	152.31
445.361	103.31
445.582	113.31
445.803	123.31
446.024	122.31
446.245	122.31
446.466	98.31
446.687	87.31
446.908	86.31
447.129	80.31
447.35	78.31
447.571	96.31
447.792	99.31
448.013	96.31
448.234	100.31
448.455	94.31
448.675	104.31
448.896	106.31
449.117	98.31
449.338	100.31
449.559	121.31
449.779	115.31
450	103.31
450.221	88.31
450.442	98.31
450.662	88.31
450.883	107.31
451.104	108.31
451.324	86.31
451.545	97.31
451.766	79.31
451.986	85.31
452.207	95.31
452.428	89.31
452.648	90.31
452.869	99.31
453.089	102.31
453.31	107.31
453.53	86.31
453.751	96.31
453.971	93.31
454.192	100.31
454.412	104.31
454.633	98.31
454.853	86.31
455.073	78.31
455.294	91.31
455.514	99.31
455.734	87.31
455.955	99.31
456.175	88.31
456.395	93.31
456.616	97.31
456.836	90.31
457.056	103.31
457.276	93.31
457.497	82.31
457.717	88.31
457.937	82.31
458.157	81.31
458.377	81.31
458.598	101.31
458.818	138.31
459.038	153.31
459.258	108.31
459.478	102.31
459.698	87.31
459.918	94.31
460.138	92.31
460.358	81.31
460.578	89.31
460.798	74.31
461.018	70.31
461.238	102.31
461.458	91.31
461.678	73.31
461.898	92.31
462.118	80.31
462.338	78.31
462.558	83.31
462.777	88.31
462.997	86.31
463.217	84.31
463.437	87.31
463.657	92.31
463.876	92.31
464.096	99.31
464.316	82.31
464.536	98.31
464.755	96.31
464.975	108.31
465.195	142.31
465.414	120.31
465.634	96.31
465.854	84.31
466.073	88.31
466.293	87.31
466.512	75.31
466.732	87.31
466.951	103.31
467.171	99.31
467.391	80.31
467.61	91.31
467.829	92.31
468.049	90.31
468.268	96.31
468.488	75.31
468.707	83.31
468.927	88.31
469.146	76.31
469.365	84.31
469.585	83.31
469.804	76.31
470.023	90.31
470.243	92.31
470.462	103.31
470.681	107.31
470.901	88.31
471.12	82.31
471.339	89.31
471.558	88.31
471.777	96.31
471.997	87.31
472.216	88.31
472.435	100.31
472.654	96.31
472.873	89.31
473.092	93.31
473.311	79.31
473.53	68.31
473.749	79.31
473.968	99.31
474.187	99.31
474.406	101.31
474.625	81.31
474.844	100.31
475.063	92.31
475.282	89.31
475.501	76.31
475.72	93.31
475.939	87.31
476.158	85.31
476.377	87.31
476.596	82.31
476.814	91.31
477.033	90.31
477.252	93.31
477.471	82.31
477.69	85.31
477.908	74.31
478.127	71.31
478.346	82.31
478.564	84.31
478.783	116.31
479.002	89.31
479.22	88.31
479.439	99.31
479.658	101.31
479.876	86.31
480.095	87.31
480.313	87.31
480.532	99.31
480.751	92.31
480.969	97.31
481.188	107.31
481.406	93.31
481.624	80.31
481.843	88.31
482.061	81.31
482.28	67.31
482.498	90.31
482.717	80.31
482.935	94.31
483.153	102.31
483.372	86.31
483.59	81.31
483.808	73.31
484.027	88.31
484.245	90.31
484.463	91.31
484.681	80.31
484.9	103.31
485.118	100.31
485.336	93.31
485.554	97.31
485.772	99.31
485.99	92.31
486.209	92.31
486.427	109.31
486.645	108.31
486.863	116.31
487.081	99.31
487.299	92.31
487.517	90.31
487.735	87.31
487.953	94.31
488.171	102.31
488.389	112.31
488.607	97.31
488.825	88.31
489.043	83.31
489.261	79.31
489.479	92.31
489.696	83.31
489.914	81.31
490.132	95.31
490.35	95.31
490.568	80.31
490.786	102.31
491.003	90.31
491.221	88.31
491.439	79.31
491.657	92.31
491.874	100.31
492.092	96.31
492.31	78.31
492.527	80.31
492.745	100.31
492.963	88.31
493.18	100.31
493.398	77.31
493.615	93.31
493.833	98.31
494.05	82.31
494.268	89.31
494.485	84.31
494.703	91.31
494.92	88.31
495.138	94.31
495.355	102.31
495.573	91.31
495.79	90.31
496.008	97.31
496.225	100.31
496.442	105.31
496.66	87.31
496.877	88.31
497.094	85.31
497.312	75.31
497.529	102.31
497.746	100.31
497.963	89.31
498.181	103.31
498.398	92.31
498.615	99.31
498.832	99.31
499.049	94.31
499.267	90.31
499.484	95.31
499.701	88.31
499.918	86.31
500.135	94.31
500.352	75.31
500.569	81.31
500.786	83.31
501.003	86.31
501.22	82.31
501.437	99.31
501.654	109.31
501.871	84.31
502.088	91.31
502.305	85.31
502.522	95.31
502.739	87.31
502.956	94.31
503.172	97.31
503.389	104.31
503.606	102.31
503.823	99.31
504.04	92.31
504.256	87.31
504.473	95.31
504.69	86.31
504.907	97.31
505.123	104.31
505.34	87.31
505.557	85.31
505.773	97.31
505.99	104.31
506.207	83.31
506.423	90.31
506.64	99.31
506.856	98.31
507.073	90.31
507.289	97.31
507.506	90.31
507.722	105.31
507.939	119.31
508.155	100.31
508.372	86.31
508.588	105.31
508.805	96.31
509.021	99.31
509.238	97.31
509.454	108.31
509.67	102.31
509.887	100.31
510.103	125.31
510.319	206.31
510.536	672.31
510.752	2017.31
510.968	571.31
511.184	150.31
511.401	106.31
511.617	91.31
511.833	90.31
512.049	94.31
512.265	84.31
512.481	92.31
512.698	90.31
512.914	93.31
513.13	95.31
513.346	85.31
513.562	93.31
513.778	86.31
513.994	80.31
514.21	92.31
514.426	103.31
514.642	116.31
514.858	115.31
515.074	177.31
515.29	420.31
515.506	1248.31
515.721	455.31
515.937	134.31
516.153	115.31
