Data from Uncirc_1997_H10_HRD10591_00033.txt Node
Date: Wed Jan 03 11:28:37 EST 2024
User: Yrep
Spectrometer: HR+D1059
Trigger mode: 1
Integration Time (sec): 1.000000E-1
Scans to average: 1
Electric dark correction enabled: true
Nonlinearity correction enabled: false
Boxcar width: 0
XAxis mode: Wavelengths
Number of Pixels in Spectrum: 2048
>>>>>Begin Spectral Data<<<<<
223.165	-20.94
223.4	-20.94
223.635	-20.94
223.869	-23.94
224.104	-26.94
224.338	-6.94
224.573	-10.94
224.808	-9.94
225.042	-16.94
225.277	-18.94
225.511	-10.94
225.746	13.06
225.98	11.06
226.215	11.06
226.449	24.06
226.683	32.06
226.918	22.06
227.152	33.06
227.387	44.06
227.621	50.06
227.856	68.06
228.09	61.06
228.324	45.06
228.559	58.06
228.793	52.06
229.027	66.06
229.262	71.06
229.496	75.06
229.73	68.06
229.964	81.06
230.199	67.06
230.433	64.06
230.667	65.06
230.901	81.06
231.136	81.06
231.37	69.06
231.604	88.06
231.838	81.06
232.072	75.06
232.306	84.06
232.541	75.06
232.775	83.06
233.009	72.06
233.243	79.06
233.477	87.06
233.711	83.06
233.945	91.06
234.179	95.06
234.413	92.06
234.647	88.06
234.881	104.06
235.115	79.06
235.349	83.06
235.583	72.06
235.817	76.06
236.051	83.06
236.285	79.06
236.519	79.06
236.753	77.06
236.987	62.06
237.221	98.06
237.455	85.06
237.689	58.06
237.922	86.06
238.156	72.06
238.39	70.06
238.624	82.06
238.858	69.06
239.091	77.06
239.325	77.06
239.559	77.06
239.793	84.06
240.027	76.06
240.26	80.06
240.494	81.06
240.728	77.06
240.961	73.06
241.195	79.06
241.429	79.06
241.662	66.06
241.896	81.06
242.13	66.06
242.363	80.06
242.597	67.06
242.83	76.06
243.064	97.06
243.298	82.06
243.531	83.06
243.765	80.06
243.998	75.06
244.232	79.06
244.465	84.06
244.699	86.06
244.932	83.06
245.166	71.06
245.399	69.06
245.633	73.06
245.866	79.06
246.099	62.06
246.333	75.06
246.566	85.06
246.8	78.06
247.033	89.06
247.266	75.06
247.5	73.06
247.733	91.06
247.966	67.06
248.2	83.06
248.433	80.06
248.666	71.06
248.899	84.06
249.133	75.06
249.366	96.06
249.599	89.06
249.832	75.06
250.066	79.06
250.299	89.06
250.532	86.06
250.765	83.06
250.998	85.06
251.231	74.06
251.465	85.06
251.698	71.06
251.931	81.06
252.164	86.06
252.397	87.06
252.63	87.06
252.863	96.06
253.096	91.06
253.329	91.06
253.562	86.06
253.795	84.06
254.028	96.06
254.261	80.06
254.494	78.06
254.727	90.06
254.96	91.06
255.193	75.06
255.426	82.06
255.659	85.06
255.892	84.06
256.124	79.06
256.357	81.06
256.59	76.06
256.823	76.06
257.056	83.06
257.289	76.06
257.521	81.06
257.754	85.06
257.987	78.06
258.22	81.06
258.452	84.06
258.685	69.06
258.918	79.06
259.151	84.06
259.383	77.06
259.616	78.06
259.849	78.06
260.081	76.06
260.314	82.06
260.547	81.06
260.779	92.06
261.012	88.06
261.244	86.06
261.477	77.06
261.71	105.06
261.942	113.06
262.175	119.06
262.407	106.06
262.64	77.06
262.872	88.06
263.105	87.06
263.337	80.06
263.57	85.06
263.802	77.06
264.035	91.06
264.267	81.06
264.499	86.06
264.732	79.06
264.964	93.06
265.197	81.06
265.429	87.06
265.661	93.06
265.894	77.06
266.126	85.06
266.358	82.06
266.591	84.06
266.823	92.06
267.055	80.06
267.287	73.06
267.52	95.06
267.752	95.06
267.984	65.06
268.216	92.06
268.448	85.06
268.681	89.06
268.913	79.06
269.145	81.06
269.377	67.06
269.609	84.06
269.841	98.06
270.073	79.06
270.306	84.06
270.538	82.06
270.77	92.06
271.002	99.06
271.234	93.06
271.466	93.06
271.698	92.06
271.93	86.06
272.162	93.06
272.394	77.06
272.626	84.06
272.858	89.06
273.09	85.06
273.322	86.06
273.553	73.06
273.785	89.06
274.017	72.06
274.249	84.06
274.481	80.06
274.713	72.06
274.945	88.06
275.176	87.06
275.408	85.06
275.64	81.06
275.872	84.06
276.104	96.06
276.335	72.06
276.567	100.06
276.799	92.06
277.031	111.06
277.262	98.06
277.494	91.06
277.726	85.06
277.957	90.06
278.189	77.06
278.421	79.06
278.652	83.06
278.884	91.06
279.115	91.06
279.347	77.06
279.579	88.06
279.81	81.06
280.042	92.06
280.273	86.06
280.505	84.06
280.736	95.06
280.968	106.06
281.199	92.06
281.431	76.06
281.662	98.06
281.894	101.06
282.125	104.06
282.356	119.06
282.588	133.06
282.819	112.06
283.051	80.06
283.282	95.06
283.513	78.06
283.745	87.06
283.976	87.06
284.207	92.06
284.439	96.06
284.67	74.06
284.901	88.06
285.132	91.06
285.364	85.06
285.595	90.06
285.826	97.06
286.057	98.06
286.288	81.06
286.52	87.06
286.751	94.06
286.982	97.06
287.213	87.06
287.444	89.06
287.675	93.06
287.906	99.06
288.138	83.06
288.369	87.06
288.6	85.06
288.831	95.06
289.062	77.06
289.293	71.06
289.524	81.06
289.755	100.06
289.986	84.06
290.217	91.06
290.448	101.06
290.679	87.06
290.91	101.06
291.141	77.06
291.371	86.06
291.602	82.06
291.833	87.06
292.064	92.06
292.295	71.06
292.526	88.06
292.757	80.06
292.987	99.06
293.218	89.06
293.449	86.06
293.68	103.06
293.91	86.06
294.141	77.06
294.372	84.06
294.603	95.06
294.833	92.06
295.064	78.06
295.295	96.06
295.525	76.06
295.756	94.06
295.987	111.06
296.217	130.06
296.448	107.06
296.679	92.06
296.909	87.06
297.14	89.06
297.37	96.06
297.601	84.06
297.831	88.06
298.062	96.06
298.292	101.06
298.523	89.06
298.753	93.06
298.984	87.06
299.214	75.06
299.445	96.06
299.675	98.06
299.905	94.06
300.136	118.06
300.366	76.06
300.597	91.06
300.827	98.06
301.057	97.06
301.288	91.06
301.518	105.06
301.748	88.06
301.979	104.06
302.209	88.06
302.439	83.06
302.669	93.06
302.9	85.06
303.13	96.06
303.36	96.06
303.59	106.06
303.82	105.06
304.051	99.06
304.281	91.06
304.511	100.06
304.741	92.06
304.971	98.06
305.201	76.06
305.431	77.06
305.661	95.06
305.891	84.06
306.121	104.06
306.352	84.06
306.582	87.06
306.812	96.06
307.042	99.06
307.272	92.06
307.502	92.06
307.731	88.06
307.961	93.06
308.191	97.06
308.421	91.06
308.651	89.06
308.881	95.06
309.111	88.06
309.341	91.06
309.571	100.06
309.8	101.06
310.03	100.06
310.26	95.06
310.49	87.06
310.72	78.06
310.949	98.06
311.179	98.06
311.409	96.06
311.639	83.06
311.868	94.06
312.098	100.06
312.328	93.06
312.557	104.06
312.787	104.06
313.017	96.06
313.246	106.06
313.476	99.06
313.706	95.06
313.935	96.06
314.165	77.06
314.394	97.06
314.624	97.06
314.853	98.06
315.083	96.06
315.312	92.06
315.542	95.06
315.771	105.06
316.001	94.06
316.23	85.06
316.46	94.06
316.689	81.06
316.919	88.06
317.148	100.06
317.377	98.06
317.607	92.06
317.836	88.06
318.065	83.06
318.295	77.06
318.524	93.06
318.753	85.06
318.983	77.06
319.212	85.06
319.441	117.06
319.67	100.06
319.9	101.06
320.129	90.06
320.358	101.06
320.587	92.06
320.816	112.06
321.046	93.06
321.275	91.06
321.504	93.06
321.733	109.06
321.962	106.06
322.191	86.06
322.42	97.06
322.649	102.06
322.878	117.06
323.108	106.06
323.337	111.06
323.566	118.06
323.795	141.06
324.024	182.06
324.253	349.06
324.482	723.06
324.71	1481.06
324.939	1926.06
325.168	706.06
325.397	210.06
325.626	136.06
325.855	129.06
326.084	103.06
326.313	126.06
326.542	143.06
326.77	204.06
326.999	415.06
327.228	856.06
327.457	1492.06
327.686	1150.06
327.914	322.06
328.143	175.06
328.372	156.06
328.6	114.06
328.829	116.06
329.058	137.06
329.287	115.06
329.515	101.06
329.744	97.06
329.972	104.06
330.201	112.06
330.43	104.06
330.658	115.06
330.887	134.06
331.115	106.06
331.344	103.06
331.572	90.06
331.801	108.06
332.03	108.06
332.258	100.06
332.486	103.06
332.715	85.06
332.943	101.06
333.172	107.06
333.4	105.06
333.629	110.06
333.857	99.06
334.085	106.06
334.314	107.06
334.542	109.06
334.771	98.06
334.999	106.06
335.227	106.06
335.455	100.06
335.684	99.06
335.912	93.06
336.14	106.06
336.369	85.06
336.597	109.06
336.825	95.06
337.053	92.06
337.281	99.06
337.51	90.06
337.738	111.06
337.966	97.06
338.194	92.06
338.422	82.06
338.65	92.06
338.878	91.06
339.106	98.06
339.334	93.06
339.562	87.06
339.79	86.06
340.018	69.06
340.246	92.06
340.474	85.06
340.702	91.06
340.93	94.06
341.158	100.06
341.386	90.06
341.614	101.06
341.842	97.06
342.07	83.06
342.298	99.06
342.526	91.06
342.754	91.06
342.981	92.06
343.209	76.06
343.437	96.06
343.665	85.06
343.893	96.06
344.12	90.06
344.348	96.06
344.576	92.06
344.804	98.06
345.031	88.06
345.259	91.06
345.487	94.06
345.714	106.06
345.942	87.06
346.17	96.06
346.397	90.06
346.625	106.06
346.853	96.06
347.08	93.06
347.308	98.06
347.535	106.06
347.763	97.06
347.99	122.06
348.218	105.06
348.445	101.06
348.673	102.06
348.9	92.06
349.128	101.06
349.355	92.06
349.583	90.06
349.81	99.06
350.037	89.06
350.265	106.06
350.492	95.06
350.72	98.06
350.947	107.06
351.174	105.06
351.402	116.06
351.629	110.06
351.856	105.06
352.083	99.06
352.311	105.06
352.538	112.06
352.765	102.06
352.992	116.06
353.22	107.06
353.447	96.06
353.674	95.06
353.901	94.06
354.128	91.06
354.355	92.06
354.583	113.06
354.81	95.06
355.037	101.06
355.264	93.06
355.491	105.06
355.718	92.06
355.945	91.06
356.172	98.06
356.399	98.06
356.626	89.06
356.853	84.06
357.08	95.06
357.307	79.06
357.534	83.06
357.761	91.06
357.988	91.06
358.215	98.06
358.441	93.06
358.668	90.06
358.895	88.06
359.122	88.06
359.349	93.06
359.576	105.06
359.802	99.06
360.029	100.06
360.256	106.06
360.483	101.06
360.709	87.06
360.936	98.06
361.163	97.06
361.39	100.06
361.616	88.06
361.843	95.06
362.07	86.06
362.296	95.06
362.523	91.06
362.749	96.06
362.976	85.06
363.203	99.06
363.429	95.06
363.656	92.06
363.882	81.06
364.109	98.06
364.335	113.06
364.562	90.06
364.788	90.06
365.015	103.06
365.241	96.06
365.468	102.06
365.694	94.06
365.92	78.06
366.147	80.06
366.373	97.06
366.599	79.06
366.826	94.06
367.052	74.06
367.278	106.06
367.505	108.06
367.731	107.06
367.957	92.06
368.184	101.06
368.41	94.06
368.636	93.06
368.862	109.06
369.089	99.06
369.315	95.06
369.541	91.06
369.767	85.06
369.993	79.06
370.219	99.06
370.445	91.06
370.672	80.06
370.898	91.06
371.124	94.06
371.35	79.06
371.576	99.06
371.802	94.06
372.028	98.06
372.254	90.06
372.48	87.06
372.706	104.06
372.932	83.06
373.158	91.06
373.384	92.06
373.61	91.06
373.835	72.06
374.061	90.06
374.287	92.06
374.513	88.06
374.739	95.06
374.965	88.06
375.191	98.06
375.416	96.06
375.642	91.06
375.868	94.06
376.094	99.06
376.319	81.06
376.545	88.06
376.771	90.06
376.997	91.06
377.222	96.06
377.448	97.06
377.674	88.06
377.899	72.06
378.125	91.06
378.35	77.06
378.576	80.06
378.802	104.06
379.027	92.06
379.253	89.06
379.478	103.06
379.704	100.06
379.929	109.06
380.155	107.06
380.38	96.06
380.606	103.06
380.831	96.06
381.057	92.06
381.282	98.06
381.507	85.06
381.733	97.06
381.958	100.06
382.184	99.06
382.409	94.06
382.634	100.06
382.86	100.06
383.085	100.06
383.31	101.06
383.535	97.06
383.761	90.06
383.986	93.06
384.211	86.06
384.436	86.06
384.662	95.06
384.887	85.06
385.112	106.06
385.337	109.06
385.562	98.06
385.787	111.06
386.013	95.06
386.238	104.06
386.463	108.06
386.688	100.06
386.913	109.06
387.138	97.06
387.363	104.06
387.588	99.06
387.813	110.06
388.038	101.06
388.263	114.06
388.488	102.06
388.713	100.06
388.938	104.06
389.163	113.06
389.387	98.06
389.612	91.06
389.837	95.06
390.062	86.06
390.287	94.06
390.512	100.06
390.736	79.06
390.961	87.06
391.186	89.06
391.411	96.06
391.636	87.06
391.86	73.06
392.085	95.06
392.31	86.06
392.534	83.06
392.759	92.06
392.984	100.06
393.208	81.06
393.433	85.06
393.658	90.06
393.882	92.06
394.107	83.06
394.331	73.06
394.556	88.06
394.78	91.06
395.005	89.06
395.229	83.06
395.454	85.06
395.678	89.06
395.903	79.06
396.127	90.06
396.352	88.06
396.576	89.06
396.801	81.06
397.025	93.06
397.249	95.06
397.474	66.06
397.698	82.06
397.922	86.06
398.147	100.06
398.371	82.06
398.595	80.06
398.82	75.06
399.044	77.06
399.268	93.06
399.492	81.06
399.717	108.06
399.941	99.06
400.165	93.06
400.389	92.06
400.613	93.06
400.837	80.06
401.062	95.06
401.286	90.06
401.51	91.06
401.734	87.06
401.958	103.06
402.182	110.06
402.406	139.06
402.63	126.06
402.854	92.06
403.078	103.06
403.302	75.06
403.526	87.06
403.75	82.06
403.974	91.06
404.198	95.06
404.422	99.06
404.645	97.06
404.869	90.06
405.093	89.06
405.317	106.06
405.541	95.06
405.765	89.06
405.988	106.06
406.212	155.06
406.436	205.06
406.66	127.06
406.883	95.06
407.107	92.06
407.331	100.06
407.555	95.06
407.778	81.06
408.002	86.06
408.226	87.06
408.449	80.06
408.673	100.06
408.896	95.06
409.12	96.06
409.344	88.06
409.567	88.06
409.791	95.06
410.014	90.06
410.238	97.06
410.461	100.06
410.685	107.06
410.908	95.06
411.132	107.06
411.355	103.06
411.578	91.06
411.802	83.06
412.025	94.06
412.249	100.06
412.472	98.06
412.695	98.06
412.919	87.06
413.142	78.06
413.365	87.06
413.589	79.06
413.812	79.06
414.035	71.06
414.258	92.06
414.482	80.06
414.705	94.06
414.928	85.06
415.151	87.06
415.374	93.06
415.597	91.06
415.821	86.06
416.044	87.06
416.267	105.06
416.49	87.06
416.713	94.06
416.936	90.06
417.159	91.06
417.382	94.06
417.605	83.06
417.828	97.06
418.051	86.06
418.274	90.06
418.497	88.06
418.72	89.06
418.943	90.06
419.166	89.06
419.389	88.06
419.611	86.06
419.834	93.06
420.057	95.06
420.28	93.06
420.503	80.06
420.726	92.06
420.948	97.06
421.171	96.06
421.394	83.06
421.617	92.06
421.839	85.06
422.062	87.06
422.285	99.06
422.507	96.06
422.73	104.06
422.953	98.06
423.175	96.06
423.398	92.06
423.621	79.06
423.843	81.06
424.066	82.06
424.288	79.06
424.511	85.06
424.733	83.06
424.956	107.06
425.178	84.06
425.401	101.06
425.623	85.06
425.846	109.06
426.068	112.06
426.291	97.06
426.513	99.06
426.735	89.06
426.958	97.06
427.18	94.06
427.402	129.06
427.625	154.06
427.847	122.06
428.069	88.06
428.292	84.06
428.514	87.06
428.736	88.06
428.958	77.06
429.181	75.06
429.403	86.06
429.625	84.06
429.847	103.06
430.069	100.06
430.292	92.06
430.514	83.06
430.736	95.06
430.958	92.06
431.18	80.06
431.402	91.06
431.624	87.06
431.846	98.06
432.068	80.06
432.29	83.06
432.512	93.06
432.734	86.06
432.956	92.06
433.178	104.06
433.4	96.06
433.622	97.06
433.844	81.06
434.066	87.06
434.287	107.06
434.509	87.06
434.731	92.06
434.953	89.06
435.175	97.06
435.397	101.06
435.618	90.06
435.84	101.06
436.062	120.06
436.284	109.06
436.505	108.06
436.727	100.06
436.949	79.06
437.17	83.06
437.392	91.06
437.614	93.06
437.835	105.06
438.057	113.06
438.278	106.06
438.5	103.06
438.721	110.06
438.943	97.06
439.165	85.06
439.386	99.06
439.608	89.06
439.829	96.06
440.05	115.06
440.272	122.06
440.493	108.06
440.715	95.06
440.936	83.06
441.158	93.06
441.379	93.06
441.6	100.06
441.822	96.06
442.043	82.06
442.264	82.06
442.486	91.06
442.707	80.06
442.928	93.06
443.149	128.06
443.371	118.06
443.592	105.06
443.813	119.06
444.034	91.06
444.255	94.06
444.476	84.06
444.698	96.06
444.919	86.06
445.14	117.06
445.361	114.06
445.582	114.06
445.803	135.06
446.024	122.06
446.245	119.06
446.466	92.06
446.687	98.06
446.908	89.06
447.129	80.06
447.35	95.06
447.571	101.06
447.792	86.06
448.013	99.06
448.234	101.06
448.455	97.06
448.675	113.06
448.896	112.06
449.117	83.06
449.338	107.06
449.559	117.06
449.779	131.06
450	96.06
450.221	81.06
450.442	83.06
450.662	86.06
450.883	114.06
451.104	108.06
451.324	77.06
451.545	81.06
451.766	104.06
451.986	107.06
452.207	87.06
452.428	90.06
452.648	93.06
452.869	109.06
453.089	102.06
453.31	105.06
453.53	81.06
453.751	82.06
453.971	102.06
454.192	103.06
454.412	84.06
454.633	81.06
454.853	102.06
455.073	103.06
455.294	100.06
455.514	97.06
455.734	98.06
455.955	90.06
456.175	78.06
456.395	98.06
456.616	99.06
456.836	80.06
457.056	98.06
457.276	83.06
457.497	85.06
457.717	93.06
457.937	85.06
458.157	91.06
458.377	80.06
458.598	92.06
458.818	144.06
459.038	131.06
459.258	108.06
459.478	88.06
459.698	90.06
459.918	91.06
460.138	78.06
460.358	107.06
460.578	102.06
460.798	94.06
461.018	94.06
461.238	89.06
461.458	85.06
461.678	91.06
461.898	93.06
462.118	88.06
462.338	87.06
462.558	100.06
462.777	79.06
462.997	91.06
463.217	84.06
463.437	96.06
463.657	90.06
463.876	82.06
464.096	82.06
464.316	80.06
464.536	99.06
464.755	101.06
464.975	104.06
465.195	135.06
465.414	131.06
465.634	96.06
465.854	93.06
466.073	87.06
466.293	92.06
466.512	82.06
466.732	99.06
466.951	94.06
467.171	91.06
467.391	100.06
467.61	85.06
467.829	97.06
468.049	83.06
468.268	93.06
468.488	89.06
468.707	87.06
468.927	81.06
469.146	95.06
469.365	78.06
469.585	81.06
469.804	83.06
470.023	96.06
470.243	101.06
470.462	77.06
470.681	103.06
470.901	102.06
471.12	90.06
471.339	79.06
471.558	84.06
471.777	89.06
471.997	97.06
472.216	82.06
472.435	88.06
472.654	101.06
472.873	95.06
473.092	75.06
473.311	82.06
473.53	90.06
473.749	76.06
473.968	90.06
474.187	101.06
474.406	92.06
474.625	78.06
474.844	81.06
475.063	91.06
475.282	68.06
475.501	76.06
475.72	80.06
475.939	89.06
476.158	97.06
476.377	80.06
476.596	91.06
476.814	98.06
477.033	110.06
477.252	98.06
477.471	85.06
477.69	90.06
477.908	86.06
478.127	79.06
478.346	97.06
478.564	89.06
478.783	105.06
479.002	89.06
479.22	82.06
479.439	97.06
479.658	97.06
479.876	96.06
480.095	99.06
480.313	96.06
480.532	88.06
480.751	90.06
480.969	94.06
481.188	113.06
481.406	93.06
481.624	98.06
481.843	95.06
482.061	84.06
482.28	77.06
482.498	87.06
482.717	81.06
482.935	74.06
483.153	94.06
483.372	90.06
483.59	97.06
483.808	81.06
484.027	91.06
484.245	90.06
484.463	91.06
484.681	95.06
484.9	96.06
485.118	99.06
485.336	110.06
485.554	103.06
485.772	91.06
485.99	94.06
486.209	99.06
486.427	107.06
486.645	96.06
486.863	98.06
487.081	102.06
487.299	76.06
487.517	102.06
487.735	91.06
487.953	96.06
488.171	81.06
488.389	96.06
488.607	90.06
488.825	103.06
489.043	82.06
489.261	82.06
489.479	92.06
489.696	98.06
489.914	84.06
490.132	96.06
490.35	81.06
490.568	96.06
490.786	92.06
491.003	109.06
491.221	86.06
491.439	93.06
491.657	95.06
491.874	90.06
492.092	95.06
492.31	97.06
492.527	94.06
492.745	80.06
492.963	96.06
493.18	102.06
493.398	103.06
493.615	94.06
493.833	106.06
494.05	83.06
494.268	91.06
494.485	95.06
494.703	87.06
494.92	100.06
495.138	109.06
495.355	75.06
495.573	96.06
495.79	85.06
496.008	90.06
496.225	100.06
496.442	86.06
496.66	93.06
496.877	97.06
497.094	84.06
497.312	91.06
497.529	91.06
497.746	95.06
497.963	85.06
498.181	105.06
498.398	98.06
498.615	95.06
498.832	97.06
499.049	99.06
499.267	98.06
499.484	89.06
499.701	73.06
499.918	89.06
500.135	82.06
500.352	90.06
500.569	93.06
500.786	98.06
501.003	96.06
501.22	99.06
501.437	94.06
501.654	89.06
501.871	88.06
502.088	95.06
502.305	89.06
502.522	105.06
502.739	92.06
502.956	93.06
503.172	102.06
503.389	91.06
503.606	88.06
503.823	95.06
504.04	86.06
504.256	93.06
504.473	97.06
504.69	106.06
504.907	88.06
505.123	88.06
505.34	93.06
505.557	85.06
505.773	82.06
505.99	83.06
506.207	93.06
506.423	98.06
506.64	94.06
506.856	87.06
507.073	99.06
507.289	101.06
507.506	87.06
507.722	104.06
507.939	112.06
508.155	91.06
508.372	99.06
508.588	98.06
508.805	100.06
509.021	95.06
509.238	93.06
509.454	109.06
509.67	97.06
509.887	99.06
510.103	105.06
510.319	209.06
510.536	681.06
510.752	1993.06
510.968	569.06
511.184	152.06
511.401	124.06
511.617	97.06
511.833	98.06
512.049	91.06
512.265	84.06
512.481	92.06
512.698	83.06
512.914	85.06
513.13	100.06
513.346	96.06
513.562	100.06
513.778	85.06
513.994	88.06
514.21	98.06
514.426	110.06
514.642	120.06
514.858	116.06
515.074	155.06
515.29	386.06
515.506	1209.06
515.721	477.06
