Data from Uncirc_1997_H10_HRD10591_00059.txt Node
Date: Wed Jan 03 11:28:42 EST 2024
User: Yrep
Spectrometer: HR+D1059
Trigger mode: 1
Integration Time (sec): 1.000000E-1
Scans to average: 1
Electric dark correction enabled: true
Nonlinearity correction enabled: false
Boxcar width: 0
XAxis mode: Wavelengths
Number of Pixels in Spectrum: 2048
>>>>>Begin Spectral Data<<<<<
223.165	-16.06
223.4	-16.06
223.635	-16.06
223.869	-5.06
224.104	-27.06
224.338	-14.06
224.573	-8.06
224.808	-12.06
225.042	-0.06
225.277	-4.06
225.511	1.94
225.746	10.94
225.98	-6.06
226.215	1.94
226.449	18.94
226.683	8.94
226.918	19.94
227.152	29.94
227.387	36.94
227.621	28.94
227.856	38.94
228.09	47.94
228.324	41.94
228.559	62.94
228.793	55.94
229.027	52.94
229.262	72.94
229.496	86.94
229.73	63.94
229.964	82.94
230.199	71.94
230.433	73.94
230.667	78.94
230.901	74.94
231.136	82.94
231.37	77.94
231.604	66.94
231.838	78.94
232.072	79.94
232.306	94.94
232.541	66.94
232.775	75.94
233.009	82.94
233.243	86.94
233.477	88.94
233.711	81.94
233.945	87.94
234.179	80.94
234.413	73.94
234.647	79.94
234.881	79.94
235.115	78.94
235.349	86.94
235.583	80.94
235.817	92.94
236.051	86.94
236.285	74.94
236.519	74.94
236.753	78.94
236.987	82.94
237.221	87.94
237.455	96.94
237.689	90.94
237.922	74.94
238.156	70.94
238.39	69.94
238.624	81.94
238.858	85.94
239.091	66.94
239.325	76.94
239.559	78.94
239.793	84.94
240.027	81.94
240.26	65.94
240.494	83.94
240.728	90.94
240.961	85.94
241.195	77.94
241.429	77.94
241.662	75.94
241.896	67.94
242.13	64.94
242.363	71.94
242.597	77.94
242.83	88.94
243.064	67.94
243.298	76.94
243.531	78.94
243.765	85.94
243.998	77.94
244.232	64.94
244.465	81.94
244.699	81.94
244.932	75.94
245.166	73.94
245.399	84.94
245.633	66.94
245.866	65.94
246.099	79.94
246.333	73.94
246.566	70.94
246.8	74.94
247.033	90.94
247.266	73.94
247.5	82.94
247.733	79.94
247.966	81.94
248.2	70.94
248.433	80.94
248.666	87.94
248.899	75.94
249.133	81.94
249.366	80.94
249.599	107.94
249.832	79.94
250.066	77.94
250.299	76.94
250.532	86.94
250.765	85.94
250.998	76.94
251.231	67.94
251.465	83.94
251.698	96.94
251.931	69.94
252.164	69.94
252.397	86.94
252.63	97.94
252.863	79.94
253.096	75.94
253.329	90.94
253.562	85.94
253.795	80.94
254.028	84.94
254.261	84.94
254.494	86.94
254.727	85.94
254.96	74.94
255.193	76.94
255.426	80.94
255.659	74.94
255.892	83.94
256.124	86.94
256.357	75.94
256.59	81.94
256.823	75.94
257.056	79.94
257.289	81.94
257.521	78.94
257.754	85.94
257.987	85.94
258.22	76.94
258.452	71.94
258.685	85.94
258.918	72.94
259.151	82.94
259.383	86.94
259.616	89.94
259.849	96.94
260.081	79.94
260.314	78.94
260.547	57.94
260.779	69.94
261.012	82.94
261.244	71.94
261.477	89.94
261.71	106.94
261.942	105.94
262.175	107.94
262.407	84.94
262.64	83.94
262.872	83.94
263.105	79.94
263.337	90.94
263.57	83.94
263.802	80.94
264.035	87.94
264.267	91.94
264.499	63.94
264.732	94.94
264.964	75.94
265.197	81.94
265.429	93.94
265.661	96.94
265.894	92.94
266.126	87.94
266.358	75.94
266.591	81.94
266.823	78.94
267.055	79.94
267.287	94.94
267.52	91.94
267.752	77.94
267.984	81.94
268.216	91.94
268.448	94.94
268.681	92.94
268.913	91.94
269.145	81.94
269.377	77.94
269.609	86.94
269.841	79.94
270.073	84.94
270.306	85.94
270.538	79.94
270.77	85.94
271.002	85.94
271.234	83.94
271.466	82.94
271.698	78.94
271.93	88.94
272.162	95.94
272.394	78.94
272.626	83.94
272.858	81.94
273.09	71.94
273.322	66.94
273.553	82.94
273.785	92.94
274.017	74.94
274.249	85.94
274.481	85.94
274.713	70.94
274.945	77.94
275.176	90.94
275.408	91.94
275.64	78.94
275.872	79.94
276.104	80.94
276.335	93.94
276.567	89.94
276.799	95.94
277.031	81.94
277.262	75.94
277.494	73.94
277.726	82.94
277.957	82.94
278.189	87.94
278.421	78.94
278.652	79.94
278.884	90.94
279.115	86.94
279.347	71.94
279.579	72.94
279.81	90.94
280.042	87.94
280.273	78.94
280.505	78.94
280.736	85.94
280.968	89.94
281.199	90.94
281.431	80.94
281.662	81.94
281.894	75.94
282.125	100.94
282.356	121.94
282.588	131.94
282.819	103.94
283.051	85.94
283.282	93.94
283.513	83.94
283.745	83.94
283.976	87.94
284.207	99.94
284.439	99.94
284.67	69.94
284.901	71.94
285.132	104.94
285.364	74.94
285.595	77.94
285.826	80.94
286.057	83.94
286.288	84.94
286.52	94.94
286.751	85.94
286.982	82.94
287.213	89.94
287.444	85.94
287.675	90.94
287.906	82.94
288.138	87.94
288.369	81.94
288.6	93.94
288.831	88.94
289.062	96.94
289.293	108.94
289.524	80.94
289.755	97.94
289.986	80.94
290.217	86.94
290.448	96.94
290.679	77.94
290.91	81.94
291.141	86.94
291.371	87.94
291.602	93.94
291.833	80.94
292.064	83.94
292.295	85.94
292.526	89.94
292.757	81.94
292.987	64.94
293.218	85.94
293.449	93.94
293.68	98.94
293.91	85.94
294.141	93.94
294.372	91.94
294.603	90.94
294.833	91.94
295.064	87.94
295.295	95.94
295.525	97.94
295.756	85.94
295.987	98.94
296.217	123.94
296.448	109.94
296.679	80.94
296.909	83.94
297.14	85.94
297.37	84.94
297.601	94.94
297.831	72.94
298.062	99.94
298.292	89.94
298.523	92.94
298.753	86.94
298.984	95.94
299.214	90.94
299.445	95.94
299.675	89.94
299.905	99.94
300.136	95.94
300.366	78.94
300.597	87.94
300.827	76.94
301.057	95.94
301.288	103.94
301.518	83.94
301.748	87.94
301.979	91.94
302.209	89.94
302.439	84.94
302.669	79.94
302.9	87.94
303.13	79.94
303.36	87.94
303.59	81.94
303.82	101.94
304.051	106.94
304.281	86.94
304.511	95.94
304.741	90.94
304.971	98.94
305.201	95.94
305.431	90.94
305.661	89.94
305.891	101.94
306.121	91.94
306.352	104.94
306.582	95.94
306.812	91.94
307.042	85.94
307.272	83.94
307.502	85.94
307.731	95.94
307.961	92.94
308.191	93.94
308.421	85.94
308.651	79.94
308.881	103.94
309.111	86.94
309.341	95.94
309.571	105.94
309.8	99.94
310.03	84.94
310.26	103.94
310.49	97.94
310.72	111.94
310.949	94.94
311.179	89.94
311.409	96.94
311.639	96.94
311.868	109.94
312.098	102.94
312.328	86.94
312.557	91.94
312.787	91.94
313.017	93.94
313.246	89.94
313.476	97.94
313.706	96.94
313.935	93.94
314.165	86.94
314.394	95.94
314.624	85.94
314.853	99.94
315.083	88.94
315.312	92.94
315.542	87.94
315.771	79.94
316.001	89.94
316.23	87.94
316.46	90.94
316.689	91.94
316.919	88.94
317.148	93.94
317.377	103.94
317.607	91.94
317.836	98.94
318.065	85.94
318.295	94.94
318.524	79.94
318.753	91.94
318.983	85.94
319.212	100.94
319.441	108.94
319.67	86.94
319.9	105.94
320.129	99.94
320.358	98.94
320.587	95.94
320.816	92.94
321.046	94.94
321.275	92.94
321.504	111.94
321.733	86.94
321.962	97.94
322.191	100.94
322.42	97.94
322.649	95.94
322.878	134.94
323.108	109.94
323.337	122.94
323.566	116.94
323.795	127.94
324.024	190.94
324.253	346.94
324.482	713.94
324.71	1429.94
324.939	1953.94
325.168	692.94
325.397	220.94
325.626	133.94
325.855	124.94
326.084	119.94
326.313	130.94
326.542	137.94
326.77	205.94
326.999	403.94
327.228	790.94
327.457	1511.94
327.686	1177.94
327.914	325.94
328.143	179.94
328.372	134.94
328.6	106.94
328.829	112.94
329.058	116.94
329.287	119.94
329.515	106.94
329.744	109.94
329.972	111.94
330.201	101.94
330.43	104.94
330.658	121.94
330.887	122.94
331.115	117.94
331.344	97.94
331.572	88.94
331.801	104.94
332.03	105.94
332.258	94.94
332.486	109.94
332.715	95.94
332.943	101.94
333.172	95.94
333.4	95.94
333.629	109.94
333.857	119.94
334.085	94.94
334.314	109.94
334.542	93.94
334.771	93.94
334.999	105.94
335.227	83.94
335.455	90.94
335.684	93.94
335.912	101.94
336.14	77.94
336.369	90.94
336.597	107.94
336.825	99.94
337.053	82.94
337.281	93.94
337.51	94.94
337.738	87.94
337.966	81.94
338.194	98.94
338.422	93.94
338.65	95.94
338.878	86.94
339.106	81.94
339.334	107.94
339.562	89.94
339.79	81.94
340.018	90.94
340.246	79.94
340.474	86.94
340.702	88.94
340.93	99.94
341.158	89.94
341.386	98.94
341.614	92.94
341.842	93.94
342.07	84.94
342.298	97.94
342.526	91.94
342.754	81.94
342.981	85.94
343.209	90.94
343.437	106.94
343.665	87.94
343.893	81.94
344.12	66.94
344.348	91.94
344.576	75.94
344.804	89.94
345.031	95.94
345.259	93.94
345.487	85.94
345.714	95.94
345.942	86.94
346.17	80.94
346.397	89.94
346.625	97.94
346.853	89.94
347.08	96.94
347.308	89.94
347.535	86.94
347.763	79.94
347.99	104.94
348.218	106.94
348.445	98.94
348.673	89.94
348.9	100.94
349.128	95.94
349.355	96.94
349.583	90.94
349.81	105.94
350.037	89.94
350.265	93.94
350.492	93.94
350.72	100.94
350.947	87.94
351.174	89.94
351.402	113.94
351.629	113.94
351.856	101.94
352.083	102.94
352.311	102.94
352.538	89.94
352.765	101.94
352.992	87.94
353.22	110.94
353.447	96.94
353.674	91.94
353.901	101.94
354.128	90.94
354.355	93.94
354.583	102.94
354.81	92.94
355.037	93.94
355.264	93.94
355.491	82.94
355.718	99.94
355.945	105.94
356.172	86.94
356.399	99.94
356.626	95.94
356.853	98.94
357.08	66.94
357.307	91.94
357.534	83.94
357.761	99.94
357.988	99.94
358.215	99.94
358.441	90.94
358.668	96.94
358.895	82.94
359.122	79.94
359.349	95.94
359.576	98.94
359.802	99.94
360.029	103.94
360.256	93.94
360.483	93.94
360.709	78.94
360.936	101.94
361.163	99.94
361.39	78.94
361.616	88.94
361.843	91.94
362.07	88.94
362.296	95.94
362.523	91.94
362.749	89.94
362.976	93.94
363.203	100.94
363.429	99.94
363.656	90.94
363.882	93.94
364.109	108.94
364.335	101.94
364.562	100.94
364.788	81.94
365.015	89.94
365.241	91.94
365.468	110.94
365.694	110.94
365.92	98.94
366.147	93.94
366.373	71.94
366.599	79.94
366.826	81.94
367.052	82.94
367.278	77.94
367.505	88.94
367.731	96.94
367.957	83.94
368.184	101.94
368.41	91.94
368.636	101.94
368.862	102.94
369.089	113.94
369.315	89.94
369.541	94.94
369.767	80.94
369.993	98.94
370.219	77.94
370.445	89.94
370.672	92.94
370.898	85.94
371.124	79.94
371.35	74.94
371.576	81.94
371.802	81.94
372.028	91.94
372.254	90.94
372.48	81.94
372.706	75.94
372.932	78.94
373.158	94.94
373.384	93.94
373.61	93.94
373.835	104.94
374.061	91.94
374.287	85.94
374.513	87.94
374.739	92.94
374.965	80.94
375.191	67.94
375.416	110.94
375.642	95.94
375.868	90.94
376.094	90.94
376.319	89.94
376.545	88.94
376.771	92.94
376.997	80.94
377.222	94.94
377.448	93.94
377.674	97.94
377.899	86.94
378.125	97.94
378.35	103.94
378.576	80.94
378.802	86.94
379.027	78.94
379.253	78.94
379.478	90.94
379.704	90.94
379.929	92.94
380.155	77.94
380.38	97.94
380.606	94.94
380.831	86.94
381.057	108.94
381.282	79.94
381.507	96.94
381.733	109.94
381.958	101.94
382.184	90.94
382.409	96.94
382.634	92.94
382.86	88.94
383.085	90.94
383.31	99.94
383.535	105.94
383.761	90.94
383.986	91.94
384.211	100.94
384.436	97.94
384.662	88.94
384.887	98.94
385.112	113.94
385.337	111.94
385.562	103.94
385.787	103.94
386.013	96.94
386.238	114.94
386.463	95.94
386.688	97.94
386.913	95.94
387.138	91.94
387.363	107.94
387.588	96.94
387.813	89.94
388.038	98.94
388.263	95.94
388.488	114.94
388.713	113.94
388.938	101.94
389.163	82.94
389.387	81.94
389.612	74.94
389.837	105.94
390.062	82.94
390.287	72.94
390.512	97.94
390.736	89.94
390.961	94.94
391.186	85.94
391.411	83.94
391.636	77.94
391.86	74.94
392.085	95.94
392.31	91.94
392.534	86.94
392.759	64.94
392.984	82.94
393.208	94.94
393.433	91.94
393.658	90.94
393.882	83.94
394.107	97.94
394.331	93.94
394.556	81.94
394.78	81.94
395.005	90.94
395.229	86.94
395.454	99.94
395.678	65.94
395.903	76.94
396.127	87.94
396.352	92.94
396.576	92.94
396.801	89.94
397.025	88.94
397.249	77.94
397.474	94.94
397.698	91.94
397.922	86.94
398.147	96.94
398.371	62.94
398.595	87.94
398.82	85.94
399.044	84.94
399.268	82.94
399.492	89.94
399.717	76.94
399.941	75.94
400.165	83.94
400.389	87.94
400.613	96.94
400.837	95.94
401.062	94.94
401.286	94.94
401.51	104.94
401.734	92.94
401.958	104.94
402.182	127.94
402.406	153.94
402.63	120.94
402.854	76.94
403.078	84.94
403.302	79.94
403.526	88.94
403.75	91.94
403.974	87.94
404.198	78.94
404.422	90.94
404.645	82.94
404.869	88.94
405.093	90.94
405.317	86.94
405.541	95.94
405.765	99.94
405.988	97.94
406.212	172.94
406.436	209.94
406.66	139.94
406.883	103.94
407.107	89.94
407.331	100.94
407.555	93.94
407.778	96.94
408.002	81.94
408.226	103.94
408.449	87.94
408.673	82.94
408.896	85.94
409.12	96.94
409.344	83.94
409.567	81.94
409.791	86.94
410.014	81.94
410.238	95.94
410.461	101.94
410.685	91.94
410.908	99.94
411.132	109.94
411.355	103.94
411.578	81.94
411.802	93.94
412.025	79.94
412.249	86.94
412.472	81.94
412.695	92.94
412.919	91.94
413.142	90.94
413.365	72.94
413.589	102.94
413.812	94.94
414.035	92.94
414.258	82.94
414.482	84.94
414.705	71.94
414.928	95.94
415.151	85.94
415.374	73.94
415.597	87.94
415.821	98.94
416.044	86.94
416.267	82.94
416.49	104.94
416.713	78.94
416.936	91.94
417.159	96.94
417.382	87.94
417.605	79.94
417.828	94.94
418.051	87.94
418.274	83.94
418.497	92.94
418.72	81.94
418.943	85.94
419.166	89.94
419.389	98.94
419.611	89.94
419.834	87.94
420.057	83.94
420.28	81.94
420.503	79.94
420.726	90.94
420.948	75.94
421.171	88.94
421.394	92.94
421.617	97.94
421.839	88.94
422.062	82.94
422.285	89.94
422.507	86.94
422.73	97.94
422.953	89.94
423.175	94.94
423.398	82.94
423.621	95.94
423.843	90.94
424.066	82.94
424.288	89.94
424.511	83.94
424.733	102.94
424.956	86.94
425.178	93.94
425.401	97.94
425.623	78.94
425.846	79.94
426.068	82.94
426.291	94.94
426.513	93.94
426.735	89.94
426.958	84.94
427.18	95.94
427.402	119.94
427.625	135.94
427.847	119.94
428.069	101.94
428.292	89.94
428.514	97.94
428.736	93.94
428.958	91.94
429.181	85.94
429.403	81.94
429.625	76.94
429.847	90.94
430.069	99.94
430.292	85.94
430.514	81.94
430.736	89.94
430.958	73.94
431.18	90.94
431.402	83.94
431.624	91.94
431.846	92.94
432.068	66.94
432.29	74.94
432.512	96.94
432.734	83.94
432.956	87.94
433.178	107.94
433.4	115.94
433.622	94.94
433.844	93.94
434.066	85.94
434.287	102.94
434.509	93.94
434.731	94.94
434.953	85.94
435.175	83.94
435.397	85.94
435.618	97.94
435.84	89.94
436.062	119.94
436.284	112.94
436.505	91.94
436.727	96.94
436.949	85.94
437.17	91.94
437.392	84.94
437.614	87.94
437.835	94.94
438.057	128.94
438.278	114.94
438.5	103.94
438.721	121.94
438.943	102.94
439.165	95.94
439.386	71.94
439.608	81.94
439.829	79.94
440.05	100.94
440.272	129.94
440.493	88.94
440.715	84.94
440.936	84.94
441.158	82.94
441.379	94.94
441.6	87.94
441.822	92.94
442.043	85.94
442.264	106.94
442.486	93.94
442.707	81.94
442.928	103.94
443.149	122.94
443.371	125.94
443.592	93.94
443.813	95.94
444.034	110.94
444.255	99.94
444.476	88.94
444.698	86.94
444.919	89.94
445.14	131.94
445.361	120.94
445.582	96.94
445.803	140.94
446.024	119.94
446.245	105.94
446.466	101.94
446.687	91.94
446.908	88.94
447.129	80.94
447.35	82.94
447.571	83.94
447.792	92.94
448.013	99.94
448.234	110.94
448.455	93.94
448.675	89.94
448.896	108.94
449.117	94.94
449.338	98.94
449.559	123.94
449.779	109.94
450	91.94
450.221	101.94
450.442	92.94
450.662	83.94
450.883	98.94
451.104	111.94
451.324	97.94
451.545	99.94
451.766	87.94
451.986	90.94
452.207	93.94
452.428	105.94
452.648	99.94
452.869	99.94
453.089	117.94
453.31	111.94
453.53	80.94
453.751	82.94
453.971	104.94
454.192	114.94
454.412	86.94
454.633	85.94
454.853	63.94
455.073	91.94
455.294	79.94
455.514	97.94
455.734	82.94
455.955	78.94
456.175	77.94
456.395	79.94
456.616	64.94
456.836	93.94
457.056	103.94
457.276	87.94
457.497	101.94
457.717	86.94
457.937	98.94
458.157	102.94
458.377	103.94
458.598	104.94
458.818	155.94
459.038	150.94
459.258	101.94
459.478	85.94
459.698	99.94
459.918	91.94
460.138	84.94
460.358	75.94
460.578	85.94
460.798	87.94
461.018	97.94
461.238	78.94
461.458	85.94
461.678	89.94
461.898	86.94
462.118	91.94
462.338	99.94
462.558	80.94
462.777	73.94
462.997	97.94
463.217	74.94
463.437	77.94
463.657	82.94
463.876	81.94
464.096	88.94
464.316	108.94
464.536	90.94
464.755	93.94
464.975	94.94
465.195	154.94
465.414	151.94
465.634	99.94
465.854	85.94
466.073	87.94
466.293	83.94
466.512	79.94
466.732	93.94
466.951	98.94
467.171	92.94
467.391	100.94
467.61	113.94
467.829	85.94
468.049	97.94
468.268	95.94
468.488	89.94
468.707	77.94
468.927	90.94
469.146	94.94
469.365	92.94
469.585	86.94
469.804	86.94
470.023	91.94
470.243	90.94
470.462	82.94
470.681	107.94
470.901	89.94
471.12	94.94
471.339	82.94
471.558	94.94
471.777	82.94
471.997	88.94
472.216	87.94
472.435	98.94
472.654	76.94
472.873	100.94
473.092	95.94
473.311	95.94
473.53	110.94
473.749	98.94
473.968	81.94
474.187	96.94
474.406	95.94
474.625	99.94
474.844	91.94
475.063	82.94
475.282	90.94
475.501	101.94
475.72	87.94
475.939	89.94
476.158	90.94
476.377	72.94
476.596	77.94
476.814	90.94
477.033	85.94
477.252	89.94
477.471	84.94
477.69	95.94
477.908	91.94
478.127	89.94
478.346	88.94
478.564	86.94
478.783	99.94
479.002	91.94
479.22	89.94
479.439	96.94
479.658	102.94
479.876	87.94
480.095	71.94
480.313	75.94
480.532	95.94
480.751	95.94
480.969	89.94
481.188	109.94
481.406	91.94
481.624	91.94
481.843	80.94
482.061	82.94
482.28	77.94
482.498	82.94
482.717	85.94
482.935	89.94
483.153	82.94
483.372	80.94
483.59	91.94
483.808	94.94
484.027	93.94
484.245	83.94
484.463	102.94
484.681	96.94
484.9	83.94
485.118	96.94
485.336	93.94
485.554	98.94
485.772	82.94
485.99	97.94
486.209	100.94
486.427	114.94
486.645	102.94
486.863	105.94
487.081	93.94
487.299	111.94
487.517	84.94
487.735	69.94
487.953	79.94
488.171	108.94
488.389	96.94
488.607	97.94
488.825	74.94
489.043	101.94
489.261	87.94
489.479	96.94
489.696	79.94
489.914	85.94
490.132	80.94
490.35	98.94
490.568	97.94
490.786	92.94
491.003	86.94
491.221	90.94
491.439	85.94
491.657	96.94
491.874	94.94
492.092	83.94
492.31	90.94
492.527	97.94
492.745	81.94
492.963	85.94
493.18	95.94
493.398	98.94
493.615	96.94
493.833	98.94
494.05	74.94
494.268	98.94
494.485	98.94
494.703	83.94
494.92	94.94
495.138	89.94
495.355	94.94
495.573	93.94
495.79	95.94
496.008	91.94
496.225	90.94
496.442	78.94
496.66	94.94
496.877	104.94
497.094	85.94
497.312	87.94
497.529	92.94
497.746	92.94
497.963	89.94
498.181	90.94
498.398	95.94
498.615	95.94
498.832	111.94
499.049	83.94
499.267	83.94
499.484	90.94
499.701	77.94
499.918	97.94
500.135	78.94
500.352	93.94
500.569	73.94
500.786	77.94
501.003	83.94
501.22	89.94
501.437	75.94
501.654	95.94
501.871	99.94
502.088	89.94
502.305	79.94
502.522	93.94
502.739	95.94
502.956	93.94
503.172	95.94
503.389	85.94
503.606	100.94
503.823	79.94
504.04	101.94
504.256	90.94
504.473	95.94
504.69	85.94
504.907	81.94
505.123	86.94
505.34	94.94
505.557	84.94
505.773	88.94
505.99	100.94
506.207	87.94
506.423	94.94
506.64	99.94
506.856	91.94
507.073	84.94
507.289	86.94
507.506	92.94
507.722	105.94
507.939	94.94
508.155	86.94
508.372	92.94
508.588	95.94
508.805	83.94
509.021	85.94
509.238	89.94
509.454	113.94
509.67	102.94
509.887	115.94
510.103	127.94
510.319	195.94
510.536	657.94
510.752	2069.94
510.968	588.94
511.184	149.94
511.401	116.94
511.617	90.94
511.833	89.94
512.049	91.94
512.265	80.94
512.481	96.94
512.698	113.94
512.914	98.94
513.13	109.94
513.346	96.94
513.562	96.94
513.778	84.94
513.994	99.94
514.21	99.94
514.426	111.94
514.642	128.94
514.858	113.94
515.074	144.94
515.29	399.94
515.506	1292.94
515.721	473.94
515.937	141.94
516.153	117.94
516.369	86.94
516.585	89.94
516.801	85.94
