Data from Uncirc_1997_H10_HRD10591_00024.txt Node
Date: Wed Jan 03 11:28:35 EST 2024
User: Yrep
Spectrometer: HR+D1059
Trigger mode: 1
Integration Time (sec): 1.000000E-1
Scans to average: 1
Electric dark correction enabled: true
Nonlinearity correction enabled: false
Boxcar width: 0
XAxis mode: Wavelengths
Number of Pixels in Spectrum: 2048
>>>>>Begin Spectral Data<<<<<
223.165	-6.12
223.4	-6.12
223.635	-6.12
223.869	-14.12
224.104	-24.12
224.338	-21.12
224.573	-13.12
224.808	-16.12
225.042	-7.12
225.277	-16.12
225.511	-12.12
225.746	10.88
225.98	8.88
226.215	12.88
226.449	22.88
226.683	23.88
226.918	32.88
227.152	17.88
227.387	26.88
227.621	39.88
227.856	37.88
228.09	43.88
228.324	45.88
228.559	64.88
228.793	58.88
229.027	80.88
229.262	55.88
229.496	77.88
229.73	89.88
229.964	75.88
230.199	59.88
230.433	59.88
230.667	79.88
230.901	83.88
231.136	82.88
231.37	79.88
231.604	81.88
231.838	90.88
232.072	96.88
232.306	86.88
232.541	65.88
232.775	87.88
233.009	78.88
233.243	72.88
233.477	81.88
233.711	90.88
233.945	84.88
234.179	78.88
234.413	95.88
234.647	77.88
234.881	85.88
235.115	72.88
235.349	79.88
235.583	82.88
235.817	83.88
236.051	89.88
236.285	75.88
236.519	85.88
236.753	79.88
236.987	73.88
237.221	82.88
237.455	91.88
237.689	69.88
237.922	79.88
238.156	75.88
238.39	85.88
238.624	78.88
238.858	85.88
239.091	79.88
239.325	74.88
239.559	79.88
239.793	90.88
240.027	93.88
240.26	82.88
240.494	84.88
240.728	82.88
240.961	72.88
241.195	69.88
241.429	65.88
241.662	65.88
241.896	86.88
242.13	82.88
242.363	79.88
242.597	73.88
242.83	79.88
243.064	64.88
243.298	77.88
243.531	71.88
243.765	69.88
243.998	88.88
244.232	92.88
244.465	79.88
244.699	63.88
244.932	75.88
245.166	77.88
245.399	81.88
245.633	72.88
245.866	90.88
246.099	76.88
246.333	64.88
246.566	70.88
246.8	77.88
247.033	74.88
247.266	92.88
247.5	81.88
247.733	65.88
247.966	83.88
248.2	72.88
248.433	81.88
248.666	91.88
248.899	80.88
249.133	86.88
249.366	81.88
249.599	89.88
249.832	83.88
250.066	93.88
250.299	85.88
250.532	74.88
250.765	81.88
250.998	91.88
251.231	88.88
251.465	80.88
251.698	67.88
251.931	75.88
252.164	78.88
252.397	79.88
252.63	81.88
252.863	88.88
253.096	77.88
253.329	69.88
253.562	79.88
253.795	81.88
254.028	77.88
254.261	66.88
254.494	95.88
254.727	76.88
254.96	82.88
255.193	83.88
255.426	84.88
255.659	93.88
255.892	77.88
256.124	74.88
256.357	71.88
256.59	80.88
256.823	75.88
257.056	73.88
257.289	91.88
257.521	73.88
257.754	84.88
257.987	90.88
258.22	81.88
258.452	96.88
258.685	74.88
258.918	77.88
259.151	91.88
259.383	77.88
259.616	86.88
259.849	78.88
260.081	92.88
260.314	89.88
260.547	91.88
260.779	76.88
261.012	79.88
261.244	92.88
261.477	81.88
261.71	77.88
261.942	96.88
262.175	117.88
262.407	81.88
262.64	86.88
262.872	73.88
263.105	79.88
263.337	90.88
263.57	94.88
263.802	78.88
264.035	76.88
264.267	91.88
264.499	79.88
264.732	99.88
264.964	98.88
265.197	99.88
265.429	88.88
265.661	75.88
265.894	82.88
266.126	85.88
266.358	86.88
266.591	82.88
266.823	76.88
267.055	89.88
267.287	82.88
267.52	95.88
267.752	72.88
267.984	74.88
268.216	94.88
268.448	77.88
268.681	87.88
268.913	85.88
269.145	80.88
269.377	78.88
269.609	73.88
269.841	97.88
270.073	79.88
270.306	79.88
270.538	73.88
270.77	94.88
271.002	84.88
271.234	84.88
271.466	85.88
271.698	87.88
271.93	86.88
272.162	98.88
272.394	97.88
272.626	75.88
272.858	85.88
273.09	89.88
273.322	88.88
273.553	97.88
273.785	99.88
274.017	90.88
274.249	85.88
274.481	87.88
274.713	81.88
274.945	80.88
275.176	86.88
275.408	92.88
275.64	89.88
275.872	84.88
276.104	87.88
276.335	105.88
276.567	82.88
276.799	93.88
277.031	96.88
277.262	76.88
277.494	82.88
277.726	82.88
277.957	98.88
278.189	71.88
278.421	89.88
278.652	96.88
278.884	74.88
279.115	84.88
279.347	82.88
279.579	86.88
279.81	80.88
280.042	90.88
280.273	95.88
280.505	85.88
280.736	86.88
280.968	80.88
281.199	78.88
281.431	92.88
281.662	96.88
281.894	94.88
282.125	96.88
282.356	105.88
282.588	114.88
282.819	103.88
283.051	93.88
283.282	88.88
283.513	89.88
283.745	89.88
283.976	75.88
284.207	85.88
284.439	78.88
284.67	87.88
284.901	85.88
285.132	81.88
285.364	81.88
285.595	79.88
285.826	81.88
286.057	78.88
286.288	82.88
286.52	88.88
286.751	91.88
286.982	79.88
287.213	85.88
287.444	85.88
287.675	95.88
287.906	79.88
288.138	93.88
288.369	83.88
288.6	87.88
288.831	91.88
289.062	82.88
289.293	90.88
289.524	91.88
289.755	85.88
289.986	79.88
290.217	100.88
290.448	89.88
290.679	89.88
290.91	80.88
291.141	89.88
291.371	87.88
291.602	92.88
291.833	82.88
292.064	89.88
292.295	88.88
292.526	97.88
292.757	82.88
292.987	95.88
293.218	90.88
293.449	78.88
293.68	111.88
293.91	101.88
294.141	81.88
294.372	91.88
294.603	89.88
294.833	85.88
295.064	82.88
295.295	89.88
295.525	94.88
295.756	108.88
295.987	89.88
296.217	124.88
296.448	110.88
296.679	93.88
296.909	68.88
297.14	97.88
297.37	92.88
297.601	83.88
297.831	91.88
298.062	88.88
298.292	78.88
298.523	89.88
298.753	101.88
298.984	95.88
299.214	93.88
299.445	96.88
299.675	73.88
299.905	82.88
300.136	81.88
300.366	89.88
300.597	101.88
300.827	112.88
301.057	91.88
301.288	98.88
301.518	101.88
301.748	83.88
301.979	105.88
302.209	93.88
302.439	87.88
302.669	82.88
302.9	84.88
303.13	98.88
303.36	85.88
303.59	110.88
303.82	94.88
304.051	76.88
304.281	86.88
304.511	86.88
304.741	90.88
304.971	99.88
305.201	81.88
305.431	79.88
305.661	98.88
305.891	91.88
306.121	98.88
306.352	94.88
306.582	102.88
306.812	85.88
307.042	97.88
307.272	90.88
307.502	83.88
307.731	95.88
307.961	95.88
308.191	89.88
308.421	92.88
308.651	84.88
308.881	93.88
309.111	87.88
309.341	99.88
309.571	84.88
309.8	89.88
310.03	97.88
310.26	89.88
310.49	94.88
310.72	99.88
310.949	102.88
311.179	96.88
311.409	99.88
311.639	94.88
311.868	95.88
312.098	103.88
312.328	89.88
312.557	94.88
312.787	92.88
313.017	88.88
313.246	93.88
313.476	85.88
313.706	104.88
313.935	88.88
314.165	97.88
314.394	94.88
314.624	85.88
314.853	97.88
315.083	96.88
315.312	101.88
315.542	93.88
315.771	91.88
316.001	92.88
316.23	90.88
316.46	93.88
316.689	92.88
316.919	91.88
317.148	81.88
317.377	83.88
317.607	97.88
317.836	102.88
318.065	87.88
318.295	87.88
318.524	95.88
318.753	91.88
318.983	96.88
319.212	90.88
319.441	101.88
319.67	103.88
319.9	97.88
320.129	100.88
320.358	73.88
320.587	99.88
320.816	78.88
321.046	104.88
321.275	94.88
321.504	82.88
321.733	83.88
321.962	104.88
322.191	103.88
322.42	93.88
322.649	92.88
322.878	109.88
323.108	117.88
323.337	119.88
323.566	104.88
323.795	126.88
324.024	181.88
324.253	310.88
324.482	653.88
324.71	1281.88
324.939	1684.88
325.168	611.88
325.397	188.88
325.626	145.88
325.855	117.88
326.084	119.88
326.313	122.88
326.542	129.88
326.77	191.88
326.999	361.88
327.228	768.88
327.457	1363.88
327.686	1057.88
327.914	292.88
328.143	158.88
328.372	133.88
328.6	98.88
328.829	103.88
329.058	110.88
329.287	106.88
329.515	117.88
329.744	96.88
329.972	103.88
330.201	89.88
330.43	94.88
330.658	105.88
330.887	132.88
331.115	128.88
331.344	106.88
331.572	89.88
331.801	94.88
332.03	96.88
332.258	111.88
332.486	97.88
332.715	89.88
332.943	80.88
333.172	82.88
333.4	98.88
333.629	103.88
333.857	95.88
334.085	109.88
334.314	87.88
334.542	97.88
334.771	100.88
334.999	85.88
335.227	113.88
335.455	108.88
335.684	82.88
335.912	89.88
336.14	101.88
336.369	106.88
336.597	94.88
336.825	84.88
337.053	102.88
337.281	79.88
337.51	85.88
337.738	92.88
337.966	99.88
338.194	90.88
338.422	96.88
338.65	83.88
338.878	85.88
339.106	80.88
339.334	97.88
339.562	90.88
339.79	94.88
340.018	86.88
340.246	81.88
340.474	98.88
340.702	88.88
340.93	92.88
341.158	89.88
341.386	91.88
341.614	101.88
341.842	91.88
342.07	88.88
342.298	87.88
342.526	77.88
342.754	99.88
342.981	87.88
343.209	78.88
343.437	92.88
343.665	83.88
343.893	90.88
344.12	83.88
344.348	83.88
344.576	76.88
344.804	93.88
345.031	86.88
345.259	85.88
345.487	89.88
345.714	92.88
345.942	97.88
346.17	102.88
346.397	87.88
346.625	105.88
346.853	99.88
347.08	112.88
347.308	91.88
347.535	91.88
347.763	102.88
347.99	92.88
348.218	90.88
348.445	99.88
348.673	92.88
348.9	92.88
349.128	83.88
349.355	90.88
349.583	80.88
349.81	90.88
350.037	103.88
350.265	106.88
350.492	91.88
350.72	90.88
350.947	82.88
351.174	99.88
351.402	99.88
351.629	95.88
351.856	91.88
352.083	106.88
352.311	105.88
352.538	102.88
352.765	98.88
352.992	107.88
353.22	110.88
353.447	97.88
353.674	95.88
353.901	98.88
354.128	91.88
354.355	94.88
354.583	94.88
354.81	82.88
355.037	82.88
355.264	85.88
355.491	87.88
355.718	102.88
355.945	91.88
356.172	98.88
356.399	89.88
356.626	97.88
356.853	96.88
357.08	87.88
357.307	87.88
357.534	87.88
357.761	107.88
357.988	94.88
358.215	99.88
358.441	94.88
358.668	91.88
358.895	97.88
359.122	89.88
359.349	92.88
359.576	92.88
359.802	93.88
360.029	115.88
360.256	97.88
360.483	89.88
360.709	82.88
360.936	104.88
361.163	81.88
361.39	101.88
361.616	89.88
361.843	83.88
362.07	107.88
362.296	98.88
362.523	92.88
362.749	91.88
362.976	93.88
363.203	97.88
363.429	90.88
363.656	101.88
363.882	95.88
364.109	103.88
364.335	90.88
364.562	92.88
364.788	103.88
365.015	104.88
365.241	91.88
365.468	98.88
365.694	101.88
365.92	99.88
366.147	84.88
366.373	78.88
366.599	81.88
366.826	88.88
367.052	89.88
367.278	81.88
367.505	91.88
367.731	95.88
367.957	77.88
368.184	87.88
368.41	99.88
368.636	104.88
368.862	104.88
369.089	95.88
369.315	79.88
369.541	92.88
369.767	93.88
369.993	94.88
370.219	88.88
370.445	93.88
370.672	86.88
370.898	74.88
371.124	71.88
371.35	87.88
371.576	95.88
371.802	87.88
372.028	86.88
372.254	64.88
372.48	90.88
372.706	90.88
372.932	78.88
373.158	91.88
373.384	89.88
373.61	94.88
373.835	73.88
374.061	89.88
374.287	83.88
374.513	90.88
374.739	100.88
374.965	85.88
375.191	84.88
375.416	87.88
375.642	85.88
375.868	88.88
376.094	104.88
376.319	77.88
376.545	81.88
376.771	82.88
376.997	97.88
377.222	82.88
377.448	94.88
377.674	95.88
377.899	99.88
378.125	91.88
378.35	92.88
378.576	86.88
378.802	105.88
379.027	94.88
379.253	77.88
379.478	79.88
379.704	98.88
379.929	90.88
380.155	98.88
380.38	109.88
380.606	98.88
380.831	100.88
381.057	98.88
381.282	95.88
381.507	98.88
381.733	88.88
381.958	90.88
382.184	75.88
382.409	87.88
382.634	98.88
382.86	106.88
383.085	81.88
383.31	96.88
383.535	102.88
383.761	104.88
383.986	97.88
384.211	95.88
384.436	91.88
384.662	93.88
384.887	77.88
385.112	92.88
385.337	115.88
385.562	109.88
385.787	110.88
386.013	95.88
386.238	107.88
386.463	95.88
386.688	104.88
386.913	95.88
387.138	102.88
387.363	111.88
387.588	96.88
387.813	88.88
388.038	97.88
388.263	99.88
388.488	96.88
388.713	83.88
388.938	93.88
389.163	86.88
389.387	102.88
389.612	94.88
389.837	89.88
390.062	93.88
390.287	78.88
390.512	100.88
390.736	104.88
390.961	93.88
391.186	93.88
391.411	96.88
391.636	98.88
391.86	83.88
392.085	78.88
392.31	86.88
392.534	79.88
392.759	88.88
392.984	91.88
393.208	90.88
393.433	98.88
393.658	86.88
393.882	91.88
394.107	85.88
394.331	93.88
394.556	80.88
394.78	81.88
395.005	94.88
395.229	93.88
395.454	87.88
395.678	86.88
395.903	89.88
396.127	83.88
396.352	91.88
396.576	96.88
396.801	80.88
397.025	85.88
397.249	87.88
397.474	85.88
397.698	90.88
397.922	74.88
398.147	75.88
398.371	80.88
398.595	89.88
398.82	88.88
399.044	99.88
399.268	96.88
399.492	89.88
399.717	86.88
399.941	93.88
400.165	94.88
400.389	80.88
400.613	87.88
400.837	77.88
401.062	76.88
401.286	89.88
401.51	75.88
401.734	80.88
401.958	116.88
402.182	111.88
402.406	117.88
402.63	105.88
402.854	91.88
403.078	99.88
403.302	81.88
403.526	84.88
403.75	91.88
403.974	88.88
404.198	91.88
404.422	89.88
404.645	84.88
404.869	90.88
405.093	94.88
405.317	86.88
405.541	87.88
405.765	94.88
405.988	109.88
406.212	141.88
406.436	169.88
406.66	105.88
406.883	99.88
407.107	81.88
407.331	95.88
407.555	93.88
407.778	82.88
408.002	83.88
408.226	91.88
408.449	93.88
408.673	90.88
408.896	82.88
409.12	94.88
409.344	90.88
409.567	77.88
409.791	75.88
410.014	87.88
410.238	108.88
410.461	85.88
410.685	103.88
410.908	93.88
411.132	93.88
411.355	99.88
411.578	97.88
411.802	96.88
412.025	86.88
412.249	87.88
412.472	87.88
412.695	80.88
412.919	79.88
413.142	72.88
413.365	88.88
413.589	89.88
413.812	91.88
414.035	98.88
414.258	94.88
414.482	89.88
414.705	88.88
414.928	74.88
415.151	98.88
415.374	81.88
415.597	98.88
415.821	85.88
416.044	79.88
416.267	68.88
416.49	80.88
416.713	85.88
416.936	90.88
417.159	76.88
417.382	81.88
417.605	79.88
417.828	100.88
418.051	87.88
418.274	77.88
418.497	80.88
418.72	87.88
418.943	83.88
419.166	84.88
419.389	83.88
419.611	88.88
419.834	97.88
420.057	78.88
420.28	81.88
420.503	80.88
420.726	89.88
420.948	85.88
421.171	93.88
421.394	104.88
421.617	104.88
421.839	82.88
422.062	76.88
422.285	89.88
422.507	91.88
422.73	102.88
422.953	89.88
423.175	95.88
423.398	99.88
423.621	102.88
423.843	106.88
424.066	80.88
424.288	87.88
424.511	92.88
424.733	96.88
424.956	97.88
425.178	89.88
425.401	102.88
425.623	93.88
425.846	86.88
426.068	95.88
426.291	86.88
426.513	93.88
426.735	92.88
426.958	80.88
427.18	102.88
427.402	126.88
427.625	116.88
427.847	120.88
428.069	83.88
428.292	89.88
428.514	91.88
428.736	72.88
428.958	86.88
429.181	82.88
429.403	90.88
429.625	86.88
429.847	104.88
430.069	95.88
430.292	97.88
430.514	87.88
430.736	80.88
430.958	80.88
431.18	91.88
431.402	70.88
431.624	82.88
431.846	85.88
432.068	94.88
432.29	91.88
432.512	103.88
432.734	95.88
432.956	80.88
433.178	99.88
433.4	96.88
433.622	85.88
433.844	78.88
434.066	83.88
434.287	89.88
434.509	93.88
434.731	76.88
434.953	83.88
435.175	92.88
435.397	97.88
435.618	88.88
435.84	81.88
436.062	90.88
436.284	109.88
436.505	99.88
436.727	87.88
436.949	100.88
437.17	77.88
437.392	88.88
437.614	87.88
437.835	92.88
438.057	103.88
438.278	97.88
438.5	98.88
438.721	101.88
438.943	101.88
439.165	74.88
439.386	80.88
439.608	88.88
439.829	85.88
440.05	95.88
440.272	106.88
440.493	89.88
440.715	79.88
440.936	94.88
441.158	94.88
441.379	97.88
441.6	70.88
441.822	96.88
442.043	72.88
442.264	93.88
442.486	102.88
442.707	88.88
442.928	99.88
443.149	106.88
443.371	111.88
443.592	87.88
443.813	99.88
444.034	102.88
444.255	93.88
444.476	81.88
444.698	97.88
444.919	106.88
445.14	138.88
445.361	110.88
445.582	97.88
445.803	118.88
446.024	123.88
446.245	121.88
446.466	108.88
446.687	89.88
446.908	95.88
447.129	86.88
447.35	87.88
447.571	98.88
447.792	91.88
448.013	93.88
448.234	96.88
448.455	87.88
448.675	119.88
448.896	99.88
449.117	99.88
449.338	93.88
449.559	117.88
449.779	121.88
450	89.88
450.221	75.88
450.442	93.88
450.662	71.88
450.883	90.88
451.104	108.88
451.324	77.88
451.545	75.88
451.766	84.88
451.986	87.88
452.207	100.88
452.428	80.88
452.648	80.88
452.869	86.88
453.089	110.88
453.31	102.88
453.53	91.88
453.751	97.88
453.971	94.88
454.192	88.88
454.412	81.88
454.633	81.88
454.853	85.88
455.073	82.88
455.294	89.88
455.514	81.88
455.734	78.88
455.955	87.88
456.175	81.88
456.395	81.88
456.616	92.88
456.836	98.88
457.056	77.88
457.276	85.88
457.497	102.88
457.717	93.88
457.937	82.88
458.157	95.88
458.377	85.88
458.598	98.88
458.818	125.88
459.038	137.88
459.258	109.88
459.478	73.88
459.698	73.88
459.918	89.88
460.138	86.88
460.358	89.88
460.578	90.88
460.798	80.88
461.018	91.88
461.238	110.88
461.458	90.88
461.678	85.88
461.898	83.88
462.118	93.88
462.338	87.88
462.558	91.88
462.777	93.88
462.997	82.88
463.217	78.88
463.437	81.88
463.657	83.88
463.876	93.88
464.096	97.88
464.316	84.88
464.536	94.88
464.755	109.88
464.975	109.88
465.195	137.88
465.414	122.88
465.634	86.88
465.854	87.88
466.073	89.88
466.293	84.88
466.512	80.88
466.732	89.88
466.951	91.88
467.171	78.88
467.391	100.88
467.61	105.88
467.829	96.88
468.049	83.88
468.268	82.88
468.488	72.88
468.707	81.88
468.927	91.88
469.146	80.88
469.365	77.88
469.585	95.88
469.804	95.88
470.023	92.88
470.243	99.88
470.462	94.88
470.681	97.88
470.901	90.88
471.12	92.88
471.339	99.88
471.558	88.88
471.777	90.88
471.997	80.88
472.216	88.88
472.435	90.88
472.654	93.88
472.873	88.88
473.092	87.88
473.311	77.88
473.53	89.88
473.749	98.88
473.968	90.88
474.187	91.88
474.406	84.88
474.625	89.88
474.844	77.88
475.063	92.88
475.282	91.88
475.501	86.88
475.72	75.88
475.939	84.88
476.158	92.88
476.377	83.88
476.596	79.88
476.814	88.88
477.033	87.88
477.252	85.88
477.471	88.88
477.69	89.88
477.908	85.88
478.127	86.88
478.346	80.88
478.564	71.88
478.783	94.88
479.002	95.88
479.22	74.88
479.439	89.88
479.658	87.88
479.876	87.88
480.095	81.88
480.313	84.88
480.532	86.88
480.751	87.88
480.969	97.88
481.188	117.88
481.406	103.88
481.624	75.88
481.843	78.88
482.061	86.88
482.28	98.88
482.498	90.88
482.717	82.88
482.935	84.88
483.153	98.88
483.372	81.88
483.59	77.88
483.808	71.88
484.027	87.88
484.245	95.88
484.463	78.88
484.681	96.88
484.9	95.88
485.118	87.88
485.336	88.88
485.554	93.88
485.772	95.88
485.99	95.88
486.209	110.88
486.427	103.88
486.645	121.88
486.863	98.88
487.081	98.88
487.299	98.88
487.517	102.88
487.735	76.88
487.953	93.88
488.171	86.88
488.389	96.88
488.607	101.88
488.825	91.88
489.043	86.88
489.261	100.88
489.479	83.88
489.696	88.88
489.914	73.88
490.132	90.88
490.35	93.88
490.568	88.88
490.786	87.88
491.003	80.88
491.221	86.88
491.439	90.88
491.657	74.88
491.874	95.88
492.092	103.88
492.31	82.88
492.527	92.88
492.745	82.88
492.963	86.88
493.18	85.88
493.398	102.88
493.615	98.88
493.833	96.88
494.05	93.88
494.268	92.88
494.485	103.88
494.703	87.88
494.92	88.88
495.138	77.88
495.355	77.88
495.573	86.88
495.79	90.88
496.008	82.88
496.225	96.88
496.442	78.88
496.66	90.88
496.877	86.88
497.094	89.88
497.312	102.88
497.529	95.88
497.746	93.88
497.963	78.88
498.181	99.88
498.398	99.88
498.615	97.88
498.832	103.88
499.049	87.88
499.267	73.88
499.484	96.88
499.701	82.88
499.918	97.88
500.135	103.88
500.352	84.88
500.569	89.88
500.786	88.88
501.003	83.88
501.22	84.88
501.437	86.88
501.654	99.88
501.871	98.88
502.088	112.88
502.305	98.88
502.522	84.88
502.739	92.88
502.956	86.88
503.172	81.88
503.389	96.88
503.606	86.88
503.823	96.88
504.04	99.88
504.256	99.88
504.473	62.88
504.69	97.88
504.907	95.88
505.123	71.88
505.34	87.88
505.557	87.88
505.773	91.88
505.99	86.88
506.207	91.88
506.423	85.88
506.64	84.88
506.856	90.88
507.073	74.88
507.289	94.88
507.506	81.88
507.722	95.88
507.939	100.88
508.155	97.88
508.372	92.88
508.588	77.88
508.805	103.88
509.021	96.88
509.238	95.88
509.454	102.88
509.67	90.88
509.887	98.88
510.103	112.88
510.319	174.88
510.536	599.88
510.752	1735.88
510.968	491.88
511.184	131.88
511.401	113.88
511.617	103.88
511.833	80.88
512.049	85.88
512.265	89.88
512.481	89.88
512.698	87.88
512.914	96.88
513.13	110.88
513.346	99.88
513.562	93.88
513.778	102.88
513.994	94.88
514.21	90.88
514.426	100.88
514.642	108.88
514.858	103.88
515.074	153.88
515.29	346.88
515.506	1017.88
515.721	389.88
515.937	136.88
516.153	101.88
516.369	102.88
516.585	80.88
516.801	92.88
517.016	95.88
