Data from Uncirc_1997_H10_HRD10591_00079.txt Node
Date: Wed Jan 03 11:28:46 EST 2024
User: Yrep
Spectrometer: HR+D1059
Trigger mode: 1
Integration Time (sec): 1.000000E-1
Scans to average: 1
Electric dark correction enabled: true
Nonlinearity correction enabled: false
Boxcar width: 0
XAxis mode: Wavelengths
Number of Pixels in Spectrum: 2048
>>>>>Begin Spectral Data<<<<<
223.165	-24.69
223.4	-24.69
223.635	-24.69
223.869	-25.69
224.104	-16.69
224.338	-11.69
224.573	-9.69
224.808	-9.69
225.042	-18.69
225.277	-2.69
225.511	-8.69
225.746	15.31
225.98	3.31
226.215	15.31
226.449	23.31
226.683	21.31
226.918	26.31
227.152	23.31
227.387	21.31
227.621	28.31
227.856	39.31
228.09	42.31
228.324	51.31
228.559	57.31
228.793	51.31
229.027	64.31
229.262	68.31
229.496	79.31
229.73	80.31
229.964	79.31
230.199	78.31
230.433	64.31
230.667	72.31
230.901	74.31
231.136	88.31
231.37	69.31
231.604	75.31
231.838	75.31
232.072	77.31
232.306	83.31
232.541	72.31
232.775	83.31
233.009	72.31
233.243	59.31
233.477	67.31
233.711	71.31
233.945	73.31
234.179	75.31
234.413	71.31
234.647	88.31
234.881	83.31
235.115	78.31
235.349	65.31
235.583	88.31
235.817	79.31
236.051	89.31
236.285	79.31
236.519	75.31
236.753	76.31
236.987	90.31
237.221	87.31
237.455	83.31
237.689	71.31
237.922	83.31
238.156	75.31
238.39	78.31
238.624	61.31
238.858	69.31
239.091	67.31
239.325	85.31
239.559	76.31
239.793	76.31
240.027	64.31
240.26	76.31
240.494	83.31
240.728	76.31
240.961	79.31
241.195	70.31
241.429	58.31
241.662	62.31
241.896	68.31
242.13	67.31
242.363	64.31
242.597	74.31
242.83	72.31
243.064	84.31
243.298	60.31
243.531	65.31
243.765	81.31
243.998	89.31
244.232	73.31
244.465	91.31
244.699	85.31
244.932	85.31
245.166	85.31
245.399	68.31
245.633	71.31
245.866	59.31
246.099	85.31
246.333	93.31
246.566	79.31
246.8	74.31
247.033	71.31
247.266	70.31
247.5	80.31
247.733	68.31
247.966	68.31
248.2	74.31
248.433	81.31
248.666	86.31
248.899	87.31
249.133	85.31
249.366	82.31
249.599	94.31
249.832	79.31
250.066	64.31
250.299	75.31
250.532	74.31
250.765	86.31
250.998	81.31
251.231	69.31
251.465	75.31
251.698	79.31
251.931	78.31
252.164	73.31
252.397	80.31
252.63	81.31
252.863	65.31
253.096	72.31
253.329	77.31
253.562	76.31
253.795	80.31
254.028	78.31
254.261	73.31
254.494	71.31
254.727	80.31
254.96	81.31
255.193	78.31
255.426	90.31
255.659	85.31
255.892	74.31
256.124	84.31
256.357	78.31
256.59	85.31
256.823	75.31
257.056	78.31
257.289	83.31
257.521	86.31
257.754	66.31
257.987	75.31
258.22	63.31
258.452	81.31
258.685	68.31
258.918	78.31
259.151	68.31
259.383	77.31
259.616	75.31
259.849	77.31
260.081	89.31
260.314	75.31
260.547	80.31
260.779	75.31
261.012	86.31
261.244	91.31
261.477	82.31
261.71	88.31
261.942	100.31
262.175	96.31
262.407	78.31
262.64	96.31
262.872	72.31
263.105	92.31
263.337	77.31
263.57	81.31
263.802	88.31
264.035	72.31
264.267	67.31
264.499	63.31
264.732	76.31
264.964	96.31
265.197	89.31
265.429	83.31
265.661	65.31
265.894	77.31
266.126	87.31
266.358	77.31
266.591	71.31
266.823	95.31
267.055	70.31
267.287	70.31
267.52	87.31
267.752	76.31
267.984	81.31
268.216	86.31
268.448	77.31
268.681	85.31
268.913	74.31
269.145	89.31
269.377	82.31
269.609	85.31
269.841	75.31
270.073	69.31
270.306	63.31
270.538	93.31
270.77	91.31
271.002	77.31
271.234	72.31
271.466	75.31
271.698	92.31
271.93	85.31
272.162	92.31
272.394	81.31
272.626	63.31
272.858	87.31
273.09	80.31
273.322	81.31
273.553	71.31
273.785	87.31
274.017	87.31
274.249	88.31
274.481	92.31
274.713	85.31
274.945	96.31
275.176	81.31
275.408	83.31
275.64	78.31
275.872	93.31
276.104	79.31
276.335	82.31
276.567	91.31
276.799	96.31
277.031	92.31
277.262	93.31
277.494	84.31
277.726	87.31
277.957	80.31
278.189	76.31
278.421	77.31
278.652	83.31
278.884	77.31
279.115	74.31
279.347	72.31
279.579	74.31
279.81	84.31
280.042	80.31
280.273	86.31
280.505	71.31
280.736	74.31
280.968	91.31
281.199	94.31
281.431	75.31
281.662	79.31
281.894	92.31
282.125	78.31
282.356	99.31
282.588	132.31
282.819	110.31
283.051	99.31
283.282	86.31
283.513	82.31
283.745	89.31
283.976	74.31
284.207	90.31
284.439	90.31
284.67	90.31
284.901	86.31
285.132	80.31
285.364	87.31
285.595	73.31
285.826	85.31
286.057	89.31
286.288	87.31
286.52	93.31
286.751	99.31
286.982	96.31
287.213	83.31
287.444	76.31
287.675	96.31
287.906	92.31
288.138	92.31
288.369	87.31
288.6	85.31
288.831	82.31
289.062	64.31
289.293	86.31
289.524	71.31
289.755	84.31
289.986	75.31
290.217	87.31
290.448	83.31
290.679	79.31
290.91	84.31
291.141	75.31
291.371	77.31
291.602	98.31
291.833	92.31
292.064	79.31
292.295	84.31
292.526	91.31
292.757	90.31
292.987	77.31
293.218	79.31
293.449	92.31
293.68	87.31
293.91	86.31
294.141	87.31
294.372	94.31
294.603	86.31
294.833	79.31
295.064	92.31
295.295	77.31
295.525	87.31
295.756	83.31
295.987	95.31
296.217	122.31
296.448	131.31
296.679	83.31
296.909	90.31
297.14	87.31
297.37	84.31
297.601	89.31
297.831	87.31
298.062	86.31
298.292	68.31
298.523	94.31
298.753	75.31
298.984	96.31
299.214	88.31
299.445	95.31
299.675	91.31
299.905	92.31
300.136	83.31
300.366	88.31
300.597	91.31
300.827	87.31
301.057	110.31
301.288	85.31
301.518	85.31
301.748	79.31
301.979	86.31
302.209	93.31
302.439	71.31
302.669	82.31
302.9	85.31
303.13	84.31
303.36	92.31
303.59	101.31
303.82	100.31
304.051	77.31
304.281	66.31
304.511	86.31
304.741	89.31
304.971	83.31
305.201	76.31
305.431	93.31
305.661	88.31
305.891	92.31
306.121	97.31
306.352	91.31
306.582	93.31
306.812	82.31
307.042	90.31
307.272	92.31
307.502	96.31
307.731	97.31
307.961	89.31
308.191	108.31
308.421	92.31
308.651	75.31
308.881	86.31
309.111	91.31
309.341	80.31
309.571	86.31
309.8	77.31
310.03	80.31
310.26	87.31
310.49	96.31
310.72	93.31
310.949	106.31
311.179	87.31
311.409	84.31
311.639	90.31
311.868	85.31
312.098	88.31
312.328	88.31
312.557	100.31
312.787	95.31
313.017	83.31
313.246	88.31
313.476	80.31
313.706	88.31
313.935	90.31
314.165	96.31
314.394	80.31
314.624	94.31
314.853	93.31
315.083	99.31
315.312	80.31
315.542	86.31
315.771	93.31
316.001	87.31
316.23	93.31
316.46	86.31
316.689	87.31
316.919	71.31
317.148	84.31
317.377	103.31
317.607	92.31
317.836	80.31
318.065	95.31
318.295	93.31
318.524	102.31
318.753	88.31
318.983	100.31
319.212	99.31
319.441	96.31
319.67	105.31
319.9	97.31
320.129	97.31
320.358	87.31
320.587	79.31
320.816	93.31
321.046	103.31
321.275	95.31
321.504	93.31
321.733	84.31
321.962	95.31
322.191	93.31
322.42	92.31
322.649	98.31
322.878	103.31
323.108	100.31
323.337	109.31
323.566	121.31
323.795	151.31
324.024	208.31
324.253	364.31
324.482	753.31
324.71	1503.31
324.939	2009.31
325.168	735.31
325.397	227.31
325.626	133.31
325.855	112.31
326.084	131.31
326.313	117.31
326.542	124.31
326.77	193.31
326.999	421.31
327.228	851.31
327.457	1565.31
327.686	1243.31
327.914	334.31
328.143	174.31
328.372	129.31
328.6	115.31
328.829	111.31
329.058	102.31
329.287	123.31
329.515	103.31
329.744	105.31
329.972	92.31
330.201	91.31
330.43	100.31
330.658	122.31
330.887	139.31
331.115	106.31
331.344	97.31
331.572	97.31
331.801	119.31
332.03	96.31
332.258	97.31
332.486	89.31
332.715	100.31
332.943	81.31
333.172	100.31
333.4	101.31
333.629	117.31
333.857	103.31
334.085	94.31
334.314	100.31
334.542	97.31
334.771	108.31
334.999	98.31
335.227	95.31
335.455	104.31
335.684	106.31
335.912	93.31
336.14	93.31
336.369	85.31
336.597	85.31
336.825	93.31
337.053	80.31
337.281	85.31
337.51	94.31
337.738	79.31
337.966	89.31
338.194	87.31
338.422	95.31
338.65	83.31
338.878	80.31
339.106	82.31
339.334	95.31
339.562	88.31
339.79	80.31
340.018	87.31
340.246	104.31
340.474	85.31
340.702	84.31
340.93	92.31
341.158	94.31
341.386	97.31
341.614	83.31
341.842	94.31
342.07	86.31
342.298	86.31
342.526	91.31
342.754	87.31
342.981	89.31
343.209	81.31
343.437	77.31
343.665	86.31
343.893	84.31
344.12	98.31
344.348	84.31
344.576	96.31
344.804	85.31
345.031	98.31
345.259	96.31
345.487	82.31
345.714	84.31
345.942	100.31
346.17	90.31
346.397	94.31
346.625	83.31
346.853	88.31
347.08	93.31
347.308	92.31
347.535	91.31
347.763	96.31
347.99	99.31
348.218	116.31
348.445	110.31
348.673	94.31
348.9	87.31
349.128	95.31
349.355	80.31
349.583	97.31
349.81	115.31
350.037	92.31
350.265	85.31
350.492	84.31
350.72	86.31
350.947	102.31
351.174	94.31
351.402	120.31
351.629	103.31
351.856	85.31
352.083	93.31
352.311	100.31
352.538	104.31
352.765	82.31
352.992	111.31
353.22	102.31
353.447	99.31
353.674	103.31
353.901	79.31
354.128	98.31
354.355	88.31
354.583	90.31
354.81	93.31
355.037	94.31
355.264	93.31
355.491	90.31
355.718	99.31
355.945	92.31
356.172	102.31
356.399	87.31
356.626	100.31
356.853	94.31
357.08	87.31
357.307	92.31
357.534	90.31
357.761	88.31
357.988	86.31
358.215	103.31
358.441	86.31
358.668	88.31
358.895	99.31
359.122	95.31
359.349	95.31
359.576	83.31
359.802	93.31
360.029	102.31
360.256	111.31
360.483	100.31
360.709	97.31
360.936	91.31
361.163	88.31
361.39	85.31
361.616	90.31
361.843	83.31
362.07	99.31
362.296	82.31
362.523	83.31
362.749	78.31
362.976	81.31
363.203	92.31
363.429	94.31
363.656	80.31
363.882	95.31
364.109	87.31
364.335	88.31
364.562	83.31
364.788	89.31
365.015	91.31
365.241	102.31
365.468	96.31
365.694	101.31
365.92	90.31
366.147	83.31
366.373	94.31
366.599	79.31
366.826	75.31
367.052	85.31
367.278	103.31
367.505	87.31
367.731	90.31
367.957	89.31
368.184	78.31
368.41	89.31
368.636	114.31
368.862	104.31
369.089	104.31
369.315	100.31
369.541	94.31
369.767	83.31
369.993	89.31
370.219	85.31
370.445	72.31
370.672	79.31
370.898	83.31
371.124	91.31
371.35	84.31
371.576	92.31
371.802	94.31
372.028	75.31
372.254	81.31
372.48	90.31
372.706	96.31
372.932	82.31
373.158	85.31
373.384	84.31
373.61	90.31
373.835	92.31
374.061	71.31
374.287	83.31
374.513	88.31
374.739	91.31
374.965	83.31
375.191	86.31
375.416	77.31
375.642	97.31
375.868	80.31
376.094	96.31
376.319	80.31
376.545	79.31
376.771	83.31
376.997	76.31
377.222	86.31
377.448	87.31
377.674	102.31
377.899	102.31
378.125	75.31
378.35	85.31
378.576	81.31
378.802	72.31
379.027	75.31
379.253	96.31
379.478	74.31
379.704	77.31
379.929	79.31
380.155	85.31
380.38	87.31
380.606	67.31
380.831	90.31
381.057	91.31
381.282	99.31
381.507	92.31
381.733	101.31
381.958	87.31
382.184	95.31
382.409	90.31
382.634	99.31
382.86	95.31
383.085	96.31
383.31	99.31
383.535	99.31
383.761	87.31
383.986	99.31
384.211	80.31
384.436	103.31
384.662	90.31
384.887	85.31
385.112	89.31
385.337	77.31
385.562	92.31
385.787	105.31
386.013	93.31
386.238	111.31
386.463	104.31
386.688	104.31
386.913	94.31
387.138	106.31
387.363	97.31
387.588	77.31
387.813	100.31
388.038	92.31
388.263	85.31
388.488	112.31
388.713	100.31
388.938	104.31
389.163	96.31
389.387	98.31
389.612	93.31
389.837	93.31
390.062	82.31
390.287	83.31
390.512	92.31
390.736	82.31
390.961	92.31
391.186	90.31
391.411	94.31
391.636	90.31
391.86	90.31
392.085	87.31
392.31	78.31
392.534	82.31
392.759	82.31
392.984	90.31
393.208	99.31
393.433	88.31
393.658	100.31
393.882	78.31
394.107	87.31
394.331	91.31
394.556	83.31
394.78	89.31
395.005	76.31
395.229	72.31
395.454	71.31
395.678	74.31
395.903	76.31
396.127	80.31
396.352	79.31
396.576	69.31
396.801	95.31
397.025	71.31
397.249	80.31
397.474	64.31
397.698	87.31
397.922	81.31
398.147	79.31
398.371	89.31
398.595	79.31
398.82	87.31
399.044	93.31
399.268	90.31
399.492	86.31
399.717	85.31
399.941	97.31
400.165	87.31
400.389	72.31
400.613	78.31
400.837	84.31
401.062	78.31
401.286	86.31
401.51	77.31
401.734	96.31
401.958	83.31
402.182	124.31
402.406	136.31
402.63	79.31
402.854	92.31
403.078	85.31
403.302	92.31
403.526	85.31
403.75	73.31
403.974	92.31
404.198	87.31
404.422	89.31
404.645	91.31
404.869	94.31
405.093	79.31
405.317	79.31
405.541	87.31
405.765	92.31
405.988	94.31
406.212	169.31
406.436	199.31
406.66	126.31
406.883	89.31
407.107	100.31
407.331	79.31
407.555	83.31
407.778	100.31
408.002	88.31
408.226	76.31
408.449	89.31
408.673	70.31
408.896	87.31
409.12	81.31
409.344	81.31
409.567	90.31
409.791	87.31
410.014	91.31
410.238	86.31
410.461	88.31
410.685	96.31
410.908	100.31
411.132	110.31
411.355	88.31
411.578	71.31
411.802	90.31
412.025	87.31
412.249	90.31
412.472	96.31
412.695	84.31
412.919	80.31
413.142	108.31
413.365	83.31
413.589	68.31
413.812	82.31
414.035	85.31
414.258	92.31
414.482	107.31
414.705	89.31
414.928	92.31
415.151	72.31
415.374	96.31
415.597	94.31
415.821	91.31
416.044	88.31
416.267	84.31
416.49	81.31
416.713	88.31
416.936	100.31
417.159	72.31
417.382	77.31
417.605	76.31
417.828	89.31
418.051	85.31
418.274	93.31
418.497	80.31
418.72	86.31
418.943	87.31
419.166	75.31
419.389	80.31
419.611	93.31
419.834	100.31
420.057	83.31
420.28	84.31
420.503	71.31
420.726	83.31
420.948	83.31
421.171	90.31
421.394	90.31
421.617	93.31
421.839	89.31
422.062	103.31
422.285	89.31
422.507	92.31
422.73	87.31
422.953	97.31
423.175	76.31
423.398	78.31
423.621	83.31
423.843	87.31
424.066	82.31
424.288	71.31
424.511	91.31
424.733	97.31
424.956	88.31
425.178	89.31
425.401	102.31
425.623	89.31
425.846	86.31
426.068	93.31
426.291	83.31
426.513	90.31
426.735	77.31
426.958	95.31
427.18	109.31
427.402	141.31
427.625	150.31
427.847	116.31
428.069	93.31
428.292	70.31
428.514	77.31
428.736	95.31
428.958	89.31
429.181	69.31
429.403	83.31
429.625	80.31
429.847	84.31
430.069	92.31
430.292	90.31
430.514	76.31
430.736	81.31
430.958	71.31
431.18	80.31
431.402	80.31
431.624	67.31
431.846	88.31
432.068	81.31
432.29	89.31
432.512	94.31
432.734	89.31
432.956	108.31
433.178	99.31
433.4	78.31
433.622	93.31
433.844	95.31
434.066	91.31
434.287	88.31
434.509	79.31
434.731	75.31
434.953	90.31
435.175	83.31
435.397	85.31
435.618	71.31
435.84	95.31
436.062	104.31
436.284	120.31
436.505	101.31
436.727	108.31
436.949	105.31
437.17	75.31
437.392	75.31
437.614	81.31
437.835	102.31
438.057	96.31
438.278	92.31
438.5	95.31
438.721	110.31
438.943	92.31
439.165	91.31
439.386	75.31
439.608	99.31
439.829	106.31
440.05	117.31
440.272	119.31
440.493	87.31
440.715	92.31
440.936	80.31
441.158	103.31
441.379	88.31
441.6	86.31
441.822	91.31
442.043	88.31
442.264	95.31
442.486	94.31
442.707	90.31
442.928	104.31
443.149	124.31
443.371	110.31
443.592	94.31
443.813	115.31
444.034	112.31
444.255	85.31
444.476	79.31
444.698	96.31
444.919	77.31
445.14	121.31
445.361	118.31
445.582	102.31
445.803	131.31
446.024	124.31
446.245	124.31
446.466	104.31
446.687	89.31
446.908	77.31
447.129	87.31
447.35	85.31
447.571	92.31
447.792	97.31
448.013	91.31
448.234	97.31
448.455	100.31
448.675	97.31
448.896	105.31
449.117	89.31
449.338	98.31
449.559	125.31
449.779	134.31
450	92.31
450.221	95.31
450.442	82.31
450.662	80.31
450.883	91.31
451.104	97.31
451.324	92.31
451.545	77.31
451.766	79.31
451.986	82.31
452.207	64.31
452.428	87.31
452.648	85.31
452.869	101.31
453.089	100.31
453.31	103.31
453.53	84.31
453.751	89.31
453.971	99.31
454.192	97.31
454.412	93.31
454.633	84.31
454.853	93.31
455.073	89.31
455.294	87.31
455.514	102.31
455.734	88.31
455.955	77.31
456.175	68.31
456.395	85.31
456.616	87.31
456.836	88.31
457.056	77.31
457.276	77.31
457.497	74.31
457.717	90.31
457.937	67.31
458.157	86.31
458.377	71.31
458.598	102.31
458.818	124.31
459.038	132.31
459.258	108.31
459.478	81.31
459.698	84.31
459.918	77.31
460.138	70.31
460.358	75.31
460.578	83.31
460.798	93.31
461.018	92.31
461.238	82.31
461.458	89.31
461.678	88.31
461.898	84.31
462.118	87.31
462.338	77.31
462.558	96.31
462.777	103.31
462.997	83.31
463.217	77.31
463.437	89.31
463.657	78.31
463.876	87.31
464.096	92.31
464.316	95.31
464.536	100.31
464.755	75.31
464.975	98.31
465.195	140.31
465.414	133.31
465.634	82.31
465.854	81.31
466.073	86.31
466.293	85.31
466.512	91.31
466.732	97.31
466.951	81.31
467.171	91.31
467.391	83.31
467.61	94.31
467.829	95.31
468.049	93.31
468.268	79.31
468.488	96.31
468.707	79.31
468.927	99.31
469.146	84.31
469.365	91.31
469.585	91.31
469.804	104.31
470.023	83.31
470.243	94.31
470.462	85.31
470.681	100.31
470.901	83.31
471.12	91.31
471.339	78.31
471.558	92.31
471.777	85.31
471.997	71.31
472.216	91.31
472.435	99.31
472.654	81.31
472.873	84.31
473.092	84.31
473.311	75.31
473.53	74.31
473.749	89.31
473.968	99.31
474.187	97.31
474.406	98.31
474.625	79.31
474.844	83.31
475.063	81.31
475.282	83.31
475.501	91.31
475.72	91.31
475.939	76.31
476.158	71.31
476.377	94.31
476.596	100.31
476.814	90.31
477.033	92.31
477.252	87.31
477.471	94.31
477.69	94.31
477.908	79.31
478.127	78.31
478.346	81.31
478.564	88.31
478.783	76.31
479.002	76.31
479.22	91.31
479.439	103.31
479.658	106.31
479.876	78.31
480.095	96.31
480.313	95.31
480.532	93.31
480.751	99.31
480.969	79.31
481.188	110.31
481.406	89.31
481.624	81.31
481.843	97.31
482.061	91.31
482.28	80.31
482.498	88.31
482.717	81.31
482.935	79.31
483.153	93.31
483.372	75.31
483.59	82.31
483.808	83.31
484.027	91.31
484.245	77.31
484.463	80.31
484.681	96.31
484.9	93.31
485.118	86.31
485.336	88.31
485.554	89.31
485.772	78.31
485.99	103.31
486.209	104.31
486.427	98.31
486.645	89.31
486.863	112.31
487.081	93.31
487.299	92.31
487.517	89.31
487.735	96.31
487.953	92.31
488.171	89.31
488.389	99.31
488.607	88.31
488.825	87.31
489.043	80.31
489.261	95.31
489.479	83.31
489.696	83.31
489.914	92.31
490.132	82.31
490.35	79.31
490.568	86.31
490.786	81.31
491.003	92.31
491.221	73.31
491.439	93.31
491.657	85.31
491.874	82.31
492.092	84.31
492.31	83.31
492.527	73.31
492.745	91.31
492.963	81.31
493.18	103.31
493.398	87.31
493.615	85.31
493.833	89.31
494.05	69.31
494.268	89.31
494.485	84.31
494.703	78.31
494.92	89.31
495.138	82.31
495.355	96.31
495.573	80.31
495.79	87.31
496.008	86.31
496.225	80.31
496.442	101.31
496.66	83.31
496.877	80.31
497.094	83.31
497.312	79.31
497.529	85.31
497.746	96.31
497.963	95.31
498.181	98.31
498.398	109.31
498.615	101.31
498.832	101.31
499.049	96.31
499.267	84.31
499.484	86.31
499.701	85.31
499.918	87.31
500.135	69.31
500.352	82.31
500.569	84.31
500.786	94.31
501.003	94.31
501.22	96.31
501.437	76.31
501.654	90.31
501.871	94.31
502.088	83.31
502.305	85.31
502.522	80.31
502.739	97.31
502.956	91.31
503.172	82.31
503.389	85.31
503.606	103.31
503.823	90.31
504.04	83.31
504.256	95.31
504.473	79.31
504.69	108.31
504.907	88.31
505.123	98.31
505.34	77.31
505.557	89.31
505.773	101.31
505.99	84.31
506.207	83.31
506.423	80.31
506.64	89.31
506.856	88.31
507.073	83.31
507.289	77.31
507.506	92.31
507.722	109.31
507.939	103.31
508.155	87.31
508.372	83.31
508.588	92.31
508.805	105.31
509.021	100.31
509.238	102.31
509.454	100.31
509.67	102.31
509.887	116.31
510.103	106.31
510.319	189.31
510.536	694.31
510.752	2137.31
510.968	577.31
511.184	143.31
511.401	90.31
511.617	93.31
511.833	94.31
512.049	89.31
512.265	85.31
512.481	99.31
512.698	93.31
512.914	97.31
513.13	92.31
513.346	88.31
513.562	89.31
513.778	86.31
513.994	75.31
514.21	94.31
514.426	90.31
514.642	137.31
514.858	106.31
515.074	148.31
515.29	407.31
515.506	1333.31
515.721	477.31
515.937	143.31
516.153	97.31
516.369	100.31
516.585	76.31
516.801	87.31
517.016	90.31
517.232	86.31
