Data from Uncirc_1997_H10_HRD10591_00093.txt Node
Date: Wed Jan 03 11:28:49 EST 2024
User: Yrep
Spectrometer: HR+D1059
Trigger mode: 1
Integration Time (sec): 1.000000E-1
Scans to average: 1
Electric dark correction enabled: true
Nonlinearity correction enabled: false
Boxcar width: 0
XAxis mode: Wavelengths
Number of Pixels in Spectrum: 2048
>>>>>Begin Spectral Data<<<<<
223.165	-11.56
223.4	-11.56
223.635	-11.56
223.869	-34.56
224.104	-20.56
224.338	-15.56
224.573	-36.56
224.808	-21.56
225.042	-13.56
225.277	-14.56
225.511	2.44
225.746	21.44
225.98	9.44
226.215	7.44
226.449	21.44
226.683	27.44
226.918	32.44
227.152	46.44
227.387	28.44
227.621	34.44
227.856	46.44
228.09	55.44
228.324	61.44
228.559	58.44
228.793	58.44
229.027	46.44
229.262	58.44
229.496	65.44
229.73	90.44
229.964	74.44
230.199	81.44
230.433	81.44
230.667	73.44
230.901	79.44
231.136	69.44
231.37	76.44
231.604	75.44
231.838	76.44
232.072	89.44
232.306	83.44
232.541	77.44
232.775	83.44
233.009	77.44
233.243	84.44
233.477	73.44
233.711	83.44
233.945	90.44
234.179	74.44
234.413	69.44
234.647	86.44
234.881	69.44
235.115	73.44
235.349	68.44
235.583	89.44
235.817	78.44
236.051	86.44
236.285	78.44
236.519	86.44
236.753	93.44
236.987	74.44
237.221	88.44
237.455	86.44
237.689	77.44
237.922	75.44
238.156	68.44
238.39	74.44
238.624	87.44
238.858	72.44
239.091	87.44
239.325	81.44
239.559	69.44
239.793	76.44
240.027	73.44
240.26	73.44
240.494	76.44
240.728	84.44
240.961	62.44
241.195	72.44
241.429	82.44
241.662	66.44
241.896	91.44
242.13	78.44
242.363	66.44
242.597	61.44
242.83	83.44
243.064	90.44
243.298	75.44
243.531	75.44
243.765	75.44
243.998	75.44
244.232	77.44
244.465	83.44
244.699	77.44
244.932	76.44
245.166	78.44
245.399	74.44
245.633	80.44
245.866	74.44
246.099	92.44
246.333	63.44
246.566	61.44
246.8	73.44
247.033	70.44
247.266	78.44
247.5	71.44
247.733	77.44
247.966	68.44
248.2	78.44
248.433	77.44
248.666	74.44
248.899	76.44
249.133	85.44
249.366	88.44
249.599	86.44
249.832	85.44
250.066	80.44
250.299	71.44
250.532	80.44
250.765	75.44
250.998	84.44
251.231	91.44
251.465	87.44
251.698	79.44
251.931	73.44
252.164	77.44
252.397	72.44
252.63	80.44
252.863	74.44
253.096	73.44
253.329	81.44
253.562	88.44
253.795	55.44
254.028	81.44
254.261	72.44
254.494	76.44
254.727	77.44
254.96	83.44
255.193	76.44
255.426	71.44
255.659	86.44
255.892	76.44
256.124	85.44
256.357	68.44
256.59	74.44
256.823	75.44
257.056	76.44
257.289	94.44
257.521	96.44
257.754	81.44
257.987	68.44
258.22	81.44
258.452	87.44
258.685	91.44
258.918	89.44
259.151	93.44
259.383	84.44
259.616	74.44
259.849	75.44
260.081	75.44
260.314	74.44
260.547	87.44
260.779	81.44
261.012	79.44
261.244	86.44
261.477	85.44
261.71	88.44
261.942	97.44
262.175	112.44
262.407	79.44
262.64	88.44
262.872	77.44
263.105	97.44
263.337	84.44
263.57	82.44
263.802	72.44
264.035	88.44
264.267	77.44
264.499	79.44
264.732	82.44
264.964	73.44
265.197	79.44
265.429	89.44
265.661	85.44
265.894	81.44
266.126	73.44
266.358	76.44
266.591	83.44
266.823	96.44
267.055	73.44
267.287	77.44
267.52	88.44
267.752	72.44
267.984	71.44
268.216	91.44
268.448	82.44
268.681	75.44
268.913	92.44
269.145	93.44
269.377	81.44
269.609	82.44
269.841	93.44
270.073	76.44
270.306	84.44
270.538	85.44
270.77	86.44
271.002	73.44
271.234	94.44
271.466	77.44
271.698	86.44
271.93	66.44
272.162	76.44
272.394	98.44
272.626	70.44
272.858	92.44
273.09	82.44
273.322	90.44
273.553	83.44
273.785	85.44
274.017	82.44
274.249	87.44
274.481	94.44
274.713	89.44
274.945	81.44
275.176	88.44
275.408	74.44
275.64	87.44
275.872	97.44
276.104	84.44
276.335	95.44
276.567	88.44
276.799	98.44
277.031	92.44
277.262	87.44
277.494	93.44
277.726	77.44
277.957	84.44
278.189	86.44
278.421	74.44
278.652	82.44
278.884	85.44
279.115	89.44
279.347	90.44
279.579	86.44
279.81	80.44
280.042	96.44
280.273	84.44
280.505	77.44
280.736	87.44
280.968	77.44
281.199	78.44
281.431	82.44
281.662	81.44
281.894	88.44
282.125	76.44
282.356	105.44
282.588	119.44
282.819	102.44
283.051	92.44
283.282	81.44
283.513	79.44
283.745	88.44
283.976	94.44
284.207	82.44
284.439	81.44
284.67	94.44
284.901	81.44
285.132	86.44
285.364	76.44
285.595	87.44
285.826	95.44
286.057	86.44
286.288	81.44
286.52	91.44
286.751	79.44
286.982	93.44
287.213	66.44
287.444	90.44
287.675	83.44
287.906	107.44
288.138	100.44
288.369	75.44
288.6	82.44
288.831	86.44
289.062	83.44
289.293	79.44
289.524	86.44
289.755	86.44
289.986	90.44
290.217	93.44
290.448	87.44
290.679	84.44
290.91	89.44
291.141	87.44
291.371	85.44
291.602	92.44
291.833	86.44
292.064	88.44
292.295	76.44
292.526	92.44
292.757	92.44
292.987	82.44
293.218	82.44
293.449	89.44
293.68	88.44
293.91	78.44
294.141	86.44
294.372	101.44
294.603	87.44
294.833	89.44
295.064	85.44
295.295	85.44
295.525	96.44
295.756	113.44
295.987	112.44
296.217	130.44
296.448	112.44
296.679	85.44
296.909	81.44
297.14	98.44
297.37	85.44
297.601	86.44
297.831	95.44
298.062	87.44
298.292	84.44
298.523	94.44
298.753	93.44
298.984	79.44
299.214	94.44
299.445	93.44
299.675	86.44
299.905	93.44
300.136	77.44
300.366	81.44
300.597	84.44
300.827	80.44
301.057	84.44
301.288	90.44
301.518	96.44
301.748	108.44
301.979	113.44
302.209	80.44
302.439	87.44
302.669	66.44
302.9	86.44
303.13	92.44
303.36	84.44
303.59	97.44
303.82	105.44
304.051	86.44
304.281	87.44
304.511	78.44
304.741	108.44
304.971	80.44
305.201	86.44
305.431	92.44
305.661	91.44
305.891	88.44
306.121	87.44
306.352	102.44
306.582	91.44
306.812	102.44
307.042	100.44
307.272	97.44
307.502	79.44
307.731	90.44
307.961	92.44
308.191	84.44
308.421	95.44
308.651	107.44
308.881	85.44
309.111	92.44
309.341	85.44
309.571	94.44
309.8	100.44
310.03	86.44
310.26	100.44
310.49	105.44
310.72	88.44
310.949	98.44
311.179	83.44
311.409	90.44
311.639	84.44
311.868	91.44
312.098	97.44
312.328	85.44
312.557	92.44
312.787	100.44
313.017	94.44
313.246	91.44
313.476	97.44
313.706	79.44
313.935	98.44
314.165	90.44
314.394	94.44
314.624	93.44
314.853	82.44
315.083	84.44
315.312	94.44
315.542	86.44
315.771	87.44
316.001	91.44
316.23	79.44
316.46	86.44
316.689	107.44
316.919	94.44
317.148	96.44
317.377	89.44
317.607	75.44
317.836	83.44
318.065	90.44
318.295	90.44
318.524	96.44
318.753	91.44
318.983	101.44
319.212	99.44
319.441	95.44
319.67	102.44
319.9	92.44
320.129	89.44
320.358	84.44
320.587	89.44
320.816	98.44
321.046	102.44
321.275	78.44
321.504	102.44
321.733	92.44
321.962	82.44
322.191	89.44
322.42	102.44
322.649	100.44
322.878	106.44
323.108	113.44
323.337	98.44
323.566	124.44
323.795	149.44
324.024	184.44
324.253	372.44
324.482	765.44
324.71	1545.44
324.939	2063.44
325.168	741.44
325.397	239.44
325.626	132.44
325.855	129.44
326.084	129.44
326.313	129.44
326.542	148.44
326.77	223.44
326.999	403.44
327.228	842.44
327.457	1585.44
327.686	1252.44
327.914	342.44
328.143	168.44
328.372	133.44
328.6	118.44
328.829	114.44
329.058	113.44
329.287	133.44
329.515	92.44
329.744	97.44
329.972	100.44
330.201	94.44
330.43	105.44
330.658	118.44
330.887	133.44
331.115	124.44
331.344	94.44
331.572	102.44
331.801	93.44
332.03	104.44
332.258	79.44
332.486	80.44
332.715	78.44
332.943	101.44
333.172	91.44
333.4	95.44
333.629	101.44
333.857	108.44
334.085	98.44
334.314	89.44
334.542	96.44
334.771	103.44
334.999	101.44
335.227	92.44
335.455	86.44
335.684	81.44
335.912	89.44
336.14	88.44
336.369	98.44
336.597	109.44
336.825	100.44
337.053	88.44
337.281	92.44
337.51	76.44
337.738	94.44
337.966	87.44
338.194	82.44
338.422	107.44
338.65	111.44
338.878	103.44
339.106	87.44
339.334	96.44
339.562	69.44
339.79	84.44
340.018	96.44
340.246	82.44
340.474	85.44
340.702	91.44
340.93	87.44
341.158	89.44
341.386	91.44
341.614	84.44
341.842	96.44
342.07	106.44
342.298	94.44
342.526	79.44
342.754	76.44
342.981	76.44
343.209	79.44
343.437	99.44
343.665	94.44
343.893	96.44
344.12	97.44
344.348	95.44
344.576	79.44
344.804	81.44
345.031	100.44
345.259	97.44
345.487	97.44
345.714	78.44
345.942	93.44
346.17	88.44
346.397	88.44
346.625	89.44
346.853	95.44
347.08	112.44
347.308	90.44
347.535	87.44
347.763	95.44
347.99	90.44
348.218	93.44
348.445	116.44
348.673	92.44
348.9	82.44
349.128	84.44
349.355	82.44
349.583	93.44
349.81	87.44
350.037	93.44
350.265	94.44
350.492	92.44
350.72	97.44
350.947	96.44
351.174	113.44
351.402	109.44
351.629	118.44
351.856	109.44
352.083	102.44
352.311	93.44
352.538	106.44
352.765	110.44
352.992	94.44
353.22	109.44
353.447	93.44
353.674	97.44
353.901	97.44
354.128	95.44
354.355	88.44
354.583	101.44
354.81	90.44
355.037	97.44
355.264	94.44
355.491	93.44
355.718	91.44
355.945	90.44
356.172	76.44
356.399	75.44
356.626	88.44
356.853	82.44
357.08	92.44
357.307	84.44
357.534	77.44
357.761	86.44
357.988	89.44
358.215	80.44
358.441	92.44
358.668	84.44
358.895	89.44
359.122	86.44
359.349	95.44
359.576	95.44
359.802	89.44
360.029	109.44
360.256	103.44
360.483	87.44
360.709	84.44
360.936	94.44
361.163	87.44
361.39	95.44
361.616	95.44
361.843	73.44
362.07	100.44
362.296	94.44
362.523	81.44
362.749	88.44
362.976	88.44
363.203	94.44
363.429	78.44
363.656	85.44
363.882	93.44
364.109	84.44
364.335	71.44
364.562	102.44
364.788	92.44
365.015	80.44
365.241	88.44
365.468	92.44
365.694	81.44
365.92	94.44
366.147	94.44
366.373	93.44
366.599	90.44
366.826	90.44
367.052	92.44
367.278	88.44
367.505	83.44
367.731	90.44
367.957	90.44
368.184	102.44
368.41	89.44
368.636	96.44
368.862	93.44
369.089	92.44
369.315	98.44
369.541	98.44
369.767	93.44
369.993	104.44
370.219	87.44
370.445	78.44
370.672	75.44
370.898	88.44
371.124	73.44
371.35	83.44
371.576	95.44
371.802	89.44
372.028	85.44
372.254	96.44
372.48	80.44
372.706	90.44
372.932	98.44
373.158	94.44
373.384	104.44
373.61	102.44
373.835	81.44
374.061	88.44
374.287	98.44
374.513	86.44
374.739	80.44
374.965	87.44
375.191	97.44
375.416	85.44
375.642	83.44
375.868	90.44
376.094	72.44
376.319	92.44
376.545	79.44
376.771	92.44
376.997	93.44
377.222	93.44
377.448	94.44
377.674	77.44
377.899	86.44
378.125	76.44
378.35	100.44
378.576	95.44
378.802	76.44
379.027	89.44
379.253	97.44
379.478	84.44
379.704	79.44
379.929	78.44
380.155	94.44
380.38	87.44
380.606	83.44
380.831	91.44
381.057	102.44
381.282	90.44
381.507	89.44
381.733	85.44
381.958	90.44
382.184	86.44
382.409	92.44
382.634	97.44
382.86	93.44
383.085	91.44
383.31	104.44
383.535	91.44
383.761	85.44
383.986	93.44
384.211	95.44
384.436	107.44
384.662	93.44
384.887	91.44
385.112	97.44
385.337	101.44
385.562	89.44
385.787	93.44
386.013	83.44
386.238	106.44
386.463	111.44
386.688	103.44
386.913	89.44
387.138	96.44
387.363	87.44
387.588	88.44
387.813	81.44
388.038	91.44
388.263	98.44
388.488	88.44
388.713	95.44
388.938	91.44
389.163	82.44
389.387	98.44
389.612	98.44
389.837	104.44
390.062	89.44
390.287	101.44
390.512	72.44
390.736	93.44
390.961	109.44
391.186	98.44
391.411	77.44
391.636	84.44
391.86	74.44
392.085	95.44
392.31	88.44
392.534	70.44
392.759	98.44
392.984	79.44
393.208	95.44
393.433	75.44
393.658	82.44
393.882	77.44
394.107	78.44
394.331	92.44
394.556	94.44
394.78	78.44
395.005	91.44
395.229	74.44
395.454	78.44
395.678	78.44
395.903	79.44
396.127	74.44
396.352	78.44
396.576	74.44
396.801	82.44
397.025	90.44
397.249	78.44
397.474	93.44
397.698	88.44
397.922	87.44
398.147	101.44
398.371	92.44
398.595	85.44
398.82	79.44
399.044	86.44
399.268	86.44
399.492	91.44
399.717	87.44
399.941	69.44
400.165	93.44
400.389	89.44
400.613	94.44
400.837	92.44
401.062	86.44
401.286	98.44
401.51	72.44
401.734	89.44
401.958	92.44
402.182	128.44
402.406	126.44
402.63	103.44
402.854	95.44
403.078	72.44
403.302	81.44
403.526	86.44
403.75	78.44
403.974	86.44
404.198	88.44
404.422	97.44
404.645	86.44
404.869	78.44
405.093	86.44
405.317	79.44
405.541	95.44
405.765	97.44
405.988	109.44
406.212	154.44
406.436	199.44
406.66	144.44
406.883	98.44
407.107	93.44
407.331	76.44
407.555	88.44
407.778	101.44
408.002	89.44
408.226	77.44
408.449	73.44
408.673	85.44
408.896	89.44
409.12	95.44
409.344	97.44
409.567	91.44
409.791	83.44
410.014	97.44
410.238	98.44
410.461	80.44
410.685	83.44
410.908	94.44
411.132	101.44
411.355	96.44
411.578	79.44
411.802	77.44
412.025	94.44
412.249	80.44
412.472	94.44
412.695	80.44
412.919	81.44
413.142	72.44
413.365	89.44
413.589	96.44
413.812	89.44
414.035	76.44
414.258	88.44
414.482	86.44
414.705	101.44
414.928	95.44
415.151	94.44
415.374	83.44
415.597	87.44
415.821	80.44
416.044	91.44
416.267	80.44
416.49	81.44
416.713	81.44
416.936	91.44
417.159	71.44
417.382	96.44
417.605	87.44
417.828	85.44
418.051	90.44
418.274	76.44
418.497	76.44
418.72	94.44
418.943	80.44
419.166	82.44
419.389	94.44
419.611	90.44
419.834	81.44
420.057	83.44
420.28	78.44
420.503	79.44
420.726	86.44
420.948	95.44
421.171	71.44
421.394	86.44
421.617	94.44
421.839	95.44
422.062	84.44
422.285	90.44
422.507	100.44
422.73	93.44
422.953	80.44
423.175	68.44
423.398	82.44
423.621	91.44
423.843	82.44
424.066	92.44
424.288	82.44
424.511	95.44
424.733	94.44
424.956	105.44
425.178	94.44
425.401	102.44
425.623	97.44
425.846	97.44
426.068	92.44
426.291	95.44
426.513	85.44
426.735	89.44
426.958	82.44
427.18	100.44
427.402	117.44
427.625	145.44
427.847	110.44
428.069	104.44
428.292	62.44
428.514	80.44
428.736	71.44
428.958	93.44
429.181	70.44
429.403	73.44
429.625	81.44
429.847	95.44
430.069	86.44
430.292	97.44
430.514	80.44
430.736	66.44
430.958	70.44
431.18	76.44
431.402	82.44
431.624	79.44
431.846	94.44
432.068	83.44
432.29	75.44
432.512	78.44
432.734	87.44
432.956	92.44
433.178	105.44
433.4	87.44
433.622	95.44
433.844	87.44
434.066	89.44
434.287	81.44
434.509	80.44
434.731	94.44
434.953	87.44
435.175	88.44
435.397	102.44
435.618	107.44
435.84	92.44
436.062	114.44
436.284	112.44
436.505	100.44
436.727	90.44
436.949	87.44
437.17	72.44
437.392	82.44
437.614	85.44
437.835	100.44
438.057	111.44
438.278	98.44
438.5	89.44
438.721	121.44
438.943	98.44
439.165	92.44
439.386	92.44
439.608	79.44
439.829	96.44
440.05	127.44
440.272	117.44
440.493	89.44
440.715	85.44
440.936	85.44
441.158	76.44
441.379	93.44
441.6	94.44
441.822	110.44
442.043	88.44
442.264	84.44
442.486	95.44
442.707	86.44
442.928	88.44
443.149	117.44
443.371	113.44
443.592	99.44
443.813	103.44
444.034	113.44
444.255	103.44
444.476	82.44
444.698	77.44
444.919	97.44
445.14	116.44
445.361	128.44
445.582	117.44
445.803	129.44
446.024	115.44
446.245	125.44
446.466	97.44
446.687	82.44
446.908	87.44
447.129	87.44
447.35	90.44
447.571	98.44
447.792	101.44
448.013	90.44
448.234	104.44
448.455	95.44
448.675	106.44
448.896	113.44
449.117	113.44
449.338	98.44
449.559	116.44
449.779	129.44
450	77.44
450.221	93.44
450.442	88.44
450.662	93.44
450.883	102.44
451.104	102.44
451.324	87.44
451.545	75.44
451.766	87.44
451.986	76.44
452.207	88.44
452.428	87.44
452.648	108.44
452.869	100.44
453.089	104.44
453.31	103.44
453.53	91.44
453.751	74.44
453.971	91.44
454.192	100.44
454.412	85.44
454.633	94.44
454.853	88.44
455.073	95.44
455.294	92.44
455.514	92.44
455.734	79.44
455.955	84.44
456.175	78.44
456.395	77.44
456.616	83.44
456.836	86.44
457.056	80.44
457.276	93.44
457.497	88.44
457.717	81.44
457.937	79.44
458.157	89.44
458.377	92.44
458.598	109.44
458.818	144.44
459.038	153.44
459.258	112.44
459.478	80.44
459.698	84.44
459.918	78.44
460.138	80.44
460.358	75.44
460.578	79.44
460.798	86.44
461.018	93.44
461.238	70.44
461.458	83.44
461.678	76.44
461.898	92.44
462.118	97.44
462.338	88.44
462.558	85.44
462.777	92.44
462.997	88.44
463.217	80.44
463.437	95.44
463.657	74.44
463.876	83.44
464.096	89.44
464.316	88.44
464.536	97.44
464.755	95.44
464.975	101.44
465.195	158.44
465.414	148.44
465.634	95.44
465.854	74.44
466.073	78.44
466.293	85.44
466.512	90.44
466.732	87.44
466.951	75.44
467.171	88.44
467.391	79.44
467.61	90.44
467.829	84.44
468.049	88.44
468.268	85.44
468.488	78.44
468.707	84.44
468.927	85.44
469.146	77.44
469.365	80.44
469.585	81.44
469.804	90.44
470.023	88.44
470.243	101.44
470.462	93.44
470.681	108.44
470.901	90.44
471.12	72.44
471.339	86.44
471.558	87.44
471.777	85.44
471.997	83.44
472.216	85.44
472.435	105.44
472.654	93.44
472.873	90.44
473.092	76.44
473.311	81.44
473.53	95.44
473.749	98.44
473.968	101.44
474.187	92.44
474.406	87.44
474.625	88.44
474.844	98.44
475.063	77.44
475.282	82.44
475.501	89.44
475.72	84.44
475.939	94.44
476.158	80.44
476.377	99.44
476.596	98.44
476.814	87.44
477.033	103.44
477.252	88.44
477.471	85.44
477.69	89.44
477.908	79.44
478.127	79.44
478.346	85.44
478.564	95.44
478.783	74.44
479.002	85.44
479.22	94.44
479.439	88.44
479.658	87.44
479.876	104.44
480.095	97.44
480.313	88.44
480.532	85.44
480.751	81.44
480.969	78.44
481.188	96.44
481.406	93.44
481.624	68.44
481.843	77.44
482.061	89.44
482.28	87.44
482.498	74.44
482.717	97.44
482.935	81.44
483.153	80.44
483.372	76.44
483.59	89.44
483.808	90.44
484.027	86.44
484.245	91.44
484.463	81.44
484.681	94.44
484.9	91.44
485.118	85.44
485.336	96.44
485.554	94.44
485.772	81.44
485.99	91.44
486.209	96.44
486.427	104.44
486.645	110.44
486.863	100.44
487.081	93.44
487.299	90.44
487.517	87.44
487.735	98.44
487.953	92.44
488.171	78.44
488.389	89.44
488.607	86.44
488.825	86.44
489.043	90.44
489.261	84.44
489.479	90.44
489.696	103.44
489.914	92.44
490.132	73.44
490.35	101.44
490.568	86.44
490.786	86.44
491.003	85.44
491.221	92.44
491.439	95.44
491.657	95.44
491.874	93.44
492.092	88.44
492.31	82.44
492.527	80.44
492.745	86.44
492.963	79.44
493.18	97.44
493.398	88.44
493.615	94.44
493.833	89.44
494.05	86.44
494.268	73.44
494.485	87.44
494.703	80.44
494.92	89.44
495.138	94.44
495.355	84.44
495.573	94.44
495.79	86.44
496.008	83.44
496.225	86.44
496.442	84.44
496.66	95.44
496.877	68.44
497.094	85.44
497.312	106.44
497.529	92.44
497.746	92.44
497.963	80.44
498.181	88.44
498.398	78.44
498.615	99.44
498.832	91.44
499.049	87.44
499.267	80.44
499.484	85.44
499.701	86.44
499.918	94.44
500.135	80.44
500.352	103.44
500.569	96.44
500.786	84.44
501.003	90.44
501.22	89.44
501.437	87.44
501.654	86.44
501.871	105.44
502.088	89.44
502.305	103.44
502.522	92.44
502.739	101.44
502.956	93.44
503.172	104.44
503.389	100.44
503.606	113.44
503.823	111.44
504.04	83.44
504.256	84.44
504.473	89.44
504.69	80.44
504.907	80.44
505.123	88.44
505.34	89.44
505.557	91.44
505.773	88.44
505.99	100.44
506.207	82.44
506.423	87.44
506.64	96.44
506.856	85.44
507.073	95.44
507.289	70.44
507.506	95.44
507.722	104.44
507.939	105.44
508.155	91.44
508.372	96.44
508.588	104.44
508.805	89.44
509.021	86.44
509.238	97.44
509.454	94.44
509.67	95.44
509.887	110.44
510.103	132.44
510.319	216.44
510.536	718.44
510.752	2225.44
510.968	618.44
511.184	152.44
511.401	91.44
511.617	92.44
511.833	82.44
512.049	92.44
512.265	89.44
512.481	88.44
512.698	89.44
512.914	68.44
513.13	93.44
513.346	88.44
513.562	87.44
513.778	89.44
513.994	87.44
514.21	83.44
514.426	123.44
514.642	117.44
514.858	101.44
515.074	158.44
515.29	416.44
515.506	1400.44
515.721	522.44
515.937	142.44
516.153	112.44
516.369	98.44
516.585	85.44
516.801	83.44
517.016	88.44
