Data from Uncirc_1997_H10_HRD10591_00074.txt Node
Date: Wed Jan 03 11:28:45 EST 2024
User: Yrep
Spectrometer: HR+D1059
Trigger mode: 1
Integration Time (sec): 1.000000E-1
Scans to average: 1
Electric dark correction enabled: true
Nonlinearity correction enabled: false
Boxcar width: 0
XAxis mode: Wavelengths
Number of Pixels in Spectrum: 2048
>>>>>Begin Spectral Data<<<<<
223.165	-20.44
223.4	-20.44
223.635	-20.44
223.869	-15.44
224.104	-14.44
224.338	-13.44
224.573	-19.44
224.808	-10.44
225.042	-2.44
225.277	2.56
225.511	-6.44
225.746	19.56
225.98	2.56
226.215	11.56
226.449	1.56
226.683	26.56
226.918	18.56
227.152	19.56
227.387	44.56
227.621	42.56
227.856	45.56
228.09	33.56
228.324	38.56
228.559	60.56
228.793	55.56
229.027	69.56
229.262	71.56
229.496	71.56
229.73	92.56
229.964	87.56
230.199	79.56
230.433	78.56
230.667	78.56
230.901	70.56
231.136	81.56
231.37	71.56
231.604	75.56
231.838	76.56
232.072	74.56
232.306	81.56
232.541	72.56
232.775	88.56
233.009	87.56
233.243	79.56
233.477	80.56
233.711	84.56
233.945	72.56
234.179	75.56
234.413	65.56
234.647	73.56
234.881	79.56
235.115	89.56
235.349	77.56
235.583	77.56
235.817	82.56
236.051	76.56
236.285	70.56
236.519	78.56
236.753	75.56
236.987	84.56
237.221	81.56
237.455	77.56
237.689	54.56
237.922	86.56
238.156	77.56
238.39	72.56
238.624	81.56
238.858	78.56
239.091	73.56
239.325	80.56
239.559	83.56
239.793	77.56
240.027	81.56
240.26	76.56
240.494	72.56
240.728	74.56
240.961	83.56
241.195	65.56
241.429	95.56
241.662	78.56
241.896	77.56
242.13	68.56
242.363	70.56
242.597	85.56
242.83	71.56
243.064	71.56
243.298	82.56
243.531	73.56
243.765	73.56
243.998	70.56
244.232	63.56
244.465	89.56
244.699	78.56
244.932	70.56
245.166	78.56
245.399	92.56
245.633	91.56
245.866	72.56
246.099	73.56
246.333	68.56
246.566	88.56
246.8	72.56
247.033	81.56
247.266	74.56
247.5	74.56
247.733	72.56
247.966	79.56
248.2	86.56
248.433	74.56
248.666	74.56
248.899	75.56
249.133	74.56
249.366	91.56
249.599	95.56
249.832	93.56
250.066	87.56
250.299	89.56
250.532	80.56
250.765	76.56
250.998	81.56
251.231	84.56
251.465	80.56
251.698	82.56
251.931	65.56
252.164	75.56
252.397	85.56
252.63	90.56
252.863	74.56
253.096	84.56
253.329	81.56
253.562	77.56
253.795	71.56
254.028	80.56
254.261	77.56
254.494	82.56
254.727	83.56
254.96	78.56
255.193	94.56
255.426	71.56
255.659	79.56
255.892	83.56
256.124	83.56
256.357	90.56
256.59	86.56
256.823	90.56
257.056	95.56
257.289	88.56
257.521	70.56
257.754	85.56
257.987	79.56
258.22	77.56
258.452	69.56
258.685	75.56
258.918	73.56
259.151	85.56
259.383	75.56
259.616	78.56
259.849	77.56
260.081	76.56
260.314	96.56
260.547	81.56
260.779	83.56
261.012	90.56
261.244	81.56
261.477	88.56
261.71	90.56
261.942	114.56
262.175	116.56
262.407	99.56
262.64	87.56
262.872	83.56
263.105	75.56
263.337	90.56
263.57	86.56
263.802	81.56
264.035	83.56
264.267	92.56
264.499	90.56
264.732	94.56
264.964	79.56
265.197	75.56
265.429	92.56
265.661	83.56
265.894	76.56
266.126	90.56
266.358	84.56
266.591	87.56
266.823	81.56
267.055	79.56
267.287	91.56
267.52	79.56
267.752	82.56
267.984	96.56
268.216	74.56
268.448	79.56
268.681	94.56
268.913	90.56
269.145	94.56
269.377	98.56
269.609	92.56
269.841	69.56
270.073	85.56
270.306	86.56
270.538	80.56
270.77	79.56
271.002	87.56
271.234	85.56
271.466	84.56
271.698	86.56
271.93	81.56
272.162	78.56
272.394	88.56
272.626	94.56
272.858	80.56
273.09	87.56
273.322	89.56
273.553	89.56
273.785	99.56
274.017	98.56
274.249	102.56
274.481	105.56
274.713	82.56
274.945	86.56
275.176	79.56
275.408	82.56
275.64	86.56
275.872	93.56
276.104	86.56
276.335	90.56
276.567	92.56
276.799	94.56
277.031	94.56
277.262	85.56
277.494	84.56
277.726	91.56
277.957	93.56
278.189	87.56
278.421	97.56
278.652	80.56
278.884	90.56
279.115	84.56
279.347	95.56
279.579	93.56
279.81	83.56
280.042	85.56
280.273	79.56
280.505	82.56
280.736	85.56
280.968	83.56
281.199	94.56
281.431	72.56
281.662	83.56
281.894	102.56
282.125	100.56
282.356	108.56
282.588	119.56
282.819	111.56
283.051	83.56
283.282	90.56
283.513	73.56
283.745	91.56
283.976	89.56
284.207	89.56
284.439	77.56
284.67	86.56
284.901	84.56
285.132	76.56
285.364	74.56
285.595	93.56
285.826	75.56
286.057	91.56
286.288	74.56
286.52	81.56
286.751	82.56
286.982	83.56
287.213	92.56
287.444	81.56
287.675	92.56
287.906	88.56
288.138	78.56
288.369	82.56
288.6	78.56
288.831	102.56
289.062	101.56
289.293	75.56
289.524	97.56
289.755	89.56
289.986	86.56
290.217	83.56
290.448	86.56
290.679	75.56
290.91	84.56
291.141	73.56
291.371	82.56
291.602	91.56
291.833	82.56
292.064	86.56
292.295	91.56
292.526	69.56
292.757	81.56
292.987	87.56
293.218	87.56
293.449	91.56
293.68	85.56
293.91	85.56
294.141	93.56
294.372	96.56
294.603	88.56
294.833	99.56
295.064	94.56
295.295	89.56
295.525	91.56
295.756	87.56
295.987	118.56
296.217	114.56
296.448	121.56
296.679	103.56
296.909	93.56
297.14	77.56
297.37	86.56
297.601	82.56
297.831	88.56
298.062	98.56
298.292	92.56
298.523	72.56
298.753	84.56
298.984	91.56
299.214	88.56
299.445	83.56
299.675	80.56
299.905	91.56
300.136	99.56
300.366	91.56
300.597	83.56
300.827	85.56
301.057	97.56
301.288	104.56
301.518	105.56
301.748	89.56
301.979	101.56
302.209	90.56
302.439	104.56
302.669	81.56
302.9	98.56
303.13	105.56
303.36	96.56
303.59	124.56
303.82	107.56
304.051	81.56
304.281	80.56
304.511	95.56
304.741	83.56
304.971	76.56
305.201	85.56
305.431	85.56
305.661	80.56
305.891	97.56
306.121	100.56
306.352	98.56
306.582	85.56
306.812	90.56
307.042	87.56
307.272	87.56
307.502	95.56
307.731	91.56
307.961	90.56
308.191	83.56
308.421	84.56
308.651	94.56
308.881	83.56
309.111	94.56
309.341	103.56
309.571	90.56
309.8	89.56
310.03	93.56
310.26	95.56
310.49	97.56
310.72	94.56
310.949	100.56
311.179	95.56
311.409	90.56
311.639	93.56
311.868	113.56
312.098	106.56
312.328	91.56
312.557	85.56
312.787	109.56
313.017	94.56
313.246	90.56
313.476	92.56
313.706	91.56
313.935	81.56
314.165	101.56
314.394	93.56
314.624	95.56
314.853	93.56
315.083	95.56
315.312	87.56
315.542	86.56
315.771	91.56
316.001	91.56
316.23	86.56
316.46	90.56
316.689	86.56
316.919	95.56
317.148	88.56
317.377	91.56
317.607	84.56
317.836	89.56
318.065	79.56
318.295	85.56
318.524	93.56
318.753	81.56
318.983	95.56
319.212	95.56
319.441	93.56
319.67	85.56
319.9	95.56
320.129	95.56
320.358	82.56
320.587	90.56
320.816	85.56
321.046	95.56
321.275	97.56
321.504	101.56
321.733	91.56
321.962	82.56
322.191	92.56
322.42	89.56
322.649	111.56
322.878	107.56
323.108	103.56
323.337	111.56
323.566	121.56
323.795	135.56
324.024	180.56
324.253	341.56
324.482	719.56
324.71	1469.56
324.939	1922.56
325.168	703.56
325.397	208.56
325.626	142.56
325.855	119.56
326.084	112.56
326.313	134.56
326.542	149.56
326.77	207.56
326.999	415.56
327.228	823.56
327.457	1483.56
327.686	1177.56
327.914	327.56
328.143	168.56
328.372	145.56
328.6	114.56
328.829	117.56
329.058	122.56
329.287	110.56
329.515	106.56
329.744	91.56
329.972	86.56
330.201	99.56
330.43	106.56
330.658	107.56
330.887	134.56
331.115	104.56
331.344	93.56
331.572	106.56
331.801	100.56
332.03	94.56
332.258	104.56
332.486	82.56
332.715	98.56
332.943	90.56
333.172	98.56
333.4	87.56
333.629	98.56
333.857	109.56
334.085	114.56
334.314	99.56
334.542	106.56
334.771	98.56
334.999	97.56
335.227	86.56
335.455	109.56
335.684	89.56
335.912	105.56
336.14	91.56
336.369	94.56
336.597	110.56
336.825	85.56
337.053	78.56
337.281	77.56
337.51	87.56
337.738	102.56
337.966	97.56
338.194	107.56
338.422	106.56
338.65	92.56
338.878	87.56
339.106	90.56
339.334	114.56
339.562	86.56
339.79	96.56
340.018	89.56
340.246	82.56
340.474	87.56
340.702	94.56
340.93	89.56
341.158	97.56
341.386	83.56
341.614	82.56
341.842	80.56
342.07	106.56
342.298	93.56
342.526	94.56
342.754	103.56
342.981	100.56
343.209	75.56
343.437	112.56
343.665	87.56
343.893	87.56
344.12	98.56
344.348	78.56
344.576	83.56
344.804	102.56
345.031	76.56
345.259	86.56
345.487	91.56
345.714	96.56
345.942	88.56
346.17	80.56
346.397	82.56
346.625	83.56
346.853	93.56
347.08	95.56
347.308	88.56
347.535	98.56
347.763	91.56
347.99	104.56
348.218	90.56
348.445	99.56
348.673	102.56
348.9	77.56
349.128	114.56
349.355	94.56
349.583	86.56
349.81	88.56
350.037	94.56
350.265	85.56
350.492	98.56
350.72	94.56
350.947	92.56
351.174	120.56
351.402	105.56
351.629	101.56
351.856	102.56
352.083	98.56
352.311	100.56
352.538	109.56
352.765	101.56
352.992	105.56
353.22	85.56
353.447	98.56
353.674	107.56
353.901	99.56
354.128	86.56
354.355	93.56
354.583	89.56
354.81	79.56
355.037	85.56
355.264	89.56
355.491	85.56
355.718	91.56
355.945	82.56
356.172	85.56
356.399	93.56
356.626	94.56
356.853	80.56
357.08	85.56
357.307	93.56
357.534	110.56
357.761	89.56
357.988	94.56
358.215	96.56
358.441	80.56
358.668	79.56
358.895	105.56
359.122	82.56
359.349	96.56
359.576	88.56
359.802	80.56
360.029	117.56
360.256	105.56
360.483	102.56
360.709	89.56
360.936	86.56
361.163	88.56
361.39	94.56
361.616	92.56
361.843	89.56
362.07	83.56
362.296	92.56
362.523	76.56
362.749	92.56
362.976	97.56
363.203	95.56
363.429	79.56
363.656	76.56
363.882	95.56
364.109	85.56
364.335	95.56
364.562	75.56
364.788	84.56
365.015	88.56
365.241	102.56
365.468	99.56
365.694	107.56
365.92	95.56
366.147	94.56
366.373	105.56
366.599	84.56
366.826	96.56
367.052	77.56
367.278	84.56
367.505	90.56
367.731	95.56
367.957	93.56
368.184	97.56
368.41	91.56
368.636	101.56
368.862	116.56
369.089	100.56
369.315	91.56
369.541	104.56
369.767	89.56
369.993	87.56
370.219	85.56
370.445	88.56
370.672	73.56
370.898	77.56
371.124	101.56
371.35	85.56
371.576	85.56
371.802	96.56
372.028	87.56
372.254	71.56
372.48	90.56
372.706	96.56
372.932	97.56
373.158	82.56
373.384	89.56
373.61	93.56
373.835	82.56
374.061	79.56
374.287	82.56
374.513	81.56
374.739	93.56
374.965	79.56
375.191	102.56
375.416	79.56
375.642	103.56
375.868	95.56
376.094	88.56
376.319	90.56
376.545	99.56
376.771	99.56
376.997	90.56
377.222	80.56
377.448	98.56
377.674	89.56
377.899	75.56
378.125	74.56
378.35	83.56
378.576	90.56
378.802	90.56
379.027	93.56
379.253	82.56
379.478	77.56
379.704	94.56
379.929	86.56
380.155	86.56
380.38	95.56
380.606	85.56
380.831	80.56
381.057	82.56
381.282	105.56
381.507	102.56
381.733	77.56
381.958	85.56
382.184	112.56
382.409	93.56
382.634	104.56
382.86	107.56
383.085	99.56
383.31	112.56
383.535	105.56
383.761	87.56
383.986	88.56
384.211	94.56
384.436	97.56
384.662	93.56
384.887	99.56
385.112	90.56
385.337	105.56
385.562	102.56
385.787	104.56
386.013	102.56
386.238	112.56
386.463	95.56
386.688	112.56
386.913	92.56
387.138	94.56
387.363	95.56
387.588	101.56
387.813	109.56
388.038	88.56
388.263	104.56
388.488	99.56
388.713	104.56
388.938	104.56
389.163	88.56
389.387	87.56
389.612	95.56
389.837	103.56
390.062	90.56
390.287	96.56
390.512	93.56
390.736	96.56
390.961	91.56
391.186	88.56
391.411	97.56
391.636	93.56
391.86	72.56
392.085	71.56
392.31	92.56
392.534	79.56
392.759	87.56
392.984	95.56
393.208	85.56
393.433	86.56
393.658	84.56
393.882	95.56
394.107	82.56
394.331	87.56
394.556	71.56
394.78	83.56
395.005	92.56
395.229	91.56
395.454	94.56
395.678	84.56
395.903	77.56
396.127	86.56
396.352	89.56
396.576	95.56
396.801	96.56
397.025	81.56
397.249	77.56
397.474	93.56
397.698	91.56
397.922	95.56
398.147	97.56
398.371	87.56
398.595	89.56
398.82	90.56
399.044	79.56
399.268	94.56
399.492	96.56
399.717	99.56
399.941	92.56
400.165	82.56
400.389	86.56
400.613	93.56
400.837	86.56
401.062	89.56
401.286	89.56
401.51	75.56
401.734	89.56
401.958	98.56
402.182	108.56
402.406	141.56
402.63	123.56
402.854	91.56
403.078	86.56
403.302	75.56
403.526	81.56
403.75	88.56
403.974	82.56
404.198	91.56
404.422	87.56
404.645	79.56
404.869	82.56
405.093	93.56
405.317	84.56
405.541	96.56
405.765	90.56
405.988	98.56
406.212	139.56
406.436	193.56
406.66	134.56
406.883	97.56
407.107	87.56
407.331	87.56
407.555	85.56
407.778	82.56
408.002	88.56
408.226	87.56
408.449	93.56
408.673	94.56
408.896	77.56
409.12	76.56
409.344	98.56
409.567	104.56
409.791	85.56
410.014	97.56
410.238	100.56
410.461	69.56
410.685	87.56
410.908	99.56
411.132	93.56
411.355	90.56
411.578	81.56
411.802	78.56
412.025	81.56
412.249	90.56
412.472	92.56
412.695	100.56
412.919	89.56
413.142	81.56
413.365	72.56
413.589	83.56
413.812	75.56
414.035	92.56
414.258	89.56
414.482	87.56
414.705	90.56
414.928	98.56
415.151	105.56
415.374	74.56
415.597	91.56
415.821	87.56
416.044	87.56
416.267	94.56
416.49	91.56
416.713	93.56
416.936	81.56
417.159	97.56
417.382	87.56
417.605	81.56
417.828	77.56
418.051	84.56
418.274	93.56
418.497	87.56
418.72	80.56
418.943	94.56
419.166	85.56
419.389	85.56
419.611	88.56
419.834	79.56
420.057	90.56
420.28	89.56
420.503	86.56
420.726	85.56
420.948	71.56
421.171	89.56
421.394	73.56
421.617	90.56
421.839	80.56
422.062	91.56
422.285	98.56
422.507	96.56
422.73	91.56
422.953	89.56
423.175	83.56
423.398	87.56
423.621	99.56
423.843	97.56
424.066	89.56
424.288	86.56
424.511	76.56
424.733	91.56
424.956	120.56
425.178	96.56
425.401	86.56
425.623	84.56
425.846	83.56
426.068	96.56
426.291	90.56
426.513	87.56
426.735	79.56
426.958	95.56
427.18	110.56
427.402	126.56
427.625	139.56
427.847	123.56
428.069	114.56
428.292	80.56
428.514	89.56
428.736	86.56
428.958	85.56
429.181	84.56
429.403	91.56
429.625	72.56
429.847	93.56
430.069	88.56
430.292	82.56
430.514	86.56
430.736	85.56
430.958	77.56
431.18	70.56
431.402	85.56
431.624	78.56
431.846	86.56
432.068	93.56
432.29	74.56
432.512	85.56
432.734	85.56
432.956	86.56
433.178	97.56
433.4	93.56
433.622	102.56
433.844	90.56
434.066	92.56
434.287	83.56
434.509	84.56
434.731	107.56
434.953	67.56
435.175	85.56
435.397	95.56
435.618	97.56
435.84	98.56
436.062	122.56
436.284	99.56
436.505	116.56
436.727	98.56
436.949	104.56
437.17	98.56
437.392	81.56
437.614	83.56
437.835	101.56
438.057	108.56
438.278	106.56
438.5	103.56
438.721	111.56
438.943	106.56
439.165	78.56
439.386	72.56
439.608	103.56
439.829	101.56
440.05	89.56
440.272	152.56
440.493	96.56
440.715	88.56
440.936	74.56
441.158	94.56
441.379	80.56
441.6	89.56
441.822	82.56
442.043	81.56
442.264	94.56
442.486	97.56
442.707	104.56
442.928	90.56
443.149	126.56
443.371	106.56
443.592	106.56
443.813	126.56
444.034	102.56
444.255	79.56
444.476	80.56
444.698	87.56
444.919	73.56
445.14	129.56
445.361	118.56
445.582	112.56
445.803	123.56
446.024	113.56
446.245	122.56
446.466	112.56
446.687	87.56
446.908	93.56
447.129	75.56
447.35	85.56
447.571	94.56
447.792	99.56
448.013	103.56
448.234	109.56
448.455	87.56
448.675	111.56
448.896	113.56
449.117	93.56
449.338	99.56
449.559	123.56
449.779	120.56
450	98.56
450.221	85.56
450.442	84.56
450.662	100.56
450.883	89.56
451.104	96.56
451.324	94.56
451.545	102.56
451.766	92.56
451.986	81.56
452.207	86.56
452.428	84.56
452.648	103.56
452.869	111.56
453.089	97.56
453.31	81.56
453.53	102.56
453.751	97.56
453.971	98.56
454.192	104.56
454.412	88.56
454.633	80.56
454.853	76.56
455.073	78.56
455.294	79.56
455.514	86.56
455.734	86.56
455.955	80.56
456.175	92.56
456.395	83.56
456.616	90.56
456.836	94.56
457.056	90.56
457.276	76.56
457.497	95.56
457.717	85.56
457.937	82.56
458.157	84.56
458.377	89.56
458.598	114.56
458.818	133.56
459.038	143.56
459.258	111.56
459.478	86.56
459.698	79.56
459.918	81.56
460.138	79.56
460.358	77.56
460.578	83.56
460.798	90.56
461.018	89.56
461.238	84.56
461.458	89.56
461.678	91.56
461.898	78.56
462.118	94.56
462.338	80.56
462.558	96.56
462.777	93.56
462.997	82.56
463.217	84.56
463.437	93.56
463.657	85.56
463.876	84.56
464.096	94.56
464.316	92.56
464.536	91.56
464.755	86.56
464.975	93.56
465.195	157.56
465.414	130.56
465.634	96.56
465.854	90.56
466.073	79.56
466.293	93.56
466.512	70.56
466.732	82.56
466.951	89.56
467.171	95.56
467.391	93.56
467.61	98.56
467.829	85.56
468.049	89.56
468.268	103.56
468.488	91.56
468.707	71.56
468.927	85.56
469.146	86.56
469.365	82.56
469.585	77.56
469.804	93.56
470.023	105.56
470.243	79.56
470.462	93.56
470.681	107.56
470.901	87.56
471.12	79.56
471.339	84.56
471.558	89.56
471.777	70.56
471.997	90.56
472.216	96.56
472.435	109.56
472.654	85.56
472.873	92.56
473.092	85.56
473.311	90.56
473.53	85.56
473.749	97.56
473.968	102.56
474.187	102.56
474.406	87.56
474.625	88.56
474.844	85.56
475.063	76.56
475.282	101.56
475.501	95.56
475.72	87.56
475.939	79.56
476.158	85.56
476.377	73.56
476.596	79.56
476.814	89.56
477.033	90.56
477.252	80.56
477.471	74.56
477.69	82.56
477.908	91.56
478.127	95.56
478.346	85.56
478.564	97.56
478.783	85.56
479.002	86.56
479.22	72.56
479.439	97.56
479.658	103.56
479.876	97.56
480.095	87.56
480.313	85.56
480.532	95.56
480.751	92.56
480.969	77.56
481.188	103.56
481.406	104.56
481.624	96.56
481.843	89.56
482.061	92.56
482.28	81.56
482.498	95.56
482.717	97.56
482.935	93.56
483.153	110.56
483.372	99.56
483.59	85.56
483.808	79.56
484.027	95.56
484.245	98.56
484.463	83.56
484.681	93.56
484.9	88.56
485.118	87.56
485.336	93.56
485.554	93.56
485.772	103.56
485.99	80.56
486.209	105.56
486.427	95.56
486.645	101.56
486.863	89.56
487.081	97.56
487.299	89.56
487.517	84.56
487.735	102.56
487.953	88.56
488.171	103.56
488.389	86.56
488.607	93.56
488.825	95.56
489.043	75.56
489.261	81.56
489.479	94.56
489.696	87.56
489.914	98.56
490.132	95.56
490.35	95.56
490.568	76.56
490.786	98.56
491.003	95.56
491.221	101.56
491.439	90.56
491.657	100.56
491.874	97.56
492.092	79.56
492.31	80.56
492.527	81.56
492.745	68.56
492.963	93.56
493.18	87.56
493.398	81.56
493.615	109.56
493.833	92.56
494.05	93.56
494.268	80.56
494.485	88.56
494.703	78.56
494.92	85.56
495.138	103.56
495.355	94.56
495.573	81.56
495.79	72.56
496.008	66.56
496.225	94.56
496.442	97.56
496.66	85.56
496.877	91.56
497.094	105.56
497.312	79.56
497.529	86.56
497.746	88.56
497.963	87.56
498.181	95.56
498.398	99.56
498.615	102.56
498.832	102.56
499.049	75.56
499.267	90.56
499.484	76.56
499.701	99.56
499.918	83.56
500.135	67.56
500.352	80.56
500.569	91.56
500.786	82.56
501.003	101.56
501.22	90.56
501.437	80.56
501.654	95.56
501.871	113.56
502.088	95.56
502.305	86.56
502.522	89.56
502.739	91.56
502.956	92.56
503.172	93.56
503.389	98.56
503.606	87.56
503.823	98.56
504.04	90.56
504.256	108.56
504.473	97.56
504.69	94.56
504.907	94.56
505.123	84.56
505.34	95.56
505.557	95.56
505.773	90.56
505.99	87.56
506.207	105.56
506.423	87.56
506.64	82.56
506.856	99.56
507.073	92.56
507.289	90.56
507.506	108.56
507.722	98.56
507.939	110.56
508.155	97.56
508.372	98.56
508.588	91.56
508.805	98.56
509.021	99.56
509.238	107.56
509.454	108.56
509.67	84.56
509.887	100.56
510.103	122.56
510.319	194.56
510.536	638.56
510.752	2027.56
510.968	575.56
511.184	153.56
511.401	109.56
511.617	100.56
511.833	91.56
512.049	80.56
512.265	92.56
512.481	83.56
512.698	87.56
512.914	90.56
513.13	89.56
513.346	100.56
513.562	91.56
513.778	77.56
513.994	91.56
514.21	102.56
514.426	115.56
514.642	130.56
514.858	110.56
515.074	161.56
515.29	394.56
515.506	1210.56
515.721	461.56
515.937	135.56
516.153	83.56
516.369	110.56
516.585	82.56
