Data from Uncirc_1997_H10_HRD10591_00064.txt Node
Date: Wed Jan 03 11:28:43 EST 2024
User: Yrep
Spectrometer: HR+D1059
Trigger mode: 1
Integration Time (sec): 1.000000E-1
Scans to average: 1
Electric dark correction enabled: true
Nonlinearity correction enabled: false
Boxcar width: 0
XAxis mode: Wavelengths
Number of Pixels in Spectrum: 2048
>>>>>Begin Spectral Data<<<<<
223.165	-24.81
223.4	-24.81
223.635	-24.81
223.869	-9.81
224.104	-30.81
224.338	-9.81
224.573	-17.81
224.808	-6.81
225.042	-6.81
225.277	-25.81
225.511	-2.81
225.746	5.19
225.98	14.19
226.215	1.19
226.449	16.19
226.683	25.19
226.918	34.19
227.152	39.19
227.387	24.19
227.621	30.19
227.856	49.19
228.09	38.19
228.324	57.19
228.559	69.19
228.793	62.19
229.027	54.19
229.262	54.19
229.496	57.19
229.73	80.19
229.964	89.19
230.199	69.19
230.433	62.19
230.667	90.19
230.901	75.19
231.136	63.19
231.37	70.19
231.604	74.19
231.838	65.19
232.072	78.19
232.306	76.19
232.541	82.19
232.775	76.19
233.009	77.19
233.243	77.19
233.477	62.19
233.711	84.19
233.945	79.19
234.179	95.19
234.413	87.19
234.647	85.19
234.881	77.19
235.115	84.19
235.349	68.19
235.583	78.19
235.817	70.19
236.051	81.19
236.285	72.19
236.519	82.19
236.753	76.19
236.987	76.19
237.221	81.19
237.455	78.19
237.689	78.19
237.922	66.19
238.156	76.19
238.39	90.19
238.624	84.19
238.858	85.19
239.091	69.19
239.325	82.19
239.559	67.19
239.793	68.19
240.027	60.19
240.26	69.19
240.494	72.19
240.728	58.19
240.961	71.19
241.195	71.19
241.429	75.19
241.662	73.19
241.896	68.19
242.13	70.19
242.363	74.19
242.597	74.19
242.83	78.19
243.064	57.19
243.298	65.19
243.531	70.19
243.765	79.19
243.998	78.19
244.232	82.19
244.465	89.19
244.699	89.19
244.932	74.19
245.166	72.19
245.399	84.19
245.633	68.19
245.866	83.19
246.099	77.19
246.333	78.19
246.566	78.19
246.8	80.19
247.033	78.19
247.266	75.19
247.5	76.19
247.733	76.19
247.966	91.19
248.2	81.19
248.433	73.19
248.666	76.19
248.899	81.19
249.133	80.19
249.366	81.19
249.599	82.19
249.832	74.19
250.066	78.19
250.299	81.19
250.532	64.19
250.765	82.19
250.998	73.19
251.231	82.19
251.465	81.19
251.698	88.19
251.931	82.19
252.164	85.19
252.397	80.19
252.63	76.19
252.863	79.19
253.096	74.19
253.329	84.19
253.562	82.19
253.795	87.19
254.028	79.19
254.261	73.19
254.494	88.19
254.727	73.19
254.96	76.19
255.193	84.19
255.426	74.19
255.659	76.19
255.892	78.19
256.124	78.19
256.357	77.19
256.59	86.19
256.823	84.19
257.056	73.19
257.289	76.19
257.521	75.19
257.754	70.19
257.987	85.19
258.22	97.19
258.452	77.19
258.685	90.19
258.918	89.19
259.151	84.19
259.383	72.19
259.616	87.19
259.849	89.19
260.081	80.19
260.314	85.19
260.547	87.19
260.779	87.19
261.012	88.19
261.244	85.19
261.477	89.19
261.71	88.19
261.942	102.19
262.175	108.19
262.407	77.19
262.64	90.19
262.872	87.19
263.105	86.19
263.337	81.19
263.57	82.19
263.802	94.19
264.035	88.19
264.267	79.19
264.499	77.19
264.732	86.19
264.964	89.19
265.197	89.19
265.429	92.19
265.661	83.19
265.894	78.19
266.126	76.19
266.358	87.19
266.591	97.19
266.823	85.19
267.055	90.19
267.287	80.19
267.52	87.19
267.752	88.19
267.984	86.19
268.216	89.19
268.448	80.19
268.681	93.19
268.913	73.19
269.145	85.19
269.377	88.19
269.609	84.19
269.841	70.19
270.073	90.19
270.306	79.19
270.538	95.19
270.77	76.19
271.002	98.19
271.234	95.19
271.466	78.19
271.698	79.19
271.93	93.19
272.162	81.19
272.394	81.19
272.626	74.19
272.858	89.19
273.09	82.19
273.322	89.19
273.553	92.19
273.785	88.19
274.017	86.19
274.249	97.19
274.481	82.19
274.713	83.19
274.945	78.19
275.176	82.19
275.408	91.19
275.64	102.19
275.872	78.19
276.104	94.19
276.335	82.19
276.567	88.19
276.799	105.19
277.031	84.19
277.262	81.19
277.494	65.19
277.726	90.19
277.957	81.19
278.189	95.19
278.421	82.19
278.652	89.19
278.884	72.19
279.115	88.19
279.347	88.19
279.579	95.19
279.81	83.19
280.042	98.19
280.273	94.19
280.505	83.19
280.736	73.19
280.968	84.19
281.199	89.19
281.431	79.19
281.662	82.19
281.894	79.19
282.125	92.19
282.356	113.19
282.588	124.19
282.819	97.19
283.051	78.19
283.282	82.19
283.513	87.19
283.745	78.19
283.976	90.19
284.207	83.19
284.439	77.19
284.67	80.19
284.901	95.19
285.132	78.19
285.364	75.19
285.595	87.19
285.826	77.19
286.057	84.19
286.288	89.19
286.52	88.19
286.751	76.19
286.982	68.19
287.213	80.19
287.444	90.19
287.675	89.19
287.906	77.19
288.138	70.19
288.369	97.19
288.6	88.19
288.831	79.19
289.062	87.19
289.293	87.19
289.524	81.19
289.755	88.19
289.986	76.19
290.217	89.19
290.448	82.19
290.679	85.19
290.91	102.19
291.141	81.19
291.371	75.19
291.602	92.19
291.833	92.19
292.064	97.19
292.295	85.19
292.526	97.19
292.757	93.19
292.987	88.19
293.218	94.19
293.449	104.19
293.68	77.19
293.91	88.19
294.141	71.19
294.372	86.19
294.603	84.19
294.833	93.19
295.064	96.19
295.295	98.19
295.525	84.19
295.756	97.19
295.987	112.19
296.217	125.19
296.448	96.19
296.679	97.19
296.909	66.19
297.14	92.19
297.37	89.19
297.601	88.19
297.831	85.19
298.062	96.19
298.292	97.19
298.523	86.19
298.753	74.19
298.984	90.19
299.214	86.19
299.445	88.19
299.675	95.19
299.905	94.19
300.136	84.19
300.366	85.19
300.597	98.19
300.827	97.19
301.057	84.19
301.288	104.19
301.518	94.19
301.748	88.19
301.979	93.19
302.209	81.19
302.439	95.19
302.669	77.19
302.9	84.19
303.13	90.19
303.36	84.19
303.59	90.19
303.82	90.19
304.051	84.19
304.281	88.19
304.511	88.19
304.741	72.19
304.971	80.19
305.201	102.19
305.431	76.19
305.661	84.19
305.891	84.19
306.121	77.19
306.352	112.19
306.582	97.19
306.812	80.19
307.042	90.19
307.272	87.19
307.502	82.19
307.731	74.19
307.961	102.19
308.191	92.19
308.421	85.19
308.651	89.19
308.881	93.19
309.111	89.19
309.341	111.19
309.571	95.19
309.8	99.19
310.03	93.19
310.26	74.19
310.49	92.19
310.72	105.19
310.949	90.19
311.179	88.19
311.409	92.19
311.639	88.19
311.868	109.19
312.098	99.19
312.328	98.19
312.557	91.19
312.787	91.19
313.017	96.19
313.246	89.19
313.476	86.19
313.706	86.19
313.935	103.19
314.165	85.19
314.394	97.19
314.624	94.19
314.853	104.19
315.083	87.19
315.312	85.19
315.542	96.19
315.771	90.19
316.001	88.19
316.23	95.19
316.46	80.19
316.689	95.19
316.919	90.19
317.148	92.19
317.377	100.19
317.607	84.19
317.836	88.19
318.065	84.19
318.295	93.19
318.524	100.19
318.753	93.19
318.983	90.19
319.212	102.19
319.441	96.19
319.67	107.19
319.9	100.19
320.129	87.19
320.358	86.19
320.587	94.19
320.816	100.19
321.046	92.19
321.275	83.19
321.504	89.19
321.733	90.19
321.962	94.19
322.191	97.19
322.42	88.19
322.649	85.19
322.878	98.19
323.108	99.19
323.337	110.19
323.566	109.19
323.795	129.19
324.024	183.19
324.253	328.19
324.482	653.19
324.71	1382.19
324.939	1742.19
325.168	652.19
325.397	215.19
325.626	154.19
325.855	129.19
326.084	114.19
326.313	116.19
326.542	132.19
326.77	209.19
326.999	385.19
327.228	763.19
327.457	1352.19
327.686	1088.19
327.914	303.19
328.143	172.19
328.372	124.19
328.6	104.19
328.829	110.19
329.058	109.19
329.287	108.19
329.515	109.19
329.744	104.19
329.972	101.19
330.201	97.19
330.43	91.19
330.658	113.19
330.887	121.19
331.115	113.19
331.344	95.19
331.572	107.19
331.801	93.19
332.03	84.19
332.258	74.19
332.486	85.19
332.715	86.19
332.943	100.19
333.172	104.19
333.4	85.19
333.629	105.19
333.857	102.19
334.085	103.19
334.314	96.19
334.542	95.19
334.771	93.19
334.999	91.19
335.227	98.19
335.455	91.19
335.684	98.19
335.912	87.19
336.14	90.19
336.369	88.19
336.597	104.19
336.825	96.19
337.053	86.19
337.281	82.19
337.51	92.19
337.738	99.19
337.966	86.19
338.194	86.19
338.422	94.19
338.65	78.19
338.878	88.19
339.106	96.19
339.334	100.19
339.562	96.19
339.79	84.19
340.018	96.19
340.246	83.19
340.474	81.19
340.702	76.19
340.93	92.19
341.158	93.19
341.386	96.19
341.614	105.19
341.842	95.19
342.07	90.19
342.298	98.19
342.526	97.19
342.754	98.19
342.981	87.19
343.209	84.19
343.437	98.19
343.665	103.19
343.893	90.19
344.12	82.19
344.348	84.19
344.576	86.19
344.804	89.19
345.031	89.19
345.259	90.19
345.487	91.19
345.714	95.19
345.942	89.19
346.17	96.19
346.397	79.19
346.625	83.19
346.853	86.19
347.08	81.19
347.308	90.19
347.535	89.19
347.763	80.19
347.99	84.19
348.218	82.19
348.445	108.19
348.673	110.19
348.9	81.19
349.128	106.19
349.355	92.19
349.583	94.19
349.81	84.19
350.037	78.19
350.265	84.19
350.492	91.19
350.72	101.19
350.947	106.19
351.174	96.19
351.402	95.19
351.629	86.19
351.856	87.19
352.083	98.19
352.311	97.19
352.538	103.19
352.765	111.19
352.992	114.19
353.22	111.19
353.447	85.19
353.674	98.19
353.901	93.19
354.128	93.19
354.355	89.19
354.583	85.19
354.81	91.19
355.037	93.19
355.264	91.19
355.491	96.19
355.718	82.19
355.945	84.19
356.172	82.19
356.399	86.19
356.626	96.19
356.853	88.19
357.08	84.19
357.307	83.19
357.534	86.19
357.761	87.19
357.988	98.19
358.215	86.19
358.441	90.19
358.668	103.19
358.895	92.19
359.122	88.19
359.349	85.19
359.576	79.19
359.802	101.19
360.029	103.19
360.256	93.19
360.483	88.19
360.709	102.19
360.936	95.19
361.163	86.19
361.39	93.19
361.616	98.19
361.843	87.19
362.07	87.19
362.296	93.19
362.523	75.19
362.749	77.19
362.976	86.19
363.203	93.19
363.429	90.19
363.656	79.19
363.882	92.19
364.109	77.19
364.335	92.19
364.562	95.19
364.788	89.19
365.015	98.19
365.241	87.19
365.468	100.19
365.694	81.19
365.92	101.19
366.147	81.19
366.373	90.19
366.599	83.19
366.826	82.19
367.052	91.19
367.278	90.19
367.505	88.19
367.731	88.19
367.957	84.19
368.184	91.19
368.41	83.19
368.636	108.19
368.862	96.19
369.089	94.19
369.315	86.19
369.541	81.19
369.767	90.19
369.993	89.19
370.219	88.19
370.445	95.19
370.672	92.19
370.898	102.19
371.124	84.19
371.35	81.19
371.576	80.19
371.802	88.19
372.028	91.19
372.254	98.19
372.48	80.19
372.706	82.19
372.932	88.19
373.158	88.19
373.384	87.19
373.61	72.19
373.835	91.19
374.061	94.19
374.287	96.19
374.513	95.19
374.739	85.19
374.965	74.19
375.191	88.19
375.416	90.19
375.642	85.19
375.868	95.19
376.094	93.19
376.319	68.19
376.545	96.19
376.771	92.19
376.997	80.19
377.222	91.19
377.448	76.19
377.674	80.19
377.899	75.19
378.125	92.19
378.35	101.19
378.576	90.19
378.802	89.19
379.027	81.19
379.253	94.19
379.478	94.19
379.704	90.19
379.929	113.19
380.155	76.19
380.38	104.19
380.606	88.19
380.831	88.19
381.057	95.19
381.282	79.19
381.507	87.19
381.733	94.19
381.958	105.19
382.184	89.19
382.409	91.19
382.634	80.19
382.86	84.19
383.085	104.19
383.31	101.19
383.535	90.19
383.761	93.19
383.986	94.19
384.211	87.19
384.436	84.19
384.662	80.19
384.887	102.19
385.112	96.19
385.337	106.19
385.562	90.19
385.787	90.19
386.013	90.19
386.238	102.19
386.463	101.19
386.688	102.19
386.913	92.19
387.138	97.19
387.363	86.19
387.588	110.19
387.813	84.19
388.038	86.19
388.263	95.19
388.488	101.19
388.713	97.19
388.938	100.19
389.163	93.19
389.387	80.19
389.612	104.19
389.837	95.19
390.062	81.19
390.287	100.19
390.512	100.19
390.736	103.19
390.961	97.19
391.186	84.19
391.411	91.19
391.636	96.19
391.86	74.19
392.085	100.19
392.31	91.19
392.534	94.19
392.759	88.19
392.984	85.19
393.208	68.19
393.433	86.19
393.658	88.19
393.882	83.19
394.107	75.19
394.331	91.19
394.556	85.19
394.78	84.19
395.005	86.19
395.229	96.19
395.454	74.19
395.678	85.19
395.903	94.19
396.127	88.19
396.352	81.19
396.576	84.19
396.801	79.19
397.025	92.19
397.249	97.19
397.474	72.19
397.698	96.19
397.922	98.19
398.147	94.19
398.371	81.19
398.595	96.19
398.82	85.19
399.044	82.19
399.268	72.19
399.492	73.19
399.717	86.19
399.941	81.19
400.165	97.19
400.389	97.19
400.613	100.19
400.837	89.19
401.062	87.19
401.286	87.19
401.51	89.19
401.734	78.19
401.958	100.19
402.182	116.19
402.406	150.19
402.63	108.19
402.854	77.19
403.078	80.19
403.302	96.19
403.526	86.19
403.75	92.19
403.974	79.19
404.198	89.19
404.422	87.19
404.645	91.19
404.869	94.19
405.093	98.19
405.317	90.19
405.541	76.19
405.765	84.19
405.988	107.19
406.212	156.19
406.436	174.19
406.66	112.19
406.883	90.19
407.107	88.19
407.331	80.19
407.555	104.19
407.778	93.19
408.002	89.19
408.226	95.19
408.449	103.19
408.673	86.19
408.896	82.19
409.12	83.19
409.344	86.19
409.567	89.19
409.791	80.19
410.014	105.19
410.238	96.19
410.461	97.19
410.685	89.19
410.908	79.19
411.132	116.19
411.355	99.19
411.578	90.19
411.802	97.19
412.025	87.19
412.249	82.19
412.472	80.19
412.695	89.19
412.919	74.19
413.142	93.19
413.365	88.19
413.589	99.19
413.812	79.19
414.035	84.19
414.258	82.19
414.482	92.19
414.705	88.19
414.928	93.19
415.151	83.19
415.374	94.19
415.597	94.19
415.821	95.19
416.044	85.19
416.267	88.19
416.49	87.19
416.713	84.19
416.936	81.19
417.159	87.19
417.382	89.19
417.605	90.19
417.828	74.19
418.051	88.19
418.274	93.19
418.497	98.19
418.72	79.19
418.943	81.19
419.166	91.19
419.389	93.19
419.611	88.19
419.834	77.19
420.057	77.19
420.28	89.19
420.503	65.19
420.726	70.19
420.948	90.19
421.171	84.19
421.394	88.19
421.617	101.19
421.839	76.19
422.062	80.19
422.285	89.19
422.507	108.19
422.73	90.19
422.953	95.19
423.175	88.19
423.398	81.19
423.621	84.19
423.843	84.19
424.066	75.19
424.288	86.19
424.511	89.19
424.733	91.19
424.956	87.19
425.178	94.19
425.401	92.19
425.623	101.19
425.846	89.19
426.068	84.19
426.291	89.19
426.513	95.19
426.735	73.19
426.958	87.19
427.18	98.19
427.402	132.19
427.625	127.19
427.847	104.19
428.069	93.19
428.292	76.19
428.514	85.19
428.736	90.19
428.958	92.19
429.181	88.19
429.403	80.19
429.625	93.19
429.847	78.19
430.069	88.19
430.292	91.19
430.514	93.19
430.736	90.19
430.958	94.19
431.18	93.19
431.402	89.19
431.624	83.19
431.846	76.19
432.068	82.19
432.29	92.19
432.512	82.19
432.734	90.19
432.956	101.19
433.178	93.19
433.4	88.19
433.622	93.19
433.844	81.19
434.066	93.19
434.287	102.19
434.509	90.19
434.731	102.19
434.953	89.19
435.175	91.19
435.397	87.19
435.618	95.19
435.84	105.19
436.062	104.19
436.284	96.19
436.505	98.19
436.727	95.19
436.949	89.19
437.17	97.19
437.392	96.19
437.614	94.19
437.835	98.19
438.057	94.19
438.278	102.19
438.5	87.19
438.721	104.19
438.943	104.19
439.165	85.19
439.386	88.19
439.608	81.19
439.829	92.19
440.05	103.19
440.272	95.19
440.493	92.19
440.715	89.19
440.936	92.19
441.158	81.19
441.379	78.19
441.6	83.19
441.822	88.19
442.043	80.19
442.264	94.19
442.486	96.19
442.707	88.19
442.928	81.19
443.149	102.19
443.371	117.19
443.592	106.19
443.813	104.19
444.034	96.19
444.255	86.19
444.476	76.19
444.698	74.19
444.919	103.19
445.14	113.19
445.361	109.19
445.582	94.19
445.803	111.19
446.024	121.19
446.245	111.19
446.466	110.19
446.687	95.19
446.908	92.19
447.129	84.19
447.35	89.19
447.571	86.19
447.792	93.19
448.013	93.19
448.234	94.19
448.455	102.19
448.675	108.19
448.896	111.19
449.117	100.19
449.338	90.19
449.559	121.19
449.779	105.19
450	95.19
450.221	65.19
450.442	75.19
450.662	95.19
450.883	97.19
451.104	95.19
451.324	101.19
451.545	79.19
451.766	85.19
451.986	80.19
452.207	75.19
452.428	80.19
452.648	96.19
452.869	109.19
453.089	108.19
453.31	99.19
453.53	80.19
453.751	76.19
453.971	106.19
454.192	98.19
454.412	84.19
454.633	89.19
454.853	98.19
455.073	84.19
455.294	81.19
455.514	95.19
455.734	92.19
455.955	92.19
456.175	88.19
456.395	80.19
456.616	77.19
456.836	84.19
457.056	91.19
457.276	82.19
457.497	68.19
457.717	68.19
457.937	84.19
458.157	77.19
458.377	90.19
458.598	104.19
458.818	130.19
459.038	138.19
459.258	98.19
459.478	94.19
459.698	92.19
459.918	91.19
460.138	76.19
460.358	90.19
460.578	67.19
460.798	90.19
461.018	97.19
461.238	89.19
461.458	82.19
461.678	94.19
461.898	91.19
462.118	79.19
462.338	88.19
462.558	72.19
462.777	70.19
462.997	80.19
463.217	87.19
463.437	87.19
463.657	73.19
463.876	93.19
464.096	78.19
464.316	86.19
464.536	87.19
464.755	93.19
464.975	105.19
465.195	124.19
465.414	134.19
465.634	92.19
465.854	74.19
466.073	84.19
466.293	83.19
466.512	73.19
466.732	98.19
466.951	89.19
467.171	81.19
467.391	94.19
467.61	88.19
467.829	95.19
468.049	89.19
468.268	79.19
468.488	88.19
468.707	94.19
468.927	88.19
469.146	100.19
469.365	92.19
469.585	86.19
469.804	84.19
470.023	85.19
470.243	88.19
470.462	89.19
470.681	91.19
470.901	107.19
471.12	72.19
471.339	76.19
471.558	75.19
471.777	73.19
471.997	76.19
472.216	86.19
472.435	90.19
472.654	89.19
472.873	78.19
473.092	82.19
473.311	88.19
473.53	97.19
473.749	96.19
473.968	86.19
474.187	111.19
474.406	89.19
474.625	85.19
474.844	88.19
475.063	70.19
475.282	86.19
475.501	73.19
475.72	87.19
475.939	90.19
476.158	82.19
476.377	89.19
476.596	78.19
476.814	82.19
477.033	76.19
477.252	85.19
477.471	74.19
477.69	87.19
477.908	90.19
478.127	68.19
478.346	87.19
478.564	75.19
478.783	92.19
479.002	90.19
479.22	103.19
479.439	92.19
479.658	93.19
479.876	74.19
480.095	79.19
480.313	93.19
480.532	87.19
480.751	96.19
480.969	104.19
481.188	98.19
481.406	109.19
481.624	96.19
481.843	74.19
482.061	83.19
482.28	89.19
482.498	76.19
482.717	82.19
482.935	100.19
483.153	77.19
483.372	81.19
483.59	95.19
483.808	88.19
484.027	70.19
484.245	81.19
484.463	84.19
484.681	90.19
484.9	79.19
485.118	102.19
485.336	89.19
485.554	89.19
485.772	100.19
485.99	94.19
486.209	108.19
486.427	101.19
486.645	117.19
486.863	118.19
487.081	107.19
487.299	97.19
487.517	100.19
487.735	89.19
487.953	94.19
488.171	96.19
488.389	80.19
488.607	86.19
488.825	88.19
489.043	86.19
489.261	94.19
489.479	90.19
489.696	94.19
489.914	96.19
490.132	79.19
490.35	79.19
490.568	90.19
490.786	72.19
491.003	98.19
491.221	80.19
491.439	97.19
491.657	93.19
491.874	97.19
492.092	89.19
492.31	77.19
492.527	84.19
492.745	94.19
492.963	86.19
493.18	72.19
493.398	91.19
493.615	102.19
493.833	85.19
494.05	89.19
494.268	94.19
494.485	84.19
494.703	80.19
494.92	88.19
495.138	96.19
495.355	95.19
495.573	103.19
495.79	87.19
496.008	92.19
496.225	90.19
496.442	77.19
496.66	97.19
496.877	78.19
497.094	89.19
497.312	91.19
497.529	84.19
497.746	91.19
497.963	87.19
498.181	101.19
498.398	100.19
498.615	97.19
498.832	101.19
499.049	87.19
499.267	91.19
499.484	86.19
499.701	84.19
499.918	90.19
500.135	101.19
500.352	70.19
500.569	81.19
500.786	93.19
501.003	100.19
501.22	87.19
501.437	88.19
501.654	94.19
501.871	99.19
502.088	84.19
502.305	81.19
502.522	87.19
502.739	105.19
502.956	71.19
503.172	77.19
503.389	68.19
503.606	93.19
503.823	85.19
504.04	93.19
504.256	93.19
504.473	95.19
504.69	104.19
504.907	90.19
505.123	74.19
505.34	82.19
505.557	100.19
505.773	95.19
505.99	86.19
506.207	81.19
506.423	76.19
506.64	107.19
506.856	93.19
507.073	81.19
507.289	96.19
507.506	101.19
507.722	104.19
507.939	109.19
508.155	107.19
508.372	84.19
508.588	80.19
508.805	90.19
509.021	87.19
509.238	106.19
509.454	93.19
509.67	82.19
509.887	109.19
510.103	135.19
510.319	169.19
510.536	594.19
510.752	1796.19
510.968	512.19
511.184	127.19
511.401	98.19
511.617	87.19
511.833	81.19
512.049	90.19
512.265	71.19
512.481	96.19
512.698	82.19
512.914	91.19
513.13	81.19
513.346	81.19
513.562	105.19
513.778	96.19
513.994	87.19
514.21	88.19
514.426	101.19
514.642	114.19
514.858	106.19
515.074	138.19
515.29	344.19
515.506	1079.19
515.721	426.19
515.937	125.19
516.153	93.19
516.369	92.19
516.585	90.19
516.801	98.19
517.016	85.19
517.232	84.19
