Data from Uncirc_1997_H10_HRD10591_00021.txt Node
Date: Wed Jan 03 11:28:34 EST 2024
User: Yrep
Spectrometer: HR+D1059
Trigger mode: 1
Integration Time (sec): 1.000000E-1
Scans to average: 1
Electric dark correction enabled: true
Nonlinearity correction enabled: false
Boxcar width: 0
XAxis mode: Wavelengths
Number of Pixels in Spectrum: 2048
>>>>>Begin Spectral Data<<<<<
223.165	-9.25
223.4	-9.25
223.635	-9.25
223.869	-16.25
224.104	-33.25
224.338	-23.25
224.573	-12.25
224.808	-9.25
225.042	-9.25
225.277	-13.25
225.511	-0.25
225.746	7.75
225.98	11.75
226.215	13.75
226.449	18.75
226.683	34.75
226.918	20.75
227.152	18.75
227.387	16.75
227.621	31.75
227.856	51.75
228.09	44.75
228.324	52.75
228.559	47.75
228.793	58.75
229.027	64.75
229.262	44.75
229.496	72.75
229.73	81.75
229.964	94.75
230.199	66.75
230.433	82.75
230.667	72.75
230.901	77.75
231.136	85.75
231.37	86.75
231.604	89.75
231.838	76.75
232.072	74.75
232.306	78.75
232.541	72.75
232.775	86.75
233.009	77.75
233.243	82.75
233.477	71.75
233.711	90.75
233.945	77.75
234.179	79.75
234.413	83.75
234.647	74.75
234.881	79.75
235.115	89.75
235.349	74.75
235.583	86.75
235.817	74.75
236.051	82.75
236.285	80.75
236.519	75.75
236.753	74.75
236.987	76.75
237.221	75.75
237.455	80.75
237.689	76.75
237.922	77.75
238.156	75.75
238.39	73.75
238.624	76.75
238.858	82.75
239.091	80.75
239.325	66.75
239.559	86.75
239.793	75.75
240.027	68.75
240.26	72.75
240.494	76.75
240.728	87.75
240.961	86.75
241.195	79.75
241.429	90.75
241.662	88.75
241.896	73.75
242.13	83.75
242.363	71.75
242.597	77.75
242.83	72.75
243.064	61.75
243.298	78.75
243.531	68.75
243.765	73.75
243.998	82.75
244.232	89.75
244.465	77.75
244.699	87.75
244.932	88.75
245.166	76.75
245.399	75.75
245.633	79.75
245.866	73.75
246.099	84.75
246.333	77.75
246.566	75.75
246.8	80.75
247.033	88.75
247.266	71.75
247.5	83.75
247.733	75.75
247.966	82.75
248.2	65.75
248.433	77.75
248.666	83.75
248.899	83.75
249.133	91.75
249.366	87.75
249.599	90.75
249.832	83.75
250.066	84.75
250.299	102.75
250.532	88.75
250.765	77.75
250.998	83.75
251.231	76.75
251.465	75.75
251.698	86.75
251.931	84.75
252.164	86.75
252.397	82.75
252.63	71.75
252.863	76.75
253.096	75.75
253.329	79.75
253.562	72.75
253.795	95.75
254.028	68.75
254.261	82.75
254.494	82.75
254.727	77.75
254.96	72.75
255.193	80.75
255.426	70.75
255.659	83.75
255.892	72.75
256.124	88.75
256.357	73.75
256.59	76.75
256.823	78.75
257.056	69.75
257.289	88.75
257.521	87.75
257.754	79.75
257.987	86.75
258.22	91.75
258.452	88.75
258.685	79.75
258.918	92.75
259.151	77.75
259.383	74.75
259.616	92.75
259.849	92.75
260.081	75.75
260.314	85.75
260.547	84.75
260.779	78.75
261.012	67.75
261.244	85.75
261.477	83.75
261.71	91.75
261.942	108.75
262.175	98.75
262.407	71.75
262.64	83.75
262.872	83.75
263.105	93.75
263.337	82.75
263.57	84.75
263.802	83.75
264.035	71.75
264.267	83.75
264.499	87.75
264.732	91.75
264.964	78.75
265.197	85.75
265.429	85.75
265.661	82.75
265.894	75.75
266.126	81.75
266.358	95.75
266.591	77.75
266.823	93.75
267.055	85.75
267.287	94.75
267.52	87.75
267.752	83.75
267.984	85.75
268.216	71.75
268.448	84.75
268.681	80.75
268.913	82.75
269.145	93.75
269.377	82.75
269.609	90.75
269.841	98.75
270.073	82.75
270.306	89.75
270.538	84.75
270.77	76.75
271.002	82.75
271.234	75.75
271.466	96.75
271.698	81.75
271.93	94.75
272.162	84.75
272.394	83.75
272.626	74.75
272.858	81.75
273.09	73.75
273.322	79.75
273.553	81.75
273.785	71.75
274.017	75.75
274.249	85.75
274.481	89.75
274.713	86.75
274.945	93.75
275.176	79.75
275.408	80.75
275.64	93.75
275.872	91.75
276.104	70.75
276.335	90.75
276.567	100.75
276.799	94.75
277.031	91.75
277.262	94.75
277.494	89.75
277.726	86.75
277.957	74.75
278.189	77.75
278.421	98.75
278.652	79.75
278.884	94.75
279.115	87.75
279.347	86.75
279.579	84.75
279.81	80.75
280.042	88.75
280.273	92.75
280.505	81.75
280.736	81.75
280.968	78.75
281.199	82.75
281.431	84.75
281.662	96.75
281.894	83.75
282.125	87.75
282.356	111.75
282.588	126.75
282.819	109.75
283.051	105.75
283.282	84.75
283.513	80.75
283.745	108.75
283.976	83.75
284.207	82.75
284.439	76.75
284.67	89.75
284.901	92.75
285.132	76.75
285.364	91.75
285.595	91.75
285.826	72.75
286.057	85.75
286.288	75.75
286.52	81.75
286.751	88.75
286.982	104.75
287.213	80.75
287.444	82.75
287.675	84.75
287.906	82.75
288.138	90.75
288.369	92.75
288.6	97.75
288.831	99.75
289.062	90.75
289.293	78.75
289.524	83.75
289.755	86.75
289.986	94.75
290.217	96.75
290.448	89.75
290.679	84.75
290.91	91.75
291.141	84.75
291.371	86.75
291.602	83.75
291.833	88.75
292.064	83.75
292.295	81.75
292.526	92.75
292.757	80.75
292.987	65.75
293.218	89.75
293.449	80.75
293.68	88.75
293.91	96.75
294.141	78.75
294.372	79.75
294.603	87.75
294.833	88.75
295.064	98.75
295.295	88.75
295.525	97.75
295.756	96.75
295.987	98.75
296.217	115.75
296.448	104.75
296.679	98.75
296.909	97.75
297.14	89.75
297.37	88.75
297.601	86.75
297.831	90.75
298.062	83.75
298.292	94.75
298.523	80.75
298.753	90.75
298.984	90.75
299.214	79.75
299.445	87.75
299.675	85.75
299.905	97.75
300.136	89.75
300.366	85.75
300.597	98.75
300.827	91.75
301.057	100.75
301.288	97.75
301.518	103.75
301.748	96.75
301.979	103.75
302.209	83.75
302.439	90.75
302.669	85.75
302.9	94.75
303.13	102.75
303.36	79.75
303.59	94.75
303.82	94.75
304.051	86.75
304.281	91.75
304.511	99.75
304.741	82.75
304.971	88.75
305.201	82.75
305.431	83.75
305.661	85.75
305.891	88.75
306.121	97.75
306.352	102.75
306.582	91.75
306.812	96.75
307.042	96.75
307.272	93.75
307.502	77.75
307.731	91.75
307.961	77.75
308.191	83.75
308.421	96.75
308.651	101.75
308.881	74.75
309.111	91.75
309.341	90.75
309.571	77.75
309.8	99.75
310.03	103.75
310.26	81.75
310.49	100.75
310.72	91.75
310.949	96.75
311.179	105.75
311.409	88.75
311.639	75.75
311.868	90.75
312.098	98.75
312.328	104.75
312.557	110.75
312.787	96.75
313.017	104.75
313.246	83.75
313.476	105.75
313.706	104.75
313.935	86.75
314.165	94.75
314.394	82.75
314.624	98.75
314.853	91.75
315.083	98.75
315.312	93.75
315.542	82.75
315.771	81.75
316.001	88.75
316.23	96.75
316.46	105.75
316.689	106.75
316.919	94.75
317.148	84.75
317.377	95.75
317.607	89.75
317.836	95.75
318.065	83.75
318.295	92.75
318.524	95.75
318.753	92.75
318.983	90.75
319.212	103.75
319.441	97.75
319.67	104.75
319.9	92.75
320.129	94.75
320.358	91.75
320.587	93.75
320.816	84.75
321.046	93.75
321.275	87.75
321.504	97.75
321.733	103.75
321.962	110.75
322.191	100.75
322.42	89.75
322.649	102.75
322.878	103.75
323.108	112.75
323.337	108.75
323.566	130.75
323.795	147.75
324.024	193.75
324.253	338.75
324.482	698.75
324.71	1450.75
324.939	1900.75
325.168	705.75
325.397	220.75
325.626	123.75
325.855	127.75
326.084	132.75
326.313	140.75
326.542	142.75
326.77	214.75
326.999	387.75
327.228	860.75
327.457	1496.75
327.686	1138.75
327.914	319.75
328.143	170.75
328.372	134.75
328.6	114.75
328.829	112.75
329.058	107.75
329.287	112.75
329.515	100.75
329.744	108.75
329.972	93.75
330.201	108.75
330.43	101.75
330.658	98.75
330.887	113.75
331.115	104.75
331.344	81.75
331.572	99.75
331.801	88.75
332.03	89.75
332.258	97.75
332.486	88.75
332.715	90.75
332.943	104.75
333.172	96.75
333.4	86.75
333.629	110.75
333.857	89.75
334.085	106.75
334.314	92.75
334.542	97.75
334.771	89.75
334.999	98.75
335.227	93.75
335.455	95.75
335.684	90.75
335.912	84.75
336.14	96.75
336.369	98.75
336.597	102.75
336.825	100.75
337.053	100.75
337.281	98.75
337.51	98.75
337.738	101.75
337.966	93.75
338.194	99.75
338.422	94.75
338.65	113.75
338.878	87.75
339.106	90.75
339.334	82.75
339.562	90.75
339.79	85.75
340.018	81.75
340.246	92.75
340.474	91.75
340.702	88.75
340.93	94.75
341.158	88.75
341.386	90.75
341.614	85.75
341.842	93.75
342.07	96.75
342.298	97.75
342.526	89.75
342.754	77.75
342.981	80.75
343.209	96.75
343.437	106.75
343.665	83.75
343.893	81.75
344.12	98.75
344.348	80.75
344.576	90.75
344.804	88.75
345.031	90.75
345.259	93.75
345.487	88.75
345.714	93.75
345.942	82.75
346.17	99.75
346.397	96.75
346.625	87.75
346.853	90.75
347.08	106.75
347.308	110.75
347.535	90.75
347.763	92.75
347.99	99.75
348.218	96.75
348.445	99.75
348.673	99.75
348.9	102.75
349.128	90.75
349.355	101.75
349.583	94.75
349.81	86.75
350.037	92.75
350.265	80.75
350.492	91.75
350.72	90.75
350.947	106.75
351.174	96.75
351.402	110.75
351.629	109.75
351.856	106.75
352.083	104.75
352.311	98.75
352.538	113.75
352.765	96.75
352.992	101.75
353.22	110.75
353.447	103.75
353.674	108.75
353.901	91.75
354.128	98.75
354.355	94.75
354.583	98.75
354.81	98.75
355.037	97.75
355.264	98.75
355.491	90.75
355.718	87.75
355.945	78.75
356.172	87.75
356.399	92.75
356.626	104.75
356.853	82.75
357.08	72.75
357.307	97.75
357.534	87.75
357.761	99.75
357.988	91.75
358.215	91.75
358.441	92.75
358.668	88.75
358.895	99.75
359.122	82.75
359.349	79.75
359.576	86.75
359.802	87.75
360.029	103.75
360.256	98.75
360.483	99.75
360.709	97.75
360.936	100.75
361.163	80.75
361.39	86.75
361.616	91.75
361.843	88.75
362.07	75.75
362.296	82.75
362.523	78.75
362.749	92.75
362.976	104.75
363.203	98.75
363.429	84.75
363.656	87.75
363.882	75.75
364.109	99.75
364.335	89.75
364.562	87.75
364.788	98.75
365.015	81.75
365.241	92.75
365.468	105.75
365.694	95.75
365.92	87.75
366.147	88.75
366.373	99.75
366.599	85.75
366.826	96.75
367.052	98.75
367.278	88.75
367.505	95.75
367.731	86.75
367.957	76.75
368.184	93.75
368.41	93.75
368.636	109.75
368.862	119.75
369.089	121.75
369.315	98.75
369.541	90.75
369.767	85.75
369.993	68.75
370.219	95.75
370.445	84.75
370.672	109.75
370.898	82.75
371.124	80.75
371.35	73.75
371.576	74.75
371.802	76.75
372.028	88.75
372.254	83.75
372.48	96.75
372.706	95.75
372.932	87.75
373.158	93.75
373.384	74.75
373.61	78.75
373.835	96.75
374.061	84.75
374.287	94.75
374.513	99.75
374.739	84.75
374.965	94.75
375.191	112.75
375.416	104.75
375.642	100.75
375.868	86.75
376.094	83.75
376.319	86.75
376.545	93.75
376.771	90.75
376.997	90.75
377.222	89.75
377.448	97.75
377.674	83.75
377.899	94.75
378.125	82.75
378.35	86.75
378.576	87.75
378.802	91.75
379.027	85.75
379.253	90.75
379.478	91.75
379.704	100.75
379.929	96.75
380.155	87.75
380.38	99.75
380.606	95.75
380.831	98.75
381.057	102.75
381.282	86.75
381.507	97.75
381.733	87.75
381.958	94.75
382.184	108.75
382.409	82.75
382.634	110.75
382.86	118.75
383.085	101.75
383.31	105.75
383.535	97.75
383.761	93.75
383.986	98.75
384.211	99.75
384.436	99.75
384.662	100.75
384.887	100.75
385.112	102.75
385.337	115.75
385.562	110.75
385.787	90.75
386.013	98.75
386.238	101.75
386.463	92.75
386.688	91.75
386.913	106.75
387.138	111.75
387.363	91.75
387.588	93.75
387.813	106.75
388.038	100.75
388.263	120.75
388.488	121.75
388.713	99.75
388.938	90.75
389.163	94.75
389.387	85.75
389.612	91.75
389.837	84.75
390.062	99.75
390.287	105.75
390.512	90.75
390.736	84.75
390.961	98.75
391.186	96.75
391.411	106.75
391.636	83.75
391.86	75.75
392.085	86.75
392.31	87.75
392.534	90.75
392.759	86.75
392.984	84.75
393.208	100.75
393.433	82.75
393.658	97.75
393.882	83.75
394.107	97.75
394.331	83.75
394.556	69.75
394.78	75.75
395.005	104.75
395.229	92.75
395.454	78.75
395.678	92.75
395.903	100.75
396.127	98.75
396.352	92.75
396.576	92.75
396.801	81.75
397.025	100.75
397.249	83.75
397.474	79.75
397.698	98.75
397.922	84.75
398.147	88.75
398.371	112.75
398.595	96.75
398.82	84.75
399.044	94.75
399.268	87.75
399.492	86.75
399.717	91.75
399.941	105.75
400.165	103.75
400.389	103.75
400.613	103.75
400.837	89.75
401.062	86.75
401.286	98.75
401.51	96.75
401.734	92.75
401.958	102.75
402.182	119.75
402.406	128.75
402.63	108.75
402.854	98.75
403.078	86.75
403.302	83.75
403.526	95.75
403.75	86.75
403.974	79.75
404.198	77.75
404.422	80.75
404.645	103.75
404.869	99.75
405.093	103.75
405.317	93.75
405.541	94.75
405.765	80.75
405.988	111.75
406.212	155.75
406.436	184.75
406.66	137.75
406.883	103.75
407.107	93.75
407.331	94.75
407.555	95.75
407.778	86.75
408.002	91.75
408.226	98.75
408.449	92.75
408.673	86.75
408.896	89.75
409.12	105.75
409.344	84.75
409.567	92.75
409.791	91.75
410.014	102.75
410.238	104.75
410.461	94.75
410.685	90.75
410.908	95.75
411.132	93.75
411.355	97.75
411.578	87.75
411.802	88.75
412.025	80.75
412.249	93.75
412.472	90.75
412.695	97.75
412.919	94.75
413.142	84.75
413.365	88.75
413.589	91.75
413.812	96.75
414.035	97.75
414.258	95.75
414.482	91.75
414.705	94.75
414.928	92.75
415.151	92.75
415.374	82.75
415.597	89.75
415.821	88.75
416.044	91.75
416.267	97.75
416.49	74.75
416.713	83.75
416.936	94.75
417.159	89.75
417.382	86.75
417.605	87.75
417.828	89.75
418.051	85.75
418.274	75.75
418.497	74.75
418.72	102.75
418.943	76.75
419.166	82.75
419.389	89.75
419.611	80.75
419.834	95.75
420.057	95.75
420.28	103.75
420.503	87.75
420.726	85.75
420.948	86.75
421.171	91.75
421.394	89.75
421.617	81.75
421.839	90.75
422.062	90.75
422.285	77.75
422.507	89.75
422.73	104.75
422.953	94.75
423.175	94.75
423.398	81.75
423.621	102.75
423.843	87.75
424.066	92.75
424.288	84.75
424.511	80.75
424.733	92.75
424.956	100.75
425.178	86.75
425.401	90.75
425.623	98.75
425.846	83.75
426.068	83.75
426.291	84.75
426.513	99.75
426.735	86.75
426.958	104.75
427.18	118.75
427.402	134.75
427.625	134.75
427.847	112.75
428.069	108.75
428.292	98.75
428.514	83.75
428.736	80.75
428.958	75.75
429.181	88.75
429.403	87.75
429.625	79.75
429.847	99.75
430.069	98.75
430.292	93.75
430.514	82.75
430.736	90.75
430.958	83.75
431.18	82.75
431.402	93.75
431.624	83.75
431.846	99.75
432.068	87.75
432.29	80.75
432.512	80.75
432.734	93.75
432.956	82.75
433.178	93.75
433.4	90.75
433.622	97.75
433.844	96.75
434.066	85.75
434.287	88.75
434.509	88.75
434.731	72.75
434.953	77.75
435.175	88.75
435.397	90.75
435.618	94.75
435.84	90.75
436.062	104.75
436.284	110.75
436.505	100.75
436.727	79.75
436.949	93.75
437.17	86.75
437.392	83.75
437.614	88.75
437.835	93.75
438.057	115.75
438.278	97.75
438.5	88.75
438.721	107.75
438.943	110.75
439.165	76.75
439.386	86.75
439.608	97.75
439.829	102.75
440.05	114.75
440.272	127.75
440.493	102.75
440.715	86.75
440.936	79.75
441.158	98.75
441.379	88.75
441.6	83.75
441.822	85.75
442.043	91.75
442.264	100.75
442.486	96.75
442.707	98.75
442.928	106.75
443.149	125.75
443.371	135.75
443.592	97.75
443.813	106.75
444.034	108.75
444.255	72.75
444.476	86.75
444.698	86.75
444.919	86.75
445.14	116.75
445.361	123.75
445.582	117.75
445.803	137.75
446.024	110.75
446.245	122.75
446.466	105.75
446.687	84.75
446.908	90.75
447.129	81.75
447.35	104.75
447.571	90.75
447.792	90.75
448.013	88.75
448.234	97.75
448.455	94.75
448.675	94.75
448.896	113.75
449.117	91.75
449.338	121.75
449.559	127.75
449.779	125.75
450	100.75
450.221	100.75
450.442	86.75
450.662	100.75
450.883	94.75
451.104	95.75
451.324	92.75
451.545	89.75
451.766	87.75
451.986	71.75
452.207	94.75
452.428	96.75
452.648	89.75
452.869	98.75
453.089	106.75
453.31	111.75
453.53	87.75
453.751	86.75
453.971	108.75
454.192	91.75
454.412	90.75
454.633	95.75
454.853	86.75
455.073	95.75
455.294	99.75
455.514	98.75
455.734	82.75
455.955	90.75
456.175	88.75
456.395	92.75
456.616	97.75
456.836	74.75
457.056	74.75
457.276	75.75
457.497	65.75
457.717	92.75
457.937	78.75
458.157	91.75
458.377	94.75
458.598	94.75
458.818	138.75
459.038	138.75
459.258	114.75
459.478	83.75
459.698	74.75
459.918	83.75
460.138	79.75
460.358	87.75
460.578	84.75
460.798	89.75
461.018	93.75
461.238	91.75
461.458	98.75
461.678	79.75
461.898	91.75
462.118	94.75
462.338	81.75
462.558	64.75
462.777	92.75
462.997	73.75
463.217	81.75
463.437	79.75
463.657	76.75
463.876	95.75
464.096	89.75
464.316	89.75
464.536	104.75
464.755	86.75
464.975	94.75
465.195	136.75
465.414	157.75
465.634	104.75
465.854	86.75
466.073	78.75
466.293	89.75
466.512	92.75
466.732	78.75
466.951	91.75
467.171	87.75
467.391	94.75
467.61	110.75
467.829	90.75
468.049	95.75
468.268	86.75
468.488	85.75
468.707	84.75
468.927	74.75
469.146	71.75
469.365	89.75
469.585	88.75
469.804	91.75
470.023	89.75
470.243	78.75
470.462	90.75
470.681	102.75
470.901	91.75
471.12	88.75
471.339	92.75
471.558	100.75
471.777	101.75
471.997	93.75
472.216	82.75
472.435	106.75
472.654	87.75
472.873	89.75
473.092	82.75
473.311	97.75
473.53	86.75
473.749	97.75
473.968	102.75
474.187	94.75
474.406	99.75
474.625	89.75
474.844	78.75
475.063	85.75
475.282	88.75
475.501	86.75
475.72	86.75
475.939	93.75
476.158	86.75
476.377	103.75
476.596	84.75
476.814	102.75
477.033	94.75
477.252	82.75
477.471	76.75
477.69	88.75
477.908	92.75
478.127	97.75
478.346	98.75
478.564	91.75
478.783	96.75
479.002	87.75
479.22	80.75
479.439	88.75
479.658	100.75
479.876	89.75
480.095	83.75
480.313	92.75
480.532	86.75
480.751	76.75
480.969	93.75
481.188	97.75
481.406	99.75
481.624	100.75
481.843	86.75
482.061	84.75
482.28	95.75
482.498	83.75
482.717	76.75
482.935	79.75
483.153	88.75
483.372	85.75
483.59	78.75
483.808	89.75
484.027	98.75
484.245	85.75
484.463	109.75
484.681	99.75
484.9	100.75
485.118	83.75
485.336	96.75
485.554	106.75
485.772	102.75
485.99	97.75
486.209	92.75
486.427	78.75
486.645	92.75
486.863	106.75
487.081	107.75
487.299	92.75
487.517	84.75
487.735	89.75
487.953	99.75
488.171	73.75
488.389	99.75
488.607	100.75
488.825	93.75
489.043	96.75
489.261	83.75
489.479	83.75
489.696	101.75
489.914	95.75
490.132	87.75
490.35	75.75
490.568	92.75
490.786	97.75
491.003	110.75
491.221	90.75
491.439	95.75
491.657	102.75
491.874	97.75
492.092	86.75
492.31	80.75
492.527	100.75
492.745	96.75
492.963	80.75
493.18	86.75
493.398	97.75
493.615	81.75
493.833	85.75
494.05	106.75
494.268	90.75
494.485	84.75
494.703	86.75
494.92	91.75
495.138	90.75
495.355	89.75
495.573	99.75
495.79	88.75
496.008	87.75
496.225	88.75
496.442	84.75
496.66	90.75
496.877	93.75
497.094	87.75
497.312	103.75
497.529	87.75
497.746	82.75
497.963	89.75
498.181	90.75
498.398	95.75
498.615	112.75
498.832	92.75
499.049	90.75
499.267	97.75
499.484	103.75
499.701	81.75
499.918	90.75
500.135	99.75
500.352	95.75
500.569	81.75
500.786	104.75
501.003	87.75
501.22	103.75
501.437	87.75
501.654	87.75
501.871	83.75
502.088	105.75
502.305	94.75
502.522	83.75
502.739	86.75
502.956	87.75
503.172	77.75
503.389	89.75
503.606	86.75
503.823	86.75
504.04	91.75
504.256	86.75
504.473	82.75
504.69	89.75
504.907	83.75
505.123	80.75
505.34	88.75
505.557	80.75
505.773	98.75
505.99	94.75
506.207	81.75
506.423	94.75
506.64	97.75
506.856	79.75
507.073	100.75
507.289	114.75
507.506	104.75
507.722	100.75
507.939	97.75
508.155	101.75
508.372	82.75
508.588	80.75
508.805	83.75
509.021	98.75
509.238	95.75
509.454	90.75
509.67	91.75
509.887	94.75
510.103	112.75
510.319	182.75
510.536	614.75
510.752	1799.75
510.968	503.75
511.184	141.75
511.401	116.75
511.617	95.75
511.833	98.75
512.049	89.75
512.265	78.75
512.481	100.75
512.698	97.75
512.914	86.75
513.13	99.75
513.346	91.75
513.562	84.75
513.778	100.75
513.994	97.75
514.21	103.75
514.426	116.75
514.642	124.75
514.858	118.75
515.074	140.75
515.29	370.75
515.506	1105.75
515.721	436.75
515.937	154.75
516.153	102.75
516.369	101.75
516.585	89.75
