Data from Uncirc_1997_H10_HRD10591_00044.txt Node
Date: Wed Jan 03 11:28:39 EST 2024
User: Yrep
Spectrometer: HR+D1059
Trigger mode: 1
Integration Time (sec): 1.000000E-1
Scans to average: 1
Electric dark correction enabled: true
Nonlinearity correction enabled: false
Boxcar width: 0
XAxis mode: Wavelengths
Number of Pixels in Spectrum: 2048
>>>>>Begin Spectral Data<<<<<
223.165	-6.69
223.4	-6.69
223.635	-6.69
223.869	-26.69
224.104	-37.69
224.338	-19.69
224.573	-7.69
224.808	0.31
225.042	8.31
225.277	-0.69
225.511	-13.69
225.746	15.31
225.98	0.31
226.215	4.31
226.449	3.31
226.683	28.31
226.918	27.31
227.152	25.31
227.387	39.31
227.621	37.31
227.856	51.31
228.09	53.31
228.324	64.31
228.559	57.31
228.793	62.31
229.027	60.31
229.262	58.31
229.496	80.31
229.73	79.31
229.964	63.31
230.199	72.31
230.433	87.31
230.667	78.31
230.901	71.31
231.136	82.31
231.37	58.31
231.604	75.31
231.838	80.31
232.072	90.31
232.306	80.31
232.541	78.31
232.775	90.31
233.009	82.31
233.243	85.31
233.477	80.31
233.711	75.31
233.945	79.31
234.179	73.31
234.413	97.31
234.647	64.31
234.881	92.31
235.115	93.31
235.349	85.31
235.583	79.31
235.817	96.31
236.051	80.31
236.285	71.31
236.519	81.31
236.753	89.31
236.987	72.31
237.221	76.31
237.455	73.31
237.689	83.31
237.922	77.31
238.156	78.31
238.39	65.31
238.624	79.31
238.858	82.31
239.091	81.31
239.325	80.31
239.559	99.31
239.793	83.31
240.027	76.31
240.26	73.31
240.494	76.31
240.728	66.31
240.961	72.31
241.195	87.31
241.429	75.31
241.662	75.31
241.896	90.31
242.13	76.31
242.363	77.31
242.597	87.31
242.83	76.31
243.064	77.31
243.298	92.31
243.531	83.31
243.765	86.31
243.998	83.31
244.232	77.31
244.465	89.31
244.699	75.31
244.932	73.31
245.166	68.31
245.399	63.31
245.633	70.31
245.866	79.31
246.099	79.31
246.333	65.31
246.566	88.31
246.8	78.31
247.033	69.31
247.266	61.31
247.5	84.31
247.733	75.31
247.966	81.31
248.2	69.31
248.433	78.31
248.666	76.31
248.899	88.31
249.133	86.31
249.366	90.31
249.599	91.31
249.832	71.31
250.066	80.31
250.299	86.31
250.532	75.31
250.765	84.31
250.998	72.31
251.231	86.31
251.465	79.31
251.698	76.31
251.931	82.31
252.164	74.31
252.397	84.31
252.63	61.31
252.863	74.31
253.096	82.31
253.329	84.31
253.562	76.31
253.795	91.31
254.028	75.31
254.261	83.31
254.494	79.31
254.727	73.31
254.96	97.31
255.193	74.31
255.426	73.31
255.659	96.31
255.892	91.31
256.124	70.31
256.357	75.31
256.59	77.31
256.823	79.31
257.056	77.31
257.289	91.31
257.521	86.31
257.754	78.31
257.987	80.31
258.22	101.31
258.452	92.31
258.685	88.31
258.918	89.31
259.151	76.31
259.383	92.31
259.616	82.31
259.849	79.31
260.081	87.31
260.314	90.31
260.547	84.31
260.779	84.31
261.012	75.31
261.244	90.31
261.477	67.31
261.71	89.31
261.942	113.31
262.175	96.31
262.407	107.31
262.64	83.31
262.872	91.31
263.105	83.31
263.337	93.31
263.57	80.31
263.802	84.31
264.035	82.31
264.267	82.31
264.499	87.31
264.732	71.31
264.964	91.31
265.197	88.31
265.429	71.31
265.661	84.31
265.894	86.31
266.126	87.31
266.358	91.31
266.591	82.31
266.823	70.31
267.055	87.31
267.287	86.31
267.52	82.31
267.752	102.31
267.984	84.31
268.216	83.31
268.448	92.31
268.681	83.31
268.913	80.31
269.145	92.31
269.377	88.31
269.609	84.31
269.841	75.31
270.073	89.31
270.306	72.31
270.538	84.31
270.77	77.31
271.002	77.31
271.234	84.31
271.466	86.31
271.698	90.31
271.93	92.31
272.162	81.31
272.394	86.31
272.626	87.31
272.858	83.31
273.09	74.31
273.322	83.31
273.553	81.31
273.785	80.31
274.017	95.31
274.249	91.31
274.481	83.31
274.713	76.31
274.945	89.31
275.176	78.31
275.408	91.31
275.64	80.31
275.872	79.31
276.104	88.31
276.335	89.31
276.567	95.31
276.799	91.31
277.031	96.31
277.262	79.31
277.494	85.31
277.726	92.31
277.957	88.31
278.189	85.31
278.421	93.31
278.652	75.31
278.884	77.31
279.115	80.31
279.347	89.31
279.579	71.31
279.81	92.31
280.042	105.31
280.273	85.31
280.505	84.31
280.736	87.31
280.968	77.31
281.199	82.31
281.431	84.31
281.662	78.31
281.894	80.31
282.125	97.31
282.356	115.31
282.588	120.31
282.819	118.31
283.051	85.31
283.282	96.31
283.513	86.31
283.745	90.31
283.976	85.31
284.207	85.31
284.439	86.31
284.67	89.31
284.901	92.31
285.132	88.31
285.364	81.31
285.595	87.31
285.826	82.31
286.057	75.31
286.288	69.31
286.52	77.31
286.751	83.31
286.982	92.31
287.213	79.31
287.444	101.31
287.675	83.31
287.906	69.31
288.138	99.31
288.369	98.31
288.6	84.31
288.831	83.31
289.062	81.31
289.293	85.31
289.524	82.31
289.755	86.31
289.986	82.31
290.217	84.31
290.448	97.31
290.679	84.31
290.91	84.31
291.141	79.31
291.371	79.31
291.602	80.31
291.833	97.31
292.064	95.31
292.295	91.31
292.526	95.31
292.757	79.31
292.987	101.31
293.218	91.31
293.449	84.31
293.68	79.31
293.91	99.31
294.141	94.31
294.372	87.31
294.603	82.31
294.833	84.31
295.064	72.31
295.295	90.31
295.525	103.31
295.756	90.31
295.987	98.31
296.217	131.31
296.448	112.31
296.679	99.31
296.909	91.31
297.14	90.31
297.37	94.31
297.601	91.31
297.831	100.31
298.062	83.31
298.292	84.31
298.523	89.31
298.753	96.31
298.984	101.31
299.214	85.31
299.445	94.31
299.675	95.31
299.905	87.31
300.136	100.31
300.366	96.31
300.597	89.31
300.827	104.31
301.057	99.31
301.288	113.31
301.518	92.31
301.748	74.31
301.979	96.31
302.209	93.31
302.439	91.31
302.669	81.31
302.9	103.31
303.13	100.31
303.36	86.31
303.59	88.31
303.82	95.31
304.051	94.31
304.281	87.31
304.511	89.31
304.741	85.31
304.971	87.31
305.201	92.31
305.431	97.31
305.661	96.31
305.891	95.31
306.121	103.31
306.352	99.31
306.582	116.31
306.812	82.31
307.042	90.31
307.272	88.31
307.502	73.31
307.731	96.31
307.961	89.31
308.191	98.31
308.421	84.31
308.651	97.31
308.881	93.31
309.111	100.31
309.341	106.31
309.571	93.31
309.8	99.31
310.03	104.31
310.26	91.31
310.49	87.31
310.72	92.31
310.949	100.31
311.179	101.31
311.409	98.31
311.639	94.31
311.868	93.31
312.098	96.31
312.328	90.31
312.557	103.31
312.787	96.31
313.017	85.31
313.246	82.31
313.476	85.31
313.706	94.31
313.935	96.31
314.165	107.31
314.394	99.31
314.624	93.31
314.853	101.31
315.083	96.31
315.312	79.31
315.542	87.31
315.771	97.31
316.001	117.31
316.23	84.31
316.46	83.31
316.689	108.31
316.919	98.31
317.148	93.31
317.377	92.31
317.607	87.31
317.836	91.31
318.065	90.31
318.295	101.31
318.524	89.31
318.753	93.31
318.983	76.31
319.212	84.31
319.441	107.31
319.67	105.31
319.9	92.31
320.129	95.31
320.358	89.31
320.587	102.31
320.816	95.31
321.046	103.31
321.275	98.31
321.504	80.31
321.733	93.31
321.962	95.31
322.191	100.31
322.42	97.31
322.649	114.31
322.878	100.31
323.108	116.31
323.337	123.31
323.566	115.31
323.795	129.31
324.024	174.31
324.253	340.31
324.482	655.31
324.71	1313.31
324.939	1770.31
325.168	666.31
325.397	211.31
325.626	129.31
325.855	125.31
326.084	119.31
326.313	112.31
326.542	138.31
326.77	194.31
326.999	384.31
327.228	754.31
327.457	1339.31
327.686	1104.31
327.914	310.31
328.143	163.31
328.372	119.31
328.6	100.31
328.829	121.31
329.058	121.31
329.287	120.31
329.515	93.31
329.744	99.31
329.972	91.31
330.201	119.31
330.43	94.31
330.658	103.31
330.887	118.31
331.115	107.31
331.344	92.31
331.572	104.31
331.801	96.31
332.03	97.31
332.258	99.31
332.486	90.31
332.715	89.31
332.943	95.31
333.172	99.31
333.4	80.31
333.629	93.31
333.857	105.31
334.085	108.31
334.314	104.31
334.542	115.31
334.771	104.31
334.999	103.31
335.227	114.31
335.455	100.31
335.684	96.31
335.912	93.31
336.14	99.31
336.369	82.31
336.597	91.31
336.825	88.31
337.053	92.31
337.281	93.31
337.51	91.31
337.738	78.31
337.966	94.31
338.194	84.31
338.422	90.31
338.65	107.31
338.878	85.31
339.106	77.31
339.334	96.31
339.562	101.31
339.79	96.31
340.018	84.31
340.246	91.31
340.474	88.31
340.702	83.31
340.93	96.31
341.158	96.31
341.386	96.31
341.614	96.31
341.842	95.31
342.07	82.31
342.298	94.31
342.526	97.31
342.754	80.31
342.981	95.31
343.209	89.31
343.437	95.31
343.665	83.31
343.893	95.31
344.12	89.31
344.348	86.31
344.576	85.31
344.804	89.31
345.031	89.31
345.259	89.31
345.487	98.31
345.714	78.31
345.942	86.31
346.17	92.31
346.397	79.31
346.625	89.31
346.853	90.31
347.08	87.31
347.308	89.31
347.535	99.31
347.763	82.31
347.99	97.31
348.218	111.31
348.445	102.31
348.673	110.31
348.9	86.31
349.128	98.31
349.355	86.31
349.583	102.31
349.81	86.31
350.037	94.31
350.265	98.31
350.492	103.31
350.72	105.31
350.947	99.31
351.174	102.31
351.402	93.31
351.629	100.31
351.856	101.31
352.083	103.31
352.311	98.31
352.538	100.31
352.765	97.31
352.992	106.31
353.22	107.31
353.447	83.31
353.674	116.31
353.901	95.31
354.128	93.31
354.355	100.31
354.583	94.31
354.81	96.31
355.037	82.31
355.264	107.31
355.491	80.31
355.718	84.31
355.945	98.31
356.172	98.31
356.399	84.31
356.626	92.31
356.853	95.31
357.08	88.31
357.307	87.31
357.534	102.31
357.761	98.31
357.988	98.31
358.215	105.31
358.441	85.31
358.668	78.31
358.895	96.31
359.122	74.31
359.349	82.31
359.576	101.31
359.802	104.31
360.029	105.31
360.256	104.31
360.483	72.31
360.709	85.31
360.936	94.31
361.163	99.31
361.39	107.31
361.616	111.31
361.843	96.31
362.07	87.31
362.296	94.31
362.523	95.31
362.749	86.31
362.976	85.31
363.203	87.31
363.429	90.31
363.656	84.31
363.882	101.31
364.109	106.31
364.335	95.31
364.562	90.31
364.788	88.31
365.015	87.31
365.241	71.31
365.468	112.31
365.694	95.31
365.92	82.31
366.147	99.31
366.373	88.31
366.599	93.31
366.826	88.31
367.052	96.31
367.278	94.31
367.505	83.31
367.731	99.31
367.957	100.31
368.184	89.31
368.41	97.31
368.636	97.31
368.862	115.31
369.089	91.31
369.315	87.31
369.541	100.31
369.767	88.31
369.993	100.31
370.219	104.31
370.445	95.31
370.672	79.31
370.898	89.31
371.124	79.31
371.35	85.31
371.576	94.31
371.802	87.31
372.028	93.31
372.254	93.31
372.48	95.31
372.706	91.31
372.932	84.31
373.158	101.31
373.384	103.31
373.61	89.31
373.835	96.31
374.061	98.31
374.287	97.31
374.513	99.31
374.739	98.31
374.965	94.31
375.191	86.31
375.416	91.31
375.642	79.31
375.868	96.31
376.094	75.31
376.319	99.31
376.545	96.31
376.771	82.31
376.997	90.31
377.222	88.31
377.448	85.31
377.674	91.31
377.899	95.31
378.125	88.31
378.35	80.31
378.576	91.31
378.802	87.31
379.027	91.31
379.253	88.31
379.478	77.31
379.704	90.31
379.929	86.31
380.155	112.31
380.38	83.31
380.606	66.31
380.831	88.31
381.057	74.31
381.282	74.31
381.507	80.31
381.733	93.31
381.958	106.31
382.184	98.31
382.409	80.31
382.634	108.31
382.86	95.31
383.085	95.31
383.31	114.31
383.535	104.31
383.761	106.31
383.986	92.31
384.211	100.31
384.436	91.31
384.662	99.31
384.887	99.31
385.112	103.31
385.337	99.31
385.562	104.31
385.787	114.31
386.013	105.31
386.238	123.31
386.463	108.31
386.688	105.31
386.913	100.31
387.138	105.31
387.363	103.31
387.588	105.31
387.813	90.31
388.038	79.31
388.263	97.31
388.488	115.31
388.713	85.31
388.938	101.31
389.163	92.31
389.387	93.31
389.612	100.31
389.837	89.31
390.062	79.31
390.287	98.31
390.512	83.31
390.736	75.31
390.961	82.31
391.186	89.31
391.411	101.31
391.636	84.31
391.86	90.31
392.085	89.31
392.31	87.31
392.534	95.31
392.759	85.31
392.984	84.31
393.208	82.31
393.433	89.31
393.658	83.31
393.882	86.31
394.107	78.31
394.331	80.31
394.556	94.31
394.78	79.31
395.005	83.31
395.229	72.31
395.454	100.31
395.678	89.31
395.903	94.31
396.127	75.31
396.352	77.31
396.576	89.31
396.801	87.31
397.025	90.31
397.249	83.31
397.474	89.31
397.698	87.31
397.922	85.31
398.147	99.31
398.371	92.31
398.595	94.31
398.82	96.31
399.044	76.31
399.268	96.31
399.492	90.31
399.717	81.31
399.941	95.31
400.165	91.31
400.389	85.31
400.613	81.31
400.837	88.31
401.062	91.31
401.286	100.31
401.51	88.31
401.734	93.31
401.958	91.31
402.182	99.31
402.406	136.31
402.63	107.31
402.854	78.31
403.078	88.31
403.302	95.31
403.526	91.31
403.75	104.31
403.974	92.31
404.198	79.31
404.422	101.31
404.645	85.31
404.869	83.31
405.093	88.31
405.317	79.31
405.541	94.31
405.765	103.31
405.988	100.31
406.212	145.31
406.436	183.31
406.66	133.31
406.883	88.31
407.107	107.31
407.331	99.31
407.555	96.31
407.778	98.31
408.002	96.31
408.226	90.31
408.449	87.31
408.673	95.31
408.896	79.31
409.12	83.31
409.344	92.31
409.567	89.31
409.791	82.31
410.014	93.31
410.238	90.31
410.461	86.31
410.685	94.31
410.908	107.31
411.132	94.31
411.355	98.31
411.578	98.31
411.802	91.31
412.025	92.31
412.249	98.31
412.472	88.31
412.695	98.31
412.919	89.31
413.142	90.31
413.365	95.31
413.589	97.31
413.812	91.31
414.035	98.31
414.258	98.31
414.482	84.31
414.705	90.31
414.928	101.31
415.151	94.31
415.374	99.31
415.597	83.31
415.821	82.31
416.044	91.31
416.267	82.31
416.49	84.31
416.713	89.31
416.936	89.31
417.159	100.31
417.382	106.31
417.605	92.31
417.828	98.31
418.051	94.31
418.274	97.31
418.497	74.31
418.72	93.31
418.943	96.31
419.166	80.31
419.389	81.31
419.611	81.31
419.834	80.31
420.057	95.31
420.28	79.31
420.503	90.31
420.726	87.31
420.948	83.31
421.171	94.31
421.394	88.31
421.617	90.31
421.839	105.31
422.062	96.31
422.285	97.31
422.507	104.31
422.73	100.31
422.953	92.31
423.175	83.31
423.398	90.31
423.621	87.31
423.843	95.31
424.066	96.31
424.288	75.31
424.511	87.31
424.733	79.31
424.956	101.31
425.178	99.31
425.401	111.31
425.623	92.31
425.846	90.31
426.068	89.31
426.291	104.31
426.513	89.31
426.735	91.31
426.958	87.31
427.18	92.31
427.402	110.31
427.625	135.31
427.847	119.31
428.069	92.31
428.292	95.31
428.514	97.31
428.736	84.31
428.958	83.31
429.181	77.31
429.403	77.31
429.625	80.31
429.847	78.31
430.069	105.31
430.292	89.31
430.514	78.31
430.736	87.31
430.958	88.31
431.18	101.31
431.402	77.31
431.624	90.31
431.846	97.31
432.068	83.31
432.29	78.31
432.512	85.31
432.734	84.31
432.956	88.31
433.178	102.31
433.4	87.31
433.622	83.31
433.844	79.31
434.066	82.31
434.287	82.31
434.509	89.31
434.731	81.31
434.953	88.31
435.175	95.31
435.397	78.31
435.618	89.31
435.84	98.31
436.062	110.31
436.284	110.31
436.505	87.31
436.727	98.31
436.949	97.31
437.17	98.31
437.392	92.31
437.614	99.31
437.835	96.31
438.057	96.31
438.278	100.31
438.5	101.31
438.721	127.31
438.943	98.31
439.165	88.31
439.386	76.31
439.608	87.31
439.829	106.31
440.05	117.31
440.272	120.31
440.493	98.31
440.715	77.31
440.936	86.31
441.158	96.31
441.379	88.31
441.6	90.31
441.822	91.31
442.043	93.31
442.264	98.31
442.486	108.31
442.707	93.31
442.928	98.31
443.149	110.31
443.371	112.31
443.592	91.31
443.813	103.31
444.034	97.31
444.255	91.31
444.476	92.31
444.698	93.31
444.919	90.31
445.14	119.31
445.361	117.31
445.582	98.31
445.803	121.31
446.024	120.31
446.245	118.31
446.466	114.31
446.687	89.31
446.908	84.31
447.129	81.31
447.35	89.31
447.571	84.31
447.792	85.31
448.013	99.31
448.234	83.31
448.455	102.31
448.675	103.31
448.896	112.31
449.117	74.31
449.338	100.31
449.559	126.31
449.779	111.31
450	82.31
450.221	87.31
450.442	98.31
450.662	78.31
450.883	109.31
451.104	100.31
451.324	91.31
451.545	87.31
451.766	68.31
451.986	84.31
452.207	95.31
452.428	79.31
452.648	100.31
452.869	110.31
453.089	108.31
453.31	101.31
453.53	81.31
453.751	100.31
453.971	92.31
454.192	111.31
454.412	80.31
454.633	81.31
454.853	89.31
455.073	94.31
455.294	83.31
455.514	87.31
455.734	85.31
455.955	81.31
456.175	91.31
456.395	87.31
456.616	77.31
456.836	82.31
457.056	90.31
457.276	88.31
457.497	101.31
457.717	85.31
457.937	92.31
458.157	69.31
458.377	89.31
458.598	89.31
458.818	148.31
459.038	133.31
459.258	96.31
459.478	81.31
459.698	78.31
459.918	93.31
460.138	99.31
460.358	79.31
460.578	80.31
460.798	97.31
461.018	102.31
461.238	106.31
461.458	90.31
461.678	93.31
461.898	94.31
462.118	86.31
462.338	83.31
462.558	83.31
462.777	93.31
462.997	90.31
463.217	77.31
463.437	84.31
463.657	83.31
463.876	81.31
464.096	82.31
464.316	98.31
464.536	93.31
464.755	96.31
464.975	108.31
465.195	142.31
465.414	141.31
465.634	100.31
465.854	94.31
466.073	88.31
466.293	87.31
466.512	77.31
466.732	92.31
466.951	99.31
467.171	97.31
467.391	104.31
467.61	113.31
467.829	87.31
468.049	87.31
468.268	88.31
468.488	87.31
468.707	87.31
468.927	93.31
469.146	78.31
469.365	103.31
469.585	90.31
469.804	77.31
470.023	87.31
470.243	108.31
470.462	80.31
470.681	108.31
470.901	78.31
471.12	78.31
471.339	97.31
471.558	77.31
471.777	91.31
471.997	82.31
472.216	94.31
472.435	87.31
472.654	88.31
472.873	100.31
473.092	73.31
473.311	80.31
473.53	91.31
473.749	83.31
473.968	99.31
474.187	96.31
474.406	97.31
474.625	83.31
474.844	92.31
475.063	97.31
475.282	94.31
475.501	89.31
475.72	88.31
475.939	76.31
476.158	94.31
476.377	87.31
476.596	93.31
476.814	100.31
477.033	98.31
477.252	86.31
477.471	105.31
477.69	101.31
477.908	93.31
478.127	83.31
478.346	97.31
478.564	85.31
478.783	92.31
479.002	108.31
479.22	90.31
479.439	105.31
479.658	94.31
479.876	102.31
480.095	98.31
480.313	87.31
480.532	92.31
480.751	93.31
480.969	98.31
481.188	93.31
481.406	95.31
481.624	96.31
481.843	99.31
482.061	90.31
482.28	85.31
482.498	87.31
482.717	83.31
482.935	90.31
483.153	99.31
483.372	97.31
483.59	96.31
483.808	88.31
484.027	95.31
484.245	107.31
484.463	96.31
484.681	83.31
484.9	98.31
485.118	93.31
485.336	81.31
485.554	96.31
485.772	79.31
485.99	84.31
486.209	106.31
486.427	106.31
486.645	109.31
486.863	99.31
487.081	85.31
487.299	100.31
487.517	79.31
487.735	95.31
487.953	93.31
488.171	102.31
488.389	100.31
488.607	97.31
488.825	92.31
489.043	80.31
489.261	86.31
489.479	79.31
489.696	85.31
489.914	84.31
490.132	81.31
490.35	84.31
490.568	91.31
490.786	87.31
491.003	100.31
491.221	84.31
491.439	77.31
491.657	87.31
491.874	84.31
492.092	81.31
492.31	100.31
492.527	86.31
492.745	91.31
492.963	90.31
493.18	85.31
493.398	98.31
493.615	90.31
493.833	101.31
494.05	84.31
494.268	87.31
494.485	83.31
494.703	95.31
494.92	86.31
495.138	84.31
495.355	100.31
495.573	101.31
495.79	97.31
496.008	102.31
496.225	87.31
496.442	87.31
496.66	92.31
496.877	88.31
497.094	86.31
497.312	89.31
497.529	87.31
497.746	81.31
497.963	90.31
498.181	92.31
498.398	96.31
498.615	104.31
498.832	100.31
499.049	109.31
499.267	87.31
499.484	95.31
499.701	80.31
499.918	85.31
500.135	91.31
500.352	92.31
500.569	89.31
500.786	92.31
501.003	104.31
501.22	84.31
501.437	84.31
501.654	99.31
501.871	96.31
502.088	100.31
502.305	77.31
502.522	105.31
502.739	99.31
502.956	87.31
503.172	99.31
503.389	95.31
503.606	100.31
503.823	105.31
504.04	92.31
504.256	84.31
504.473	87.31
504.69	93.31
504.907	99.31
505.123	88.31
505.34	89.31
505.557	84.31
505.773	88.31
505.99	92.31
506.207	85.31
506.423	68.31
506.64	96.31
506.856	87.31
507.073	84.31
507.289	85.31
507.506	93.31
507.722	96.31
507.939	101.31
508.155	100.31
508.372	101.31
508.588	87.31
508.805	107.31
509.021	96.31
509.238	96.31
509.454	106.31
509.67	99.31
509.887	114.31
510.103	120.31
510.319	185.31
510.536	636.31
510.752	1907.31
510.968	558.31
511.184	142.31
511.401	106.31
511.617	108.31
511.833	90.31
512.049	93.31
512.265	90.31
512.481	84.31
512.698	94.31
512.914	89.31
513.13	78.31
513.346	96.31
513.562	96.31
513.778	87.31
513.994	95.31
514.21	96.31
514.426	118.31
514.642	116.31
514.858	123.31
515.074	154.31
515.29	373.31
515.506	1146.31
515.721	450.31
515.937	139.31
516.153	105.31
516.369	101.31
