Data from Uncirc_1997_H10_HRD10591_00013.txt Node
Date: Wed Jan 03 11:28:33 EST 2024
User: Yrep
Spectrometer: HR+D1059
Trigger mode: 1
Integration Time (sec): 1.000000E-1
Scans to average: 1
Electric dark correction enabled: true
Nonlinearity correction enabled: false
Boxcar width: 0
XAxis mode: Wavelengths
Number of Pixels in Spectrum: 2048
>>>>>Begin Spectral Data<<<<<
223.165	-14.62
223.4	-14.62
223.635	-14.62
223.869	-22.62
224.104	-12.62
224.338	-9.62
224.573	-23.62
224.808	-25.62
225.042	-10.62
225.277	-13.62
225.511	5.38
225.746	1.38
225.98	19.38
226.215	4.38
226.449	27.38
226.683	24.38
226.918	17.38
227.152	33.38
227.387	40.38
227.621	41.38
227.856	30.38
228.09	38.38
228.324	46.38
228.559	51.38
228.793	58.38
229.027	62.38
229.262	70.38
229.496	61.38
229.73	65.38
229.964	77.38
230.199	62.38
230.433	73.38
230.667	63.38
230.901	93.38
231.136	81.38
231.37	73.38
231.604	87.38
231.838	76.38
232.072	79.38
232.306	86.38
232.541	77.38
232.775	70.38
233.009	65.38
233.243	74.38
233.477	81.38
233.711	65.38
233.945	75.38
234.179	80.38
234.413	81.38
234.647	74.38
234.881	81.38
235.115	80.38
235.349	81.38
235.583	80.38
235.817	75.38
236.051	64.38
236.285	79.38
236.519	85.38
236.753	74.38
236.987	71.38
237.221	68.38
237.455	81.38
237.689	67.38
237.922	66.38
238.156	74.38
238.39	80.38
238.624	66.38
238.858	81.38
239.091	70.38
239.325	73.38
239.559	86.38
239.793	82.38
240.027	83.38
240.26	72.38
240.494	92.38
240.728	71.38
240.961	78.38
241.195	86.38
241.429	80.38
241.662	83.38
241.896	68.38
242.13	75.38
242.363	83.38
242.597	76.38
242.83	61.38
243.064	82.38
243.298	71.38
243.531	82.38
243.765	79.38
243.998	75.38
244.232	72.38
244.465	69.38
244.699	76.38
244.932	65.38
245.166	78.38
245.399	80.38
245.633	71.38
245.866	72.38
246.099	75.38
246.333	78.38
246.566	71.38
246.8	92.38
247.033	78.38
247.266	66.38
247.5	64.38
247.733	74.38
247.966	79.38
248.2	70.38
248.433	94.38
248.666	84.38
248.899	78.38
249.133	74.38
249.366	78.38
249.599	89.38
249.832	96.38
250.066	80.38
250.299	79.38
250.532	65.38
250.765	79.38
250.998	81.38
251.231	75.38
251.465	81.38
251.698	84.38
251.931	83.38
252.164	82.38
252.397	82.38
252.63	81.38
252.863	80.38
253.096	65.38
253.329	93.38
253.562	84.38
253.795	68.38
254.028	66.38
254.261	74.38
254.494	76.38
254.727	76.38
254.96	83.38
255.193	84.38
255.426	82.38
255.659	85.38
255.892	80.38
256.124	78.38
256.357	80.38
256.59	78.38
256.823	81.38
257.056	75.38
257.289	76.38
257.521	82.38
257.754	78.38
257.987	83.38
258.22	81.38
258.452	84.38
258.685	76.38
258.918	63.38
259.151	84.38
259.383	82.38
259.616	78.38
259.849	76.38
260.081	74.38
260.314	85.38
260.547	69.38
260.779	67.38
261.012	81.38
261.244	77.38
261.477	94.38
261.71	87.38
261.942	115.38
262.175	114.38
262.407	76.38
262.64	77.38
262.872	90.38
263.105	90.38
263.337	87.38
263.57	74.38
263.802	89.38
264.035	81.38
264.267	88.38
264.499	86.38
264.732	79.38
264.964	82.38
265.197	89.38
265.429	92.38
265.661	83.38
265.894	82.38
266.126	92.38
266.358	81.38
266.591	88.38
266.823	83.38
267.055	85.38
267.287	66.38
267.52	74.38
267.752	85.38
267.984	80.38
268.216	84.38
268.448	79.38
268.681	81.38
268.913	95.38
269.145	83.38
269.377	84.38
269.609	89.38
269.841	92.38
270.073	82.38
270.306	84.38
270.538	74.38
270.77	86.38
271.002	87.38
271.234	90.38
271.466	98.38
271.698	73.38
271.93	87.38
272.162	95.38
272.394	92.38
272.626	81.38
272.858	92.38
273.09	74.38
273.322	89.38
273.553	77.38
273.785	84.38
274.017	84.38
274.249	94.38
274.481	78.38
274.713	76.38
274.945	78.38
275.176	87.38
275.408	96.38
275.64	89.38
275.872	99.38
276.104	100.38
276.335	94.38
276.567	90.38
276.799	102.38
277.031	90.38
277.262	91.38
277.494	104.38
277.726	97.38
277.957	92.38
278.189	89.38
278.421	81.38
278.652	84.38
278.884	85.38
279.115	86.38
279.347	77.38
279.579	78.38
279.81	81.38
280.042	86.38
280.273	92.38
280.505	77.38
280.736	86.38
280.968	92.38
281.199	82.38
281.431	82.38
281.662	92.38
281.894	84.38
282.125	85.38
282.356	116.38
282.588	125.38
282.819	83.38
283.051	81.38
283.282	85.38
283.513	82.38
283.745	77.38
283.976	95.38
284.207	78.38
284.439	93.38
284.67	89.38
284.901	79.38
285.132	84.38
285.364	73.38
285.595	86.38
285.826	82.38
286.057	92.38
286.288	79.38
286.52	82.38
286.751	81.38
286.982	79.38
287.213	84.38
287.444	90.38
287.675	92.38
287.906	82.38
288.138	70.38
288.369	89.38
288.6	93.38
288.831	78.38
289.062	80.38
289.293	92.38
289.524	68.38
289.755	71.38
289.986	81.38
290.217	80.38
290.448	84.38
290.679	79.38
290.91	100.38
291.141	88.38
291.371	84.38
291.602	98.38
291.833	76.38
292.064	91.38
292.295	90.38
292.526	106.38
292.757	89.38
292.987	82.38
293.218	83.38
293.449	90.38
293.68	92.38
293.91	102.38
294.141	58.38
294.372	80.38
294.603	92.38
294.833	95.38
295.064	92.38
295.295	101.38
295.525	76.38
295.756	91.38
295.987	109.38
296.217	123.38
296.448	117.38
296.679	92.38
296.909	86.38
297.14	92.38
297.37	87.38
297.601	92.38
297.831	93.38
298.062	77.38
298.292	89.38
298.523	91.38
298.753	84.38
298.984	69.38
299.214	79.38
299.445	87.38
299.675	92.38
299.905	82.38
300.136	91.38
300.366	92.38
300.597	89.38
300.827	94.38
301.057	87.38
301.288	98.38
301.518	98.38
301.748	98.38
301.979	82.38
302.209	91.38
302.439	100.38
302.669	83.38
302.9	80.38
303.13	88.38
303.36	94.38
303.59	100.38
303.82	93.38
304.051	82.38
304.281	96.38
304.511	94.38
304.741	94.38
304.971	91.38
305.201	85.38
305.431	68.38
305.661	78.38
305.891	84.38
306.121	97.38
306.352	92.38
306.582	86.38
306.812	91.38
307.042	84.38
307.272	98.38
307.502	80.38
307.731	95.38
307.961	96.38
308.191	83.38
308.421	80.38
308.651	96.38
308.881	105.38
309.111	95.38
309.341	81.38
309.571	79.38
309.8	89.38
310.03	93.38
310.26	87.38
310.49	109.38
310.72	95.38
310.949	97.38
311.179	92.38
311.409	82.38
311.639	93.38
311.868	100.38
312.098	98.38
312.328	91.38
312.557	98.38
312.787	99.38
313.017	86.38
313.246	78.38
313.476	73.38
313.706	97.38
313.935	97.38
314.165	105.38
314.394	96.38
314.624	89.38
314.853	93.38
315.083	85.38
315.312	88.38
315.542	92.38
315.771	87.38
316.001	83.38
316.23	88.38
316.46	92.38
316.689	90.38
316.919	82.38
317.148	103.38
317.377	96.38
317.607	96.38
317.836	89.38
318.065	95.38
318.295	82.38
318.524	79.38
318.753	79.38
318.983	85.38
319.212	106.38
319.441	84.38
319.67	108.38
319.9	87.38
320.129	88.38
320.358	84.38
320.587	91.38
320.816	91.38
321.046	94.38
321.275	81.38
321.504	92.38
321.733	91.38
321.962	87.38
322.191	93.38
322.42	113.38
322.649	112.38
322.878	109.38
323.108	106.38
323.337	124.38
323.566	137.38
323.795	148.38
324.024	184.38
324.253	346.38
324.482	688.38
324.71	1424.38
324.939	1884.38
325.168	704.38
325.397	212.38
325.626	142.38
325.855	125.38
326.084	119.38
326.313	136.38
326.542	126.38
326.77	206.38
326.999	409.38
327.228	823.38
327.457	1472.38
327.686	1152.38
327.914	316.38
328.143	176.38
328.372	132.38
328.6	118.38
328.829	113.38
329.058	116.38
329.287	114.38
329.515	107.38
329.744	112.38
329.972	91.38
330.201	98.38
330.43	104.38
330.658	119.38
330.887	120.38
331.115	110.38
331.344	88.38
331.572	95.38
331.801	95.38
332.03	104.38
332.258	92.38
332.486	97.38
332.715	83.38
332.943	96.38
333.172	86.38
333.4	87.38
333.629	104.38
333.857	108.38
334.085	98.38
334.314	99.38
334.542	96.38
334.771	94.38
334.999	90.38
335.227	85.38
335.455	80.38
335.684	101.38
335.912	88.38
336.14	101.38
336.369	103.38
336.597	89.38
336.825	85.38
337.053	99.38
337.281	85.38
337.51	86.38
337.738	88.38
337.966	89.38
338.194	87.38
338.422	100.38
338.65	90.38
338.878	84.38
339.106	88.38
339.334	74.38
339.562	89.38
339.79	87.38
340.018	93.38
340.246	86.38
340.474	96.38
340.702	88.38
340.93	92.38
341.158	94.38
341.386	86.38
341.614	101.38
341.842	103.38
342.07	95.38
342.298	101.38
342.526	101.38
342.754	79.38
342.981	78.38
343.209	97.38
343.437	90.38
343.665	80.38
343.893	78.38
344.12	79.38
344.348	75.38
344.576	79.38
344.804	85.38
345.031	81.38
345.259	93.38
345.487	86.38
345.714	81.38
345.942	79.38
346.17	100.38
346.397	103.38
346.625	78.38
346.853	99.38
347.08	85.38
347.308	104.38
347.535	82.38
347.763	97.38
347.99	91.38
348.218	95.38
348.445	109.38
348.673	90.38
348.9	104.38
349.128	90.38
349.355	93.38
349.583	89.38
349.81	93.38
350.037	82.38
350.265	88.38
350.492	94.38
350.72	88.38
350.947	90.38
351.174	96.38
351.402	106.38
351.629	116.38
351.856	102.38
352.083	100.38
352.311	100.38
352.538	100.38
352.765	105.38
352.992	116.38
353.22	104.38
353.447	102.38
353.674	96.38
353.901	95.38
354.128	91.38
354.355	90.38
354.583	90.38
354.81	91.38
355.037	78.38
355.264	100.38
355.491	87.38
355.718	98.38
355.945	93.38
356.172	81.38
356.399	93.38
356.626	94.38
356.853	110.38
357.08	97.38
357.307	95.38
357.534	81.38
357.761	78.38
357.988	106.38
358.215	93.38
358.441	96.38
358.668	95.38
358.895	97.38
359.122	95.38
359.349	64.38
359.576	88.38
359.802	78.38
360.029	95.38
360.256	103.38
360.483	100.38
360.709	88.38
360.936	80.38
361.163	93.38
361.39	74.38
361.616	84.38
361.843	80.38
362.07	78.38
362.296	90.38
362.523	78.38
362.749	74.38
362.976	91.38
363.203	85.38
363.429	85.38
363.656	73.38
363.882	82.38
364.109	92.38
364.335	92.38
364.562	101.38
364.788	97.38
365.015	105.38
365.241	94.38
365.468	105.38
365.694	91.38
365.92	103.38
366.147	95.38
366.373	74.38
366.599	80.38
366.826	79.38
367.052	96.38
367.278	87.38
367.505	93.38
367.731	89.38
367.957	92.38
368.184	92.38
368.41	102.38
368.636	95.38
368.862	121.38
369.089	109.38
369.315	77.38
369.541	95.38
369.767	87.38
369.993	78.38
370.219	94.38
370.445	98.38
370.672	77.38
370.898	71.38
371.124	85.38
371.35	92.38
371.576	89.38
371.802	89.38
372.028	94.38
372.254	96.38
372.48	80.38
372.706	93.38
372.932	87.38
373.158	87.38
373.384	90.38
373.61	85.38
373.835	92.38
374.061	91.38
374.287	89.38
374.513	90.38
374.739	71.38
374.965	86.38
375.191	84.38
375.416	100.38
375.642	84.38
375.868	80.38
376.094	94.38
376.319	86.38
376.545	76.38
376.771	80.38
376.997	91.38
377.222	90.38
377.448	89.38
377.674	87.38
377.899	98.38
378.125	80.38
378.35	86.38
378.576	81.38
378.802	76.38
379.027	86.38
379.253	81.38
379.478	99.38
379.704	97.38
379.929	94.38
380.155	86.38
380.38	93.38
380.606	86.38
380.831	80.38
381.057	100.38
381.282	96.38
381.507	86.38
381.733	102.38
381.958	78.38
382.184	89.38
382.409	108.38
382.634	109.38
382.86	89.38
383.085	97.38
383.31	93.38
383.535	88.38
383.761	100.38
383.986	83.38
384.211	101.38
384.436	102.38
384.662	99.38
384.887	93.38
385.112	86.38
385.337	103.38
385.562	105.38
385.787	103.38
386.013	98.38
386.238	103.38
386.463	99.38
386.688	90.38
386.913	94.38
387.138	92.38
387.363	108.38
387.588	91.38
387.813	96.38
388.038	91.38
388.263	96.38
388.488	101.38
388.713	89.38
388.938	98.38
389.163	88.38
389.387	76.38
389.612	81.38
389.837	99.38
390.062	101.38
390.287	73.38
390.512	100.38
390.736	90.38
390.961	82.38
391.186	88.38
391.411	88.38
391.636	96.38
391.86	86.38
392.085	81.38
392.31	94.38
392.534	71.38
392.759	84.38
392.984	80.38
393.208	115.38
393.433	104.38
393.658	89.38
393.882	72.38
394.107	70.38
394.331	81.38
394.556	78.38
394.78	97.38
395.005	94.38
395.229	77.38
395.454	81.38
395.678	92.38
395.903	80.38
396.127	87.38
396.352	78.38
396.576	79.38
396.801	78.38
397.025	92.38
397.249	90.38
397.474	85.38
397.698	85.38
397.922	86.38
398.147	84.38
398.371	76.38
398.595	79.38
398.82	79.38
399.044	94.38
399.268	80.38
399.492	81.38
399.717	88.38
399.941	89.38
400.165	90.38
400.389	84.38
400.613	88.38
400.837	88.38
401.062	88.38
401.286	79.38
401.51	73.38
401.734	83.38
401.958	88.38
402.182	107.38
402.406	136.38
402.63	120.38
402.854	94.38
403.078	91.38
403.302	92.38
403.526	91.38
403.75	73.38
403.974	84.38
404.198	82.38
404.422	85.38
404.645	85.38
404.869	90.38
405.093	86.38
405.317	96.38
405.541	92.38
405.765	85.38
405.988	111.38
406.212	144.38
406.436	194.38
406.66	135.38
406.883	88.38
407.107	94.38
407.331	104.38
407.555	88.38
407.778	96.38
408.002	92.38
408.226	86.38
408.449	83.38
408.673	87.38
408.896	80.38
409.12	92.38
409.344	85.38
409.567	80.38
409.791	81.38
410.014	84.38
410.238	78.38
410.461	90.38
410.685	87.38
410.908	90.38
411.132	112.38
411.355	95.38
411.578	85.38
411.802	92.38
412.025	98.38
412.249	94.38
412.472	81.38
412.695	90.38
412.919	75.38
413.142	87.38
413.365	100.38
413.589	95.38
413.812	84.38
414.035	85.38
414.258	78.38
414.482	88.38
414.705	92.38
414.928	99.38
415.151	84.38
415.374	90.38
415.597	92.38
415.821	89.38
416.044	93.38
416.267	73.38
416.49	68.38
416.713	85.38
416.936	83.38
417.159	84.38
417.382	86.38
417.605	90.38
417.828	80.38
418.051	92.38
418.274	95.38
418.497	84.38
418.72	85.38
418.943	84.38
419.166	79.38
419.389	76.38
419.611	86.38
419.834	74.38
420.057	90.38
420.28	95.38
420.503	85.38
420.726	79.38
420.948	97.38
421.171	95.38
421.394	93.38
421.617	89.38
421.839	84.38
422.062	88.38
422.285	92.38
422.507	101.38
422.73	86.38
422.953	104.38
423.175	95.38
423.398	96.38
423.621	81.38
423.843	79.38
424.066	96.38
424.288	82.38
424.511	94.38
424.733	89.38
424.956	112.38
425.178	105.38
425.401	97.38
425.623	96.38
425.846	100.38
426.068	93.38
426.291	90.38
426.513	93.38
426.735	88.38
426.958	105.38
427.18	100.38
427.402	124.38
427.625	150.38
427.847	118.38
428.069	93.38
428.292	74.38
428.514	95.38
428.736	88.38
428.958	78.38
429.181	88.38
429.403	76.38
429.625	91.38
429.847	101.38
430.069	96.38
430.292	92.38
430.514	102.38
430.736	73.38
430.958	90.38
431.18	61.38
431.402	72.38
431.624	90.38
431.846	89.38
432.068	74.38
432.29	100.38
432.512	86.38
432.734	82.38
432.956	92.38
433.178	96.38
433.4	92.38
433.622	96.38
433.844	97.38
434.066	80.38
434.287	108.38
434.509	88.38
434.731	76.38
434.953	83.38
435.175	95.38
435.397	84.38
435.618	100.38
435.84	95.38
436.062	113.38
436.284	123.38
436.505	88.38
436.727	93.38
436.949	95.38
437.17	88.38
437.392	81.38
437.614	90.38
437.835	103.38
438.057	102.38
438.278	100.38
438.5	100.38
438.721	96.38
438.943	96.38
439.165	72.38
439.386	77.38
439.608	100.38
439.829	92.38
440.05	117.38
440.272	128.38
440.493	103.38
440.715	78.38
440.936	72.38
441.158	95.38
441.379	89.38
441.6	96.38
441.822	88.38
442.043	92.38
442.264	97.38
442.486	102.38
442.707	91.38
442.928	111.38
443.149	128.38
443.371	112.38
443.592	90.38
443.813	104.38
444.034	101.38
444.255	89.38
444.476	80.38
444.698	84.38
444.919	82.38
445.14	150.38
445.361	132.38
445.582	120.38
445.803	132.38
446.024	119.38
446.245	112.38
446.466	104.38
446.687	92.38
446.908	82.38
447.129	95.38
447.35	84.38
447.571	82.38
447.792	92.38
448.013	107.38
448.234	95.38
448.455	104.38
448.675	101.38
448.896	122.38
449.117	86.38
449.338	114.38
449.559	102.38
449.779	123.38
450	89.38
450.221	101.38
450.442	83.38
450.662	90.38
450.883	95.38
451.104	100.38
451.324	80.38
451.545	102.38
451.766	83.38
451.986	88.38
452.207	96.38
452.428	81.38
452.648	98.38
452.869	100.38
453.089	100.38
453.31	118.38
453.53	98.38
453.751	85.38
453.971	121.38
454.192	105.38
454.412	89.38
454.633	94.38
454.853	82.38
455.073	76.38
455.294	83.38
455.514	94.38
455.734	77.38
455.955	97.38
456.175	73.38
456.395	82.38
456.616	86.38
456.836	85.38
457.056	83.38
457.276	91.38
457.497	73.38
457.717	102.38
457.937	89.38
458.157	97.38
458.377	81.38
458.598	99.38
458.818	130.38
459.038	139.38
459.258	112.38
459.478	97.38
459.698	96.38
459.918	87.38
460.138	75.38
460.358	77.38
460.578	87.38
460.798	100.38
461.018	98.38
461.238	89.38
461.458	89.38
461.678	79.38
461.898	90.38
462.118	88.38
462.338	93.38
462.558	81.38
462.777	82.38
462.997	88.38
463.217	78.38
463.437	73.38
463.657	89.38
463.876	85.38
464.096	73.38
464.316	69.38
464.536	86.38
464.755	97.38
464.975	114.38
465.195	144.38
465.414	142.38
465.634	96.38
465.854	88.38
466.073	92.38
466.293	85.38
466.512	72.38
466.732	100.38
466.951	95.38
467.171	92.38
467.391	82.38
467.61	114.38
467.829	86.38
468.049	93.38
468.268	88.38
468.488	88.38
468.707	80.38
468.927	84.38
469.146	91.38
469.365	82.38
469.585	73.38
469.804	95.38
470.023	92.38
470.243	90.38
470.462	89.38
470.681	104.38
470.901	80.38
471.12	97.38
471.339	94.38
471.558	91.38
471.777	90.38
471.997	89.38
472.216	93.38
472.435	92.38
472.654	85.38
472.873	82.38
473.092	94.38
473.311	91.38
473.53	81.38
473.749	77.38
473.968	88.38
474.187	84.38
474.406	94.38
474.625	86.38
474.844	96.38
475.063	88.38
475.282	86.38
475.501	86.38
475.72	88.38
475.939	88.38
476.158	88.38
476.377	72.38
476.596	90.38
476.814	87.38
477.033	88.38
477.252	85.38
477.471	88.38
477.69	60.38
477.908	77.38
478.127	89.38
478.346	86.38
478.564	90.38
478.783	97.38
479.002	99.38
479.22	89.38
479.439	99.38
479.658	96.38
479.876	91.38
480.095	95.38
480.313	99.38
480.532	70.38
480.751	87.38
480.969	89.38
481.188	95.38
481.406	91.38
481.624	75.38
481.843	93.38
482.061	85.38
482.28	79.38
482.498	89.38
482.717	85.38
482.935	77.38
483.153	73.38
483.372	88.38
483.59	79.38
483.808	79.38
484.027	78.38
484.245	97.38
484.463	96.38
484.681	105.38
484.9	89.38
485.118	106.38
485.336	81.38
485.554	100.38
485.772	88.38
485.99	95.38
486.209	99.38
486.427	105.38
486.645	109.38
486.863	108.38
487.081	101.38
487.299	91.38
487.517	88.38
487.735	94.38
487.953	97.38
488.171	91.38
488.389	91.38
488.607	88.38
488.825	78.38
489.043	82.38
489.261	100.38
489.479	100.38
489.696	89.38
489.914	92.38
490.132	89.38
490.35	91.38
490.568	85.38
490.786	81.38
491.003	89.38
491.221	78.38
491.439	88.38
491.657	81.38
491.874	93.38
492.092	98.38
492.31	88.38
492.527	98.38
492.745	86.38
492.963	95.38
493.18	93.38
493.398	84.38
493.615	94.38
493.833	90.38
494.05	103.38
494.268	104.38
494.485	95.38
494.703	81.38
494.92	80.38
495.138	95.38
495.355	85.38
495.573	91.38
495.79	102.38
496.008	97.38
496.225	82.38
496.442	85.38
496.66	91.38
496.877	82.38
497.094	90.38
497.312	84.38
497.529	88.38
497.746	90.38
497.963	96.38
498.181	87.38
498.398	101.38
498.615	108.38
498.832	90.38
499.049	86.38
499.267	98.38
499.484	89.38
499.701	96.38
499.918	82.38
500.135	86.38
500.352	89.38
500.569	93.38
500.786	96.38
501.003	83.38
501.22	83.38
501.437	78.38
501.654	86.38
501.871	101.38
502.088	90.38
502.305	99.38
502.522	86.38
502.739	83.38
502.956	80.38
503.172	92.38
503.389	96.38
503.606	117.38
503.823	99.38
504.04	88.38
504.256	87.38
504.473	89.38
504.69	85.38
504.907	93.38
505.123	89.38
505.34	89.38
505.557	96.38
505.773	79.38
505.99	90.38
506.207	84.38
506.423	75.38
506.64	89.38
506.856	86.38
507.073	96.38
507.289	94.38
507.506	91.38
507.722	99.38
507.939	96.38
508.155	75.38
508.372	96.38
508.588	84.38
508.805	94.38
509.021	103.38
509.238	88.38
509.454	104.38
509.67	95.38
509.887	116.38
510.103	127.38
510.319	196.38
510.536	689.38
510.752	2102.38
510.968	582.38
511.184	126.38
511.401	107.38
511.617	93.38
511.833	90.38
512.049	89.38
512.265	84.38
512.481	80.38
512.698	90.38
512.914	89.38
513.13	80.38
513.346	95.38
513.562	86.38
513.778	105.38
513.994	91.38
514.21	100.38
514.426	112.38
514.642	122.38
514.858	122.38
515.074	159.38
515.29	441.38
515.506	1302.38
515.721	474.38
515.937	134.38
516.153	108.38
516.369	106.38
516.585	93.38
516.801	92.38
