Data from Uncirc_1997_H10_HRD10591_00084.txt Node
Date: Wed Jan 03 11:28:47 EST 2024
User: Yrep
Spectrometer: HR+D1059
Trigger mode: 1
Integration Time (sec): 1.000000E-1
Scans to average: 1
Electric dark correction enabled: true
Nonlinearity correction enabled: false
Boxcar width: 0
XAxis mode: Wavelengths
Number of Pixels in Spectrum: 2048
>>>>>Begin Spectral Data<<<<<
223.165	-24.5
223.4	-24.5
223.635	-24.5
223.869	-28.5
224.104	-26.5
224.338	-31.5
224.573	-16.5
224.808	-14.5
225.042	4.5
225.277	4.5
225.511	3.5
225.746	7.5
225.98	-0.5
226.215	14.5
226.449	12.5
226.683	22.5
226.918	38.5
227.152	34.5
227.387	48.5
227.621	25.5
227.856	51.5
228.09	52.5
228.324	64.5
228.559	74.5
228.793	60.5
229.027	66.5
229.262	72.5
229.496	67.5
229.73	78.5
229.964	83.5
230.199	86.5
230.433	81.5
230.667	75.5
230.901	73.5
231.136	71.5
231.37	94.5
231.604	88.5
231.838	80.5
232.072	78.5
232.306	83.5
232.541	80.5
232.775	86.5
233.009	87.5
233.243	107.5
233.477	94.5
233.711	77.5
233.945	63.5
234.179	87.5
234.413	80.5
234.647	92.5
234.881	91.5
235.115	61.5
235.349	72.5
235.583	95.5
235.817	81.5
236.051	74.5
236.285	69.5
236.519	82.5
236.753	71.5
236.987	87.5
237.221	73.5
237.455	74.5
237.689	70.5
237.922	69.5
238.156	81.5
238.39	81.5
238.624	74.5
238.858	72.5
239.091	68.5
239.325	84.5
239.559	70.5
239.793	66.5
240.027	91.5
240.26	65.5
240.494	80.5
240.728	82.5
240.961	76.5
241.195	72.5
241.429	85.5
241.662	73.5
241.896	74.5
242.13	73.5
242.363	81.5
242.597	80.5
242.83	82.5
243.064	76.5
243.298	84.5
243.531	69.5
243.765	71.5
243.998	81.5
244.232	80.5
244.465	74.5
244.699	79.5
244.932	72.5
245.166	60.5
245.399	80.5
245.633	92.5
245.866	83.5
246.099	94.5
246.333	87.5
246.566	77.5
246.8	100.5
247.033	89.5
247.266	80.5
247.5	86.5
247.733	93.5
247.966	67.5
248.2	95.5
248.433	91.5
248.666	84.5
248.899	85.5
249.133	95.5
249.366	96.5
249.599	78.5
249.832	78.5
250.066	84.5
250.299	76.5
250.532	87.5
250.765	93.5
250.998	61.5
251.231	81.5
251.465	88.5
251.698	81.5
251.931	77.5
252.164	74.5
252.397	73.5
252.63	90.5
252.863	79.5
253.096	84.5
253.329	90.5
253.562	91.5
253.795	82.5
254.028	97.5
254.261	87.5
254.494	92.5
254.727	92.5
254.96	89.5
255.193	84.5
255.426	89.5
255.659	94.5
255.892	81.5
256.124	80.5
256.357	85.5
256.59	93.5
256.823	75.5
257.056	101.5
257.289	80.5
257.521	78.5
257.754	81.5
257.987	77.5
258.22	93.5
258.452	80.5
258.685	80.5
258.918	79.5
259.151	67.5
259.383	81.5
259.616	84.5
259.849	96.5
260.081	90.5
260.314	69.5
260.547	75.5
260.779	80.5
261.012	85.5
261.244	100.5
261.477	92.5
261.71	104.5
261.942	109.5
262.175	115.5
262.407	76.5
262.64	101.5
262.872	85.5
263.105	90.5
263.337	93.5
263.57	91.5
263.802	92.5
264.035	94.5
264.267	75.5
264.499	73.5
264.732	91.5
264.964	83.5
265.197	89.5
265.429	84.5
265.661	84.5
265.894	85.5
266.126	81.5
266.358	72.5
266.591	86.5
266.823	74.5
267.055	93.5
267.287	88.5
267.52	82.5
267.752	97.5
267.984	81.5
268.216	85.5
268.448	97.5
268.681	79.5
268.913	75.5
269.145	90.5
269.377	86.5
269.609	84.5
269.841	79.5
270.073	83.5
270.306	92.5
270.538	93.5
270.77	89.5
271.002	90.5
271.234	78.5
271.466	93.5
271.698	83.5
271.93	88.5
272.162	80.5
272.394	87.5
272.626	96.5
272.858	84.5
273.09	88.5
273.322	89.5
273.553	101.5
273.785	82.5
274.017	92.5
274.249	83.5
274.481	91.5
274.713	88.5
274.945	92.5
275.176	75.5
275.408	85.5
275.64	96.5
275.872	83.5
276.104	83.5
276.335	76.5
276.567	80.5
276.799	106.5
277.031	99.5
277.262	98.5
277.494	87.5
277.726	84.5
277.957	82.5
278.189	86.5
278.421	77.5
278.652	81.5
278.884	91.5
279.115	95.5
279.347	104.5
279.579	90.5
279.81	97.5
280.042	101.5
280.273	87.5
280.505	87.5
280.736	82.5
280.968	81.5
281.199	78.5
281.431	92.5
281.662	87.5
281.894	93.5
282.125	106.5
282.356	124.5
282.588	128.5
282.819	113.5
283.051	80.5
283.282	90.5
283.513	88.5
283.745	85.5
283.976	86.5
284.207	100.5
284.439	81.5
284.67	82.5
284.901	84.5
285.132	79.5
285.364	93.5
285.595	103.5
285.826	94.5
286.057	83.5
286.288	91.5
286.52	89.5
286.751	86.5
286.982	73.5
287.213	95.5
287.444	83.5
287.675	89.5
287.906	86.5
288.138	93.5
288.369	104.5
288.6	87.5
288.831	84.5
289.062	87.5
289.293	96.5
289.524	78.5
289.755	87.5
289.986	90.5
290.217	101.5
290.448	89.5
290.679	91.5
290.91	77.5
291.141	96.5
291.371	105.5
291.602	83.5
291.833	85.5
292.064	98.5
292.295	83.5
292.526	93.5
292.757	94.5
292.987	85.5
293.218	79.5
293.449	84.5
293.68	103.5
293.91	92.5
294.141	98.5
294.372	95.5
294.603	95.5
294.833	92.5
295.064	98.5
295.295	74.5
295.525	103.5
295.756	111.5
295.987	114.5
296.217	107.5
296.448	121.5
296.679	92.5
296.909	97.5
297.14	103.5
297.37	87.5
297.601	83.5
297.831	99.5
298.062	102.5
298.292	112.5
298.523	97.5
298.753	85.5
298.984	98.5
299.214	82.5
299.445	99.5
299.675	92.5
299.905	88.5
300.136	96.5
300.366	79.5
300.597	91.5
300.827	101.5
301.057	108.5
301.288	100.5
301.518	106.5
301.748	106.5
301.979	97.5
302.209	100.5
302.439	104.5
302.669	93.5
302.9	99.5
303.13	87.5
303.36	99.5
303.59	103.5
303.82	107.5
304.051	90.5
304.281	109.5
304.511	89.5
304.741	81.5
304.971	92.5
305.201	91.5
305.431	88.5
305.661	79.5
305.891	77.5
306.121	84.5
306.352	95.5
306.582	103.5
306.812	93.5
307.042	85.5
307.272	103.5
307.502	97.5
307.731	101.5
307.961	108.5
308.191	81.5
308.421	87.5
308.651	83.5
308.881	87.5
309.111	91.5
309.341	93.5
309.571	88.5
309.8	106.5
310.03	108.5
310.26	101.5
310.49	96.5
310.72	94.5
310.949	90.5
311.179	109.5
311.409	99.5
311.639	94.5
311.868	88.5
312.098	99.5
312.328	95.5
312.557	105.5
312.787	108.5
313.017	106.5
313.246	89.5
313.476	87.5
313.706	85.5
313.935	95.5
314.165	88.5
314.394	93.5
314.624	103.5
314.853	105.5
315.083	89.5
315.312	100.5
315.542	96.5
315.771	84.5
316.001	98.5
316.23	110.5
316.46	84.5
316.689	99.5
316.919	94.5
317.148	96.5
317.377	91.5
317.607	97.5
317.836	96.5
318.065	83.5
318.295	98.5
318.524	86.5
318.753	100.5
318.983	99.5
319.212	79.5
319.441	93.5
319.67	96.5
319.9	102.5
320.129	90.5
320.358	95.5
320.587	100.5
320.816	104.5
321.046	111.5
321.275	94.5
321.504	95.5
321.733	108.5
321.962	107.5
322.191	100.5
322.42	104.5
322.649	97.5
322.878	105.5
323.108	104.5
323.337	112.5
323.566	123.5
323.795	123.5
324.024	181.5
324.253	347.5
324.482	691.5
324.71	1393.5
324.939	1814.5
325.168	663.5
325.397	208.5
325.626	140.5
325.855	116.5
326.084	111.5
326.313	111.5
326.542	144.5
326.77	215.5
326.999	393.5
327.228	789.5
327.457	1432.5
327.686	1115.5
327.914	321.5
328.143	187.5
328.372	135.5
328.6	114.5
328.829	122.5
329.058	120.5
329.287	102.5
329.515	87.5
329.744	98.5
329.972	92.5
330.201	98.5
330.43	98.5
330.658	117.5
330.887	121.5
331.115	113.5
331.344	104.5
331.572	95.5
331.801	109.5
332.03	97.5
332.258	108.5
332.486	102.5
332.715	104.5
332.943	114.5
333.172	99.5
333.4	104.5
333.629	118.5
333.857	107.5
334.085	104.5
334.314	97.5
334.542	86.5
334.771	103.5
334.999	83.5
335.227	90.5
335.455	100.5
335.684	107.5
335.912	100.5
336.14	103.5
336.369	100.5
336.597	99.5
336.825	106.5
337.053	85.5
337.281	85.5
337.51	82.5
337.738	97.5
337.966	90.5
338.194	77.5
338.422	105.5
338.65	88.5
338.878	93.5
339.106	113.5
339.334	102.5
339.562	83.5
339.79	81.5
340.018	99.5
340.246	108.5
340.474	99.5
340.702	96.5
340.93	89.5
341.158	91.5
341.386	109.5
341.614	112.5
341.842	101.5
342.07	100.5
342.298	93.5
342.526	98.5
342.754	85.5
342.981	90.5
343.209	81.5
343.437	95.5
343.665	88.5
343.893	76.5
344.12	88.5
344.348	94.5
344.576	98.5
344.804	100.5
345.031	101.5
345.259	105.5
345.487	100.5
345.714	93.5
345.942	81.5
346.17	93.5
346.397	92.5
346.625	92.5
346.853	99.5
347.08	90.5
347.308	98.5
347.535	101.5
347.763	101.5
347.99	92.5
348.218	109.5
348.445	98.5
348.673	97.5
348.9	96.5
349.128	89.5
349.355	89.5
349.583	97.5
349.81	101.5
350.037	93.5
350.265	86.5
350.492	100.5
350.72	91.5
350.947	107.5
351.174	94.5
351.402	109.5
351.629	103.5
351.856	118.5
352.083	90.5
352.311	117.5
352.538	103.5
352.765	97.5
352.992	108.5
353.22	107.5
353.447	95.5
353.674	91.5
353.901	98.5
354.128	107.5
354.355	93.5
354.583	92.5
354.81	86.5
355.037	98.5
355.264	87.5
355.491	102.5
355.718	98.5
355.945	96.5
356.172	90.5
356.399	111.5
356.626	101.5
356.853	108.5
357.08	101.5
357.307	98.5
357.534	87.5
357.761	86.5
357.988	100.5
358.215	99.5
358.441	78.5
358.668	93.5
358.895	87.5
359.122	97.5
359.349	100.5
359.576	92.5
359.802	98.5
360.029	108.5
360.256	110.5
360.483	95.5
360.709	83.5
360.936	84.5
361.163	92.5
361.39	96.5
361.616	88.5
361.843	91.5
362.07	99.5
362.296	104.5
362.523	90.5
362.749	94.5
362.976	103.5
363.203	91.5
363.429	100.5
363.656	96.5
363.882	92.5
364.109	93.5
364.335	86.5
364.562	88.5
364.788	95.5
365.015	98.5
365.241	98.5
365.468	106.5
365.694	90.5
365.92	105.5
366.147	89.5
366.373	85.5
366.599	89.5
366.826	100.5
367.052	89.5
367.278	84.5
367.505	92.5
367.731	92.5
367.957	107.5
368.184	89.5
368.41	114.5
368.636	113.5
368.862	104.5
369.089	98.5
369.315	102.5
369.541	105.5
369.767	96.5
369.993	89.5
370.219	92.5
370.445	84.5
370.672	77.5
370.898	85.5
371.124	89.5
371.35	93.5
371.576	96.5
371.802	101.5
372.028	82.5
372.254	92.5
372.48	88.5
372.706	66.5
372.932	87.5
373.158	90.5
373.384	86.5
373.61	92.5
373.835	95.5
374.061	79.5
374.287	83.5
374.513	94.5
374.739	90.5
374.965	92.5
375.191	87.5
375.416	99.5
375.642	90.5
375.868	94.5
376.094	89.5
376.319	83.5
376.545	89.5
376.771	83.5
376.997	83.5
377.222	93.5
377.448	102.5
377.674	95.5
377.899	80.5
378.125	95.5
378.35	98.5
378.576	79.5
378.802	78.5
379.027	102.5
379.253	95.5
379.478	91.5
379.704	97.5
379.929	88.5
380.155	83.5
380.38	75.5
380.606	89.5
380.831	106.5
381.057	98.5
381.282	96.5
381.507	100.5
381.733	104.5
381.958	110.5
382.184	92.5
382.409	99.5
382.634	93.5
382.86	93.5
383.085	116.5
383.31	107.5
383.535	90.5
383.761	90.5
383.986	112.5
384.211	101.5
384.436	98.5
384.662	90.5
384.887	98.5
385.112	104.5
385.337	94.5
385.562	96.5
385.787	105.5
386.013	105.5
386.238	103.5
386.463	94.5
386.688	91.5
386.913	100.5
387.138	101.5
387.363	96.5
387.588	103.5
387.813	103.5
388.038	102.5
388.263	108.5
388.488	112.5
388.713	95.5
388.938	92.5
389.163	83.5
389.387	99.5
389.612	103.5
389.837	92.5
390.062	100.5
390.287	104.5
390.512	79.5
390.736	97.5
390.961	102.5
391.186	95.5
391.411	105.5
391.636	87.5
391.86	75.5
392.085	91.5
392.31	92.5
392.534	92.5
392.759	92.5
392.984	75.5
393.208	87.5
393.433	87.5
393.658	87.5
393.882	88.5
394.107	87.5
394.331	94.5
394.556	90.5
394.78	86.5
395.005	96.5
395.229	88.5
395.454	90.5
395.678	84.5
395.903	99.5
396.127	89.5
396.352	96.5
396.576	86.5
396.801	95.5
397.025	81.5
397.249	90.5
397.474	89.5
397.698	78.5
397.922	89.5
398.147	80.5
398.371	91.5
398.595	97.5
398.82	85.5
399.044	91.5
399.268	89.5
399.492	84.5
399.717	79.5
399.941	85.5
400.165	83.5
400.389	85.5
400.613	94.5
400.837	83.5
401.062	83.5
401.286	94.5
401.51	71.5
401.734	74.5
401.958	81.5
402.182	128.5
402.406	139.5
402.63	111.5
402.854	95.5
403.078	84.5
403.302	80.5
403.526	84.5
403.75	94.5
403.974	95.5
404.198	88.5
404.422	97.5
404.645	81.5
404.869	91.5
405.093	100.5
405.317	85.5
405.541	82.5
405.765	106.5
405.988	101.5
406.212	139.5
406.436	178.5
406.66	130.5
406.883	96.5
407.107	102.5
407.331	93.5
407.555	87.5
407.778	77.5
408.002	84.5
408.226	93.5
408.449	94.5
408.673	97.5
408.896	96.5
409.12	93.5
409.344	94.5
409.567	100.5
409.791	83.5
410.014	97.5
410.238	90.5
410.461	83.5
410.685	96.5
410.908	89.5
411.132	101.5
411.355	95.5
411.578	102.5
411.802	97.5
412.025	95.5
412.249	87.5
412.472	101.5
412.695	99.5
412.919	90.5
413.142	95.5
413.365	84.5
413.589	74.5
413.812	87.5
414.035	95.5
414.258	83.5
414.482	75.5
414.705	83.5
414.928	98.5
415.151	87.5
415.374	95.5
415.597	99.5
415.821	92.5
416.044	91.5
416.267	103.5
416.49	87.5
416.713	89.5
416.936	94.5
417.159	93.5
417.382	80.5
417.605	76.5
417.828	107.5
418.051	80.5
418.274	69.5
418.497	88.5
418.72	88.5
418.943	92.5
419.166	77.5
419.389	101.5
419.611	83.5
419.834	76.5
420.057	100.5
420.28	104.5
420.503	101.5
420.726	91.5
420.948	80.5
421.171	100.5
421.394	88.5
421.617	95.5
421.839	88.5
422.062	80.5
422.285	97.5
422.507	94.5
422.73	99.5
422.953	96.5
423.175	86.5
423.398	92.5
423.621	101.5
423.843	89.5
424.066	96.5
424.288	87.5
424.511	103.5
424.733	94.5
424.956	105.5
425.178	99.5
425.401	110.5
425.623	107.5
425.846	80.5
426.068	95.5
426.291	92.5
426.513	89.5
426.735	82.5
426.958	93.5
427.18	92.5
427.402	108.5
427.625	143.5
427.847	132.5
428.069	113.5
428.292	93.5
428.514	82.5
428.736	81.5
428.958	91.5
429.181	84.5
429.403	96.5
429.625	82.5
429.847	91.5
430.069	97.5
430.292	98.5
430.514	87.5
430.736	82.5
430.958	101.5
431.18	81.5
431.402	77.5
431.624	95.5
431.846	93.5
432.068	110.5
432.29	82.5
432.512	78.5
432.734	72.5
432.956	88.5
433.178	96.5
433.4	91.5
433.622	91.5
433.844	81.5
434.066	82.5
434.287	90.5
434.509	94.5
434.731	90.5
434.953	80.5
435.175	78.5
435.397	75.5
435.618	83.5
435.84	97.5
436.062	137.5
436.284	103.5
436.505	98.5
436.727	101.5
436.949	94.5
437.17	84.5
437.392	79.5
437.614	89.5
437.835	100.5
438.057	99.5
438.278	101.5
438.5	109.5
438.721	109.5
438.943	81.5
439.165	91.5
439.386	75.5
439.608	83.5
439.829	106.5
440.05	117.5
440.272	131.5
440.493	88.5
440.715	90.5
440.936	97.5
441.158	99.5
441.379	79.5
441.6	91.5
441.822	93.5
442.043	96.5
442.264	104.5
442.486	95.5
442.707	104.5
442.928	104.5
443.149	124.5
443.371	120.5
443.592	110.5
443.813	111.5
444.034	105.5
444.255	95.5
444.476	95.5
444.698	87.5
444.919	82.5
445.14	117.5
445.361	114.5
445.582	100.5
445.803	128.5
446.024	132.5
446.245	116.5
446.466	108.5
446.687	89.5
446.908	89.5
447.129	92.5
447.35	91.5
447.571	104.5
447.792	88.5
448.013	88.5
448.234	113.5
448.455	97.5
448.675	99.5
448.896	103.5
449.117	80.5
449.338	98.5
449.559	115.5
449.779	133.5
450	89.5
450.221	97.5
450.442	83.5
450.662	101.5
450.883	90.5
451.104	95.5
451.324	102.5
451.545	92.5
451.766	79.5
451.986	82.5
452.207	93.5
452.428	90.5
452.648	78.5
452.869	109.5
453.089	106.5
453.31	100.5
453.53	97.5
453.751	89.5
453.971	101.5
454.192	97.5
454.412	91.5
454.633	85.5
454.853	82.5
455.073	92.5
455.294	97.5
455.514	90.5
455.734	81.5
455.955	91.5
456.175	99.5
456.395	68.5
456.616	82.5
456.836	95.5
457.056	85.5
457.276	88.5
457.497	73.5
457.717	107.5
457.937	85.5
458.157	97.5
458.377	78.5
458.598	103.5
458.818	131.5
459.038	132.5
459.258	95.5
459.478	97.5
459.698	84.5
459.918	93.5
460.138	70.5
460.358	75.5
460.578	79.5
460.798	87.5
461.018	87.5
461.238	95.5
461.458	101.5
461.678	100.5
461.898	89.5
462.118	81.5
462.338	76.5
462.558	76.5
462.777	78.5
462.997	88.5
463.217	94.5
463.437	91.5
463.657	76.5
463.876	98.5
464.096	95.5
464.316	81.5
464.536	79.5
464.755	89.5
464.975	104.5
465.195	141.5
465.414	132.5
465.634	81.5
465.854	75.5
466.073	82.5
466.293	85.5
466.512	80.5
466.732	88.5
466.951	93.5
467.171	93.5
467.391	88.5
467.61	90.5
467.829	84.5
468.049	75.5
468.268	93.5
468.488	79.5
468.707	86.5
468.927	87.5
469.146	80.5
469.365	89.5
469.585	87.5
469.804	85.5
470.023	96.5
470.243	89.5
470.462	83.5
470.681	101.5
470.901	98.5
471.12	97.5
471.339	93.5
471.558	87.5
471.777	87.5
471.997	81.5
472.216	91.5
472.435	109.5
472.654	94.5
472.873	91.5
473.092	93.5
473.311	95.5
473.53	96.5
473.749	86.5
473.968	92.5
474.187	80.5
474.406	84.5
474.625	82.5
474.844	88.5
475.063	82.5
475.282	91.5
475.501	95.5
475.72	78.5
475.939	93.5
476.158	88.5
476.377	86.5
476.596	84.5
476.814	95.5
477.033	97.5
477.252	105.5
477.471	92.5
477.69	93.5
477.908	90.5
478.127	81.5
478.346	88.5
478.564	95.5
478.783	93.5
479.002	103.5
479.22	83.5
479.439	109.5
479.658	112.5
479.876	92.5
480.095	77.5
480.313	100.5
480.532	94.5
480.751	83.5
480.969	91.5
481.188	116.5
481.406	107.5
481.624	75.5
481.843	92.5
482.061	84.5
482.28	80.5
482.498	95.5
482.717	76.5
482.935	72.5
483.153	86.5
483.372	90.5
483.59	105.5
483.808	95.5
484.027	92.5
484.245	96.5
484.463	101.5
484.681	92.5
484.9	74.5
485.118	84.5
485.336	77.5
485.554	93.5
485.772	86.5
485.99	104.5
486.209	111.5
486.427	105.5
486.645	109.5
486.863	102.5
487.081	96.5
487.299	95.5
487.517	86.5
487.735	81.5
487.953	89.5
488.171	99.5
488.389	114.5
488.607	89.5
488.825	92.5
489.043	74.5
489.261	87.5
489.479	99.5
489.696	91.5
489.914	79.5
490.132	86.5
490.35	83.5
490.568	92.5
490.786	95.5
491.003	78.5
491.221	76.5
491.439	92.5
491.657	97.5
491.874	100.5
492.092	98.5
492.31	103.5
492.527	81.5
492.745	90.5
492.963	85.5
493.18	104.5
493.398	94.5
493.615	99.5
493.833	89.5
494.05	75.5
494.268	82.5
494.485	91.5
494.703	90.5
494.92	91.5
495.138	88.5
495.355	99.5
495.573	89.5
495.79	81.5
496.008	94.5
496.225	84.5
496.442	82.5
496.66	96.5
496.877	76.5
497.094	95.5
497.312	95.5
497.529	84.5
497.746	93.5
497.963	87.5
498.181	83.5
498.398	81.5
498.615	109.5
498.832	98.5
499.049	90.5
499.267	100.5
499.484	87.5
499.701	75.5
499.918	96.5
500.135	94.5
500.352	94.5
500.569	69.5
500.786	94.5
501.003	93.5
501.22	86.5
501.437	79.5
501.654	85.5
501.871	98.5
502.088	97.5
502.305	87.5
502.522	88.5
502.739	88.5
502.956	82.5
503.172	85.5
503.389	89.5
503.606	99.5
503.823	94.5
504.04	98.5
504.256	94.5
504.473	98.5
504.69	97.5
504.907	99.5
505.123	80.5
505.34	87.5
505.557	94.5
505.773	78.5
505.99	99.5
506.207	88.5
506.423	87.5
506.64	97.5
506.856	96.5
507.073	89.5
507.289	95.5
507.506	95.5
507.722	92.5
507.939	102.5
508.155	100.5
508.372	82.5
508.588	101.5
508.805	85.5
509.021	91.5
509.238	91.5
509.454	102.5
509.67	96.5
509.887	103.5
510.103	121.5
510.319	182.5
510.536	648.5
510.752	1929.5
510.968	539.5
511.184	139.5
511.401	102.5
511.617	95.5
511.833	93.5
512.049	92.5
512.265	95.5
512.481	92.5
512.698	100.5
512.914	88.5
513.13	94.5
513.346	97.5
513.562	90.5
513.778	83.5
513.994	91.5
514.21	103.5
514.426	111.5
514.642	129.5
514.858	112.5
515.074	160.5
515.29	393.5
515.506	1212.5
515.721	459.5
515.937	133.5
516.153	99.5
516.369	107.5
516.585	89.5
516.801	96.5
517.016	93.5
517.232	110.5
517.448	89.5
517.664	95.5
517.879	111.5
518.095	87.5
518.311	86.5
518.527	101.5
518.742	99.5
518.958	90.5
519.173	87.5
519.389	79.5
519.605	95.5
519.82	88.5
520.036	98.5
520.251	104.5
520.467	104.5
520.682	117.5
520.898	102.5
521.113	104.5
521.329	123.5
521.544	178.5
521.76	463.5
521.975	1973.5
522.19	1155.5
522.406	269.5
522.621	109.5
522.836	91.5
523.052	100.5
523.267	87.5
523.482	98.5
523.698	92.5
523.913	134.5
524.128	97.5
524.343	91.5
524.559	68.5
524.774	101.5
524.989	94.5
525.204	114.5
525.419	89.5
525.634	101.5
525.849	95.5
526.064	89.5
526.28	90.5
526.495	86.5
526.71	98.5
526.925	94.5
527.14	94.5
527.355	86.5
527.57	94.5
527.785	96.5
527.999	100.5
528.214	92.5
528.429	101.5
528.644	96.5
528.859	100.5
529.074	92.5
529.289	109.5
529.503	156.5
529.718	96.5
529.933	88.5
530.148	105.5
530.363	98.5
530.577	85.5
530.792	96.5
531.007	82.5
531.221	95.5
531.436	77.5
531.651	87.5
531.865	98.5
532.08	96.5
532.295	95.5
532.509	83.5
532.724	98.5
532.938	93.5
533.153	112.5
533.367	104.5
533.582	91.5
533.796	81.5
534.011	83.5
534.225	94.5
534.44	83.5
534.654	93.5
534.868	105.5
535.083	96.5
535.297	90.5
