Data from Uncirc_1997_H10_HRD10591_00039.txt Node
Date: Wed Jan 03 11:28:38 EST 2024
User: Yrep
Spectrometer: HR+D1059
Trigger mode: 1
Integration Time (sec): 1.000000E-1
Scans to average: 1
Electric dark correction enabled: true
Nonlinearity correction enabled: false
Boxcar width: 0
XAxis mode: Wavelengths
Number of Pixels in Spectrum: 2048
>>>>>Begin Spectral Data<<<<<
223.165	-23.62
223.4	-23.62
223.635	-23.62
223.869	-25.62
224.104	-27.62
224.338	0.38
224.573	6.38
224.808	-15.62
225.042	-14.62
225.277	-10.62
225.511	17.38
225.746	-2.62
225.98	11.38
226.215	11.38
226.449	-2.62
226.683	18.38
226.918	25.38
227.152	32.38
227.387	53.38
227.621	50.38
227.856	32.38
228.09	46.38
228.324	55.38
228.559	51.38
228.793	55.38
229.027	56.38
229.262	78.38
229.496	67.38
229.73	71.38
229.964	75.38
230.199	80.38
230.433	84.38
230.667	79.38
230.901	83.38
231.136	81.38
231.37	76.38
231.604	74.38
231.838	85.38
232.072	85.38
232.306	81.38
232.541	70.38
232.775	77.38
233.009	85.38
233.243	83.38
233.477	63.38
233.711	61.38
233.945	85.38
234.179	78.38
234.413	70.38
234.647	72.38
234.881	88.38
235.115	86.38
235.349	88.38
235.583	78.38
235.817	80.38
236.051	78.38
236.285	78.38
236.519	67.38
236.753	72.38
236.987	76.38
237.221	81.38
237.455	85.38
237.689	81.38
237.922	74.38
238.156	67.38
238.39	68.38
238.624	70.38
238.858	76.38
239.091	77.38
239.325	76.38
239.559	66.38
239.793	81.38
240.027	78.38
240.26	71.38
240.494	75.38
240.728	72.38
240.961	80.38
241.195	80.38
241.429	75.38
241.662	74.38
241.896	81.38
242.13	77.38
242.363	76.38
242.597	67.38
242.83	80.38
243.064	78.38
243.298	83.38
243.531	81.38
243.765	63.38
243.998	88.38
244.232	67.38
244.465	83.38
244.699	70.38
244.932	78.38
245.166	79.38
245.399	81.38
245.633	73.38
245.866	82.38
246.099	72.38
246.333	86.38
246.566	86.38
246.8	72.38
247.033	74.38
247.266	80.38
247.5	85.38
247.733	87.38
247.966	73.38
248.2	75.38
248.433	80.38
248.666	84.38
248.899	78.38
249.133	81.38
249.366	88.38
249.599	95.38
249.832	88.38
250.066	91.38
250.299	83.38
250.532	79.38
250.765	80.38
250.998	80.38
251.231	81.38
251.465	72.38
251.698	84.38
251.931	80.38
252.164	76.38
252.397	80.38
252.63	78.38
252.863	78.38
253.096	80.38
253.329	90.38
253.562	81.38
253.795	75.38
254.028	76.38
254.261	64.38
254.494	75.38
254.727	92.38
254.96	79.38
255.193	66.38
255.426	91.38
255.659	84.38
255.892	91.38
256.124	87.38
256.357	72.38
256.59	79.38
256.823	77.38
257.056	89.38
257.289	84.38
257.521	78.38
257.754	85.38
257.987	82.38
258.22	94.38
258.452	93.38
258.685	80.38
258.918	79.38
259.151	91.38
259.383	81.38
259.616	79.38
259.849	84.38
260.081	81.38
260.314	78.38
260.547	81.38
260.779	88.38
261.012	88.38
261.244	84.38
261.477	97.38
261.71	92.38
261.942	104.38
262.175	111.38
262.407	75.38
262.64	75.38
262.872	75.38
263.105	81.38
263.337	75.38
263.57	95.38
263.802	69.38
264.035	75.38
264.267	69.38
264.499	75.38
264.732	85.38
264.964	81.38
265.197	78.38
265.429	89.38
265.661	78.38
265.894	72.38
266.126	90.38
266.358	81.38
266.591	93.38
266.823	87.38
267.055	81.38
267.287	82.38
267.52	88.38
267.752	97.38
267.984	102.38
268.216	73.38
268.448	81.38
268.681	82.38
268.913	88.38
269.145	84.38
269.377	91.38
269.609	82.38
269.841	83.38
270.073	87.38
270.306	83.38
270.538	79.38
270.77	93.38
271.002	93.38
271.234	88.38
271.466	92.38
271.698	90.38
271.93	80.38
272.162	83.38
272.394	87.38
272.626	82.38
272.858	89.38
273.09	91.38
273.322	107.38
273.553	78.38
273.785	98.38
274.017	87.38
274.249	85.38
274.481	87.38
274.713	99.38
274.945	74.38
275.176	99.38
275.408	91.38
275.64	84.38
275.872	93.38
276.104	82.38
276.335	86.38
276.567	86.38
276.799	109.38
277.031	83.38
277.262	93.38
277.494	95.38
277.726	78.38
277.957	81.38
278.189	87.38
278.421	67.38
278.652	79.38
278.884	92.38
279.115	87.38
279.347	79.38
279.579	72.38
279.81	75.38
280.042	83.38
280.273	75.38
280.505	90.38
280.736	88.38
280.968	91.38
281.199	102.38
281.431	92.38
281.662	92.38
281.894	100.38
282.125	91.38
282.356	102.38
282.588	120.38
282.819	105.38
283.051	94.38
283.282	95.38
283.513	91.38
283.745	89.38
283.976	93.38
284.207	82.38
284.439	79.38
284.67	99.38
284.901	90.38
285.132	96.38
285.364	89.38
285.595	92.38
285.826	88.38
286.057	84.38
286.288	92.38
286.52	88.38
286.751	87.38
286.982	95.38
287.213	88.38
287.444	88.38
287.675	93.38
287.906	92.38
288.138	92.38
288.369	83.38
288.6	95.38
288.831	65.38
289.062	87.38
289.293	83.38
289.524	86.38
289.755	87.38
289.986	88.38
290.217	85.38
290.448	88.38
290.679	89.38
290.91	80.38
291.141	80.38
291.371	88.38
291.602	84.38
291.833	87.38
292.064	83.38
292.295	92.38
292.526	85.38
292.757	70.38
292.987	83.38
293.218	80.38
293.449	79.38
293.68	95.38
293.91	97.38
294.141	87.38
294.372	90.38
294.603	75.38
294.833	81.38
295.064	83.38
295.295	95.38
295.525	96.38
295.756	107.38
295.987	111.38
296.217	114.38
296.448	104.38
296.679	85.38
296.909	84.38
297.14	86.38
297.37	84.38
297.601	74.38
297.831	94.38
298.062	86.38
298.292	94.38
298.523	94.38
298.753	76.38
298.984	86.38
299.214	66.38
299.445	92.38
299.675	109.38
299.905	101.38
300.136	89.38
300.366	82.38
300.597	91.38
300.827	87.38
301.057	84.38
301.288	101.38
301.518	87.38
301.748	90.38
301.979	103.38
302.209	98.38
302.439	82.38
302.669	82.38
302.9	100.38
303.13	95.38
303.36	94.38
303.59	105.38
303.82	103.38
304.051	82.38
304.281	97.38
304.511	93.38
304.741	88.38
304.971	75.38
305.201	88.38
305.431	104.38
305.661	79.38
305.891	97.38
306.121	86.38
306.352	83.38
306.582	102.38
306.812	106.38
307.042	104.38
307.272	88.38
307.502	99.38
307.731	104.38
307.961	98.38
308.191	90.38
308.421	98.38
308.651	60.38
308.881	91.38
309.111	85.38
309.341	86.38
309.571	89.38
309.8	76.38
310.03	86.38
310.26	88.38
310.49	87.38
310.72	97.38
310.949	96.38
311.179	104.38
311.409	90.38
311.639	94.38
311.868	99.38
312.098	87.38
312.328	91.38
312.557	95.38
312.787	86.38
313.017	95.38
313.246	94.38
313.476	91.38
313.706	97.38
313.935	87.38
314.165	103.38
314.394	93.38
314.624	97.38
314.853	87.38
315.083	87.38
315.312	99.38
315.542	85.38
315.771	93.38
316.001	101.38
316.23	87.38
316.46	95.38
316.689	96.38
316.919	86.38
317.148	80.38
317.377	94.38
317.607	100.38
317.836	94.38
318.065	95.38
318.295	80.38
318.524	104.38
318.753	94.38
318.983	94.38
319.212	99.38
319.441	94.38
319.67	114.38
319.9	97.38
320.129	101.38
320.358	98.38
320.587	92.38
320.816	110.38
321.046	99.38
321.275	84.38
321.504	91.38
321.733	82.38
321.962	72.38
322.191	98.38
322.42	98.38
322.649	104.38
322.878	107.38
323.108	98.38
323.337	106.38
323.566	125.38
323.795	148.38
324.024	190.38
324.253	337.38
324.482	651.38
324.71	1336.38
324.939	1702.38
325.168	639.38
325.397	212.38
325.626	144.38
325.855	132.38
326.084	119.38
326.313	130.38
326.542	152.38
326.77	205.38
326.999	386.38
327.228	761.38
327.457	1300.38
327.686	1086.38
327.914	304.38
328.143	164.38
328.372	134.38
328.6	106.38
328.829	104.38
329.058	127.38
329.287	119.38
329.515	112.38
329.744	113.38
329.972	90.38
330.201	100.38
330.43	100.38
330.658	114.38
330.887	124.38
331.115	106.38
331.344	97.38
331.572	95.38
331.801	112.38
332.03	108.38
332.258	90.38
332.486	84.38
332.715	93.38
332.943	93.38
333.172	105.38
333.4	96.38
333.629	114.38
333.857	110.38
334.085	100.38
334.314	94.38
334.542	106.38
334.771	93.38
334.999	86.38
335.227	99.38
335.455	86.38
335.684	108.38
335.912	90.38
336.14	105.38
336.369	108.38
336.597	100.38
336.825	110.38
337.053	95.38
337.281	100.38
337.51	72.38
337.738	94.38
337.966	107.38
338.194	84.38
338.422	96.38
338.65	95.38
338.878	84.38
339.106	86.38
339.334	87.38
339.562	90.38
339.79	104.38
340.018	108.38
340.246	83.38
340.474	81.38
340.702	82.38
340.93	88.38
341.158	78.38
341.386	77.38
341.614	97.38
341.842	99.38
342.07	95.38
342.298	86.38
342.526	106.38
342.754	84.38
342.981	100.38
343.209	80.38
343.437	94.38
343.665	73.38
343.893	92.38
344.12	95.38
344.348	99.38
344.576	76.38
344.804	89.38
345.031	83.38
345.259	95.38
345.487	94.38
345.714	105.38
345.942	93.38
346.17	96.38
346.397	84.38
346.625	92.38
346.853	87.38
347.08	89.38
347.308	86.38
347.535	90.38
347.763	80.38
347.99	91.38
348.218	106.38
348.445	106.38
348.673	97.38
348.9	96.38
349.128	87.38
349.355	93.38
349.583	91.38
349.81	88.38
350.037	89.38
350.265	96.38
350.492	89.38
350.72	93.38
350.947	105.38
351.174	99.38
351.402	94.38
351.629	100.38
351.856	94.38
352.083	99.38
352.311	98.38
352.538	109.38
352.765	105.38
352.992	100.38
353.22	109.38
353.447	114.38
353.674	96.38
353.901	107.38
354.128	94.38
354.355	100.38
354.583	68.38
354.81	100.38
355.037	90.38
355.264	101.38
355.491	100.38
355.718	83.38
355.945	94.38
356.172	90.38
356.399	89.38
356.626	89.38
356.853	96.38
357.08	94.38
357.307	99.38
357.534	91.38
357.761	94.38
357.988	94.38
358.215	82.38
358.441	95.38
358.668	78.38
358.895	90.38
359.122	103.38
359.349	105.38
359.576	103.38
359.802	88.38
360.029	111.38
360.256	102.38
360.483	98.38
360.709	88.38
360.936	94.38
361.163	89.38
361.39	97.38
361.616	100.38
361.843	92.38
362.07	104.38
362.296	83.38
362.523	90.38
362.749	91.38
362.976	106.38
363.203	100.38
363.429	99.38
363.656	86.38
363.882	93.38
364.109	91.38
364.335	75.38
364.562	90.38
364.788	90.38
365.015	98.38
365.241	100.38
365.468	99.38
365.694	97.38
365.92	94.38
366.147	82.38
366.373	98.38
366.599	87.38
366.826	93.38
367.052	92.38
367.278	107.38
367.505	82.38
367.731	90.38
367.957	86.38
368.184	96.38
368.41	82.38
368.636	90.38
368.862	110.38
369.089	100.38
369.315	94.38
369.541	97.38
369.767	72.38
369.993	92.38
370.219	76.38
370.445	90.38
370.672	102.38
370.898	90.38
371.124	68.38
371.35	84.38
371.576	89.38
371.802	78.38
372.028	80.38
372.254	92.38
372.48	92.38
372.706	86.38
372.932	90.38
373.158	101.38
373.384	98.38
373.61	86.38
373.835	102.38
374.061	76.38
374.287	88.38
374.513	85.38
374.739	104.38
374.965	84.38
375.191	84.38
375.416	78.38
375.642	78.38
375.868	90.38
376.094	86.38
376.319	74.38
376.545	93.38
376.771	78.38
376.997	76.38
377.222	80.38
377.448	90.38
377.674	96.38
377.899	75.38
378.125	90.38
378.35	85.38
378.576	95.38
378.802	106.38
379.027	98.38
379.253	103.38
379.478	83.38
379.704	100.38
379.929	91.38
380.155	95.38
380.38	81.38
380.606	86.38
380.831	94.38
381.057	114.38
381.282	90.38
381.507	91.38
381.733	89.38
381.958	89.38
382.184	96.38
382.409	100.38
382.634	101.38
382.86	99.38
383.085	97.38
383.31	85.38
383.535	106.38
383.761	101.38
383.986	99.38
384.211	98.38
384.436	87.38
384.662	105.38
384.887	100.38
385.112	89.38
385.337	84.38
385.562	93.38
385.787	103.38
386.013	100.38
386.238	104.38
386.463	103.38
386.688	92.38
386.913	104.38
387.138	99.38
387.363	115.38
387.588	94.38
387.813	105.38
388.038	98.38
388.263	99.38
388.488	96.38
388.713	105.38
388.938	93.38
389.163	94.38
389.387	101.38
389.612	94.38
389.837	82.38
390.062	87.38
390.287	105.38
390.512	92.38
390.736	96.38
390.961	96.38
391.186	97.38
391.411	103.38
391.636	93.38
391.86	96.38
392.085	83.38
392.31	83.38
392.534	77.38
392.759	102.38
392.984	93.38
393.208	87.38
393.433	93.38
393.658	95.38
393.882	95.38
394.107	100.38
394.331	76.38
394.556	82.38
394.78	95.38
395.005	79.38
395.229	90.38
395.454	97.38
395.678	78.38
395.903	74.38
396.127	68.38
396.352	86.38
396.576	93.38
396.801	88.38
397.025	79.38
397.249	73.38
397.474	91.38
397.698	95.38
397.922	83.38
398.147	84.38
398.371	95.38
398.595	95.38
398.82	81.38
399.044	90.38
399.268	89.38
399.492	84.38
399.717	85.38
399.941	66.38
400.165	97.38
400.389	84.38
400.613	100.38
400.837	90.38
401.062	83.38
401.286	83.38
401.51	82.38
401.734	82.38
401.958	96.38
402.182	107.38
402.406	152.38
402.63	100.38
402.854	90.38
403.078	88.38
403.302	93.38
403.526	95.38
403.75	74.38
403.974	96.38
404.198	97.38
404.422	86.38
404.645	92.38
404.869	85.38
405.093	93.38
405.317	89.38
405.541	103.38
405.765	88.38
405.988	99.38
406.212	145.38
406.436	186.38
406.66	121.38
406.883	102.38
407.107	81.38
407.331	98.38
407.555	95.38
407.778	92.38
408.002	71.38
408.226	88.38
408.449	84.38
408.673	82.38
408.896	99.38
409.12	106.38
409.344	95.38
409.567	88.38
409.791	87.38
410.014	98.38
410.238	98.38
410.461	98.38
410.685	94.38
410.908	96.38
411.132	108.38
411.355	104.38
411.578	103.38
411.802	92.38
412.025	68.38
412.249	76.38
412.472	92.38
412.695	108.38
412.919	103.38
413.142	90.38
413.365	95.38
413.589	90.38
413.812	90.38
414.035	91.38
414.258	101.38
414.482	88.38
414.705	86.38
414.928	76.38
415.151	98.38
415.374	84.38
415.597	97.38
415.821	86.38
416.044	77.38
416.267	95.38
416.49	90.38
416.713	91.38
416.936	83.38
417.159	83.38
417.382	104.38
417.605	68.38
417.828	106.38
418.051	106.38
418.274	98.38
418.497	90.38
418.72	91.38
418.943	85.38
419.166	77.38
419.389	104.38
419.611	84.38
419.834	75.38
420.057	101.38
420.28	93.38
420.503	91.38
420.726	103.38
420.948	92.38
421.171	96.38
421.394	99.38
421.617	86.38
421.839	95.38
422.062	95.38
422.285	86.38
422.507	102.38
422.73	87.38
422.953	94.38
423.175	90.38
423.398	81.38
423.621	92.38
423.843	82.38
424.066	90.38
424.288	91.38
424.511	86.38
424.733	96.38
424.956	83.38
425.178	88.38
425.401	103.38
425.623	118.38
425.846	94.38
426.068	96.38
426.291	86.38
426.513	94.38
426.735	96.38
426.958	97.38
427.18	85.38
427.402	107.38
427.625	127.38
427.847	104.38
428.069	107.38
428.292	93.38
428.514	96.38
428.736	88.38
428.958	93.38
429.181	86.38
429.403	84.38
429.625	85.38
429.847	93.38
430.069	85.38
430.292	104.38
430.514	99.38
430.736	82.38
430.958	92.38
431.18	76.38
431.402	86.38
431.624	83.38
431.846	86.38
432.068	90.38
432.29	82.38
432.512	95.38
432.734	87.38
432.956	81.38
433.178	92.38
433.4	104.38
433.622	85.38
433.844	86.38
434.066	73.38
434.287	95.38
434.509	85.38
434.731	84.38
434.953	98.38
435.175	95.38
435.397	93.38
435.618	81.38
435.84	94.38
436.062	101.38
436.284	107.38
436.505	88.38
436.727	89.38
436.949	97.38
437.17	95.38
437.392	86.38
437.614	98.38
437.835	100.38
438.057	97.38
438.278	92.38
438.5	95.38
438.721	105.38
438.943	79.38
439.165	91.38
439.386	79.38
439.608	86.38
439.829	89.38
440.05	107.38
440.272	120.38
440.493	88.38
440.715	100.38
440.936	86.38
441.158	79.38
441.379	89.38
441.6	81.38
441.822	77.38
442.043	83.38
442.264	105.38
442.486	95.38
442.707	85.38
442.928	97.38
443.149	111.38
443.371	111.38
443.592	113.38
443.813	111.38
444.034	104.38
444.255	81.38
444.476	86.38
444.698	95.38
444.919	102.38
445.14	116.38
445.361	109.38
445.582	103.38
445.803	116.38
446.024	129.38
446.245	122.38
446.466	109.38
446.687	92.38
446.908	74.38
447.129	88.38
447.35	94.38
447.571	85.38
447.792	87.38
448.013	96.38
448.234	83.38
448.455	89.38
448.675	97.38
448.896	102.38
449.117	92.38
449.338	105.38
449.559	110.38
449.779	111.38
450	97.38
450.221	78.38
450.442	82.38
450.662	86.38
450.883	100.38
451.104	103.38
451.324	92.38
451.545	75.38
451.766	95.38
451.986	97.38
452.207	91.38
452.428	80.38
452.648	106.38
452.869	111.38
453.089	114.38
453.31	92.38
453.53	100.38
453.751	78.38
453.971	92.38
454.192	123.38
454.412	96.38
454.633	94.38
454.853	88.38
455.073	79.38
455.294	96.38
455.514	94.38
455.734	74.38
455.955	91.38
456.175	98.38
456.395	78.38
456.616	94.38
456.836	73.38
457.056	97.38
457.276	90.38
457.497	94.38
457.717	78.38
457.937	76.38
458.157	78.38
458.377	76.38
458.598	100.38
458.818	118.38
459.038	138.38
459.258	97.38
459.478	79.38
459.698	84.38
459.918	92.38
460.138	96.38
460.358	86.38
460.578	87.38
460.798	78.38
461.018	98.38
461.238	94.38
461.458	73.38
461.678	86.38
461.898	84.38
462.118	84.38
462.338	71.38
462.558	79.38
462.777	79.38
462.997	90.38
463.217	90.38
463.437	72.38
463.657	67.38
463.876	94.38
464.096	79.38
464.316	96.38
464.536	102.38
464.755	91.38
464.975	88.38
465.195	125.38
465.414	142.38
465.634	88.38
465.854	90.38
466.073	78.38
466.293	99.38
466.512	86.38
466.732	76.38
466.951	93.38
467.171	91.38
467.391	93.38
467.61	86.38
467.829	98.38
468.049	79.38
468.268	80.38
468.488	85.38
468.707	71.38
468.927	73.38
469.146	89.38
469.365	88.38
469.585	87.38
469.804	101.38
470.023	94.38
470.243	74.38
470.462	94.38
470.681	90.38
470.901	102.38
471.12	83.38
471.339	85.38
471.558	83.38
471.777	95.38
471.997	89.38
472.216	95.38
472.435	85.38
472.654	81.38
472.873	76.38
473.092	84.38
473.311	79.38
473.53	89.38
473.749	93.38
473.968	97.38
474.187	93.38
474.406	92.38
474.625	91.38
474.844	96.38
475.063	75.38
475.282	96.38
475.501	87.38
475.72	83.38
475.939	79.38
476.158	86.38
476.377	90.38
476.596	97.38
476.814	98.38
477.033	102.38
477.252	67.38
477.471	88.38
477.69	86.38
477.908	98.38
478.127	95.38
478.346	88.38
478.564	89.38
478.783	98.38
479.002	108.38
479.22	79.38
479.439	86.38
479.658	90.38
479.876	99.38
480.095	93.38
480.313	84.38
480.532	83.38
480.751	79.38
480.969	83.38
481.188	107.38
481.406	94.38
481.624	93.38
481.843	77.38
482.061	87.38
482.28	84.38
482.498	100.38
482.717	84.38
482.935	86.38
483.153	93.38
483.372	88.38
483.59	93.38
483.808	97.38
484.027	82.38
484.245	111.38
484.463	102.38
484.681	94.38
484.9	64.38
485.118	92.38
485.336	90.38
485.554	97.38
485.772	108.38
485.99	103.38
486.209	101.38
486.427	118.38
486.645	104.38
486.863	109.38
487.081	98.38
487.299	87.38
487.517	95.38
487.735	93.38
487.953	96.38
488.171	96.38
488.389	98.38
488.607	104.38
488.825	91.38
489.043	81.38
489.261	81.38
489.479	91.38
489.696	98.38
489.914	92.38
490.132	90.38
490.35	86.38
490.568	102.38
490.786	89.38
491.003	82.38
491.221	81.38
491.439	97.38
491.657	90.38
491.874	95.38
492.092	89.38
492.31	79.38
492.527	79.38
492.745	87.38
492.963	86.38
493.18	75.38
493.398	101.38
493.615	87.38
493.833	100.38
494.05	105.38
494.268	84.38
494.485	80.38
494.703	96.38
494.92	83.38
495.138	93.38
495.355	84.38
495.573	97.38
495.79	92.38
496.008	97.38
496.225	90.38
496.442	96.38
496.66	95.38
496.877	88.38
497.094	84.38
497.312	80.38
497.529	94.38
497.746	95.38
497.963	82.38
498.181	90.38
498.398	90.38
498.615	86.38
498.832	95.38
499.049	92.38
499.267	88.38
499.484	94.38
499.701	88.38
499.918	96.38
500.135	89.38
500.352	89.38
500.569	79.38
500.786	99.38
501.003	91.38
501.22	90.38
501.437	92.38
501.654	82.38
501.871	93.38
502.088	89.38
502.305	80.38
502.522	88.38
502.739	94.38
502.956	95.38
503.172	94.38
503.389	86.38
503.606	94.38
503.823	96.38
504.04	78.38
504.256	80.38
504.473	100.38
504.69	94.38
504.907	89.38
505.123	97.38
505.34	101.38
505.557	77.38
505.773	88.38
505.99	83.38
506.207	78.38
506.423	91.38
506.64	103.38
506.856	93.38
507.073	92.38
507.289	92.38
507.506	83.38
507.722	107.38
507.939	107.38
508.155	106.38
508.372	88.38
508.588	102.38
508.805	102.38
509.021	88.38
509.238	98.38
509.454	92.38
509.67	96.38
509.887	95.38
510.103	111.38
510.319	194.38
510.536	616.38
510.752	1808.38
510.968	521.38
511.184	146.38
511.401	104.38
511.617	88.38
511.833	89.38
512.049	86.38
512.265	90.38
512.481	93.38
512.698	80.38
512.914	94.38
513.13	100.38
513.346	76.38
513.562	86.38
513.778	87.38
513.994	98.38
514.21	88.38
514.426	98.38
514.642	107.38
514.858	106.38
515.074	136.38
515.29	352.38
515.506	1108.38
515.721	436.38
515.937	129.38
516.153	104.38
516.369	103.38
