Data from Uncirc_1997_H10_HRD10591_00087.txt Node
Date: Wed Jan 03 11:28:48 EST 2024
User: Yrep
Spectrometer: HR+D1059
Trigger mode: 1
Integration Time (sec): 1.000000E-1
Scans to average: 1
Electric dark correction enabled: true
Nonlinearity correction enabled: false
Boxcar width: 0
XAxis mode: Wavelengths
Number of Pixels in Spectrum: 2048
>>>>>Begin Spectral Data<<<<<
223.165	-21.5
223.4	-21.5
223.635	-21.5
223.869	-12.5
224.104	-18.5
224.338	-7.5
224.573	-38.5
224.808	-10.5
225.042	11.5
225.277	-0.5
225.511	-12.5
225.746	1.5
225.98	-7.5
226.215	12.5
226.449	19.5
226.683	17.5
226.918	35.5
227.152	31.5
227.387	39.5
227.621	58.5
227.856	46.5
228.09	46.5
228.324	52.5
228.559	47.5
228.793	56.5
229.027	58.5
229.262	85.5
229.496	88.5
229.73	72.5
229.964	79.5
230.199	82.5
230.433	80.5
230.667	92.5
230.901	89.5
231.136	80.5
231.37	101.5
231.604	93.5
231.838	83.5
232.072	81.5
232.306	87.5
232.541	81.5
232.775	77.5
233.009	73.5
233.243	83.5
233.477	72.5
233.711	77.5
233.945	74.5
234.179	75.5
234.413	76.5
234.647	90.5
234.881	67.5
235.115	68.5
235.349	76.5
235.583	90.5
235.817	81.5
236.051	78.5
236.285	89.5
236.519	94.5
236.753	65.5
236.987	72.5
237.221	86.5
237.455	79.5
237.689	89.5
237.922	88.5
238.156	76.5
238.39	84.5
238.624	73.5
238.858	76.5
239.091	66.5
239.325	80.5
239.559	84.5
239.793	86.5
240.027	91.5
240.26	71.5
240.494	96.5
240.728	83.5
240.961	85.5
241.195	69.5
241.429	76.5
241.662	72.5
241.896	83.5
242.13	64.5
242.363	84.5
242.597	68.5
242.83	78.5
243.064	86.5
243.298	81.5
243.531	72.5
243.765	62.5
243.998	80.5
244.232	84.5
244.465	86.5
244.699	80.5
244.932	98.5
245.166	77.5
245.399	73.5
245.633	77.5
245.866	80.5
246.099	72.5
246.333	78.5
246.566	70.5
246.8	79.5
247.033	84.5
247.266	65.5
247.5	88.5
247.733	70.5
247.966	89.5
248.2	79.5
248.433	85.5
248.666	86.5
248.899	75.5
249.133	74.5
249.366	109.5
249.599	89.5
249.832	82.5
250.066	71.5
250.299	58.5
250.532	84.5
250.765	86.5
250.998	70.5
251.231	69.5
251.465	71.5
251.698	76.5
251.931	86.5
252.164	89.5
252.397	101.5
252.63	89.5
252.863	68.5
253.096	69.5
253.329	83.5
253.562	86.5
253.795	83.5
254.028	84.5
254.261	84.5
254.494	84.5
254.727	81.5
254.96	84.5
255.193	93.5
255.426	78.5
255.659	77.5
255.892	96.5
256.124	87.5
256.357	80.5
256.59	84.5
256.823	80.5
257.056	77.5
257.289	80.5
257.521	84.5
257.754	76.5
257.987	92.5
258.22	77.5
258.452	88.5
258.685	90.5
258.918	85.5
259.151	84.5
259.383	85.5
259.616	81.5
259.849	85.5
260.081	79.5
260.314	79.5
260.547	89.5
260.779	96.5
261.012	85.5
261.244	96.5
261.477	102.5
261.71	85.5
261.942	108.5
262.175	124.5
262.407	96.5
262.64	84.5
262.872	88.5
263.105	74.5
263.337	81.5
263.57	64.5
263.802	88.5
264.035	88.5
264.267	83.5
264.499	77.5
264.732	90.5
264.964	90.5
265.197	83.5
265.429	89.5
265.661	84.5
265.894	87.5
266.126	90.5
266.358	81.5
266.591	84.5
266.823	104.5
267.055	93.5
267.287	64.5
267.52	92.5
267.752	82.5
267.984	72.5
268.216	84.5
268.448	76.5
268.681	89.5
268.913	84.5
269.145	88.5
269.377	88.5
269.609	90.5
269.841	90.5
270.073	98.5
270.306	96.5
270.538	90.5
270.77	78.5
271.002	90.5
271.234	90.5
271.466	82.5
271.698	83.5
271.93	78.5
272.162	89.5
272.394	82.5
272.626	104.5
272.858	80.5
273.09	81.5
273.322	73.5
273.553	82.5
273.785	84.5
274.017	80.5
274.249	89.5
274.481	83.5
274.713	81.5
274.945	97.5
275.176	91.5
275.408	91.5
275.64	79.5
275.872	82.5
276.104	92.5
276.335	90.5
276.567	93.5
276.799	89.5
277.031	99.5
277.262	103.5
277.494	85.5
277.726	80.5
277.957	74.5
278.189	95.5
278.421	80.5
278.652	87.5
278.884	76.5
279.115	84.5
279.347	89.5
279.579	86.5
279.81	76.5
280.042	89.5
280.273	77.5
280.505	86.5
280.736	97.5
280.968	88.5
281.199	97.5
281.431	90.5
281.662	93.5
281.894	102.5
282.125	93.5
282.356	112.5
282.588	156.5
282.819	120.5
283.051	105.5
283.282	83.5
283.513	76.5
283.745	108.5
283.976	91.5
284.207	102.5
284.439	93.5
284.67	104.5
284.901	92.5
285.132	98.5
285.364	82.5
285.595	95.5
285.826	89.5
286.057	92.5
286.288	76.5
286.52	81.5
286.751	90.5
286.982	92.5
287.213	97.5
287.444	84.5
287.675	86.5
287.906	86.5
288.138	102.5
288.369	109.5
288.6	95.5
288.831	85.5
289.062	73.5
289.293	90.5
289.524	77.5
289.755	84.5
289.986	81.5
290.217	85.5
290.448	87.5
290.679	87.5
290.91	95.5
291.141	81.5
291.371	70.5
291.602	77.5
291.833	94.5
292.064	104.5
292.295	93.5
292.526	93.5
292.757	96.5
292.987	89.5
293.218	83.5
293.449	92.5
293.68	88.5
293.91	85.5
294.141	90.5
294.372	97.5
294.603	94.5
294.833	91.5
295.064	91.5
295.295	99.5
295.525	94.5
295.756	97.5
295.987	113.5
296.217	120.5
296.448	108.5
296.679	100.5
296.909	101.5
297.14	101.5
297.37	98.5
297.601	80.5
297.831	77.5
298.062	98.5
298.292	90.5
298.523	94.5
298.753	101.5
298.984	89.5
299.214	94.5
299.445	102.5
299.675	106.5
299.905	87.5
300.136	100.5
300.366	90.5
300.597	89.5
300.827	100.5
301.057	96.5
301.288	111.5
301.518	98.5
301.748	84.5
301.979	105.5
302.209	106.5
302.439	75.5
302.669	93.5
302.9	92.5
303.13	98.5
303.36	105.5
303.59	103.5
303.82	104.5
304.051	95.5
304.281	94.5
304.511	95.5
304.741	89.5
304.971	97.5
305.201	93.5
305.431	90.5
305.661	92.5
305.891	86.5
306.121	106.5
306.352	105.5
306.582	101.5
306.812	100.5
307.042	101.5
307.272	98.5
307.502	95.5
307.731	89.5
307.961	80.5
308.191	75.5
308.421	101.5
308.651	90.5
308.881	99.5
309.111	91.5
309.341	100.5
309.571	105.5
309.8	99.5
310.03	96.5
310.26	93.5
310.49	98.5
310.72	97.5
310.949	111.5
311.179	95.5
311.409	90.5
311.639	84.5
311.868	89.5
312.098	91.5
312.328	96.5
312.557	85.5
312.787	98.5
313.017	104.5
313.246	101.5
313.476	86.5
313.706	96.5
313.935	92.5
314.165	98.5
314.394	96.5
314.624	90.5
314.853	103.5
315.083	94.5
315.312	84.5
315.542	110.5
315.771	94.5
316.001	89.5
316.23	91.5
316.46	100.5
316.689	100.5
316.919	79.5
317.148	101.5
317.377	98.5
317.607	95.5
317.836	95.5
318.065	81.5
318.295	92.5
318.524	89.5
318.753	80.5
318.983	96.5
319.212	104.5
319.441	93.5
319.67	100.5
319.9	87.5
320.129	99.5
320.358	84.5
320.587	95.5
320.816	100.5
321.046	93.5
321.275	89.5
321.504	93.5
321.733	105.5
321.962	98.5
322.191	108.5
322.42	105.5
322.649	118.5
322.878	105.5
323.108	120.5
323.337	121.5
323.566	131.5
323.795	139.5
324.024	195.5
324.253	374.5
324.482	730.5
324.71	1492.5
324.939	1956.5
325.168	723.5
325.397	210.5
325.626	127.5
325.855	128.5
326.084	117.5
326.313	125.5
326.542	158.5
326.77	202.5
326.999	410.5
327.228	834.5
327.457	1537.5
327.686	1238.5
327.914	341.5
328.143	189.5
328.372	134.5
328.6	115.5
328.829	113.5
329.058	128.5
329.287	118.5
329.515	108.5
329.744	94.5
329.972	99.5
330.201	96.5
330.43	120.5
330.658	119.5
330.887	130.5
331.115	112.5
331.344	104.5
331.572	117.5
331.801	107.5
332.03	99.5
332.258	94.5
332.486	96.5
332.715	96.5
332.943	95.5
333.172	106.5
333.4	98.5
333.629	112.5
333.857	112.5
334.085	113.5
334.314	102.5
334.542	108.5
334.771	92.5
334.999	113.5
335.227	90.5
335.455	93.5
335.684	99.5
335.912	85.5
336.14	91.5
336.369	99.5
336.597	97.5
336.825	101.5
337.053	93.5
337.281	107.5
337.51	86.5
337.738	93.5
337.966	98.5
338.194	100.5
338.422	96.5
338.65	90.5
338.878	84.5
339.106	87.5
339.334	106.5
339.562	70.5
339.79	102.5
340.018	83.5
340.246	96.5
340.474	106.5
340.702	102.5
340.93	90.5
341.158	89.5
341.386	95.5
341.614	89.5
341.842	93.5
342.07	90.5
342.298	90.5
342.526	91.5
342.754	84.5
342.981	98.5
343.209	84.5
343.437	100.5
343.665	81.5
343.893	89.5
344.12	92.5
344.348	104.5
344.576	94.5
344.804	101.5
345.031	97.5
345.259	94.5
345.487	114.5
345.714	85.5
345.942	93.5
346.17	99.5
346.397	96.5
346.625	97.5
346.853	99.5
347.08	97.5
347.308	104.5
347.535	89.5
347.763	94.5
347.99	110.5
348.218	105.5
348.445	108.5
348.673	102.5
348.9	103.5
349.128	98.5
349.355	85.5
349.583	102.5
349.81	94.5
350.037	93.5
350.265	104.5
350.492	92.5
350.72	88.5
350.947	98.5
351.174	117.5
351.402	102.5
351.629	93.5
351.856	98.5
352.083	111.5
352.311	99.5
352.538	102.5
352.765	104.5
352.992	113.5
353.22	114.5
353.447	96.5
353.674	94.5
353.901	97.5
354.128	94.5
354.355	103.5
354.583	97.5
354.81	108.5
355.037	85.5
355.264	108.5
355.491	94.5
355.718	108.5
355.945	97.5
356.172	101.5
356.399	107.5
356.626	102.5
356.853	105.5
357.08	101.5
357.307	83.5
357.534	94.5
357.761	110.5
357.988	115.5
358.215	98.5
358.441	108.5
358.668	88.5
358.895	108.5
359.122	85.5
359.349	97.5
359.576	105.5
359.802	93.5
360.029	102.5
360.256	94.5
360.483	90.5
360.709	80.5
360.936	99.5
361.163	107.5
361.39	99.5
361.616	102.5
361.843	78.5
362.07	93.5
362.296	96.5
362.523	97.5
362.749	85.5
362.976	88.5
363.203	106.5
363.429	85.5
363.656	88.5
363.882	91.5
364.109	97.5
364.335	84.5
364.562	96.5
364.788	97.5
365.015	108.5
365.241	96.5
365.468	102.5
365.694	95.5
365.92	89.5
366.147	80.5
366.373	77.5
366.599	99.5
366.826	93.5
367.052	101.5
367.278	96.5
367.505	86.5
367.731	107.5
367.957	94.5
368.184	101.5
368.41	95.5
368.636	122.5
368.862	113.5
369.089	108.5
369.315	95.5
369.541	97.5
369.767	85.5
369.993	84.5
370.219	97.5
370.445	85.5
370.672	97.5
370.898	85.5
371.124	91.5
371.35	92.5
371.576	77.5
371.802	95.5
372.028	95.5
372.254	96.5
372.48	96.5
372.706	83.5
372.932	89.5
373.158	91.5
373.384	98.5
373.61	106.5
373.835	88.5
374.061	103.5
374.287	106.5
374.513	92.5
374.739	92.5
374.965	83.5
375.191	104.5
375.416	83.5
375.642	88.5
375.868	89.5
376.094	97.5
376.319	91.5
376.545	96.5
376.771	89.5
376.997	92.5
377.222	89.5
377.448	84.5
377.674	106.5
377.899	88.5
378.125	84.5
378.35	83.5
378.576	96.5
378.802	89.5
379.027	83.5
379.253	79.5
379.478	88.5
379.704	95.5
379.929	86.5
380.155	107.5
380.38	85.5
380.606	83.5
380.831	86.5
381.057	93.5
381.282	100.5
381.507	108.5
381.733	113.5
381.958	90.5
382.184	83.5
382.409	101.5
382.634	111.5
382.86	107.5
383.085	105.5
383.31	113.5
383.535	100.5
383.761	104.5
383.986	105.5
384.211	102.5
384.436	100.5
384.662	102.5
384.887	88.5
385.112	98.5
385.337	98.5
385.562	92.5
385.787	112.5
386.013	129.5
386.238	101.5
386.463	102.5
386.688	109.5
386.913	102.5
387.138	94.5
387.363	102.5
387.588	102.5
387.813	102.5
388.038	103.5
388.263	103.5
388.488	87.5
388.713	93.5
388.938	94.5
389.163	86.5
389.387	98.5
389.612	101.5
389.837	88.5
390.062	108.5
390.287	91.5
390.512	89.5
390.736	84.5
390.961	101.5
391.186	94.5
391.411	102.5
391.636	101.5
391.86	85.5
392.085	85.5
392.31	101.5
392.534	85.5
392.759	95.5
392.984	107.5
393.208	91.5
393.433	93.5
393.658	89.5
393.882	86.5
394.107	88.5
394.331	84.5
394.556	89.5
394.78	92.5
395.005	98.5
395.229	83.5
395.454	90.5
395.678	94.5
395.903	78.5
396.127	95.5
396.352	88.5
396.576	94.5
396.801	82.5
397.025	98.5
397.249	90.5
397.474	96.5
397.698	77.5
397.922	86.5
398.147	74.5
398.371	76.5
398.595	78.5
398.82	84.5
399.044	76.5
399.268	80.5
399.492	87.5
399.717	83.5
399.941	92.5
400.165	85.5
400.389	89.5
400.613	85.5
400.837	80.5
401.062	78.5
401.286	90.5
401.51	92.5
401.734	81.5
401.958	103.5
402.182	124.5
402.406	145.5
402.63	113.5
402.854	81.5
403.078	87.5
403.302	83.5
403.526	87.5
403.75	88.5
403.974	85.5
404.198	90.5
404.422	87.5
404.645	101.5
404.869	87.5
405.093	89.5
405.317	100.5
405.541	86.5
405.765	104.5
405.988	122.5
406.212	163.5
406.436	220.5
406.66	135.5
406.883	96.5
407.107	102.5
407.331	98.5
407.555	88.5
407.778	99.5
408.002	94.5
408.226	83.5
408.449	98.5
408.673	90.5
408.896	102.5
409.12	95.5
409.344	93.5
409.567	90.5
409.791	100.5
410.014	97.5
410.238	88.5
410.461	93.5
410.685	99.5
410.908	105.5
411.132	109.5
411.355	103.5
411.578	107.5
411.802	97.5
412.025	95.5
412.249	90.5
412.472	95.5
412.695	89.5
412.919	105.5
413.142	101.5
413.365	81.5
413.589	96.5
413.812	83.5
414.035	99.5
414.258	81.5
414.482	101.5
414.705	102.5
414.928	99.5
415.151	94.5
415.374	98.5
415.597	98.5
415.821	75.5
416.044	84.5
416.267	82.5
416.49	76.5
416.713	91.5
416.936	102.5
417.159	93.5
417.382	91.5
417.605	93.5
417.828	78.5
418.051	86.5
418.274	96.5
418.497	89.5
418.72	83.5
418.943	77.5
419.166	89.5
419.389	89.5
419.611	85.5
419.834	88.5
420.057	74.5
420.28	81.5
420.503	89.5
420.726	77.5
420.948	84.5
421.171	89.5
421.394	94.5
421.617	88.5
421.839	90.5
422.062	74.5
422.285	87.5
422.507	94.5
422.73	102.5
422.953	97.5
423.175	94.5
423.398	95.5
423.621	99.5
423.843	97.5
424.066	82.5
424.288	83.5
424.511	89.5
424.733	107.5
424.956	119.5
425.178	109.5
425.401	101.5
425.623	93.5
425.846	87.5
426.068	98.5
426.291	103.5
426.513	95.5
426.735	97.5
426.958	90.5
427.18	116.5
427.402	120.5
427.625	163.5
427.847	125.5
428.069	102.5
428.292	93.5
428.514	88.5
428.736	88.5
428.958	93.5
429.181	95.5
429.403	85.5
429.625	93.5
429.847	83.5
430.069	107.5
430.292	88.5
430.514	85.5
430.736	82.5
430.958	86.5
431.18	84.5
431.402	74.5
431.624	79.5
431.846	90.5
432.068	89.5
432.29	90.5
432.512	103.5
432.734	90.5
432.956	88.5
433.178	89.5
433.4	108.5
433.622	86.5
433.844	91.5
434.066	74.5
434.287	80.5
434.509	92.5
434.731	84.5
434.953	98.5
435.175	104.5
435.397	92.5
435.618	88.5
435.84	102.5
436.062	109.5
436.284	94.5
436.505	97.5
436.727	100.5
436.949	84.5
437.17	89.5
437.392	92.5
437.614	100.5
437.835	95.5
438.057	116.5
438.278	110.5
438.5	98.5
438.721	121.5
438.943	87.5
439.165	99.5
439.386	85.5
439.608	92.5
439.829	105.5
440.05	132.5
440.272	134.5
440.493	101.5
440.715	94.5
440.936	75.5
441.158	93.5
441.379	94.5
441.6	84.5
441.822	107.5
442.043	85.5
442.264	101.5
442.486	103.5
442.707	100.5
442.928	107.5
443.149	142.5
443.371	104.5
443.592	108.5
443.813	109.5
444.034	110.5
444.255	103.5
444.476	94.5
444.698	83.5
444.919	99.5
445.14	141.5
445.361	122.5
445.582	107.5
445.803	124.5
446.024	133.5
446.245	141.5
446.466	112.5
446.687	84.5
446.908	94.5
447.129	85.5
447.35	94.5
447.571	86.5
447.792	92.5
448.013	104.5
448.234	114.5
448.455	113.5
448.675	117.5
448.896	118.5
449.117	103.5
449.338	99.5
449.559	101.5
449.779	121.5
450	101.5
450.221	91.5
450.442	102.5
450.662	91.5
450.883	126.5
451.104	111.5
451.324	93.5
451.545	92.5
451.766	85.5
451.986	88.5
452.207	93.5
452.428	94.5
452.648	100.5
452.869	112.5
453.089	121.5
453.31	109.5
453.53	90.5
453.751	84.5
453.971	97.5
454.192	96.5
454.412	82.5
454.633	89.5
454.853	84.5
455.073	93.5
455.294	77.5
455.514	109.5
455.734	86.5
455.955	82.5
456.175	82.5
456.395	83.5
456.616	97.5
456.836	82.5
457.056	99.5
457.276	86.5
457.497	77.5
457.717	86.5
457.937	79.5
458.157	93.5
458.377	74.5
458.598	102.5
458.818	134.5
459.038	152.5
459.258	119.5
459.478	91.5
459.698	92.5
459.918	97.5
460.138	93.5
460.358	92.5
460.578	84.5
460.798	96.5
461.018	98.5
461.238	93.5
461.458	87.5
461.678	92.5
461.898	81.5
462.118	93.5
462.338	86.5
462.558	88.5
462.777	104.5
462.997	100.5
463.217	97.5
463.437	90.5
463.657	80.5
463.876	99.5
464.096	91.5
464.316	100.5
464.536	98.5
464.755	88.5
464.975	114.5
465.195	167.5
465.414	156.5
465.634	90.5
465.854	96.5
466.073	80.5
466.293	81.5
466.512	92.5
466.732	84.5
466.951	83.5
467.171	96.5
467.391	85.5
467.61	100.5
467.829	76.5
468.049	82.5
468.268	90.5
468.488	91.5
468.707	87.5
468.927	74.5
469.146	80.5
469.365	80.5
469.585	97.5
469.804	110.5
470.023	108.5
470.243	96.5
470.462	84.5
470.681	90.5
470.901	99.5
471.12	93.5
471.339	99.5
471.558	91.5
471.777	99.5
471.997	106.5
472.216	102.5
472.435	101.5
472.654	88.5
472.873	84.5
473.092	84.5
473.311	93.5
473.53	97.5
473.749	94.5
473.968	105.5
474.187	92.5
474.406	111.5
474.625	96.5
474.844	76.5
475.063	80.5
475.282	80.5
475.501	89.5
475.72	94.5
475.939	88.5
476.158	86.5
476.377	91.5
476.596	89.5
476.814	84.5
477.033	89.5
477.252	83.5
477.471	89.5
477.69	106.5
477.908	86.5
478.127	82.5
478.346	87.5
478.564	76.5
478.783	94.5
479.002	89.5
479.22	95.5
479.439	107.5
479.658	92.5
479.876	96.5
480.095	83.5
480.313	107.5
480.532	95.5
480.751	97.5
480.969	83.5
481.188	103.5
481.406	112.5
481.624	85.5
481.843	88.5
482.061	86.5
482.28	81.5
482.498	73.5
482.717	90.5
482.935	93.5
483.153	98.5
483.372	86.5
483.59	70.5
483.808	91.5
484.027	104.5
484.245	102.5
484.463	99.5
484.681	98.5
484.9	87.5
485.118	94.5
485.336	102.5
485.554	93.5
485.772	96.5
485.99	99.5
486.209	92.5
486.427	103.5
486.645	105.5
486.863	116.5
487.081	99.5
487.299	83.5
487.517	101.5
487.735	95.5
487.953	95.5
488.171	82.5
488.389	104.5
488.607	92.5
488.825	99.5
489.043	81.5
489.261	81.5
489.479	88.5
489.696	96.5
489.914	88.5
490.132	84.5
490.35	87.5
490.568	94.5
490.786	82.5
491.003	88.5
491.221	94.5
491.439	94.5
491.657	80.5
491.874	105.5
492.092	97.5
492.31	89.5
492.527	100.5
492.745	95.5
492.963	83.5
493.18	99.5
493.398	92.5
493.615	96.5
493.833	95.5
494.05	93.5
494.268	80.5
494.485	77.5
494.703	80.5
494.92	98.5
495.138	103.5
495.355	97.5
495.573	101.5
495.79	81.5
496.008	88.5
496.225	86.5
496.442	82.5
496.66	92.5
496.877	85.5
497.094	96.5
497.312	102.5
497.529	95.5
497.746	91.5
497.963	99.5
498.181	93.5
498.398	93.5
498.615	102.5
498.832	82.5
499.049	91.5
499.267	81.5
499.484	83.5
499.701	93.5
499.918	87.5
500.135	84.5
500.352	96.5
500.569	88.5
500.786	93.5
501.003	94.5
501.22	95.5
501.437	92.5
501.654	92.5
501.871	110.5
502.088	94.5
502.305	94.5
502.522	94.5
502.739	87.5
502.956	93.5
503.172	93.5
503.389	105.5
503.606	95.5
503.823	102.5
504.04	103.5
504.256	101.5
504.473	91.5
504.69	87.5
504.907	99.5
505.123	94.5
505.34	82.5
505.557	91.5
505.773	82.5
505.99	92.5
506.207	90.5
506.423	97.5
506.64	108.5
506.856	89.5
507.073	84.5
507.289	74.5
507.506	90.5
507.722	125.5
507.939	112.5
508.155	97.5
508.372	98.5
508.588	87.5
508.805	90.5
509.021	93.5
509.238	91.5
509.454	103.5
509.67	93.5
509.887	109.5
510.103	125.5
510.319	205.5
510.536	692.5
510.752	2111.5
510.968	593.5
511.184	153.5
511.401	102.5
511.617	101.5
511.833	90.5
512.049	105.5
512.265	83.5
512.481	107.5
512.698	95.5
512.914	102.5
513.13	105.5
513.346	94.5
513.562	92.5
513.778	103.5
513.994	99.5
514.21	88.5
514.426	105.5
514.642	121.5
514.858	123.5
515.074	157.5
515.29	433.5
515.506	1335.5
515.721	507.5
515.937	138.5
516.153	119.5
516.369	93.5
516.585	99.5
516.801	104.5
517.016	108.5
517.232	99.5
517.448	81.5
517.664	94.5
517.879	91.5
518.095	91.5
518.311	96.5
518.527	95.5
518.742	92.5
518.958	105.5
519.173	102.5
519.389	115.5
519.605	108.5
519.82	102.5
520.036	105.5
520.251	108.5
520.467	95.5
520.682	96.5
520.898	102.5
521.113	109.5
521.329	120.5
521.544	200.5
521.76	501.5
521.975	2202.5
522.19	1349.5
522.406	281.5
522.621	114.5
522.836	92.5
523.052	92.5
523.267	83.5
523.482	89.5
523.698	104.5
523.913	112.5
524.128	102.5
524.343	99.5
524.559	102.5
524.774	100.5
524.989	93.5
525.204	117.5
525.419	92.5
525.634	84.5
525.849	104.5
526.064	94.5
526.28	107.5
526.495	103.5
526.71	86.5
526.925	104.5
527.14	72.5
527.355	83.5
527.57	81.5
527.785	65.5
527.999	91.5
528.214	91.5
528.429	92.5
528.644	107.5
528.859	80.5
529.074	89.5
529.289	112.5
529.503	159.5
529.718	116.5
529.933	88.5
530.148	95.5
530.363	98.5
530.577	98.5
530.792	90.5
531.007	88.5
531.221	93.5
531.436	96.5
531.651	88.5
531.865	95.5
532.08	83.5
532.295	93.5
532.509	97.5
532.724	92.5
532.938	90.5
533.153	104.5
533.367	98.5
533.582	104.5
533.796	106.5
534.011	87.5
534.225	94.5
534.44	100.5
