Data from Uncirc_1997_H10_HRD10591_00009.txt Node
Date: Wed Jan 03 11:28:32 EST 2024
User: Yrep
Spectrometer: HR+D1059
Trigger mode: 1
Integration Time (sec): 1.000000E-1
Scans to average: 1
Electric dark correction enabled: true
Nonlinearity correction enabled: false
Boxcar width: 0
XAxis mode: Wavelengths
Number of Pixels in Spectrum: 2048
>>>>>Begin Spectral Data<<<<<
223.165	-17.25
223.4	-17.25
223.635	-17.25
223.869	-12.25
224.104	-20.25
224.338	-26.25
224.573	-20.25
224.808	-17.25
225.042	-4.25
225.277	-17.25
225.511	18.75
225.746	8.75
225.98	19.75
226.215	14.75
226.449	15.75
226.683	7.75
226.918	30.75
227.152	18.75
227.387	34.75
227.621	43.75
227.856	39.75
228.09	46.75
228.324	56.75
228.559	53.75
228.793	51.75
229.027	61.75
229.262	71.75
229.496	59.75
229.73	76.75
229.964	83.75
230.199	66.75
230.433	71.75
230.667	63.75
230.901	71.75
231.136	61.75
231.37	81.75
231.604	76.75
231.838	69.75
232.072	91.75
232.306	81.75
232.541	82.75
232.775	72.75
233.009	72.75
233.243	86.75
233.477	83.75
233.711	77.75
233.945	71.75
234.179	75.75
234.413	86.75
234.647	69.75
234.881	79.75
235.115	78.75
235.349	72.75
235.583	69.75
235.817	78.75
236.051	82.75
236.285	60.75
236.519	74.75
236.753	63.75
236.987	82.75
237.221	80.75
237.455	89.75
237.689	82.75
237.922	80.75
238.156	62.75
238.39	75.75
238.624	68.75
238.858	63.75
239.091	76.75
239.325	74.75
239.559	76.75
239.793	82.75
240.027	77.75
240.26	73.75
240.494	77.75
240.728	76.75
240.961	62.75
241.195	68.75
241.429	78.75
241.662	71.75
241.896	63.75
242.13	67.75
242.363	79.75
242.597	76.75
242.83	73.75
243.064	63.75
243.298	62.75
243.531	73.75
243.765	69.75
243.998	73.75
244.232	68.75
244.465	75.75
244.699	71.75
244.932	77.75
245.166	76.75
245.399	59.75
245.633	78.75
245.866	82.75
246.099	79.75
246.333	75.75
246.566	67.75
246.8	66.75
247.033	73.75
247.266	73.75
247.5	76.75
247.733	75.75
247.966	74.75
248.2	69.75
248.433	76.75
248.666	79.75
248.899	78.75
249.133	71.75
249.366	89.75
249.599	95.75
249.832	83.75
250.066	80.75
250.299	75.75
250.532	74.75
250.765	68.75
250.998	56.75
251.231	76.75
251.465	76.75
251.698	74.75
251.931	81.75
252.164	70.75
252.397	71.75
252.63	78.75
252.863	87.75
253.096	71.75
253.329	87.75
253.562	73.75
253.795	76.75
254.028	87.75
254.261	70.75
254.494	80.75
254.727	70.75
254.96	80.75
255.193	69.75
255.426	62.75
255.659	83.75
255.892	86.75
256.124	84.75
256.357	70.75
256.59	64.75
256.823	69.75
257.056	63.75
257.289	86.75
257.521	74.75
257.754	78.75
257.987	76.75
258.22	84.75
258.452	89.75
258.685	98.75
258.918	77.75
259.151	82.75
259.383	79.75
259.616	86.75
259.849	85.75
260.081	81.75
260.314	80.75
260.547	78.75
260.779	88.75
261.012	68.75
261.244	74.75
261.477	86.75
261.71	80.75
261.942	101.75
262.175	99.75
262.407	84.75
262.64	86.75
262.872	82.75
263.105	83.75
263.337	81.75
263.57	88.75
263.802	84.75
264.035	79.75
264.267	73.75
264.499	86.75
264.732	74.75
264.964	79.75
265.197	74.75
265.429	79.75
265.661	74.75
265.894	78.75
266.126	80.75
266.358	72.75
266.591	78.75
266.823	83.75
267.055	84.75
267.287	70.75
267.52	89.75
267.752	89.75
267.984	72.75
268.216	88.75
268.448	72.75
268.681	61.75
268.913	77.75
269.145	75.75
269.377	63.75
269.609	80.75
269.841	70.75
270.073	72.75
270.306	74.75
270.538	70.75
270.77	74.75
271.002	82.75
271.234	90.75
271.466	85.75
271.698	62.75
271.93	75.75
272.162	77.75
272.394	87.75
272.626	78.75
272.858	80.75
273.09	86.75
273.322	88.75
273.553	78.75
273.785	90.75
274.017	79.75
274.249	82.75
274.481	76.75
274.713	84.75
274.945	89.75
275.176	79.75
275.408	66.75
275.64	69.75
275.872	69.75
276.104	87.75
276.335	101.75
276.567	82.75
276.799	96.75
277.031	81.75
277.262	73.75
277.494	83.75
277.726	83.75
277.957	71.75
278.189	67.75
278.421	83.75
278.652	74.75
278.884	85.75
279.115	80.75
279.347	84.75
279.579	77.75
279.81	83.75
280.042	72.75
280.273	79.75
280.505	82.75
280.736	85.75
280.968	78.75
281.199	78.75
281.431	80.75
281.662	88.75
281.894	95.75
282.125	91.75
282.356	103.75
282.588	134.75
282.819	110.75
283.051	86.75
283.282	77.75
283.513	67.75
283.745	73.75
283.976	79.75
284.207	89.75
284.439	83.75
284.67	95.75
284.901	68.75
285.132	87.75
285.364	80.75
285.595	82.75
285.826	88.75
286.057	85.75
286.288	90.75
286.52	80.75
286.751	68.75
286.982	69.75
287.213	71.75
287.444	96.75
287.675	85.75
287.906	89.75
288.138	79.75
288.369	86.75
288.6	87.75
288.831	80.75
289.062	87.75
289.293	68.75
289.524	86.75
289.755	87.75
289.986	71.75
290.217	82.75
290.448	86.75
290.679	97.75
290.91	95.75
291.141	79.75
291.371	93.75
291.602	85.75
291.833	89.75
292.064	72.75
292.295	72.75
292.526	82.75
292.757	81.75
292.987	86.75
293.218	84.75
293.449	89.75
293.68	70.75
293.91	79.75
294.141	87.75
294.372	85.75
294.603	88.75
294.833	86.75
295.064	82.75
295.295	93.75
295.525	68.75
295.756	92.75
295.987	109.75
296.217	118.75
296.448	121.75
296.679	80.75
296.909	84.75
297.14	92.75
297.37	83.75
297.601	81.75
297.831	77.75
298.062	83.75
298.292	86.75
298.523	84.75
298.753	77.75
298.984	85.75
299.214	90.75
299.445	85.75
299.675	93.75
299.905	92.75
300.136	87.75
300.366	76.75
300.597	93.75
300.827	85.75
301.057	87.75
301.288	84.75
301.518	83.75
301.748	61.75
301.979	99.75
302.209	83.75
302.439	88.75
302.669	77.75
302.9	101.75
303.13	72.75
303.36	64.75
303.59	92.75
303.82	89.75
304.051	94.75
304.281	87.75
304.511	80.75
304.741	86.75
304.971	84.75
305.201	88.75
305.431	73.75
305.661	82.75
305.891	94.75
306.121	97.75
306.352	86.75
306.582	99.75
306.812	97.75
307.042	88.75
307.272	82.75
307.502	101.75
307.731	91.75
307.961	88.75
308.191	79.75
308.421	87.75
308.651	101.75
308.881	82.75
309.111	92.75
309.341	93.75
309.571	97.75
309.8	103.75
310.03	84.75
310.26	83.75
310.49	85.75
310.72	98.75
310.949	101.75
311.179	89.75
311.409	75.75
311.639	86.75
311.868	91.75
312.098	89.75
312.328	100.75
312.557	95.75
312.787	87.75
313.017	77.75
313.246	101.75
313.476	81.75
313.706	97.75
313.935	94.75
314.165	79.75
314.394	86.75
314.624	92.75
314.853	102.75
315.083	91.75
315.312	82.75
315.542	81.75
315.771	96.75
316.001	88.75
316.23	80.75
316.46	87.75
316.689	80.75
316.919	103.75
317.148	94.75
317.377	82.75
317.607	101.75
317.836	90.75
318.065	97.75
318.295	69.75
318.524	78.75
318.753	92.75
318.983	99.75
319.212	103.75
319.441	98.75
319.67	98.75
319.9	92.75
320.129	85.75
320.358	95.75
320.587	83.75
320.816	84.75
321.046	96.75
321.275	90.75
321.504	92.75
321.733	107.75
321.962	89.75
322.191	87.75
322.42	92.75
322.649	111.75
322.878	109.75
323.108	125.75
323.337	109.75
323.566	137.75
323.795	153.75
324.024	191.75
324.253	376.75
324.482	767.75
324.71	1594.75
324.939	2055.75
325.168	739.75
325.397	243.75
325.626	146.75
325.855	125.75
326.084	100.75
326.313	130.75
326.542	152.75
326.77	223.75
326.999	439.75
327.228	892.75
327.457	1603.75
327.686	1260.75
327.914	342.75
328.143	183.75
328.372	115.75
328.6	115.75
328.829	101.75
329.058	115.75
329.287	118.75
329.515	106.75
329.744	82.75
329.972	88.75
330.201	92.75
330.43	111.75
330.658	109.75
330.887	116.75
331.115	109.75
331.344	86.75
331.572	101.75
331.801	112.75
332.03	93.75
332.258	98.75
332.486	97.75
332.715	77.75
332.943	93.75
333.172	85.75
333.4	84.75
333.629	83.75
333.857	86.75
334.085	109.75
334.314	96.75
334.542	92.75
334.771	87.75
334.999	104.75
335.227	86.75
335.455	104.75
335.684	93.75
335.912	88.75
336.14	88.75
336.369	94.75
336.597	85.75
336.825	88.75
337.053	102.75
337.281	91.75
337.51	92.75
337.738	96.75
337.966	89.75
338.194	90.75
338.422	93.75
338.65	87.75
338.878	86.75
339.106	94.75
339.334	93.75
339.562	77.75
339.79	66.75
340.018	77.75
340.246	82.75
340.474	87.75
340.702	96.75
340.93	82.75
341.158	76.75
341.386	92.75
341.614	91.75
341.842	79.75
342.07	78.75
342.298	77.75
342.526	96.75
342.754	89.75
342.981	87.75
343.209	94.75
343.437	88.75
343.665	76.75
343.893	72.75
344.12	87.75
344.348	97.75
344.576	89.75
344.804	92.75
345.031	86.75
345.259	85.75
345.487	89.75
345.714	90.75
345.942	102.75
346.17	92.75
346.397	84.75
346.625	88.75
346.853	80.75
347.08	84.75
347.308	87.75
347.535	109.75
347.763	83.75
347.99	99.75
348.218	95.75
348.445	94.75
348.673	100.75
348.9	90.75
349.128	92.75
349.355	86.75
349.583	100.75
349.81	78.75
350.037	90.75
350.265	92.75
350.492	100.75
350.72	91.75
350.947	103.75
351.174	99.75
351.402	96.75
351.629	107.75
351.856	79.75
352.083	94.75
352.311	106.75
352.538	121.75
352.765	89.75
352.992	97.75
353.22	108.75
353.447	112.75
353.674	107.75
353.901	98.75
354.128	92.75
354.355	96.75
354.583	92.75
354.81	96.75
355.037	106.75
355.264	110.75
355.491	89.75
355.718	74.75
355.945	85.75
356.172	79.75
356.399	102.75
356.626	94.75
356.853	94.75
357.08	96.75
357.307	81.75
357.534	90.75
357.761	101.75
357.988	82.75
358.215	90.75
358.441	81.75
358.668	80.75
358.895	86.75
359.122	83.75
359.349	97.75
359.576	83.75
359.802	88.75
360.029	98.75
360.256	116.75
360.483	94.75
360.709	74.75
360.936	90.75
361.163	91.75
361.39	83.75
361.616	84.75
361.843	79.75
362.07	93.75
362.296	82.75
362.523	82.75
362.749	85.75
362.976	83.75
363.203	85.75
363.429	98.75
363.656	94.75
363.882	86.75
364.109	95.75
364.335	104.75
364.562	95.75
364.788	76.75
365.015	100.75
365.241	87.75
365.468	99.75
365.694	86.75
365.92	85.75
366.147	83.75
366.373	88.75
366.599	84.75
366.826	87.75
367.052	85.75
367.278	92.75
367.505	90.75
367.731	101.75
367.957	90.75
368.184	85.75
368.41	88.75
368.636	107.75
368.862	101.75
369.089	81.75
369.315	86.75
369.541	86.75
369.767	84.75
369.993	86.75
370.219	86.75
370.445	84.75
370.672	79.75
370.898	89.75
371.124	82.75
371.35	84.75
371.576	94.75
371.802	78.75
372.028	83.75
372.254	94.75
372.48	98.75
372.706	88.75
372.932	88.75
373.158	77.75
373.384	88.75
373.61	93.75
373.835	83.75
374.061	78.75
374.287	87.75
374.513	79.75
374.739	91.75
374.965	97.75
375.191	81.75
375.416	92.75
375.642	85.75
375.868	85.75
376.094	85.75
376.319	78.75
376.545	91.75
376.771	76.75
376.997	77.75
377.222	90.75
377.448	83.75
377.674	86.75
377.899	88.75
378.125	66.75
378.35	84.75
378.576	84.75
378.802	93.75
379.027	76.75
379.253	96.75
379.478	88.75
379.704	90.75
379.929	98.75
380.155	86.75
380.38	86.75
380.606	87.75
380.831	73.75
381.057	94.75
381.282	99.75
381.507	85.75
381.733	80.75
381.958	97.75
382.184	83.75
382.409	92.75
382.634	87.75
382.86	84.75
383.085	89.75
383.31	78.75
383.535	102.75
383.761	83.75
383.986	91.75
384.211	100.75
384.436	104.75
384.662	97.75
384.887	100.75
385.112	93.75
385.337	93.75
385.562	94.75
385.787	97.75
386.013	94.75
386.238	104.75
386.463	94.75
386.688	98.75
386.913	100.75
387.138	101.75
387.363	93.75
387.588	89.75
387.813	96.75
388.038	116.75
388.263	101.75
388.488	96.75
388.713	106.75
388.938	103.75
389.163	92.75
389.387	104.75
389.612	87.75
389.837	80.75
390.062	97.75
390.287	90.75
390.512	86.75
390.736	94.75
390.961	95.75
391.186	94.75
391.411	99.75
391.636	90.75
391.86	95.75
392.085	88.75
392.31	86.75
392.534	95.75
392.759	74.75
392.984	90.75
393.208	92.75
393.433	83.75
393.658	83.75
393.882	91.75
394.107	87.75
394.331	90.75
394.556	78.75
394.78	86.75
395.005	85.75
395.229	77.75
395.454	85.75
395.678	74.75
395.903	70.75
396.127	89.75
396.352	87.75
396.576	85.75
396.801	85.75
397.025	90.75
397.249	76.75
397.474	92.75
397.698	73.75
397.922	88.75
398.147	86.75
398.371	70.75
398.595	79.75
398.82	89.75
399.044	75.75
399.268	84.75
399.492	74.75
399.717	102.75
399.941	78.75
400.165	93.75
400.389	101.75
400.613	102.75
400.837	91.75
401.062	87.75
401.286	71.75
401.51	79.75
401.734	85.75
401.958	91.75
402.182	129.75
402.406	147.75
402.63	102.75
402.854	100.75
403.078	74.75
403.302	85.75
403.526	78.75
403.75	81.75
403.974	82.75
404.198	79.75
404.422	76.75
404.645	96.75
404.869	78.75
405.093	102.75
405.317	86.75
405.541	105.75
405.765	103.75
405.988	110.75
406.212	154.75
406.436	200.75
406.66	125.75
406.883	95.75
407.107	84.75
407.331	97.75
407.555	80.75
407.778	97.75
408.002	90.75
408.226	77.75
408.449	85.75
408.673	85.75
408.896	95.75
409.12	86.75
409.344	92.75
409.567	79.75
409.791	92.75
410.014	93.75
410.238	91.75
410.461	89.75
410.685	91.75
410.908	89.75
411.132	100.75
411.355	100.75
411.578	108.75
411.802	88.75
412.025	90.75
412.249	83.75
412.472	98.75
412.695	80.75
412.919	84.75
413.142	70.75
413.365	87.75
413.589	71.75
413.812	88.75
414.035	99.75
414.258	90.75
414.482	89.75
414.705	91.75
414.928	101.75
415.151	95.75
415.374	94.75
415.597	101.75
415.821	101.75
416.044	93.75
416.267	92.75
416.49	77.75
416.713	86.75
416.936	83.75
417.159	79.75
417.382	93.75
417.605	76.75
417.828	91.75
418.051	91.75
418.274	81.75
418.497	82.75
418.72	92.75
418.943	82.75
419.166	87.75
419.389	104.75
419.611	85.75
419.834	77.75
420.057	86.75
420.28	94.75
420.503	81.75
420.726	95.75
420.948	85.75
421.171	101.75
421.394	90.75
421.617	87.75
421.839	91.75
422.062	79.75
422.285	97.75
422.507	92.75
422.73	95.75
422.953	76.75
423.175	94.75
423.398	84.75
423.621	91.75
423.843	87.75
424.066	92.75
424.288	82.75
424.511	88.75
424.733	91.75
424.956	89.75
425.178	92.75
425.401	111.75
425.623	111.75
425.846	91.75
426.068	78.75
426.291	94.75
426.513	85.75
426.735	82.75
426.958	78.75
427.18	93.75
427.402	127.75
427.625	149.75
427.847	99.75
428.069	101.75
428.292	89.75
428.514	87.75
428.736	88.75
428.958	75.75
429.181	85.75
429.403	78.75
429.625	75.75
429.847	89.75
430.069	99.75
430.292	76.75
430.514	88.75
430.736	79.75
430.958	86.75
431.18	88.75
431.402	79.75
431.624	90.75
431.846	93.75
432.068	84.75
432.29	74.75
432.512	87.75
432.734	95.75
432.956	99.75
433.178	98.75
433.4	104.75
433.622	90.75
433.844	70.75
434.066	78.75
434.287	84.75
434.509	90.75
434.731	82.75
434.953	80.75
435.175	94.75
435.397	83.75
435.618	85.75
435.84	90.75
436.062	109.75
436.284	93.75
436.505	109.75
436.727	95.75
436.949	94.75
437.17	87.75
437.392	92.75
437.614	91.75
437.835	93.75
438.057	112.75
438.278	101.75
438.5	102.75
438.721	111.75
438.943	102.75
439.165	86.75
439.386	71.75
439.608	99.75
439.829	97.75
440.05	108.75
440.272	144.75
440.493	85.75
440.715	91.75
440.936	89.75
441.158	98.75
441.379	90.75
441.6	89.75
441.822	89.75
442.043	96.75
442.264	100.75
442.486	94.75
442.707	88.75
442.928	108.75
443.149	111.75
443.371	114.75
443.592	101.75
443.813	97.75
444.034	95.75
444.255	91.75
444.476	76.75
444.698	75.75
444.919	90.75
445.14	144.75
445.361	111.75
445.582	105.75
445.803	133.75
446.024	119.75
446.245	119.75
446.466	104.75
446.687	83.75
446.908	88.75
447.129	86.75
447.35	90.75
447.571	71.75
447.792	86.75
448.013	87.75
448.234	106.75
448.455	98.75
448.675	103.75
448.896	99.75
449.117	96.75
449.338	104.75
449.559	114.75
449.779	120.75
450	83.75
450.221	86.75
450.442	89.75
450.662	85.75
450.883	94.75
451.104	101.75
451.324	87.75
451.545	75.75
451.766	90.75
451.986	79.75
452.207	81.75
452.428	100.75
452.648	93.75
452.869	92.75
453.089	99.75
453.31	119.75
453.53	100.75
453.751	86.75
453.971	102.75
454.192	110.75
454.412	78.75
454.633	93.75
454.853	81.75
455.073	62.75
455.294	74.75
455.514	94.75
455.734	79.75
455.955	70.75
456.175	69.75
456.395	85.75
456.616	105.75
456.836	76.75
457.056	84.75
457.276	73.75
457.497	68.75
457.717	87.75
457.937	87.75
458.157	90.75
458.377	76.75
458.598	93.75
458.818	135.75
459.038	140.75
459.258	91.75
459.478	82.75
459.698	76.75
459.918	83.75
460.138	84.75
460.358	71.75
460.578	90.75
460.798	87.75
461.018	89.75
461.238	75.75
461.458	82.75
461.678	69.75
461.898	82.75
462.118	93.75
462.338	84.75
462.558	79.75
462.777	85.75
462.997	78.75
463.217	83.75
463.437	96.75
463.657	96.75
463.876	83.75
464.096	90.75
464.316	81.75
464.536	84.75
464.755	89.75
464.975	92.75
465.195	138.75
465.414	130.75
465.634	99.75
465.854	90.75
466.073	80.75
466.293	95.75
466.512	70.75
466.732	84.75
466.951	78.75
467.171	77.75
467.391	93.75
467.61	99.75
467.829	107.75
468.049	100.75
468.268	84.75
468.488	79.75
468.707	72.75
468.927	77.75
469.146	75.75
469.365	77.75
469.585	85.75
469.804	93.75
470.023	93.75
470.243	99.75
470.462	92.75
470.681	100.75
470.901	77.75
471.12	93.75
471.339	83.75
471.558	86.75
471.777	85.75
471.997	75.75
472.216	87.75
472.435	90.75
472.654	102.75
472.873	99.75
473.092	75.75
473.311	85.75
473.53	91.75
473.749	75.75
473.968	76.75
474.187	86.75
474.406	84.75
474.625	82.75
474.844	83.75
475.063	87.75
475.282	90.75
475.501	98.75
475.72	90.75
475.939	76.75
476.158	79.75
476.377	91.75
476.596	91.75
476.814	80.75
477.033	85.75
477.252	84.75
477.471	88.75
477.69	82.75
477.908	93.75
478.127	90.75
478.346	78.75
478.564	84.75
478.783	95.75
479.002	64.75
479.22	81.75
479.439	91.75
479.658	94.75
479.876	93.75
480.095	75.75
480.313	68.75
480.532	89.75
480.751	86.75
480.969	91.75
481.188	110.75
481.406	106.75
481.624	76.75
481.843	88.75
482.061	96.75
482.28	82.75
482.498	84.75
482.717	96.75
482.935	86.75
483.153	88.75
483.372	89.75
483.59	96.75
483.808	81.75
484.027	83.75
484.245	87.75
484.463	85.75
484.681	93.75
484.9	105.75
485.118	92.75
485.336	100.75
485.554	101.75
485.772	96.75
485.99	99.75
486.209	93.75
486.427	91.75
486.645	108.75
486.863	107.75
487.081	99.75
487.299	91.75
487.517	88.75
487.735	67.75
487.953	88.75
488.171	91.75
488.389	111.75
488.607	84.75
488.825	83.75
489.043	88.75
489.261	84.75
489.479	89.75
489.696	85.75
489.914	88.75
490.132	87.75
490.35	71.75
490.568	80.75
490.786	99.75
491.003	88.75
491.221	90.75
491.439	85.75
491.657	87.75
491.874	83.75
492.092	88.75
492.31	97.75
492.527	91.75
492.745	68.75
492.963	79.75
493.18	89.75
493.398	82.75
493.615	91.75
493.833	101.75
494.05	86.75
494.268	101.75
494.485	98.75
494.703	86.75
494.92	92.75
495.138	101.75
495.355	90.75
495.573	85.75
495.79	81.75
496.008	81.75
496.225	93.75
496.442	90.75
496.66	90.75
496.877	78.75
497.094	67.75
497.312	93.75
497.529	91.75
497.746	101.75
497.963	81.75
498.181	94.75
498.398	103.75
498.615	108.75
498.832	95.75
499.049	84.75
499.267	88.75
499.484	62.75
499.701	86.75
499.918	79.75
500.135	93.75
500.352	108.75
500.569	81.75
500.786	96.75
501.003	83.75
501.22	91.75
501.437	80.75
501.654	95.75
501.871	101.75
502.088	102.75
502.305	75.75
502.522	86.75
502.739	87.75
502.956	77.75
503.172	90.75
503.389	93.75
503.606	93.75
503.823	108.75
504.04	97.75
504.256	101.75
504.473	90.75
504.69	92.75
504.907	81.75
505.123	70.75
505.34	78.75
505.557	88.75
505.773	84.75
505.99	111.75
506.207	85.75
506.423	78.75
506.64	91.75
506.856	87.75
507.073	90.75
507.289	84.75
507.506	86.75
507.722	96.75
507.939	108.75
508.155	87.75
508.372	92.75
508.588	96.75
508.805	87.75
509.021	92.75
509.238	91.75
509.454	83.75
509.67	98.75
509.887	104.75
510.103	124.75
510.319	210.75
510.536	659.75
510.752	1986.75
510.968	552.75
511.184	157.75
511.401	104.75
511.617	94.75
511.833	100.75
512.049	99.75
512.265	86.75
512.481	88.75
512.698	103.75
512.914	95.75
513.13	90.75
513.346	74.75
513.562	89.75
513.778	94.75
513.994	98.75
514.21	92.75
514.426	110.75
514.642	117.75
514.858	112.75
515.074	148.75
515.29	408.75
515.506	1242.75
515.721	450.75
515.937	138.75
516.153	106.75
516.369	90.75
516.585	107.75
516.801	89.75
517.016	85.75
517.232	93.75
