Data from Uncirc_1997_H10_HRD10591_00050.txt Node
Date: Wed Jan 03 11:28:40 EST 2024
User: Yrep
Spectrometer: HR+D1059
Trigger mode: 1
Integration Time (sec): 1.000000E-1
Scans to average: 1
Electric dark correction enabled: true
Nonlinearity correction enabled: false
Boxcar width: 0
XAxis mode: Wavelengths
Number of Pixels in Spectrum: 2048
>>>>>Begin Spectral Data<<<<<
223.165	-3.06
223.4	-3.06
223.635	-3.06
223.869	-18.06
224.104	-22.06
224.338	-16.06
224.573	-16.06
224.808	-17.06
225.042	-6.06
225.277	-11.06
225.511	12.94
225.746	-5.06
225.98	6.94
226.215	2.94
226.449	16.94
226.683	19.94
226.918	28.94
227.152	25.94
227.387	30.94
227.621	37.94
227.856	50.94
228.09	44.94
228.324	53.94
228.559	51.94
228.793	51.94
229.027	66.94
229.262	75.94
229.496	67.94
229.73	79.94
229.964	97.94
230.199	83.94
230.433	78.94
230.667	81.94
230.901	81.94
231.136	87.94
231.37	79.94
231.604	86.94
231.838	86.94
232.072	83.94
232.306	117.94
232.541	77.94
232.775	86.94
233.009	94.94
233.243	85.94
233.477	80.94
233.711	90.94
233.945	97.94
234.179	91.94
234.413	81.94
234.647	88.94
234.881	83.94
235.115	86.94
235.349	101.94
235.583	85.94
235.817	88.94
236.051	78.94
236.285	81.94
236.519	87.94
236.753	74.94
236.987	81.94
237.221	91.94
237.455	81.94
237.689	70.94
237.922	76.94
238.156	80.94
238.39	83.94
238.624	89.94
238.858	85.94
239.091	88.94
239.325	89.94
239.559	81.94
239.793	91.94
240.027	75.94
240.26	90.94
240.494	87.94
240.728	69.94
240.961	82.94
241.195	91.94
241.429	90.94
241.662	75.94
241.896	73.94
242.13	75.94
242.363	84.94
242.597	74.94
242.83	91.94
243.064	83.94
243.298	80.94
243.531	74.94
243.765	87.94
243.998	89.94
244.232	85.94
244.465	90.94
244.699	85.94
244.932	89.94
245.166	77.94
245.399	87.94
245.633	74.94
245.866	79.94
246.099	89.94
246.333	90.94
246.566	86.94
246.8	86.94
247.033	87.94
247.266	89.94
247.5	83.94
247.733	82.94
247.966	69.94
248.2	92.94
248.433	84.94
248.666	82.94
248.899	88.94
249.133	93.94
249.366	98.94
249.599	94.94
249.832	95.94
250.066	81.94
250.299	72.94
250.532	88.94
250.765	84.94
250.998	72.94
251.231	85.94
251.465	93.94
251.698	84.94
251.931	103.94
252.164	86.94
252.397	70.94
252.63	71.94
252.863	82.94
253.096	93.94
253.329	90.94
253.562	84.94
253.795	86.94
254.028	105.94
254.261	103.94
254.494	73.94
254.727	77.94
254.96	96.94
255.193	94.94
255.426	98.94
255.659	79.94
255.892	81.94
256.124	75.94
256.357	88.94
256.59	93.94
256.823	83.94
257.056	93.94
257.289	81.94
257.521	73.94
257.754	93.94
257.987	97.94
258.22	87.94
258.452	91.94
258.685	85.94
258.918	89.94
259.151	79.94
259.383	96.94
259.616	91.94
259.849	97.94
260.081	87.94
260.314	87.94
260.547	93.94
260.779	90.94
261.012	85.94
261.244	107.94
261.477	90.94
261.71	87.94
261.942	118.94
262.175	118.94
262.407	94.94
262.64	91.94
262.872	89.94
263.105	95.94
263.337	85.94
263.57	82.94
263.802	93.94
264.035	81.94
264.267	87.94
264.499	83.94
264.732	100.94
264.964	82.94
265.197	92.94
265.429	95.94
265.661	100.94
265.894	93.94
266.126	80.94
266.358	88.94
266.591	101.94
266.823	82.94
267.055	88.94
267.287	93.94
267.52	77.94
267.752	82.94
267.984	77.94
268.216	83.94
268.448	90.94
268.681	85.94
268.913	94.94
269.145	89.94
269.377	109.94
269.609	84.94
269.841	85.94
270.073	99.94
270.306	80.94
270.538	82.94
270.77	90.94
271.002	93.94
271.234	95.94
271.466	98.94
271.698	86.94
271.93	80.94
272.162	102.94
272.394	100.94
272.626	94.94
272.858	99.94
273.09	98.94
273.322	100.94
273.553	91.94
273.785	89.94
274.017	102.94
274.249	85.94
274.481	78.94
274.713	92.94
274.945	106.94
275.176	80.94
275.408	94.94
275.64	85.94
275.872	97.94
276.104	99.94
276.335	97.94
276.567	98.94
276.799	102.94
277.031	107.94
277.262	86.94
277.494	95.94
277.726	95.94
277.957	90.94
278.189	98.94
278.421	88.94
278.652	95.94
278.884	93.94
279.115	94.94
279.347	87.94
279.579	91.94
279.81	89.94
280.042	83.94
280.273	87.94
280.505	96.94
280.736	85.94
280.968	93.94
281.199	83.94
281.431	105.94
281.662	103.94
281.894	107.94
282.125	110.94
282.356	112.94
282.588	122.94
282.819	111.94
283.051	98.94
283.282	107.94
283.513	101.94
283.745	92.94
283.976	95.94
284.207	93.94
284.439	98.94
284.67	90.94
284.901	103.94
285.132	95.94
285.364	105.94
285.595	96.94
285.826	89.94
286.057	97.94
286.288	97.94
286.52	78.94
286.751	100.94
286.982	101.94
287.213	90.94
287.444	79.94
287.675	85.94
287.906	73.94
288.138	95.94
288.369	88.94
288.6	79.94
288.831	86.94
289.062	93.94
289.293	97.94
289.524	100.94
289.755	95.94
289.986	90.94
290.217	81.94
290.448	96.94
290.679	85.94
290.91	85.94
291.141	94.94
291.371	99.94
291.602	90.94
291.833	93.94
292.064	83.94
292.295	85.94
292.526	103.94
292.757	89.94
292.987	95.94
293.218	83.94
293.449	95.94
293.68	99.94
293.91	88.94
294.141	93.94
294.372	87.94
294.603	97.94
294.833	97.94
295.064	98.94
295.295	101.94
295.525	92.94
295.756	98.94
295.987	120.94
296.217	132.94
296.448	129.94
296.679	91.94
296.909	102.94
297.14	106.94
297.37	88.94
297.601	102.94
297.831	109.94
298.062	115.94
298.292	105.94
298.523	104.94
298.753	77.94
298.984	95.94
299.214	91.94
299.445	96.94
299.675	91.94
299.905	99.94
300.136	107.94
300.366	96.94
300.597	91.94
300.827	96.94
301.057	97.94
301.288	113.94
301.518	105.94
301.748	93.94
301.979	102.94
302.209	102.94
302.439	98.94
302.669	87.94
302.9	86.94
303.13	79.94
303.36	120.94
303.59	94.94
303.82	106.94
304.051	95.94
304.281	101.94
304.511	94.94
304.741	93.94
304.971	87.94
305.201	89.94
305.431	106.94
305.661	95.94
305.891	97.94
306.121	103.94
306.352	97.94
306.582	103.94
306.812	89.94
307.042	97.94
307.272	101.94
307.502	97.94
307.731	103.94
307.961	105.94
308.191	93.94
308.421	90.94
308.651	102.94
308.881	93.94
309.111	102.94
309.341	107.94
309.571	101.94
309.8	97.94
310.03	112.94
310.26	103.94
310.49	107.94
310.72	92.94
310.949	99.94
311.179	102.94
311.409	101.94
311.639	103.94
311.868	103.94
312.098	118.94
312.328	98.94
312.557	102.94
312.787	110.94
313.017	90.94
313.246	85.94
313.476	103.94
313.706	109.94
313.935	116.94
314.165	88.94
314.394	117.94
314.624	107.94
314.853	95.94
315.083	101.94
315.312	94.94
315.542	110.94
315.771	105.94
316.001	109.94
316.23	86.94
316.46	101.94
316.689	79.94
316.919	97.94
317.148	90.94
317.377	101.94
317.607	106.94
317.836	97.94
318.065	87.94
318.295	87.94
318.524	90.94
318.753	101.94
318.983	84.94
319.212	95.94
319.441	111.94
319.67	114.94
319.9	101.94
320.129	99.94
320.358	82.94
320.587	105.94
320.816	120.94
321.046	109.94
321.275	111.94
321.504	109.94
321.733	90.94
321.962	105.94
322.191	114.94
322.42	121.94
322.649	115.94
322.878	107.94
323.108	134.94
323.337	112.94
323.566	130.94
323.795	153.94
324.024	199.94
324.253	339.94
324.482	691.94
324.71	1399.94
324.939	1891.94
325.168	713.94
325.397	225.94
325.626	149.94
325.855	131.94
326.084	132.94
326.313	142.94
326.542	158.94
326.77	218.94
326.999	385.94
327.228	815.94
327.457	1481.94
327.686	1177.94
327.914	328.94
328.143	178.94
328.372	132.94
328.6	133.94
328.829	112.94
329.058	115.94
329.287	130.94
329.515	112.94
329.744	104.94
329.972	112.94
330.201	106.94
330.43	102.94
330.658	107.94
330.887	127.94
331.115	125.94
331.344	95.94
331.572	104.94
331.801	99.94
332.03	104.94
332.258	97.94
332.486	94.94
332.715	97.94
332.943	99.94
333.172	91.94
333.4	98.94
333.629	101.94
333.857	113.94
334.085	102.94
334.314	104.94
334.542	111.94
334.771	103.94
334.999	98.94
335.227	94.94
335.455	92.94
335.684	107.94
335.912	101.94
336.14	115.94
336.369	98.94
336.597	105.94
336.825	85.94
337.053	105.94
337.281	102.94
337.51	99.94
337.738	100.94
337.966	93.94
338.194	119.94
338.422	99.94
338.65	96.94
338.878	79.94
339.106	103.94
339.334	105.94
339.562	109.94
339.79	85.94
340.018	95.94
340.246	106.94
340.474	99.94
340.702	82.94
340.93	104.94
341.158	99.94
341.386	99.94
341.614	102.94
341.842	106.94
342.07	93.94
342.298	87.94
342.526	92.94
342.754	99.94
342.981	91.94
343.209	101.94
343.437	111.94
343.665	104.94
343.893	107.94
344.12	109.94
344.348	97.94
344.576	87.94
344.804	95.94
345.031	114.94
345.259	104.94
345.487	110.94
345.714	99.94
345.942	104.94
346.17	102.94
346.397	106.94
346.625	85.94
346.853	102.94
347.08	109.94
347.308	104.94
347.535	104.94
347.763	105.94
347.99	112.94
348.218	104.94
348.445	99.94
348.673	98.94
348.9	101.94
349.128	108.94
349.355	100.94
349.583	112.94
349.81	103.94
350.037	87.94
350.265	106.94
350.492	93.94
350.72	93.94
350.947	99.94
351.174	123.94
351.402	102.94
351.629	94.94
351.856	101.94
352.083	111.94
352.311	107.94
352.538	106.94
352.765	122.94
352.992	124.94
353.22	107.94
353.447	106.94
353.674	106.94
353.901	97.94
354.128	111.94
354.355	99.94
354.583	102.94
354.81	104.94
355.037	87.94
355.264	100.94
355.491	108.94
355.718	92.94
355.945	99.94
356.172	111.94
356.399	104.94
356.626	104.94
356.853	106.94
357.08	99.94
357.307	105.94
357.534	106.94
357.761	118.94
357.988	87.94
358.215	107.94
358.441	102.94
358.668	92.94
358.895	89.94
359.122	85.94
359.349	98.94
359.576	90.94
359.802	90.94
360.029	104.94
360.256	102.94
360.483	94.94
360.709	95.94
360.936	112.94
361.163	105.94
361.39	109.94
361.616	98.94
361.843	91.94
362.07	110.94
362.296	101.94
362.523	83.94
362.749	85.94
362.976	94.94
363.203	84.94
363.429	93.94
363.656	94.94
363.882	98.94
364.109	97.94
364.335	80.94
364.562	95.94
364.788	104.94
365.015	96.94
365.241	103.94
365.468	103.94
365.694	115.94
365.92	111.94
366.147	98.94
366.373	78.94
366.599	98.94
366.826	101.94
367.052	99.94
367.278	89.94
367.505	93.94
367.731	98.94
367.957	100.94
368.184	105.94
368.41	99.94
368.636	107.94
368.862	120.94
369.089	103.94
369.315	107.94
369.541	95.94
369.767	99.94
369.993	87.94
370.219	97.94
370.445	85.94
370.672	83.94
370.898	106.94
371.124	95.94
371.35	113.94
371.576	111.94
371.802	99.94
372.028	99.94
372.254	96.94
372.48	96.94
372.706	98.94
372.932	95.94
373.158	90.94
373.384	114.94
373.61	101.94
373.835	114.94
374.061	93.94
374.287	101.94
374.513	82.94
374.739	106.94
374.965	90.94
375.191	105.94
375.416	110.94
375.642	93.94
375.868	104.94
376.094	95.94
376.319	85.94
376.545	94.94
376.771	88.94
376.997	102.94
377.222	91.94
377.448	117.94
377.674	82.94
377.899	98.94
378.125	106.94
378.35	96.94
378.576	103.94
378.802	86.94
379.027	90.94
379.253	95.94
379.478	95.94
379.704	100.94
379.929	98.94
380.155	89.94
380.38	94.94
380.606	101.94
380.831	109.94
381.057	118.94
381.282	95.94
381.507	100.94
381.733	102.94
381.958	91.94
382.184	116.94
382.409	84.94
382.634	120.94
382.86	102.94
383.085	103.94
383.31	98.94
383.535	103.94
383.761	107.94
383.986	102.94
384.211	95.94
384.436	109.94
384.662	95.94
384.887	103.94
385.112	109.94
385.337	122.94
385.562	106.94
385.787	113.94
386.013	96.94
386.238	103.94
386.463	116.94
386.688	118.94
386.913	108.94
387.138	97.94
387.363	118.94
387.588	110.94
387.813	104.94
388.038	98.94
388.263	112.94
388.488	105.94
388.713	111.94
388.938	107.94
389.163	97.94
389.387	109.94
389.612	98.94
389.837	104.94
390.062	87.94
390.287	87.94
390.512	95.94
390.736	99.94
390.961	98.94
391.186	112.94
391.411	98.94
391.636	98.94
391.86	107.94
392.085	103.94
392.31	83.94
392.534	98.94
392.759	98.94
392.984	109.94
393.208	91.94
393.433	110.94
393.658	90.94
393.882	91.94
394.107	100.94
394.331	74.94
394.556	86.94
394.78	101.94
395.005	87.94
395.229	98.94
395.454	90.94
395.678	82.94
395.903	83.94
396.127	93.94
396.352	102.94
396.576	93.94
396.801	91.94
397.025	103.94
397.249	100.94
397.474	94.94
397.698	92.94
397.922	102.94
398.147	90.94
398.371	90.94
398.595	93.94
398.82	106.94
399.044	87.94
399.268	94.94
399.492	90.94
399.717	94.94
399.941	97.94
400.165	93.94
400.389	95.94
400.613	104.94
400.837	90.94
401.062	101.94
401.286	99.94
401.51	82.94
401.734	99.94
401.958	96.94
402.182	123.94
402.406	147.94
402.63	124.94
402.854	88.94
403.078	106.94
403.302	94.94
403.526	101.94
403.75	81.94
403.974	87.94
404.198	85.94
404.422	99.94
404.645	107.94
404.869	81.94
405.093	91.94
405.317	113.94
405.541	99.94
405.765	112.94
405.988	128.94
406.212	150.94
406.436	194.94
406.66	146.94
406.883	115.94
407.107	93.94
407.331	87.94
407.555	93.94
407.778	81.94
408.002	94.94
408.226	92.94
408.449	91.94
408.673	85.94
408.896	102.94
409.12	97.94
409.344	93.94
409.567	81.94
409.791	93.94
410.014	104.94
410.238	95.94
410.461	107.94
410.685	101.94
410.908	94.94
411.132	114.94
411.355	105.94
411.578	109.94
411.802	95.94
412.025	80.94
412.249	90.94
412.472	86.94
412.695	98.94
412.919	92.94
413.142	81.94
413.365	100.94
413.589	93.94
413.812	101.94
414.035	87.94
414.258	90.94
414.482	101.94
414.705	97.94
414.928	99.94
415.151	107.94
415.374	95.94
415.597	105.94
415.821	80.94
416.044	78.94
416.267	85.94
416.49	105.94
416.713	101.94
416.936	106.94
417.159	82.94
417.382	84.94
417.605	95.94
417.828	103.94
418.051	77.94
418.274	93.94
418.497	92.94
418.72	91.94
418.943	93.94
419.166	102.94
419.389	94.94
419.611	92.94
419.834	103.94
420.057	102.94
420.28	89.94
420.503	107.94
420.726	101.94
420.948	100.94
421.171	90.94
421.394	104.94
421.617	99.94
421.839	103.94
422.062	90.94
422.285	100.94
422.507	111.94
422.73	106.94
422.953	86.94
423.175	97.94
423.398	89.94
423.621	106.94
423.843	87.94
424.066	96.94
424.288	94.94
424.511	98.94
424.733	100.94
424.956	109.94
425.178	101.94
425.401	88.94
425.623	107.94
425.846	96.94
426.068	88.94
426.291	102.94
426.513	90.94
426.735	97.94
426.958	98.94
427.18	99.94
427.402	128.94
427.625	156.94
427.847	120.94
428.069	102.94
428.292	107.94
428.514	89.94
428.736	100.94
428.958	91.94
429.181	93.94
429.403	96.94
429.625	86.94
429.847	99.94
430.069	94.94
430.292	93.94
430.514	93.94
430.736	88.94
430.958	86.94
431.18	83.94
431.402	102.94
431.624	86.94
431.846	82.94
432.068	99.94
432.29	86.94
432.512	100.94
432.734	86.94
432.956	97.94
433.178	94.94
433.4	107.94
433.622	89.94
433.844	106.94
434.066	101.94
434.287	97.94
434.509	99.94
434.731	95.94
434.953	90.94
435.175	89.94
435.397	84.94
435.618	78.94
435.84	109.94
436.062	127.94
436.284	103.94
436.505	102.94
436.727	114.94
436.949	100.94
437.17	103.94
437.392	89.94
437.614	111.94
437.835	101.94
438.057	115.94
438.278	123.94
438.5	101.94
438.721	123.94
438.943	118.94
439.165	85.94
439.386	88.94
439.608	88.94
439.829	90.94
440.05	111.94
440.272	127.94
440.493	85.94
440.715	93.94
440.936	88.94
441.158	80.94
441.379	86.94
441.6	85.94
441.822	101.94
442.043	103.94
442.264	104.94
442.486	99.94
442.707	120.94
442.928	103.94
443.149	133.94
443.371	134.94
443.592	127.94
443.813	117.94
444.034	104.94
444.255	103.94
444.476	92.94
444.698	89.94
444.919	83.94
445.14	134.94
445.361	117.94
445.582	119.94
445.803	129.94
446.024	133.94
446.245	131.94
446.466	116.94
446.687	95.94
446.908	94.94
447.129	91.94
447.35	99.94
447.571	96.94
447.792	97.94
448.013	95.94
448.234	106.94
448.455	90.94
448.675	124.94
448.896	116.94
449.117	102.94
449.338	110.94
449.559	128.94
449.779	130.94
450	105.94
450.221	100.94
450.442	89.94
450.662	99.94
450.883	105.94
451.104	116.94
451.324	96.94
451.545	98.94
451.766	88.94
451.986	85.94
452.207	105.94
452.428	103.94
452.648	122.94
452.869	116.94
453.089	106.94
453.31	114.94
453.53	95.94
453.751	83.94
453.971	100.94
454.192	111.94
454.412	100.94
454.633	95.94
454.853	94.94
455.073	95.94
455.294	99.94
455.514	105.94
455.734	101.94
455.955	102.94
456.175	94.94
456.395	92.94
456.616	98.94
456.836	105.94
457.056	106.94
457.276	96.94
457.497	84.94
457.717	94.94
457.937	86.94
458.157	100.94
458.377	93.94
458.598	126.94
458.818	143.94
459.038	149.94
459.258	105.94
459.478	96.94
459.698	89.94
459.918	98.94
460.138	106.94
460.358	97.94
460.578	77.94
460.798	90.94
461.018	92.94
461.238	81.94
461.458	93.94
461.678	95.94
461.898	88.94
462.118	107.94
462.338	104.94
462.558	97.94
462.777	91.94
462.997	95.94
463.217	86.94
463.437	90.94
463.657	84.94
463.876	93.94
464.096	114.94
464.316	85.94
464.536	99.94
464.755	97.94
464.975	105.94
465.195	131.94
465.414	149.94
465.634	91.94
465.854	92.94
466.073	96.94
466.293	89.94
466.512	95.94
466.732	82.94
466.951	90.94
467.171	91.94
467.391	99.94
467.61	108.94
467.829	103.94
468.049	83.94
468.268	102.94
468.488	92.94
468.707	89.94
468.927	98.94
469.146	96.94
469.365	101.94
469.585	99.94
469.804	113.94
470.023	88.94
470.243	77.94
470.462	100.94
470.681	92.94
470.901	91.94
471.12	83.94
471.339	86.94
471.558	89.94
471.777	90.94
471.997	91.94
472.216	100.94
472.435	106.94
472.654	107.94
472.873	104.94
473.092	84.94
473.311	90.94
473.53	87.94
473.749	95.94
473.968	98.94
474.187	106.94
474.406	102.94
474.625	88.94
474.844	88.94
475.063	96.94
475.282	85.94
475.501	105.94
475.72	98.94
475.939	110.94
476.158	84.94
476.377	83.94
476.596	93.94
476.814	93.94
477.033	85.94
477.252	99.94
477.471	95.94
477.69	86.94
477.908	93.94
478.127	92.94
478.346	99.94
478.564	101.94
478.783	97.94
479.002	104.94
479.22	91.94
479.439	96.94
479.658	103.94
479.876	95.94
480.095	102.94
480.313	89.94
480.532	95.94
480.751	89.94
480.969	96.94
481.188	110.94
481.406	99.94
481.624	98.94
481.843	83.94
482.061	88.94
482.28	93.94
482.498	99.94
482.717	88.94
482.935	96.94
483.153	104.94
483.372	89.94
483.59	91.94
483.808	98.94
484.027	95.94
484.245	104.94
484.463	87.94
484.681	93.94
484.9	98.94
485.118	100.94
485.336	109.94
485.554	100.94
485.772	121.94
485.99	105.94
486.209	93.94
486.427	104.94
486.645	106.94
486.863	121.94
487.081	100.94
487.299	95.94
487.517	93.94
487.735	100.94
487.953	100.94
488.171	107.94
488.389	105.94
488.607	97.94
488.825	94.94
489.043	97.94
489.261	99.94
489.479	107.94
489.696	97.94
489.914	96.94
490.132	90.94
490.35	92.94
490.568	74.94
490.786	104.94
491.003	95.94
491.221	91.94
491.439	101.94
491.657	103.94
491.874	89.94
492.092	106.94
492.31	99.94
492.527	86.94
492.745	92.94
492.963	103.94
493.18	104.94
493.398	105.94
493.615	111.94
493.833	94.94
494.05	89.94
494.268	98.94
494.485	99.94
494.703	108.94
494.92	105.94
495.138	89.94
495.355	97.94
495.573	103.94
495.79	108.94
496.008	103.94
496.225	93.94
496.442	94.94
496.66	104.94
496.877	88.94
497.094	113.94
497.312	91.94
497.529	108.94
497.746	104.94
497.963	96.94
498.181	92.94
498.398	106.94
498.615	111.94
498.832	115.94
499.049	99.94
499.267	103.94
499.484	95.94
499.701	110.94
499.918	93.94
500.135	92.94
500.352	104.94
500.569	84.94
500.786	78.94
501.003	101.94
501.22	100.94
501.437	97.94
501.654	89.94
501.871	102.94
502.088	99.94
502.305	102.94
502.522	91.94
502.739	98.94
502.956	115.94
503.172	105.94
503.389	99.94
503.606	100.94
503.823	109.94
504.04	96.94
504.256	89.94
504.473	94.94
504.69	104.94
504.907	104.94
505.123	92.94
505.34	91.94
505.557	106.94
505.773	83.94
505.99	81.94
506.207	91.94
506.423	95.94
506.64	97.94
506.856	112.94
507.073	104.94
507.289	92.94
507.506	107.94
507.722	110.94
507.939	101.94
508.155	95.94
508.372	96.94
508.588	98.94
508.805	93.94
509.021	95.94
509.238	98.94
509.454	100.94
509.67	94.94
509.887	97.94
510.103	131.94
510.319	195.94
510.536	660.94
510.752	1991.94
510.968	559.94
511.184	149.94
511.401	95.94
511.617	109.94
511.833	100.94
512.049	101.94
512.265	101.94
512.481	102.94
512.698	96.94
512.914	86.94
