Data from Uncirc_1997_H10_HRD10591_00022.txt Node
Date: Wed Jan 03 11:28:35 EST 2024
User: Yrep
Spectrometer: HR+D1059
Trigger mode: 1
Integration Time (sec): 1.000000E-1
Scans to average: 1
Electric dark correction enabled: true
Nonlinearity correction enabled: false
Boxcar width: 0
XAxis mode: Wavelengths
Number of Pixels in Spectrum: 2048
>>>>>Begin Spectral Data<<<<<
223.165	-26.44
223.4	-26.44
223.635	-26.44
223.869	-18.44
224.104	-42.44
224.338	-10.44
224.573	-11.44
224.808	-13.44
225.042	-4.44
225.277	-8.44
225.511	-13.44
225.746	10.56
225.98	6.56
226.215	28.56
226.449	25.56
226.683	25.56
226.918	28.56
227.152	23.56
227.387	31.56
227.621	38.56
227.856	52.56
228.09	49.56
228.324	63.56
228.559	50.56
228.793	61.56
229.027	66.56
229.262	67.56
229.496	76.56
229.73	88.56
229.964	66.56
230.199	85.56
230.433	87.56
230.667	98.56
230.901	77.56
231.136	81.56
231.37	77.56
231.604	71.56
231.838	74.56
232.072	82.56
232.306	74.56
232.541	74.56
232.775	76.56
233.009	72.56
233.243	71.56
233.477	82.56
233.711	88.56
233.945	83.56
234.179	83.56
234.413	78.56
234.647	82.56
234.881	78.56
235.115	79.56
235.349	87.56
235.583	79.56
235.817	66.56
236.051	90.56
236.285	70.56
236.519	70.56
236.753	80.56
236.987	63.56
237.221	82.56
237.455	83.56
237.689	66.56
237.922	64.56
238.156	71.56
238.39	68.56
238.624	78.56
238.858	78.56
239.091	70.56
239.325	82.56
239.559	76.56
239.793	78.56
240.027	83.56
240.26	77.56
240.494	71.56
240.728	82.56
240.961	81.56
241.195	76.56
241.429	79.56
241.662	76.56
241.896	65.56
242.13	73.56
242.363	86.56
242.597	76.56
242.83	92.56
243.064	86.56
243.298	84.56
243.531	69.56
243.765	72.56
243.998	72.56
244.232	74.56
244.465	75.56
244.699	96.56
244.932	88.56
245.166	78.56
245.399	76.56
245.633	83.56
245.866	71.56
246.099	61.56
246.333	74.56
246.566	83.56
246.8	68.56
247.033	83.56
247.266	74.56
247.5	84.56
247.733	79.56
247.966	83.56
248.2	72.56
248.433	88.56
248.666	95.56
248.899	75.56
249.133	88.56
249.366	91.56
249.599	95.56
249.832	92.56
250.066	74.56
250.299	72.56
250.532	82.56
250.765	83.56
250.998	78.56
251.231	79.56
251.465	91.56
251.698	74.56
251.931	79.56
252.164	78.56
252.397	83.56
252.63	87.56
252.863	89.56
253.096	80.56
253.329	92.56
253.562	87.56
253.795	103.56
254.028	96.56
254.261	75.56
254.494	72.56
254.727	77.56
254.96	86.56
255.193	74.56
255.426	78.56
255.659	82.56
255.892	86.56
256.124	87.56
256.357	79.56
256.59	70.56
256.823	79.56
257.056	79.56
257.289	96.56
257.521	97.56
257.754	86.56
257.987	77.56
258.22	88.56
258.452	80.56
258.685	73.56
258.918	74.56
259.151	81.56
259.383	62.56
259.616	80.56
259.849	74.56
260.081	90.56
260.314	85.56
260.547	79.56
260.779	84.56
261.012	87.56
261.244	92.56
261.477	102.56
261.71	83.56
261.942	111.56
262.175	95.56
262.407	90.56
262.64	83.56
262.872	95.56
263.105	98.56
263.337	97.56
263.57	95.56
263.802	102.56
264.035	98.56
264.267	77.56
264.499	83.56
264.732	79.56
264.964	74.56
265.197	91.56
265.429	64.56
265.661	83.56
265.894	83.56
266.126	86.56
266.358	76.56
266.591	80.56
266.823	71.56
267.055	98.56
267.287	84.56
267.52	76.56
267.752	81.56
267.984	87.56
268.216	63.56
268.448	79.56
268.681	79.56
268.913	83.56
269.145	76.56
269.377	78.56
269.609	92.56
269.841	81.56
270.073	78.56
270.306	86.56
270.538	89.56
270.77	71.56
271.002	71.56
271.234	80.56
271.466	88.56
271.698	89.56
271.93	74.56
272.162	80.56
272.394	83.56
272.626	74.56
272.858	73.56
273.09	94.56
273.322	89.56
273.553	86.56
273.785	82.56
274.017	87.56
274.249	90.56
274.481	84.56
274.713	94.56
274.945	80.56
275.176	84.56
275.408	93.56
275.64	86.56
275.872	80.56
276.104	90.56
276.335	81.56
276.567	89.56
276.799	92.56
277.031	87.56
277.262	92.56
277.494	84.56
277.726	92.56
277.957	80.56
278.189	84.56
278.421	103.56
278.652	83.56
278.884	88.56
279.115	87.56
279.347	67.56
279.579	80.56
279.81	86.56
280.042	85.56
280.273	83.56
280.505	80.56
280.736	81.56
280.968	74.56
281.199	88.56
281.431	87.56
281.662	81.56
281.894	90.56
282.125	86.56
282.356	109.56
282.588	108.56
282.819	99.56
283.051	87.56
283.282	92.56
283.513	91.56
283.745	82.56
283.976	87.56
284.207	81.56
284.439	84.56
284.67	90.56
284.901	90.56
285.132	81.56
285.364	77.56
285.595	77.56
285.826	100.56
286.057	82.56
286.288	87.56
286.52	79.56
286.751	78.56
286.982	92.56
287.213	96.56
287.444	89.56
287.675	95.56
287.906	92.56
288.138	87.56
288.369	100.56
288.6	82.56
288.831	83.56
289.062	101.56
289.293	84.56
289.524	97.56
289.755	84.56
289.986	86.56
290.217	92.56
290.448	87.56
290.679	92.56
290.91	98.56
291.141	89.56
291.371	79.56
291.602	75.56
291.833	77.56
292.064	86.56
292.295	96.56
292.526	90.56
292.757	90.56
292.987	85.56
293.218	76.56
293.449	83.56
293.68	81.56
293.91	99.56
294.141	84.56
294.372	79.56
294.603	89.56
294.833	86.56
295.064	87.56
295.295	90.56
295.525	83.56
295.756	91.56
295.987	88.56
296.217	123.56
296.448	93.56
296.679	86.56
296.909	75.56
297.14	89.56
297.37	100.56
297.601	100.56
297.831	97.56
298.062	81.56
298.292	98.56
298.523	82.56
298.753	82.56
298.984	91.56
299.214	89.56
299.445	75.56
299.675	103.56
299.905	92.56
300.136	89.56
300.366	87.56
300.597	77.56
300.827	76.56
301.057	97.56
301.288	101.56
301.518	95.56
301.748	78.56
301.979	84.56
302.209	81.56
302.439	78.56
302.669	90.56
302.9	83.56
303.13	101.56
303.36	89.56
303.59	85.56
303.82	89.56
304.051	91.56
304.281	78.56
304.511	98.56
304.741	83.56
304.971	99.56
305.201	91.56
305.431	67.56
305.661	91.56
305.891	86.56
306.121	99.56
306.352	91.56
306.582	111.56
306.812	94.56
307.042	79.56
307.272	97.56
307.502	94.56
307.731	90.56
307.961	105.56
308.191	94.56
308.421	96.56
308.651	99.56
308.881	95.56
309.111	94.56
309.341	91.56
309.571	106.56
309.8	94.56
310.03	86.56
310.26	82.56
310.49	91.56
310.72	103.56
310.949	85.56
311.179	82.56
311.409	81.56
311.639	96.56
311.868	78.56
312.098	98.56
312.328	98.56
312.557	117.56
312.787	91.56
313.017	103.56
313.246	86.56
313.476	103.56
313.706	99.56
313.935	88.56
314.165	97.56
314.394	109.56
314.624	98.56
314.853	90.56
315.083	84.56
315.312	73.56
315.542	98.56
315.771	84.56
316.001	77.56
316.23	98.56
316.46	85.56
316.689	97.56
316.919	102.56
317.148	86.56
317.377	93.56
317.607	87.56
317.836	106.56
318.065	90.56
318.295	95.56
318.524	103.56
318.753	112.56
318.983	105.56
319.212	100.56
319.441	115.56
319.67	103.56
319.9	82.56
320.129	74.56
320.358	94.56
320.587	87.56
320.816	94.56
321.046	100.56
321.275	99.56
321.504	89.56
321.733	109.56
321.962	90.56
322.191	99.56
322.42	99.56
322.649	103.56
322.878	105.56
323.108	98.56
323.337	112.56
323.566	119.56
323.795	135.56
324.024	172.56
324.253	312.56
324.482	648.56
324.71	1328.56
324.939	1718.56
325.168	655.56
325.397	214.56
325.626	140.56
325.855	122.56
326.084	113.56
326.313	125.56
326.542	135.56
326.77	195.56
326.999	382.56
327.228	763.56
327.457	1364.56
327.686	1064.56
327.914	314.56
328.143	174.56
328.372	136.56
328.6	106.56
328.829	94.56
329.058	105.56
329.287	104.56
329.515	107.56
329.744	104.56
329.972	82.56
330.201	91.56
330.43	98.56
330.658	124.56
330.887	112.56
331.115	110.56
331.344	80.56
331.572	87.56
331.801	87.56
332.03	92.56
332.258	95.56
332.486	94.56
332.715	83.56
332.943	98.56
333.172	104.56
333.4	99.56
333.629	119.56
333.857	95.56
334.085	103.56
334.314	91.56
334.542	106.56
334.771	92.56
334.999	81.56
335.227	88.56
335.455	88.56
335.684	83.56
335.912	97.56
336.14	96.56
336.369	92.56
336.597	77.56
336.825	92.56
337.053	100.56
337.281	90.56
337.51	86.56
337.738	83.56
337.966	93.56
338.194	96.56
338.422	97.56
338.65	110.56
338.878	92.56
339.106	88.56
339.334	97.56
339.562	92.56
339.79	95.56
340.018	85.56
340.246	96.56
340.474	83.56
340.702	90.56
340.93	90.56
341.158	91.56
341.386	95.56
341.614	89.56
341.842	70.56
342.07	95.56
342.298	99.56
342.526	90.56
342.754	89.56
342.981	88.56
343.209	104.56
343.437	104.56
343.665	91.56
343.893	93.56
344.12	100.56
344.348	95.56
344.576	92.56
344.804	87.56
345.031	89.56
345.259	101.56
345.487	101.56
345.714	99.56
345.942	90.56
346.17	94.56
346.397	89.56
346.625	88.56
346.853	104.56
347.08	83.56
347.308	94.56
347.535	103.56
347.763	108.56
347.99	100.56
348.218	111.56
348.445	107.56
348.673	93.56
348.9	105.56
349.128	93.56
349.355	102.56
349.583	103.56
349.81	99.56
350.037	91.56
350.265	95.56
350.492	99.56
350.72	91.56
350.947	94.56
351.174	105.56
351.402	108.56
351.629	97.56
351.856	94.56
352.083	81.56
352.311	98.56
352.538	99.56
352.765	115.56
352.992	104.56
353.22	109.56
353.447	109.56
353.674	108.56
353.901	107.56
354.128	95.56
354.355	100.56
354.583	99.56
354.81	106.56
355.037	100.56
355.264	96.56
355.491	91.56
355.718	90.56
355.945	105.56
356.172	102.56
356.399	87.56
356.626	86.56
356.853	91.56
357.08	90.56
357.307	95.56
357.534	96.56
357.761	106.56
357.988	89.56
358.215	93.56
358.441	90.56
358.668	91.56
358.895	86.56
359.122	79.56
359.349	96.56
359.576	98.56
359.802	104.56
360.029	99.56
360.256	97.56
360.483	80.56
360.709	85.56
360.936	88.56
361.163	87.56
361.39	92.56
361.616	102.56
361.843	104.56
362.07	98.56
362.296	92.56
362.523	90.56
362.749	97.56
362.976	98.56
363.203	88.56
363.429	80.56
363.656	92.56
363.882	95.56
364.109	82.56
364.335	87.56
364.562	97.56
364.788	95.56
365.015	98.56
365.241	102.56
365.468	104.56
365.694	88.56
365.92	82.56
366.147	92.56
366.373	89.56
366.599	85.56
366.826	97.56
367.052	87.56
367.278	79.56
367.505	87.56
367.731	90.56
367.957	67.56
368.184	102.56
368.41	91.56
368.636	110.56
368.862	119.56
369.089	96.56
369.315	75.56
369.541	90.56
369.767	98.56
369.993	88.56
370.219	87.56
370.445	96.56
370.672	90.56
370.898	77.56
371.124	94.56
371.35	97.56
371.576	82.56
371.802	100.56
372.028	91.56
372.254	83.56
372.48	101.56
372.706	94.56
372.932	87.56
373.158	93.56
373.384	97.56
373.61	98.56
373.835	104.56
374.061	81.56
374.287	82.56
374.513	105.56
374.739	84.56
374.965	97.56
375.191	85.56
375.416	90.56
375.642	79.56
375.868	79.56
376.094	80.56
376.319	99.56
376.545	87.56
376.771	74.56
376.997	89.56
377.222	80.56
377.448	83.56
377.674	79.56
377.899	86.56
378.125	97.56
378.35	84.56
378.576	94.56
378.802	101.56
379.027	102.56
379.253	91.56
379.478	88.56
379.704	95.56
379.929	92.56
380.155	94.56
380.38	73.56
380.606	102.56
380.831	81.56
381.057	97.56
381.282	82.56
381.507	97.56
381.733	90.56
381.958	98.56
382.184	98.56
382.409	88.56
382.634	83.56
382.86	95.56
383.085	97.56
383.31	84.56
383.535	94.56
383.761	114.56
383.986	100.56
384.211	95.56
384.436	103.56
384.662	92.56
384.887	112.56
385.112	88.56
385.337	96.56
385.562	100.56
385.787	98.56
386.013	112.56
386.238	114.56
386.463	104.56
386.688	118.56
386.913	110.56
387.138	103.56
387.363	112.56
387.588	90.56
387.813	93.56
388.038	106.56
388.263	104.56
388.488	101.56
388.713	99.56
388.938	98.56
389.163	91.56
389.387	97.56
389.612	103.56
389.837	103.56
390.062	102.56
390.287	101.56
390.512	73.56
390.736	98.56
390.961	79.56
391.186	99.56
391.411	95.56
391.636	89.56
391.86	85.56
392.085	74.56
392.31	66.56
392.534	97.56
392.759	82.56
392.984	101.56
393.208	98.56
393.433	94.56
393.658	68.56
393.882	85.56
394.107	79.56
394.331	91.56
394.556	94.56
394.78	83.56
395.005	91.56
395.229	91.56
395.454	84.56
395.678	86.56
395.903	96.56
396.127	76.56
396.352	87.56
396.576	77.56
396.801	86.56
397.025	99.56
397.249	89.56
397.474	87.56
397.698	100.56
397.922	68.56
398.147	85.56
398.371	75.56
398.595	86.56
398.82	92.56
399.044	82.56
399.268	91.56
399.492	87.56
399.717	80.56
399.941	79.56
400.165	88.56
400.389	96.56
400.613	76.56
400.837	85.56
401.062	85.56
401.286	85.56
401.51	78.56
401.734	95.56
401.958	85.56
402.182	118.56
402.406	125.56
402.63	106.56
402.854	95.56
403.078	95.56
403.302	96.56
403.526	91.56
403.75	92.56
403.974	83.56
404.198	98.56
404.422	82.56
404.645	77.56
404.869	91.56
405.093	83.56
405.317	95.56
405.541	88.56
405.765	88.56
405.988	112.56
406.212	156.56
406.436	180.56
406.66	126.56
406.883	91.56
407.107	84.56
407.331	86.56
407.555	97.56
407.778	98.56
408.002	75.56
408.226	78.56
408.449	100.56
408.673	88.56
408.896	94.56
409.12	100.56
409.344	96.56
409.567	91.56
409.791	88.56
410.014	104.56
410.238	87.56
410.461	100.56
410.685	103.56
410.908	102.56
411.132	112.56
411.355	97.56
411.578	95.56
411.802	92.56
412.025	90.56
412.249	87.56
412.472	83.56
412.695	87.56
412.919	91.56
413.142	87.56
413.365	80.56
413.589	89.56
413.812	96.56
414.035	86.56
414.258	93.56
414.482	79.56
414.705	96.56
414.928	83.56
415.151	84.56
415.374	105.56
415.597	95.56
415.821	88.56
416.044	84.56
416.267	88.56
416.49	98.56
416.713	78.56
416.936	83.56
417.159	92.56
417.382	78.56
417.605	90.56
417.828	91.56
418.051	81.56
418.274	99.56
418.497	92.56
418.72	67.56
418.943	90.56
419.166	80.56
419.389	88.56
419.611	91.56
419.834	78.56
420.057	94.56
420.28	99.56
420.503	92.56
420.726	94.56
420.948	80.56
421.171	83.56
421.394	98.56
421.617	99.56
421.839	87.56
422.062	103.56
422.285	92.56
422.507	98.56
422.73	95.56
422.953	90.56
423.175	113.56
423.398	86.56
423.621	89.56
423.843	92.56
424.066	93.56
424.288	90.56
424.511	89.56
424.733	103.56
424.956	83.56
425.178	104.56
425.401	96.56
425.623	87.56
425.846	89.56
426.068	83.56
426.291	92.56
426.513	92.56
426.735	91.56
426.958	91.56
427.18	108.56
427.402	122.56
427.625	130.56
427.847	112.56
428.069	113.56
428.292	68.56
428.514	93.56
428.736	102.56
428.958	76.56
429.181	88.56
429.403	94.56
429.625	97.56
429.847	105.56
430.069	106.56
430.292	74.56
430.514	74.56
430.736	94.56
430.958	86.56
431.18	91.56
431.402	89.56
431.624	78.56
431.846	90.56
432.068	94.56
432.29	90.56
432.512	90.56
432.734	101.56
432.956	91.56
433.178	106.56
433.4	95.56
433.622	82.56
433.844	92.56
434.066	90.56
434.287	91.56
434.509	93.56
434.731	89.56
434.953	90.56
435.175	76.56
435.397	82.56
435.618	68.56
435.84	89.56
436.062	116.56
436.284	98.56
436.505	96.56
436.727	94.56
436.949	82.56
437.17	79.56
437.392	83.56
437.614	89.56
437.835	97.56
438.057	116.56
438.278	100.56
438.5	102.56
438.721	125.56
438.943	92.56
439.165	104.56
439.386	96.56
439.608	99.56
439.829	78.56
440.05	121.56
440.272	111.56
440.493	88.56
440.715	108.56
440.936	73.56
441.158	83.56
441.379	92.56
441.6	89.56
441.822	96.56
442.043	89.56
442.264	89.56
442.486	101.56
442.707	94.56
442.928	104.56
443.149	108.56
443.371	101.56
443.592	102.56
443.813	95.56
444.034	106.56
444.255	97.56
444.476	86.56
444.698	86.56
444.919	79.56
445.14	129.56
445.361	127.56
445.582	112.56
445.803	127.56
446.024	126.56
446.245	116.56
446.466	91.56
446.687	97.56
446.908	96.56
447.129	92.56
447.35	90.56
447.571	100.56
447.792	78.56
448.013	104.56
448.234	105.56
448.455	107.56
448.675	102.56
448.896	108.56
449.117	92.56
449.338	91.56
449.559	126.56
449.779	126.56
450	95.56
450.221	98.56
450.442	86.56
450.662	77.56
450.883	112.56
451.104	94.56
451.324	85.56
451.545	82.56
451.766	86.56
451.986	88.56
452.207	98.56
452.428	100.56
452.648	105.56
452.869	106.56
453.089	100.56
453.31	104.56
453.53	86.56
453.751	84.56
453.971	88.56
454.192	105.56
454.412	89.56
454.633	108.56
454.853	96.56
455.073	86.56
455.294	98.56
455.514	98.56
455.734	85.56
455.955	103.56
456.175	81.56
456.395	84.56
456.616	82.56
456.836	91.56
457.056	96.56
457.276	85.56
457.497	78.56
457.717	90.56
457.937	87.56
458.157	98.56
458.377	87.56
458.598	94.56
458.818	137.56
459.038	136.56
459.258	96.56
459.478	76.56
459.698	75.56
459.918	78.56
460.138	70.56
460.358	96.56
460.578	88.56
460.798	95.56
461.018	91.56
461.238	93.56
461.458	86.56
461.678	92.56
461.898	81.56
462.118	87.56
462.338	85.56
462.558	81.56
462.777	76.56
462.997	77.56
463.217	91.56
463.437	86.56
463.657	88.56
463.876	86.56
464.096	77.56
464.316	79.56
464.536	102.56
464.755	93.56
464.975	107.56
465.195	134.56
465.414	124.56
465.634	105.56
465.854	85.56
466.073	94.56
466.293	92.56
466.512	82.56
466.732	93.56
466.951	98.56
467.171	90.56
467.391	88.56
467.61	92.56
467.829	98.56
468.049	81.56
468.268	91.56
468.488	80.56
468.707	87.56
468.927	96.56
469.146	78.56
469.365	83.56
469.585	106.56
469.804	92.56
470.023	97.56
470.243	100.56
470.462	92.56
470.681	94.56
470.901	90.56
471.12	93.56
471.339	93.56
471.558	90.56
471.777	93.56
471.997	89.56
472.216	90.56
472.435	100.56
472.654	99.56
472.873	76.56
473.092	79.56
473.311	83.56
473.53	90.56
473.749	76.56
473.968	97.56
474.187	110.56
474.406	83.56
474.625	91.56
474.844	82.56
475.063	82.56
475.282	80.56
475.501	93.56
475.72	84.56
475.939	101.56
476.158	96.56
476.377	83.56
476.596	100.56
476.814	86.56
477.033	104.56
477.252	91.56
477.471	100.56
477.69	99.56
477.908	70.56
478.127	86.56
478.346	83.56
478.564	82.56
478.783	89.56
479.002	85.56
479.22	101.56
479.439	115.56
479.658	100.56
479.876	91.56
480.095	78.56
480.313	106.56
480.532	104.56
480.751	102.56
480.969	98.56
481.188	110.56
481.406	112.56
481.624	104.56
481.843	85.56
482.061	95.56
482.28	92.56
482.498	88.56
482.717	82.56
482.935	82.56
483.153	91.56
483.372	95.56
483.59	93.56
483.808	100.56
484.027	102.56
484.245	104.56
484.463	88.56
484.681	92.56
484.9	88.56
485.118	95.56
485.336	96.56
485.554	108.56
485.772	96.56
485.99	97.56
486.209	109.56
486.427	102.56
486.645	99.56
486.863	112.56
487.081	102.56
487.299	87.56
487.517	105.56
487.735	89.56
487.953	99.56
488.171	85.56
488.389	91.56
488.607	97.56
488.825	86.56
489.043	94.56
489.261	95.56
489.479	94.56
489.696	99.56
489.914	91.56
490.132	87.56
490.35	90.56
490.568	94.56
490.786	98.56
491.003	100.56
491.221	88.56
491.439	95.56
491.657	100.56
491.874	103.56
492.092	95.56
492.31	97.56
492.527	99.56
492.745	95.56
492.963	83.56
493.18	93.56
493.398	90.56
493.615	105.56
493.833	98.56
494.05	86.56
494.268	87.56
494.485	89.56
494.703	83.56
494.92	91.56
495.138	94.56
495.355	92.56
495.573	91.56
495.79	83.56
496.008	90.56
496.225	88.56
496.442	95.56
496.66	87.56
496.877	100.56
497.094	89.56
497.312	92.56
497.529	98.56
497.746	103.56
497.963	83.56
498.181	100.56
498.398	108.56
498.615	99.56
498.832	111.56
499.049	85.56
499.267	91.56
499.484	97.56
499.701	87.56
499.918	74.56
500.135	92.56
500.352	94.56
500.569	80.56
500.786	84.56
501.003	87.56
501.22	83.56
501.437	91.56
501.654	103.56
501.871	100.56
502.088	88.56
502.305	92.56
502.522	79.56
502.739	92.56
502.956	78.56
503.172	99.56
503.389	107.56
503.606	89.56
503.823	93.56
504.04	86.56
504.256	98.56
504.473	84.56
504.69	94.56
504.907	90.56
505.123	74.56
505.34	86.56
505.557	94.56
505.773	102.56
505.99	93.56
506.207	91.56
506.423	96.56
506.64	87.56
506.856	103.56
507.073	102.56
507.289	92.56
507.506	102.56
507.722	100.56
507.939	109.56
508.155	102.56
508.372	90.56
508.588	83.56
508.805	103.56
509.021	92.56
509.238	100.56
509.454	91.56
509.67	91.56
509.887	97.56
510.103	129.56
510.319	176.56
510.536	618.56
510.752	1816.56
510.968	524.56
511.184	146.56
511.401	105.56
511.617	107.56
511.833	83.56
512.049	91.56
512.265	79.56
512.481	94.56
512.698	98.56
512.914	97.56
513.13	80.56
513.346	90.56
513.562	86.56
513.778	94.56
513.994	94.56
514.21	94.56
514.426	104.56
514.642	114.56
514.858	116.56
515.074	132.56
515.29	367.56
515.506	1080.56
515.721	414.56
515.937	129.56
516.153	108.56
