Data from Uncirc_1997_H10_HRD10591_00061.txt Node
Date: Wed Jan 03 11:28:42 EST 2024
User: Yrep
Spectrometer: HR+D1059
Trigger mode: 1
Integration Time (sec): 1.000000E-1
Scans to average: 1
Electric dark correction enabled: true
Nonlinearity correction enabled: false
Boxcar width: 0
XAxis mode: Wavelengths
Number of Pixels in Spectrum: 2048
>>>>>Begin Spectral Data<<<<<
223.165	-16.19
223.4	-16.19
223.635	-16.19
223.869	-19.19
224.104	-15.19
224.338	-1.19
224.573	-22.19
224.808	-8.19
225.042	3.81
225.277	-14.19
225.511	-15.19
225.746	0.81
225.98	0.81
226.215	1.81
226.449	18.81
226.683	34.81
226.918	15.81
227.152	34.81
227.387	32.81
227.621	42.81
227.856	41.81
228.09	63.81
228.324	58.81
228.559	63.81
228.793	49.81
229.027	62.81
229.262	75.81
229.496	78.81
229.73	99.81
229.964	77.81
230.199	74.81
230.433	76.81
230.667	68.81
230.901	78.81
231.136	91.81
231.37	74.81
231.604	84.81
231.838	78.81
232.072	82.81
232.306	82.81
232.541	70.81
232.775	78.81
233.009	67.81
233.243	80.81
233.477	71.81
233.711	76.81
233.945	91.81
234.179	90.81
234.413	75.81
234.647	79.81
234.881	81.81
235.115	74.81
235.349	62.81
235.583	78.81
235.817	71.81
236.051	84.81
236.285	78.81
236.519	73.81
236.753	82.81
236.987	89.81
237.221	80.81
237.455	80.81
237.689	75.81
237.922	57.81
238.156	87.81
238.39	72.81
238.624	75.81
238.858	81.81
239.091	78.81
239.325	71.81
239.559	95.81
239.793	87.81
240.027	82.81
240.26	67.81
240.494	77.81
240.728	82.81
240.961	76.81
241.195	74.81
241.429	78.81
241.662	82.81
241.896	79.81
242.13	83.81
242.363	81.81
242.597	86.81
242.83	83.81
243.064	85.81
243.298	80.81
243.531	68.81
243.765	69.81
243.998	86.81
244.232	84.81
244.465	75.81
244.699	82.81
244.932	80.81
245.166	90.81
245.399	80.81
245.633	60.81
245.866	68.81
246.099	80.81
246.333	81.81
246.566	85.81
246.8	70.81
247.033	82.81
247.266	83.81
247.5	81.81
247.733	87.81
247.966	76.81
248.2	85.81
248.433	68.81
248.666	74.81
248.899	76.81
249.133	88.81
249.366	89.81
249.599	86.81
249.832	74.81
250.066	83.81
250.299	64.81
250.532	80.81
250.765	80.81
250.998	84.81
251.231	76.81
251.465	75.81
251.698	71.81
251.931	85.81
252.164	82.81
252.397	68.81
252.63	87.81
252.863	77.81
253.096	73.81
253.329	88.81
253.562	83.81
253.795	85.81
254.028	79.81
254.261	71.81
254.494	84.81
254.727	84.81
254.96	75.81
255.193	88.81
255.426	81.81
255.659	84.81
255.892	82.81
256.124	79.81
256.357	85.81
256.59	80.81
256.823	79.81
257.056	85.81
257.289	74.81
257.521	72.81
257.754	76.81
257.987	80.81
258.22	91.81
258.452	91.81
258.685	80.81
258.918	65.81
259.151	88.81
259.383	76.81
259.616	82.81
259.849	81.81
260.081	94.81
260.314	80.81
260.547	89.81
260.779	90.81
261.012	89.81
261.244	89.81
261.477	79.81
261.71	87.81
261.942	99.81
262.175	115.81
262.407	87.81
262.64	72.81
262.872	74.81
263.105	82.81
263.337	83.81
263.57	87.81
263.802	94.81
264.035	99.81
264.267	74.81
264.499	90.81
264.732	109.81
264.964	77.81
265.197	83.81
265.429	85.81
265.661	90.81
265.894	81.81
266.126	84.81
266.358	92.81
266.591	76.81
266.823	82.81
267.055	88.81
267.287	72.81
267.52	78.81
267.752	92.81
267.984	90.81
268.216	85.81
268.448	87.81
268.681	87.81
268.913	86.81
269.145	75.81
269.377	91.81
269.609	88.81
269.841	77.81
270.073	71.81
270.306	80.81
270.538	88.81
270.77	86.81
271.002	86.81
271.234	77.81
271.466	96.81
271.698	88.81
271.93	59.81
272.162	91.81
272.394	79.81
272.626	85.81
272.858	90.81
273.09	83.81
273.322	83.81
273.553	100.81
273.785	83.81
274.017	76.81
274.249	74.81
274.481	84.81
274.713	88.81
274.945	95.81
275.176	81.81
275.408	85.81
275.64	95.81
275.872	78.81
276.104	90.81
276.335	84.81
276.567	85.81
276.799	97.81
277.031	99.81
277.262	87.81
277.494	85.81
277.726	90.81
277.957	64.81
278.189	76.81
278.421	83.81
278.652	83.81
278.884	90.81
279.115	94.81
279.347	86.81
279.579	98.81
279.81	84.81
280.042	90.81
280.273	75.81
280.505	85.81
280.736	87.81
280.968	89.81
281.199	99.81
281.431	95.81
281.662	92.81
281.894	83.81
282.125	98.81
282.356	110.81
282.588	152.81
282.819	111.81
283.051	88.81
283.282	90.81
283.513	95.81
283.745	88.81
283.976	98.81
284.207	65.81
284.439	97.81
284.67	89.81
284.901	83.81
285.132	82.81
285.364	86.81
285.595	89.81
285.826	75.81
286.057	96.81
286.288	83.81
286.52	74.81
286.751	85.81
286.982	80.81
287.213	84.81
287.444	100.81
287.675	79.81
287.906	94.81
288.138	97.81
288.369	73.81
288.6	91.81
288.831	78.81
289.062	78.81
289.293	84.81
289.524	87.81
289.755	88.81
289.986	84.81
290.217	92.81
290.448	81.81
290.679	92.81
290.91	77.81
291.141	79.81
291.371	81.81
291.602	91.81
291.833	90.81
292.064	91.81
292.295	87.81
292.526	78.81
292.757	78.81
292.987	90.81
293.218	86.81
293.449	95.81
293.68	83.81
293.91	81.81
294.141	82.81
294.372	101.81
294.603	94.81
294.833	80.81
295.064	102.81
295.295	102.81
295.525	92.81
295.756	92.81
295.987	108.81
296.217	138.81
296.448	138.81
296.679	104.81
296.909	99.81
297.14	96.81
297.37	99.81
297.601	94.81
297.831	84.81
298.062	90.81
298.292	86.81
298.523	85.81
298.753	100.81
298.984	88.81
299.214	98.81
299.445	84.81
299.675	91.81
299.905	108.81
300.136	91.81
300.366	97.81
300.597	93.81
300.827	97.81
301.057	108.81
301.288	95.81
301.518	91.81
301.748	99.81
301.979	106.81
302.209	90.81
302.439	81.81
302.669	90.81
302.9	98.81
303.13	99.81
303.36	88.81
303.59	98.81
303.82	93.81
304.051	97.81
304.281	86.81
304.511	94.81
304.741	91.81
304.971	87.81
305.201	99.81
305.431	86.81
305.661	93.81
305.891	103.81
306.121	97.81
306.352	112.81
306.582	83.81
306.812	87.81
307.042	91.81
307.272	106.81
307.502	92.81
307.731	97.81
307.961	95.81
308.191	81.81
308.421	93.81
308.651	92.81
308.881	80.81
309.111	86.81
309.341	83.81
309.571	100.81
309.8	88.81
310.03	96.81
310.26	89.81
310.49	103.81
310.72	100.81
310.949	104.81
311.179	115.81
311.409	92.81
311.639	96.81
311.868	86.81
312.098	93.81
312.328	102.81
312.557	98.81
312.787	94.81
313.017	99.81
313.246	93.81
313.476	89.81
313.706	89.81
313.935	93.81
314.165	112.81
314.394	99.81
314.624	94.81
314.853	106.81
315.083	78.81
315.312	84.81
315.542	96.81
315.771	81.81
316.001	93.81
316.23	108.81
316.46	80.81
316.689	93.81
316.919	100.81
317.148	89.81
317.377	84.81
317.607	107.81
317.836	94.81
318.065	91.81
318.295	96.81
318.524	88.81
318.753	96.81
318.983	89.81
319.212	102.81
319.441	110.81
319.67	109.81
319.9	92.81
320.129	101.81
320.358	94.81
320.587	108.81
320.816	100.81
321.046	103.81
321.275	102.81
321.504	100.81
321.733	98.81
321.962	98.81
322.191	94.81
322.42	106.81
322.649	104.81
322.878	126.81
323.108	125.81
323.337	135.81
323.566	129.81
323.795	148.81
324.024	192.81
324.253	411.81
324.482	916.81
324.71	1774.81
324.939	2410.81
325.168	851.81
325.397	253.81
325.626	150.81
325.855	120.81
326.084	128.81
326.313	132.81
326.542	167.81
326.77	248.81
326.999	480.81
327.228	983.81
327.457	1821.81
327.686	1439.81
327.914	398.81
328.143	208.81
328.372	146.81
328.6	133.81
328.829	123.81
329.058	118.81
329.287	126.81
329.515	114.81
329.744	101.81
329.972	105.81
330.201	94.81
330.43	102.81
330.658	113.81
330.887	136.81
331.115	123.81
331.344	110.81
331.572	97.81
331.801	95.81
332.03	107.81
332.258	103.81
332.486	99.81
332.715	108.81
332.943	89.81
333.172	91.81
333.4	94.81
333.629	110.81
333.857	114.81
334.085	108.81
334.314	107.81
334.542	98.81
334.771	101.81
334.999	107.81
335.227	80.81
335.455	83.81
335.684	106.81
335.912	82.81
336.14	98.81
336.369	96.81
336.597	96.81
336.825	95.81
337.053	80.81
337.281	94.81
337.51	91.81
337.738	91.81
337.966	89.81
338.194	91.81
338.422	103.81
338.65	97.81
338.878	86.81
339.106	93.81
339.334	100.81
339.562	100.81
339.79	96.81
340.018	87.81
340.246	88.81
340.474	97.81
340.702	106.81
340.93	88.81
341.158	95.81
341.386	89.81
341.614	81.81
341.842	92.81
342.07	93.81
342.298	99.81
342.526	83.81
342.754	86.81
342.981	98.81
343.209	110.81
343.437	102.81
343.665	105.81
343.893	89.81
344.12	86.81
344.348	91.81
344.576	97.81
344.804	96.81
345.031	91.81
345.259	90.81
345.487	94.81
345.714	92.81
345.942	92.81
346.17	82.81
346.397	79.81
346.625	84.81
346.853	92.81
347.08	92.81
347.308	98.81
347.535	96.81
347.763	100.81
347.99	88.81
348.218	101.81
348.445	110.81
348.673	93.81
348.9	98.81
349.128	101.81
349.355	90.81
349.583	99.81
349.81	102.81
350.037	78.81
350.265	85.81
350.492	90.81
350.72	89.81
350.947	103.81
351.174	104.81
351.402	111.81
351.629	103.81
351.856	105.81
352.083	97.81
352.311	109.81
352.538	112.81
352.765	105.81
352.992	108.81
353.22	118.81
353.447	113.81
353.674	112.81
353.901	96.81
354.128	93.81
354.355	100.81
354.583	104.81
354.81	95.81
355.037	91.81
355.264	86.81
355.491	97.81
355.718	88.81
355.945	78.81
356.172	98.81
356.399	101.81
356.626	89.81
356.853	81.81
357.08	105.81
357.307	91.81
357.534	100.81
357.761	109.81
357.988	106.81
358.215	90.81
358.441	82.81
358.668	75.81
358.895	87.81
359.122	90.81
359.349	83.81
359.576	82.81
359.802	97.81
360.029	109.81
360.256	93.81
360.483	91.81
360.709	91.81
360.936	98.81
361.163	106.81
361.39	109.81
361.616	95.81
361.843	102.81
362.07	107.81
362.296	99.81
362.523	84.81
362.749	95.81
362.976	82.81
363.203	107.81
363.429	105.81
363.656	95.81
363.882	90.81
364.109	86.81
364.335	86.81
364.562	92.81
364.788	88.81
365.015	106.81
365.241	108.81
365.468	112.81
365.694	102.81
365.92	95.81
366.147	83.81
366.373	89.81
366.599	90.81
366.826	94.81
367.052	104.81
367.278	80.81
367.505	97.81
367.731	97.81
367.957	92.81
368.184	84.81
368.41	106.81
368.636	120.81
368.862	115.81
369.089	116.81
369.315	90.81
369.541	95.81
369.767	99.81
369.993	103.81
370.219	78.81
370.445	84.81
370.672	86.81
370.898	94.81
371.124	89.81
371.35	85.81
371.576	75.81
371.802	87.81
372.028	86.81
372.254	87.81
372.48	81.81
372.706	90.81
372.932	86.81
373.158	75.81
373.384	83.81
373.61	98.81
373.835	90.81
374.061	95.81
374.287	82.81
374.513	82.81
374.739	97.81
374.965	92.81
375.191	80.81
375.416	82.81
375.642	80.81
375.868	84.81
376.094	74.81
376.319	81.81
376.545	97.81
376.771	87.81
376.997	90.81
377.222	102.81
377.448	91.81
377.674	98.81
377.899	86.81
378.125	90.81
378.35	91.81
378.576	97.81
378.802	83.81
379.027	96.81
379.253	98.81
379.478	92.81
379.704	75.81
379.929	93.81
380.155	91.81
380.38	88.81
380.606	100.81
380.831	102.81
381.057	98.81
381.282	83.81
381.507	75.81
381.733	96.81
381.958	86.81
382.184	86.81
382.409	107.81
382.634	108.81
382.86	93.81
383.085	96.81
383.31	100.81
383.535	98.81
383.761	79.81
383.986	90.81
384.211	95.81
384.436	90.81
384.662	98.81
384.887	90.81
385.112	114.81
385.337	104.81
385.562	100.81
385.787	118.81
386.013	107.81
386.238	109.81
386.463	104.81
386.688	124.81
386.913	104.81
387.138	95.81
387.363	90.81
387.588	97.81
387.813	92.81
388.038	92.81
388.263	97.81
388.488	100.81
388.713	91.81
388.938	105.81
389.163	105.81
389.387	97.81
389.612	83.81
389.837	88.81
390.062	98.81
390.287	102.81
390.512	94.81
390.736	87.81
390.961	85.81
391.186	85.81
391.411	100.81
391.636	93.81
391.86	83.81
392.085	79.81
392.31	89.81
392.534	76.81
392.759	83.81
392.984	90.81
393.208	76.81
393.433	99.81
393.658	83.81
393.882	76.81
394.107	88.81
394.331	78.81
394.556	91.81
394.78	96.81
395.005	102.81
395.229	74.81
395.454	84.81
395.678	82.81
395.903	94.81
396.127	95.81
396.352	99.81
396.576	91.81
396.801	93.81
397.025	88.81
397.249	91.81
397.474	95.81
397.698	82.81
397.922	90.81
398.147	79.81
398.371	86.81
398.595	80.81
398.82	84.81
399.044	80.81
399.268	74.81
399.492	89.81
399.717	88.81
399.941	99.81
400.165	94.81
400.389	97.81
400.613	101.81
400.837	95.81
401.062	96.81
401.286	89.81
401.51	86.81
401.734	83.81
401.958	108.81
402.182	131.81
402.406	166.81
402.63	120.81
402.854	104.81
403.078	103.81
403.302	78.81
403.526	82.81
403.75	87.81
403.974	78.81
404.198	80.81
404.422	95.81
404.645	86.81
404.869	79.81
405.093	103.81
405.317	104.81
405.541	105.81
405.765	96.81
405.988	118.81
406.212	180.81
406.436	250.81
406.66	140.81
406.883	93.81
407.107	93.81
407.331	90.81
407.555	96.81
407.778	103.81
408.002	90.81
408.226	96.81
408.449	107.81
408.673	94.81
408.896	96.81
409.12	103.81
409.344	94.81
409.567	91.81
409.791	84.81
410.014	93.81
410.238	105.81
410.461	90.81
410.685	101.81
410.908	100.81
411.132	93.81
411.355	103.81
411.578	98.81
411.802	95.81
412.025	78.81
412.249	81.81
412.472	79.81
412.695	88.81
412.919	85.81
413.142	95.81
413.365	90.81
413.589	80.81
413.812	83.81
414.035	88.81
414.258	105.81
414.482	86.81
414.705	83.81
414.928	99.81
415.151	82.81
415.374	94.81
415.597	95.81
415.821	84.81
416.044	80.81
416.267	88.81
416.49	86.81
416.713	80.81
416.936	80.81
417.159	67.81
417.382	88.81
417.605	85.81
417.828	80.81
418.051	105.81
418.274	97.81
418.497	90.81
418.72	101.81
418.943	98.81
419.166	79.81
419.389	91.81
419.611	94.81
419.834	96.81
420.057	101.81
420.28	79.81
420.503	89.81
420.726	101.81
420.948	87.81
421.171	88.81
421.394	97.81
421.617	88.81
421.839	80.81
422.062	91.81
422.285	98.81
422.507	98.81
422.73	104.81
422.953	96.81
423.175	86.81
423.398	97.81
423.621	92.81
423.843	77.81
424.066	78.81
424.288	93.81
424.511	91.81
424.733	98.81
424.956	119.81
425.178	94.81
425.401	105.81
425.623	106.81
425.846	92.81
426.068	89.81
426.291	81.81
426.513	92.81
426.735	89.81
426.958	107.81
427.18	111.81
427.402	150.81
427.625	169.81
427.847	119.81
428.069	99.81
428.292	90.81
428.514	88.81
428.736	79.81
428.958	84.81
429.181	97.81
429.403	94.81
429.625	88.81
429.847	93.81
430.069	105.81
430.292	80.81
430.514	93.81
430.736	90.81
430.958	83.81
431.18	89.81
431.402	86.81
431.624	79.81
431.846	79.81
432.068	85.81
432.29	104.81
432.512	92.81
432.734	90.81
432.956	91.81
433.178	101.81
433.4	99.81
433.622	87.81
433.844	86.81
434.066	89.81
434.287	107.81
434.509	93.81
434.731	93.81
434.953	79.81
435.175	85.81
435.397	94.81
435.618	96.81
435.84	94.81
436.062	110.81
436.284	109.81
436.505	99.81
436.727	94.81
436.949	83.81
437.17	94.81
437.392	82.81
437.614	83.81
437.835	122.81
438.057	119.81
438.278	106.81
438.5	103.81
438.721	113.81
438.943	112.81
439.165	88.81
439.386	88.81
439.608	88.81
439.829	105.81
440.05	121.81
440.272	152.81
440.493	103.81
440.715	85.81
440.936	98.81
441.158	85.81
441.379	94.81
441.6	90.81
441.822	97.81
442.043	103.81
442.264	114.81
442.486	100.81
442.707	94.81
442.928	103.81
443.149	119.81
443.371	114.81
443.592	117.81
443.813	123.81
444.034	102.81
444.255	92.81
444.476	86.81
444.698	83.81
444.919	74.81
445.14	116.81
445.361	118.81
445.582	116.81
445.803	142.81
446.024	127.81
446.245	147.81
446.466	126.81
446.687	100.81
446.908	90.81
447.129	99.81
447.35	99.81
447.571	94.81
447.792	93.81
448.013	90.81
448.234	88.81
448.455	98.81
448.675	112.81
448.896	124.81
449.117	98.81
449.338	106.81
449.559	122.81
449.779	136.81
450	92.81
450.221	100.81
450.442	94.81
450.662	86.81
450.883	121.81
451.104	103.81
451.324	82.81
451.545	82.81
451.766	89.81
451.986	80.81
452.207	75.81
452.428	108.81
452.648	104.81
452.869	139.81
453.089	110.81
453.31	116.81
453.53	92.81
453.751	100.81
453.971	97.81
454.192	110.81
454.412	96.81
454.633	83.81
454.853	86.81
455.073	96.81
455.294	91.81
455.514	96.81
455.734	84.81
455.955	70.81
456.175	72.81
456.395	87.81
456.616	79.81
456.836	88.81
457.056	84.81
457.276	88.81
457.497	86.81
457.717	82.81
457.937	89.81
458.157	97.81
458.377	102.81
458.598	116.81
458.818	155.81
459.038	154.81
459.258	117.81
459.478	85.81
459.698	91.81
459.918	95.81
460.138	79.81
460.358	94.81
460.578	101.81
460.798	82.81
461.018	91.81
461.238	86.81
461.458	85.81
461.678	74.81
461.898	89.81
462.118	82.81
462.338	90.81
462.558	80.81
462.777	86.81
462.997	89.81
463.217	83.81
463.437	88.81
463.657	81.81
463.876	82.81
464.096	83.81
464.316	88.81
464.536	100.81
464.755	90.81
464.975	115.81
465.195	164.81
465.414	156.81
465.634	83.81
465.854	76.81
466.073	86.81
466.293	94.81
466.512	81.81
466.732	90.81
466.951	95.81
467.171	84.81
467.391	86.81
467.61	92.81
467.829	103.81
468.049	88.81
468.268	86.81
468.488	89.81
468.707	84.81
468.927	86.81
469.146	86.81
469.365	91.81
469.585	81.81
469.804	97.81
470.023	89.81
470.243	111.81
470.462	89.81
470.681	99.81
470.901	87.81
471.12	91.81
471.339	93.81
471.558	91.81
471.777	90.81
471.997	85.81
472.216	87.81
472.435	96.81
472.654	88.81
472.873	82.81
473.092	87.81
473.311	82.81
473.53	85.81
473.749	82.81
473.968	90.81
474.187	110.81
474.406	92.81
474.625	86.81
474.844	81.81
475.063	89.81
475.282	87.81
475.501	86.81
475.72	101.81
475.939	87.81
476.158	81.81
476.377	94.81
476.596	80.81
476.814	91.81
477.033	74.81
477.252	76.81
477.471	97.81
477.69	89.81
477.908	98.81
478.127	82.81
478.346	73.81
478.564	84.81
478.783	97.81
479.002	85.81
479.22	87.81
479.439	98.81
479.658	105.81
479.876	92.81
480.095	86.81
480.313	83.81
480.532	83.81
480.751	101.81
480.969	94.81
481.188	110.81
481.406	89.81
481.624	95.81
481.843	82.81
482.061	67.81
482.28	87.81
482.498	83.81
482.717	83.81
482.935	93.81
483.153	94.81
483.372	86.81
483.59	97.81
483.808	83.81
484.027	92.81
484.245	93.81
484.463	94.81
484.681	97.81
484.9	107.81
485.118	90.81
485.336	95.81
485.554	74.81
485.772	99.81
485.99	100.81
486.209	109.81
486.427	98.81
486.645	118.81
486.863	113.81
487.081	101.81
487.299	100.81
487.517	99.81
487.735	95.81
487.953	83.81
488.171	92.81
488.389	86.81
488.607	106.81
488.825	99.81
489.043	99.81
489.261	98.81
489.479	79.81
489.696	80.81
489.914	86.81
490.132	99.81
490.35	92.81
490.568	82.81
490.786	94.81
491.003	103.81
491.221	99.81
491.439	93.81
491.657	104.81
491.874	92.81
492.092	90.81
492.31	77.81
492.527	88.81
492.745	94.81
492.963	82.81
493.18	84.81
493.398	101.81
493.615	99.81
493.833	93.81
494.05	93.81
494.268	83.81
494.485	91.81
494.703	86.81
494.92	78.81
495.138	80.81
495.355	88.81
495.573	84.81
495.79	86.81
496.008	96.81
496.225	84.81
496.442	89.81
496.66	85.81
496.877	78.81
497.094	92.81
497.312	98.81
497.529	96.81
497.746	91.81
497.963	80.81
498.181	82.81
498.398	82.81
498.615	113.81
498.832	90.81
499.049	103.81
499.267	103.81
499.484	99.81
499.701	92.81
499.918	90.81
500.135	100.81
500.352	82.81
500.569	88.81
500.786	90.81
501.003	93.81
501.22	85.81
501.437	92.81
501.654	95.81
501.871	99.81
502.088	95.81
502.305	97.81
502.522	91.81
502.739	95.81
502.956	98.81
503.172	88.81
503.389	100.81
503.606	110.81
503.823	102.81
504.04	99.81
504.256	92.81
504.473	89.81
504.69	95.81
504.907	100.81
505.123	92.81
505.34	87.81
505.557	85.81
505.773	106.81
505.99	88.81
506.207	90.81
506.423	111.81
506.64	91.81
506.856	94.81
507.073	86.81
507.289	88.81
507.506	101.81
507.722	110.81
507.939	100.81
508.155	104.81
508.372	88.81
508.588	90.81
508.805	95.81
509.021	108.81
509.238	86.81
509.454	78.81
509.67	106.81
509.887	101.81
510.103	120.81
510.319	229.81
510.536	808.81
510.752	2487.81
510.968	659.81
511.184	146.81
511.401	127.81
511.617	115.81
511.833	95.81
512.049	96.81
512.265	96.81
512.481	93.81
512.698	90.81
512.914	92.81
513.13	91.81
513.346	84.81
513.562	93.81
513.778	107.81
513.994	91.81
514.21	98.81
514.426	125.81
514.642	142.81
514.858	144.81
515.074	173.81
515.29	497.81
515.506	1608.81
515.721	586.81
