Data from Uncirc_1997_H10_HRD10591_00048.txt Node
Date: Wed Jan 03 11:28:40 EST 2024
User: Yrep
Spectrometer: HR+D1059
Trigger mode: 1
Integration Time (sec): 1.000000E-1
Scans to average: 1
Electric dark correction enabled: true
Nonlinearity correction enabled: false
Boxcar width: 0
XAxis mode: Wavelengths
Number of Pixels in Spectrum: 2048
>>>>>Begin Spectral Data<<<<<
223.165	-14.12
223.4	-14.12
223.635	-14.12
223.869	-23.12
224.104	-18.12
224.338	-15.12
224.573	-23.12
224.808	-24.12
225.042	-1.12
225.277	3.88
225.511	8.88
225.746	2.88
225.98	9.88
226.215	11.88
226.449	17.88
226.683	8.88
226.918	23.88
227.152	30.88
227.387	27.88
227.621	52.88
227.856	49.88
228.09	35.88
228.324	50.88
228.559	51.88
228.793	65.88
229.027	76.88
229.262	61.88
229.496	70.88
229.73	81.88
229.964	72.88
230.199	72.88
230.433	79.88
230.667	83.88
230.901	74.88
231.136	86.88
231.37	65.88
231.604	69.88
231.838	75.88
232.072	76.88
232.306	65.88
232.541	106.88
232.775	61.88
233.009	70.88
233.243	80.88
233.477	78.88
233.711	83.88
233.945	68.88
234.179	91.88
234.413	89.88
234.647	83.88
234.881	98.88
235.115	75.88
235.349	67.88
235.583	88.88
235.817	78.88
236.051	70.88
236.285	87.88
236.519	63.88
236.753	76.88
236.987	79.88
237.221	84.88
237.455	88.88
237.689	62.88
237.922	83.88
238.156	86.88
238.39	82.88
238.624	72.88
238.858	83.88
239.091	78.88
239.325	76.88
239.559	72.88
239.793	84.88
240.027	75.88
240.26	82.88
240.494	72.88
240.728	67.88
240.961	70.88
241.195	66.88
241.429	78.88
241.662	90.88
241.896	79.88
242.13	65.88
242.363	80.88
242.597	70.88
242.83	69.88
243.064	76.88
243.298	83.88
243.531	67.88
243.765	83.88
243.998	79.88
244.232	87.88
244.465	90.88
244.699	82.88
244.932	92.88
245.166	72.88
245.399	74.88
245.633	78.88
245.866	72.88
246.099	80.88
246.333	77.88
246.566	70.88
246.8	76.88
247.033	79.88
247.266	80.88
247.5	70.88
247.733	72.88
247.966	88.88
248.2	76.88
248.433	66.88
248.666	75.88
248.899	89.88
249.133	98.88
249.366	96.88
249.599	92.88
249.832	86.88
250.066	78.88
250.299	90.88
250.532	71.88
250.765	74.88
250.998	79.88
251.231	74.88
251.465	68.88
251.698	76.88
251.931	73.88
252.164	80.88
252.397	88.88
252.63	79.88
252.863	82.88
253.096	76.88
253.329	84.88
253.562	81.88
253.795	70.88
254.028	86.88
254.261	82.88
254.494	82.88
254.727	80.88
254.96	69.88
255.193	83.88
255.426	77.88
255.659	74.88
255.892	79.88
256.124	86.88
256.357	75.88
256.59	80.88
256.823	74.88
257.056	84.88
257.289	89.88
257.521	91.88
257.754	79.88
257.987	90.88
258.22	76.88
258.452	96.88
258.685	87.88
258.918	83.88
259.151	87.88
259.383	78.88
259.616	91.88
259.849	87.88
260.081	88.88
260.314	94.88
260.547	80.88
260.779	82.88
261.012	78.88
261.244	81.88
261.477	95.88
261.71	94.88
261.942	100.88
262.175	97.88
262.407	91.88
262.64	82.88
262.872	76.88
263.105	83.88
263.337	96.88
263.57	96.88
263.802	100.88
264.035	76.88
264.267	84.88
264.499	85.88
264.732	89.88
264.964	78.88
265.197	86.88
265.429	72.88
265.661	87.88
265.894	85.88
266.126	87.88
266.358	74.88
266.591	79.88
266.823	84.88
267.055	86.88
267.287	82.88
267.52	78.88
267.752	90.88
267.984	81.88
268.216	86.88
268.448	76.88
268.681	78.88
268.913	73.88
269.145	83.88
269.377	92.88
269.609	94.88
269.841	91.88
270.073	90.88
270.306	78.88
270.538	81.88
270.77	86.88
271.002	86.88
271.234	80.88
271.466	88.88
271.698	91.88
271.93	95.88
272.162	93.88
272.394	90.88
272.626	87.88
272.858	87.88
273.09	83.88
273.322	97.88
273.553	80.88
273.785	81.88
274.017	79.88
274.249	84.88
274.481	90.88
274.713	79.88
274.945	82.88
275.176	84.88
275.408	90.88
275.64	85.88
275.872	86.88
276.104	88.88
276.335	99.88
276.567	97.88
276.799	101.88
277.031	94.88
277.262	87.88
277.494	90.88
277.726	84.88
277.957	87.88
278.189	83.88
278.421	89.88
278.652	84.88
278.884	75.88
279.115	79.88
279.347	79.88
279.579	85.88
279.81	89.88
280.042	87.88
280.273	83.88
280.505	85.88
280.736	89.88
280.968	97.88
281.199	87.88
281.431	80.88
281.662	89.88
281.894	88.88
282.125	114.88
282.356	119.88
282.588	118.88
282.819	109.88
283.051	91.88
283.282	78.88
283.513	82.88
283.745	87.88
283.976	100.88
284.207	100.88
284.439	88.88
284.67	74.88
284.901	78.88
285.132	83.88
285.364	75.88
285.595	70.88
285.826	87.88
286.057	85.88
286.288	83.88
286.52	96.88
286.751	94.88
286.982	80.88
287.213	93.88
287.444	80.88
287.675	97.88
287.906	88.88
288.138	90.88
288.369	79.88
288.6	97.88
288.831	95.88
289.062	82.88
289.293	86.88
289.524	99.88
289.755	83.88
289.986	77.88
290.217	91.88
290.448	72.88
290.679	84.88
290.91	80.88
291.141	91.88
291.371	86.88
291.602	91.88
291.833	84.88
292.064	88.88
292.295	80.88
292.526	85.88
292.757	91.88
292.987	96.88
293.218	89.88
293.449	93.88
293.68	93.88
293.91	97.88
294.141	98.88
294.372	79.88
294.603	88.88
294.833	86.88
295.064	82.88
295.295	86.88
295.525	91.88
295.756	97.88
295.987	110.88
296.217	128.88
296.448	115.88
296.679	87.88
296.909	91.88
297.14	94.88
297.37	93.88
297.601	106.88
297.831	94.88
298.062	82.88
298.292	96.88
298.523	98.88
298.753	95.88
298.984	89.88
299.214	82.88
299.445	98.88
299.675	91.88
299.905	96.88
300.136	84.88
300.366	86.88
300.597	94.88
300.827	83.88
301.057	85.88
301.288	95.88
301.518	89.88
301.748	76.88
301.979	105.88
302.209	100.88
302.439	94.88
302.669	95.88
302.9	88.88
303.13	83.88
303.36	82.88
303.59	97.88
303.82	111.88
304.051	77.88
304.281	99.88
304.511	91.88
304.741	100.88
304.971	85.88
305.201	93.88
305.431	96.88
305.661	104.88
305.891	83.88
306.121	84.88
306.352	90.88
306.582	97.88
306.812	96.88
307.042	99.88
307.272	92.88
307.502	88.88
307.731	91.88
307.961	93.88
308.191	81.88
308.421	100.88
308.651	95.88
308.881	110.88
309.111	84.88
309.341	105.88
309.571	113.88
309.8	92.88
310.03	95.88
310.26	99.88
310.49	94.88
310.72	91.88
310.949	110.88
311.179	89.88
311.409	88.88
311.639	90.88
311.868	92.88
312.098	92.88
312.328	96.88
312.557	103.88
312.787	97.88
313.017	88.88
313.246	81.88
313.476	82.88
313.706	99.88
313.935	91.88
314.165	99.88
314.394	89.88
314.624	87.88
314.853	89.88
315.083	87.88
315.312	88.88
315.542	99.88
315.771	106.88
316.001	83.88
316.23	79.88
316.46	93.88
316.689	87.88
316.919	98.88
317.148	98.88
317.377	93.88
317.607	99.88
317.836	94.88
318.065	90.88
318.295	89.88
318.524	90.88
318.753	89.88
318.983	115.88
319.212	82.88
319.441	115.88
319.67	111.88
319.9	95.88
320.129	93.88
320.358	72.88
320.587	86.88
320.816	92.88
321.046	93.88
321.275	87.88
321.504	83.88
321.733	95.88
321.962	91.88
322.191	103.88
322.42	92.88
322.649	111.88
322.878	106.88
323.108	110.88
323.337	107.88
323.566	122.88
323.795	134.88
324.024	168.88
324.253	313.88
324.482	681.88
324.71	1303.88
324.939	1749.88
325.168	657.88
325.397	209.88
325.626	139.88
325.855	110.88
326.084	121.88
326.313	112.88
326.542	137.88
326.77	185.88
326.999	371.88
327.228	757.88
327.457	1355.88
327.686	1098.88
327.914	300.88
328.143	157.88
328.372	122.88
328.6	118.88
328.829	120.88
329.058	108.88
329.287	119.88
329.515	96.88
329.744	83.88
329.972	98.88
330.201	102.88
330.43	103.88
330.658	110.88
330.887	121.88
331.115	118.88
331.344	95.88
331.572	96.88
331.801	90.88
332.03	91.88
332.258	94.88
332.486	93.88
332.715	103.88
332.943	86.88
333.172	91.88
333.4	100.88
333.629	93.88
333.857	105.88
334.085	101.88
334.314	101.88
334.542	103.88
334.771	104.88
334.999	107.88
335.227	79.88
335.455	99.88
335.684	98.88
335.912	88.88
336.14	86.88
336.369	90.88
336.597	89.88
336.825	87.88
337.053	110.88
337.281	91.88
337.51	88.88
337.738	97.88
337.966	79.88
338.194	89.88
338.422	87.88
338.65	95.88
338.878	95.88
339.106	101.88
339.334	83.88
339.562	83.88
339.79	90.88
340.018	89.88
340.246	85.88
340.474	99.88
340.702	88.88
340.93	103.88
341.158	92.88
341.386	91.88
341.614	94.88
341.842	95.88
342.07	95.88
342.298	94.88
342.526	90.88
342.754	83.88
342.981	74.88
343.209	88.88
343.437	82.88
343.665	95.88
343.893	84.88
344.12	90.88
344.348	97.88
344.576	74.88
344.804	80.88
345.031	94.88
345.259	78.88
345.487	109.88
345.714	101.88
345.942	86.88
346.17	93.88
346.397	90.88
346.625	99.88
346.853	98.88
347.08	91.88
347.308	95.88
347.535	100.88
347.763	88.88
347.99	83.88
348.218	97.88
348.445	94.88
348.673	104.88
348.9	96.88
349.128	86.88
349.355	93.88
349.583	95.88
349.81	90.88
350.037	89.88
350.265	96.88
350.492	92.88
350.72	109.88
350.947	107.88
351.174	114.88
351.402	115.88
351.629	96.88
351.856	100.88
352.083	95.88
352.311	96.88
352.538	101.88
352.765	107.88
352.992	107.88
353.22	104.88
353.447	115.88
353.674	101.88
353.901	91.88
354.128	106.88
354.355	98.88
354.583	102.88
354.81	108.88
355.037	95.88
355.264	90.88
355.491	93.88
355.718	91.88
355.945	97.88
356.172	91.88
356.399	84.88
356.626	89.88
356.853	93.88
357.08	103.88
357.307	96.88
357.534	89.88
357.761	86.88
357.988	93.88
358.215	105.88
358.441	82.88
358.668	95.88
358.895	88.88
359.122	88.88
359.349	80.88
359.576	80.88
359.802	94.88
360.029	95.88
360.256	98.88
360.483	96.88
360.709	85.88
360.936	102.88
361.163	93.88
361.39	86.88
361.616	102.88
361.843	86.88
362.07	91.88
362.296	99.88
362.523	107.88
362.749	100.88
362.976	96.88
363.203	87.88
363.429	79.88
363.656	83.88
363.882	82.88
364.109	86.88
364.335	97.88
364.562	88.88
364.788	95.88
365.015	87.88
365.241	91.88
365.468	97.88
365.694	118.88
365.92	83.88
366.147	89.88
366.373	96.88
366.599	83.88
366.826	74.88
367.052	95.88
367.278	78.88
367.505	73.88
367.731	79.88
367.957	81.88
368.184	84.88
368.41	104.88
368.636	110.88
368.862	110.88
369.089	95.88
369.315	75.88
369.541	82.88
369.767	66.88
369.993	97.88
370.219	86.88
370.445	83.88
370.672	91.88
370.898	92.88
371.124	88.88
371.35	82.88
371.576	106.88
371.802	79.88
372.028	88.88
372.254	86.88
372.48	93.88
372.706	87.88
372.932	88.88
373.158	93.88
373.384	88.88
373.61	96.88
373.835	84.88
374.061	88.88
374.287	87.88
374.513	86.88
374.739	97.88
374.965	86.88
375.191	93.88
375.416	91.88
375.642	92.88
375.868	90.88
376.094	96.88
376.319	92.88
376.545	77.88
376.771	86.88
376.997	81.88
377.222	97.88
377.448	94.88
377.674	93.88
377.899	98.88
378.125	91.88
378.35	74.88
378.576	98.88
378.802	72.88
379.027	88.88
379.253	87.88
379.478	80.88
379.704	91.88
379.929	89.88
380.155	101.88
380.38	100.88
380.606	108.88
380.831	80.88
381.057	86.88
381.282	96.88
381.507	101.88
381.733	97.88
381.958	96.88
382.184	92.88
382.409	107.88
382.634	102.88
382.86	102.88
383.085	92.88
383.31	98.88
383.535	84.88
383.761	87.88
383.986	108.88
384.211	88.88
384.436	96.88
384.662	90.88
384.887	98.88
385.112	92.88
385.337	103.88
385.562	106.88
385.787	95.88
386.013	100.88
386.238	105.88
386.463	93.88
386.688	107.88
386.913	93.88
387.138	105.88
387.363	86.88
387.588	96.88
387.813	104.88
388.038	103.88
388.263	108.88
388.488	100.88
388.713	101.88
388.938	93.88
389.163	107.88
389.387	92.88
389.612	90.88
389.837	97.88
390.062	87.88
390.287	93.88
390.512	95.88
390.736	109.88
390.961	88.88
391.186	99.88
391.411	93.88
391.636	90.88
391.86	76.88
392.085	81.88
392.31	95.88
392.534	80.88
392.759	81.88
392.984	76.88
393.208	85.88
393.433	86.88
393.658	80.88
393.882	78.88
394.107	80.88
394.331	83.88
394.556	84.88
394.78	90.88
395.005	84.88
395.229	75.88
395.454	76.88
395.678	83.88
395.903	84.88
396.127	92.88
396.352	110.88
396.576	76.88
396.801	91.88
397.025	92.88
397.249	86.88
397.474	88.88
397.698	78.88
397.922	83.88
398.147	90.88
398.371	99.88
398.595	95.88
398.82	94.88
399.044	77.88
399.268	82.88
399.492	81.88
399.717	81.88
399.941	80.88
400.165	94.88
400.389	92.88
400.613	84.88
400.837	84.88
401.062	87.88
401.286	94.88
401.51	97.88
401.734	90.88
401.958	98.88
402.182	115.88
402.406	138.88
402.63	97.88
402.854	97.88
403.078	98.88
403.302	95.88
403.526	90.88
403.75	89.88
403.974	83.88
404.198	93.88
404.422	96.88
404.645	90.88
404.869	97.88
405.093	86.88
405.317	89.88
405.541	100.88
405.765	100.88
405.988	114.88
406.212	137.88
406.436	186.88
406.66	123.88
406.883	99.88
407.107	99.88
407.331	92.88
407.555	97.88
407.778	86.88
408.002	82.88
408.226	81.88
408.449	97.88
408.673	96.88
408.896	81.88
409.12	85.88
409.344	87.88
409.567	98.88
409.791	94.88
410.014	84.88
410.238	95.88
410.461	91.88
410.685	81.88
410.908	103.88
411.132	99.88
411.355	90.88
411.578	96.88
411.802	110.88
412.025	82.88
412.249	89.88
412.472	94.88
412.695	80.88
412.919	82.88
413.142	95.88
413.365	92.88
413.589	86.88
413.812	103.88
414.035	96.88
414.258	81.88
414.482	83.88
414.705	86.88
414.928	91.88
415.151	106.88
415.374	86.88
415.597	81.88
415.821	77.88
416.044	88.88
416.267	88.88
416.49	86.88
416.713	78.88
416.936	104.88
417.159	92.88
417.382	86.88
417.605	94.88
417.828	85.88
418.051	108.88
418.274	103.88
418.497	91.88
418.72	78.88
418.943	88.88
419.166	88.88
419.389	90.88
419.611	82.88
419.834	86.88
420.057	88.88
420.28	92.88
420.503	79.88
420.726	80.88
420.948	97.88
421.171	101.88
421.394	86.88
421.617	90.88
421.839	83.88
422.062	94.88
422.285	102.88
422.507	100.88
422.73	109.88
422.953	98.88
423.175	86.88
423.398	98.88
423.621	91.88
423.843	73.88
424.066	93.88
424.288	78.88
424.511	95.88
424.733	89.88
424.956	97.88
425.178	100.88
425.401	107.88
425.623	97.88
425.846	96.88
426.068	95.88
426.291	92.88
426.513	100.88
426.735	77.88
426.958	97.88
427.18	96.88
427.402	112.88
427.625	141.88
427.847	106.88
428.069	95.88
428.292	94.88
428.514	80.88
428.736	105.88
428.958	87.88
429.181	84.88
429.403	74.88
429.625	87.88
429.847	84.88
430.069	91.88
430.292	108.88
430.514	86.88
430.736	89.88
430.958	93.88
431.18	87.88
431.402	96.88
431.624	79.88
431.846	85.88
432.068	86.88
432.29	82.88
432.512	91.88
432.734	83.88
432.956	106.88
433.178	80.88
433.4	89.88
433.622	87.88
433.844	97.88
434.066	83.88
434.287	98.88
434.509	89.88
434.731	94.88
434.953	87.88
435.175	86.88
435.397	97.88
435.618	97.88
435.84	83.88
436.062	111.88
436.284	94.88
436.505	107.88
436.727	92.88
436.949	95.88
437.17	94.88
437.392	74.88
437.614	81.88
437.835	94.88
438.057	109.88
438.278	111.88
438.5	98.88
438.721	116.88
438.943	89.88
439.165	80.88
439.386	89.88
439.608	89.88
439.829	103.88
440.05	115.88
440.272	124.88
440.493	95.88
440.715	99.88
440.936	86.88
441.158	91.88
441.379	94.88
441.6	97.88
441.822	86.88
442.043	82.88
442.264	94.88
442.486	102.88
442.707	86.88
442.928	120.88
443.149	108.88
443.371	130.88
443.592	118.88
443.813	105.88
444.034	95.88
444.255	91.88
444.476	90.88
444.698	81.88
444.919	88.88
445.14	118.88
445.361	114.88
445.582	109.88
445.803	125.88
446.024	120.88
446.245	127.88
446.466	95.88
446.687	90.88
446.908	83.88
447.129	97.88
447.35	78.88
447.571	77.88
447.792	88.88
448.013	107.88
448.234	101.88
448.455	106.88
448.675	96.88
448.896	115.88
449.117	99.88
449.338	103.88
449.559	121.88
449.779	120.88
450	91.88
450.221	94.88
450.442	90.88
450.662	87.88
450.883	113.88
451.104	113.88
451.324	109.88
451.545	87.88
451.766	89.88
451.986	84.88
452.207	86.88
452.428	83.88
452.648	81.88
452.869	93.88
453.089	104.88
453.31	94.88
453.53	96.88
453.751	95.88
453.971	96.88
454.192	98.88
454.412	87.88
454.633	93.88
454.853	89.88
455.073	91.88
455.294	91.88
455.514	92.88
455.734	78.88
455.955	87.88
456.175	86.88
456.395	94.88
456.616	87.88
456.836	79.88
457.056	88.88
457.276	102.88
457.497	90.88
457.717	79.88
457.937	94.88
458.157	79.88
458.377	86.88
458.598	95.88
458.818	114.88
459.038	126.88
459.258	106.88
459.478	78.88
459.698	96.88
459.918	82.88
460.138	91.88
460.358	97.88
460.578	79.88
460.798	68.88
461.018	90.88
461.238	84.88
461.458	90.88
461.678	85.88
461.898	99.88
462.118	83.88
462.338	90.88
462.558	97.88
462.777	89.88
462.997	93.88
463.217	78.88
463.437	97.88
463.657	83.88
463.876	84.88
464.096	99.88
464.316	89.88
464.536	94.88
464.755	90.88
464.975	100.88
465.195	147.88
465.414	125.88
465.634	89.88
465.854	103.88
466.073	74.88
466.293	78.88
466.512	88.88
466.732	88.88
466.951	88.88
467.171	110.88
467.391	96.88
467.61	88.88
467.829	94.88
468.049	92.88
468.268	90.88
468.488	86.88
468.707	74.88
468.927	83.88
469.146	79.88
469.365	98.88
469.585	83.88
469.804	103.88
470.023	91.88
470.243	88.88
470.462	100.88
470.681	90.88
470.901	79.88
471.12	79.88
471.339	97.88
471.558	81.88
471.777	93.88
471.997	79.88
472.216	80.88
472.435	99.88
472.654	95.88
472.873	89.88
473.092	78.88
473.311	86.88
473.53	81.88
473.749	112.88
473.968	98.88
474.187	103.88
474.406	82.88
474.625	90.88
474.844	85.88
475.063	94.88
475.282	98.88
475.501	86.88
475.72	81.88
475.939	90.88
476.158	84.88
476.377	83.88
476.596	100.88
476.814	94.88
477.033	83.88
477.252	87.88
477.471	100.88
477.69	86.88
477.908	79.88
478.127	76.88
478.346	96.88
478.564	98.88
478.783	94.88
479.002	94.88
479.22	97.88
479.439	86.88
479.658	90.88
479.876	89.88
480.095	79.88
480.313	95.88
480.532	90.88
480.751	99.88
480.969	85.88
481.188	105.88
481.406	86.88
481.624	80.88
481.843	84.88
482.061	90.88
482.28	80.88
482.498	91.88
482.717	89.88
482.935	93.88
483.153	98.88
483.372	78.88
483.59	77.88
483.808	105.88
484.027	89.88
484.245	83.88
484.463	92.88
484.681	89.88
484.9	104.88
485.118	108.88
485.336	99.88
485.554	104.88
485.772	115.88
485.99	106.88
486.209	103.88
486.427	96.88
486.645	97.88
486.863	100.88
487.081	101.88
487.299	97.88
487.517	94.88
487.735	83.88
487.953	92.88
488.171	89.88
488.389	109.88
488.607	98.88
488.825	90.88
489.043	90.88
489.261	99.88
489.479	98.88
489.696	97.88
489.914	72.88
490.132	98.88
490.35	87.88
490.568	87.88
490.786	82.88
491.003	84.88
491.221	88.88
491.439	94.88
491.657	83.88
491.874	96.88
492.092	92.88
492.31	82.88
492.527	102.88
492.745	95.88
492.963	86.88
493.18	81.88
493.398	98.88
493.615	106.88
493.833	84.88
494.05	83.88
494.268	90.88
494.485	97.88
494.703	87.88
494.92	86.88
495.138	89.88
495.355	97.88
495.573	93.88
495.79	92.88
496.008	103.88
496.225	86.88
496.442	91.88
496.66	92.88
496.877	100.88
497.094	80.88
497.312	85.88
497.529	86.88
497.746	80.88
497.963	83.88
498.181	92.88
498.398	98.88
498.615	106.88
498.832	95.88
499.049	84.88
499.267	100.88
499.484	94.88
499.701	91.88
499.918	99.88
500.135	87.88
500.352	97.88
500.569	96.88
500.786	83.88
501.003	98.88
501.22	98.88
501.437	87.88
501.654	87.88
501.871	96.88
502.088	88.88
502.305	101.88
502.522	84.88
502.739	91.88
502.956	90.88
503.172	96.88
503.389	92.88
503.606	105.88
503.823	98.88
504.04	92.88
504.256	77.88
504.473	81.88
504.69	88.88
504.907	95.88
505.123	95.88
505.34	94.88
505.557	86.88
505.773	84.88
505.99	86.88
506.207	83.88
506.423	82.88
506.64	89.88
506.856	80.88
507.073	100.88
507.289	94.88
507.506	78.88
507.722	103.88
507.939	88.88
508.155	81.88
508.372	90.88
508.588	94.88
508.805	92.88
509.021	94.88
509.238	93.88
509.454	91.88
509.67	109.88
509.887	90.88
510.103	125.88
510.319	164.88
510.536	582.88
510.752	1746.88
510.968	524.88
511.184	134.88
511.401	109.88
511.617	96.88
511.833	101.88
512.049	89.88
512.265	80.88
512.481	77.88
512.698	99.88
512.914	93.88
513.13	88.88
513.346	97.88
513.562	88.88
513.778	80.88
513.994	107.88
514.21	93.88
514.426	110.88
514.642	120.88
514.858	113.88
515.074	150.88
515.29	346.88
515.506	1082.88
515.721	423.88
515.937	138.88
516.153	112.88
516.369	103.88
516.585	89.88
