Data from Uncirc_1997_H10_HRD10591_00057.txt Node
Date: Wed Jan 03 11:28:42 EST 2024
User: Yrep
Spectrometer: HR+D1059
Trigger mode: 1
Integration Time (sec): 1.000000E-1
Scans to average: 1
Electric dark correction enabled: true
Nonlinearity correction enabled: false
Boxcar width: 0
XAxis mode: Wavelengths
Number of Pixels in Spectrum: 2048
>>>>>Begin Spectral Data<<<<<
223.165	-14.62
223.4	-14.62
223.635	-14.62
223.869	-19.62
224.104	-13.62
224.338	-5.62
224.573	-13.62
224.808	-18.62
225.042	-19.62
225.277	-9.62
225.511	15.38
225.746	-3.62
225.98	2.38
226.215	17.38
226.449	21.38
226.683	21.38
226.918	20.38
227.152	20.38
227.387	30.38
227.621	39.38
227.856	55.38
228.09	29.38
228.324	49.38
228.559	55.38
228.793	61.38
229.027	59.38
229.262	70.38
229.496	66.38
229.73	78.38
229.964	81.38
230.199	77.38
230.433	80.38
230.667	88.38
230.901	67.38
231.136	82.38
231.37	78.38
231.604	75.38
231.838	80.38
232.072	91.38
232.306	82.38
232.541	86.38
232.775	80.38
233.009	71.38
233.243	65.38
233.477	71.38
233.711	81.38
233.945	68.38
234.179	85.38
234.413	94.38
234.647	77.38
234.881	77.38
235.115	83.38
235.349	74.38
235.583	80.38
235.817	62.38
236.051	81.38
236.285	83.38
236.519	49.38
236.753	72.38
236.987	77.38
237.221	75.38
237.455	73.38
237.689	70.38
237.922	69.38
238.156	94.38
238.39	64.38
238.624	75.38
238.858	76.38
239.091	85.38
239.325	79.38
239.559	82.38
239.793	79.38
240.027	76.38
240.26	83.38
240.494	84.38
240.728	75.38
240.961	69.38
241.195	72.38
241.429	70.38
241.662	92.38
241.896	67.38
242.13	72.38
242.363	82.38
242.597	98.38
242.83	82.38
243.064	77.38
243.298	86.38
243.531	75.38
243.765	69.38
243.998	77.38
244.232	87.38
244.465	79.38
244.699	97.38
244.932	81.38
245.166	70.38
245.399	95.38
245.633	81.38
245.866	74.38
246.099	90.38
246.333	91.38
246.566	76.38
246.8	77.38
247.033	75.38
247.266	87.38
247.5	76.38
247.733	92.38
247.966	87.38
248.2	85.38
248.433	72.38
248.666	63.38
248.899	86.38
249.133	89.38
249.366	87.38
249.599	90.38
249.832	78.38
250.066	78.38
250.299	68.38
250.532	71.38
250.765	79.38
250.998	83.38
251.231	85.38
251.465	88.38
251.698	63.38
251.931	77.38
252.164	63.38
252.397	84.38
252.63	79.38
252.863	70.38
253.096	89.38
253.329	86.38
253.562	79.38
253.795	84.38
254.028	79.38
254.261	69.38
254.494	84.38
254.727	93.38
254.96	76.38
255.193	83.38
255.426	82.38
255.659	71.38
255.892	86.38
256.124	81.38
256.357	72.38
256.59	79.38
256.823	85.38
257.056	69.38
257.289	71.38
257.521	88.38
257.754	73.38
257.987	83.38
258.22	87.38
258.452	72.38
258.685	62.38
258.918	89.38
259.151	83.38
259.383	82.38
259.616	72.38
259.849	63.38
260.081	95.38
260.314	87.38
260.547	83.38
260.779	83.38
261.012	76.38
261.244	88.38
261.477	75.38
261.71	89.38
261.942	79.38
262.175	96.38
262.407	82.38
262.64	88.38
262.872	72.38
263.105	76.38
263.337	82.38
263.57	76.38
263.802	71.38
264.035	68.38
264.267	83.38
264.499	91.38
264.732	93.38
264.964	72.38
265.197	79.38
265.429	63.38
265.661	83.38
265.894	81.38
266.126	84.38
266.358	73.38
266.591	95.38
266.823	76.38
267.055	83.38
267.287	78.38
267.52	84.38
267.752	87.38
267.984	85.38
268.216	82.38
268.448	83.38
268.681	93.38
268.913	88.38
269.145	86.38
269.377	82.38
269.609	86.38
269.841	77.38
270.073	83.38
270.306	76.38
270.538	93.38
270.77	93.38
271.002	84.38
271.234	75.38
271.466	81.38
271.698	96.38
271.93	84.38
272.162	80.38
272.394	76.38
272.626	76.38
272.858	84.38
273.09	93.38
273.322	88.38
273.553	79.38
273.785	81.38
274.017	69.38
274.249	80.38
274.481	89.38
274.713	87.38
274.945	90.38
275.176	86.38
275.408	66.38
275.64	76.38
275.872	95.38
276.104	93.38
276.335	95.38
276.567	93.38
276.799	97.38
277.031	102.38
277.262	96.38
277.494	89.38
277.726	81.38
277.957	79.38
278.189	74.38
278.421	74.38
278.652	89.38
278.884	84.38
279.115	94.38
279.347	78.38
279.579	85.38
279.81	91.38
280.042	88.38
280.273	87.38
280.505	70.38
280.736	79.38
280.968	79.38
281.199	74.38
281.431	94.38
281.662	89.38
281.894	86.38
282.125	91.38
282.356	106.38
282.588	122.38
282.819	93.38
283.051	76.38
283.282	90.38
283.513	97.38
283.745	79.38
283.976	69.38
284.207	90.38
284.439	91.38
284.67	104.38
284.901	99.38
285.132	86.38
285.364	73.38
285.595	97.38
285.826	90.38
286.057	90.38
286.288	83.38
286.52	79.38
286.751	88.38
286.982	80.38
287.213	77.38
287.444	89.38
287.675	80.38
287.906	80.38
288.138	82.38
288.369	102.38
288.6	90.38
288.831	93.38
289.062	84.38
289.293	76.38
289.524	89.38
289.755	85.38
289.986	86.38
290.217	86.38
290.448	75.38
290.679	88.38
290.91	92.38
291.141	82.38
291.371	85.38
291.602	90.38
291.833	77.38
292.064	97.38
292.295	82.38
292.526	89.38
292.757	66.38
292.987	91.38
293.218	96.38
293.449	84.38
293.68	88.38
293.91	96.38
294.141	84.38
294.372	82.38
294.603	78.38
294.833	86.38
295.064	83.38
295.295	91.38
295.525	98.38
295.756	108.38
295.987	121.38
296.217	130.38
296.448	108.38
296.679	89.38
296.909	84.38
297.14	93.38
297.37	86.38
297.601	81.38
297.831	87.38
298.062	71.38
298.292	89.38
298.523	75.38
298.753	86.38
298.984	76.38
299.214	94.38
299.445	93.38
299.675	92.38
299.905	81.38
300.136	79.38
300.366	82.38
300.597	86.38
300.827	97.38
301.057	98.38
301.288	103.38
301.518	73.38
301.748	81.38
301.979	99.38
302.209	80.38
302.439	93.38
302.669	76.38
302.9	106.38
303.13	102.38
303.36	88.38
303.59	96.38
303.82	99.38
304.051	89.38
304.281	82.38
304.511	87.38
304.741	77.38
304.971	81.38
305.201	89.38
305.431	90.38
305.661	74.38
305.891	88.38
306.121	99.38
306.352	85.38
306.582	104.38
306.812	90.38
307.042	84.38
307.272	103.38
307.502	89.38
307.731	79.38
307.961	103.38
308.191	88.38
308.421	83.38
308.651	83.38
308.881	101.38
309.111	92.38
309.341	101.38
309.571	96.38
309.8	92.38
310.03	87.38
310.26	106.38
310.49	91.38
310.72	95.38
310.949	99.38
311.179	107.38
311.409	98.38
311.639	86.38
311.868	88.38
312.098	83.38
312.328	95.38
312.557	94.38
312.787	105.38
313.017	96.38
313.246	75.38
313.476	83.38
313.706	82.38
313.935	85.38
314.165	94.38
314.394	87.38
314.624	88.38
314.853	98.38
315.083	85.38
315.312	95.38
315.542	86.38
315.771	96.38
316.001	96.38
316.23	92.38
316.46	97.38
316.689	87.38
316.919	85.38
317.148	103.38
317.377	92.38
317.607	94.38
317.836	81.38
318.065	92.38
318.295	87.38
318.524	82.38
318.753	88.38
318.983	78.38
319.212	111.38
319.441	115.38
319.67	101.38
319.9	93.38
320.129	102.38
320.358	87.38
320.587	98.38
320.816	91.38
321.046	93.38
321.275	89.38
321.504	95.38
321.733	89.38
321.962	88.38
322.191	103.38
322.42	88.38
322.649	105.38
322.878	113.38
323.108	121.38
323.337	107.38
323.566	134.38
323.795	122.38
324.024	176.38
324.253	342.38
324.482	690.38
324.71	1349.38
324.939	1809.38
325.168	669.38
325.397	213.38
325.626	129.38
325.855	117.38
326.084	119.38
326.313	130.38
326.542	147.38
326.77	189.38
326.999	411.38
327.228	803.38
327.457	1401.38
327.686	1119.38
327.914	325.38
328.143	166.38
328.372	127.38
328.6	124.38
328.829	96.38
329.058	131.38
329.287	103.38
329.515	103.38
329.744	97.38
329.972	94.38
330.201	86.38
330.43	98.38
330.658	109.38
330.887	117.38
331.115	120.38
331.344	106.38
331.572	88.38
331.801	97.38
332.03	103.38
332.258	87.38
332.486	86.38
332.715	99.38
332.943	102.38
333.172	92.38
333.4	86.38
333.629	103.38
333.857	105.38
334.085	104.38
334.314	92.38
334.542	103.38
334.771	104.38
334.999	90.38
335.227	99.38
335.455	99.38
335.684	90.38
335.912	98.38
336.14	89.38
336.369	84.38
336.597	93.38
336.825	109.38
337.053	87.38
337.281	91.38
337.51	94.38
337.738	106.38
337.966	104.38
338.194	89.38
338.422	88.38
338.65	98.38
338.878	90.38
339.106	99.38
339.334	91.38
339.562	93.38
339.79	95.38
340.018	88.38
340.246	79.38
340.474	86.38
340.702	86.38
340.93	89.38
341.158	104.38
341.386	96.38
341.614	91.38
341.842	92.38
342.07	78.38
342.298	81.38
342.526	88.38
342.754	95.38
342.981	92.38
343.209	88.38
343.437	93.38
343.665	77.38
343.893	87.38
344.12	107.38
344.348	87.38
344.576	93.38
344.804	90.38
345.031	98.38
345.259	95.38
345.487	83.38
345.714	92.38
345.942	91.38
346.17	96.38
346.397	87.38
346.625	93.38
346.853	85.38
347.08	84.38
347.308	83.38
347.535	92.38
347.763	98.38
347.99	99.38
348.218	92.38
348.445	95.38
348.673	91.38
348.9	87.38
349.128	98.38
349.355	98.38
349.583	104.38
349.81	97.38
350.037	98.38
350.265	85.38
350.492	89.38
350.72	96.38
350.947	88.38
351.174	99.38
351.402	98.38
351.629	104.38
351.856	110.38
352.083	103.38
352.311	96.38
352.538	122.38
352.765	98.38
352.992	102.38
353.22	97.38
353.447	103.38
353.674	98.38
353.901	102.38
354.128	95.38
354.355	106.38
354.583	99.38
354.81	96.38
355.037	97.38
355.264	86.38
355.491	89.38
355.718	86.38
355.945	89.38
356.172	78.38
356.399	91.38
356.626	81.38
356.853	100.38
357.08	76.38
357.307	93.38
357.534	96.38
357.761	96.38
357.988	114.38
358.215	92.38
358.441	89.38
358.668	85.38
358.895	85.38
359.122	95.38
359.349	74.38
359.576	94.38
359.802	99.38
360.029	97.38
360.256	79.38
360.483	102.38
360.709	89.38
360.936	97.38
361.163	90.38
361.39	104.38
361.616	93.38
361.843	89.38
362.07	96.38
362.296	93.38
362.523	91.38
362.749	94.38
362.976	89.38
363.203	88.38
363.429	84.38
363.656	101.38
363.882	85.38
364.109	82.38
364.335	81.38
364.562	92.38
364.788	104.38
365.015	105.38
365.241	89.38
365.468	99.38
365.694	95.38
365.92	88.38
366.147	75.38
366.373	84.38
366.599	82.38
366.826	93.38
367.052	86.38
367.278	90.38
367.505	78.38
367.731	93.38
367.957	89.38
368.184	93.38
368.41	90.38
368.636	118.38
368.862	116.38
369.089	96.38
369.315	88.38
369.541	84.38
369.767	81.38
369.993	88.38
370.219	105.38
370.445	92.38
370.672	74.38
370.898	95.38
371.124	95.38
371.35	103.38
371.576	85.38
371.802	74.38
372.028	88.38
372.254	77.38
372.48	85.38
372.706	80.38
372.932	90.38
373.158	90.38
373.384	84.38
373.61	86.38
373.835	81.38
374.061	91.38
374.287	90.38
374.513	77.38
374.739	94.38
374.965	93.38
375.191	83.38
375.416	92.38
375.642	89.38
375.868	84.38
376.094	95.38
376.319	93.38
376.545	93.38
376.771	93.38
376.997	93.38
377.222	75.38
377.448	103.38
377.674	89.38
377.899	86.38
378.125	111.38
378.35	94.38
378.576	90.38
378.802	91.38
379.027	81.38
379.253	97.38
379.478	81.38
379.704	107.38
379.929	84.38
380.155	71.38
380.38	104.38
380.606	93.38
380.831	97.38
381.057	86.38
381.282	89.38
381.507	87.38
381.733	90.38
381.958	72.38
382.184	92.38
382.409	94.38
382.634	96.38
382.86	90.38
383.085	97.38
383.31	92.38
383.535	109.38
383.761	96.38
383.986	91.38
384.211	89.38
384.436	111.38
384.662	98.38
384.887	97.38
385.112	91.38
385.337	108.38
385.562	89.38
385.787	96.38
386.013	99.38
386.238	102.38
386.463	108.38
386.688	110.38
386.913	97.38
387.138	96.38
387.363	86.38
387.588	83.38
387.813	89.38
388.038	111.38
388.263	105.38
388.488	99.38
388.713	86.38
388.938	97.38
389.163	109.38
389.387	89.38
389.612	90.38
389.837	88.38
390.062	85.38
390.287	94.38
390.512	90.38
390.736	90.38
390.961	95.38
391.186	94.38
391.411	97.38
391.636	85.38
391.86	77.38
392.085	99.38
392.31	89.38
392.534	93.38
392.759	83.38
392.984	80.38
393.208	94.38
393.433	83.38
393.658	66.38
393.882	85.38
394.107	85.38
394.331	106.38
394.556	78.38
394.78	76.38
395.005	96.38
395.229	98.38
395.454	101.38
395.678	69.38
395.903	83.38
396.127	87.38
396.352	90.38
396.576	92.38
396.801	90.38
397.025	90.38
397.249	81.38
397.474	89.38
397.698	87.38
397.922	91.38
398.147	91.38
398.371	94.38
398.595	90.38
398.82	87.38
399.044	89.38
399.268	90.38
399.492	82.38
399.717	83.38
399.941	101.38
400.165	92.38
400.389	91.38
400.613	81.38
400.837	73.38
401.062	82.38
401.286	88.38
401.51	82.38
401.734	93.38
401.958	90.38
402.182	110.38
402.406	122.38
402.63	108.38
402.854	102.38
403.078	83.38
403.302	81.38
403.526	64.38
403.75	73.38
403.974	88.38
404.198	82.38
404.422	80.38
404.645	89.38
404.869	93.38
405.093	90.38
405.317	83.38
405.541	84.38
405.765	80.38
405.988	106.38
406.212	152.38
406.436	191.38
406.66	128.38
406.883	102.38
407.107	84.38
407.331	80.38
407.555	89.38
407.778	96.38
408.002	89.38
408.226	81.38
408.449	82.38
408.673	82.38
408.896	95.38
409.12	85.38
409.344	87.38
409.567	83.38
409.791	87.38
410.014	95.38
410.238	86.38
410.461	84.38
410.685	88.38
410.908	79.38
411.132	104.38
411.355	81.38
411.578	89.38
411.802	80.38
412.025	96.38
412.249	91.38
412.472	99.38
412.695	87.38
412.919	82.38
413.142	89.38
413.365	94.38
413.589	83.38
413.812	76.38
414.035	83.38
414.258	75.38
414.482	92.38
414.705	86.38
414.928	98.38
415.151	86.38
415.374	89.38
415.597	92.38
415.821	102.38
416.044	94.38
416.267	93.38
416.49	92.38
416.713	87.38
416.936	89.38
417.159	90.38
417.382	87.38
417.605	101.38
417.828	91.38
418.051	104.38
418.274	88.38
418.497	96.38
418.72	86.38
418.943	90.38
419.166	76.38
419.389	95.38
419.611	90.38
419.834	89.38
420.057	88.38
420.28	87.38
420.503	91.38
420.726	73.38
420.948	73.38
421.171	89.38
421.394	89.38
421.617	95.38
421.839	101.38
422.062	102.38
422.285	87.38
422.507	95.38
422.73	111.38
422.953	75.38
423.175	76.38
423.398	77.38
423.621	89.38
423.843	86.38
424.066	79.38
424.288	102.38
424.511	102.38
424.733	89.38
424.956	100.38
425.178	87.38
425.401	87.38
425.623	99.38
425.846	74.38
426.068	84.38
426.291	95.38
426.513	74.38
426.735	92.38
426.958	89.38
427.18	97.38
427.402	125.38
427.625	129.38
427.847	97.38
428.069	93.38
428.292	92.38
428.514	79.38
428.736	92.38
428.958	90.38
429.181	83.38
429.403	73.38
429.625	78.38
429.847	82.38
430.069	102.38
430.292	86.38
430.514	84.38
430.736	88.38
430.958	77.38
431.18	77.38
431.402	82.38
431.624	82.38
431.846	80.38
432.068	88.38
432.29	94.38
432.512	89.38
432.734	79.38
432.956	77.38
433.178	95.38
433.4	89.38
433.622	90.38
433.844	73.38
434.066	86.38
434.287	103.38
434.509	82.38
434.731	81.38
434.953	80.38
435.175	82.38
435.397	86.38
435.618	94.38
435.84	95.38
436.062	114.38
436.284	98.38
436.505	98.38
436.727	88.38
436.949	73.38
437.17	72.38
437.392	87.38
437.614	91.38
437.835	98.38
438.057	98.38
438.278	90.38
438.5	93.38
438.721	108.38
438.943	87.38
439.165	86.38
439.386	93.38
439.608	97.38
439.829	100.38
440.05	106.38
440.272	133.38
440.493	92.38
440.715	87.38
440.936	87.38
441.158	86.38
441.379	93.38
441.6	103.38
441.822	92.38
442.043	102.38
442.264	94.38
442.486	79.38
442.707	101.38
442.928	109.38
443.149	116.38
443.371	109.38
443.592	94.38
443.813	111.38
444.034	91.38
444.255	91.38
444.476	88.38
444.698	86.38
444.919	77.38
445.14	121.38
445.361	105.38
445.582	103.38
445.803	128.38
446.024	128.38
446.245	112.38
446.466	103.38
446.687	93.38
446.908	94.38
447.129	88.38
447.35	81.38
447.571	94.38
447.792	87.38
448.013	79.38
448.234	101.38
448.455	109.38
448.675	102.38
448.896	102.38
449.117	106.38
449.338	93.38
449.559	112.38
449.779	120.38
450	92.38
450.221	72.38
450.442	81.38
450.662	105.38
450.883	104.38
451.104	93.38
451.324	90.38
451.545	92.38
451.766	97.38
451.986	66.38
452.207	69.38
452.428	90.38
452.648	95.38
452.869	96.38
453.089	102.38
453.31	102.38
453.53	93.38
453.751	92.38
453.971	98.38
454.192	83.38
454.412	96.38
454.633	88.38
454.853	98.38
455.073	87.38
455.294	85.38
455.514	90.38
455.734	88.38
455.955	86.38
456.175	77.38
456.395	85.38
456.616	80.38
456.836	76.38
457.056	79.38
457.276	91.38
457.497	73.38
457.717	86.38
457.937	84.38
458.157	80.38
458.377	86.38
458.598	95.38
458.818	120.38
459.038	127.38
459.258	106.38
459.478	90.38
459.698	74.38
459.918	89.38
460.138	85.38
460.358	86.38
460.578	86.38
460.798	83.38
461.018	87.38
461.238	77.38
461.458	71.38
461.678	92.38
461.898	71.38
462.118	91.38
462.338	97.38
462.558	95.38
462.777	77.38
462.997	91.38
463.217	83.38
463.437	86.38
463.657	84.38
463.876	80.38
464.096	98.38
464.316	79.38
464.536	77.38
464.755	82.38
464.975	107.38
465.195	137.38
465.414	125.38
465.634	79.38
465.854	95.38
466.073	90.38
466.293	96.38
466.512	81.38
466.732	83.38
466.951	95.38
467.171	88.38
467.391	95.38
467.61	97.38
467.829	98.38
468.049	95.38
468.268	96.38
468.488	96.38
468.707	96.38
468.927	86.38
469.146	94.38
469.365	88.38
469.585	79.38
469.804	92.38
470.023	91.38
470.243	86.38
470.462	91.38
470.681	87.38
470.901	77.38
471.12	81.38
471.339	95.38
471.558	83.38
471.777	88.38
471.997	91.38
472.216	97.38
472.435	87.38
472.654	87.38
472.873	97.38
473.092	77.38
473.311	69.38
473.53	89.38
473.749	89.38
473.968	92.38
474.187	98.38
474.406	93.38
474.625	96.38
474.844	74.38
475.063	94.38
475.282	84.38
475.501	86.38
475.72	94.38
475.939	79.38
476.158	77.38
476.377	99.38
476.596	96.38
476.814	85.38
477.033	88.38
477.252	88.38
477.471	82.38
477.69	71.38
477.908	85.38
478.127	81.38
478.346	85.38
478.564	89.38
478.783	100.38
479.002	98.38
479.22	87.38
479.439	93.38
479.658	93.38
479.876	101.38
480.095	73.38
480.313	80.38
480.532	91.38
480.751	77.38
480.969	81.38
481.188	103.38
481.406	98.38
481.624	90.38
481.843	92.38
482.061	99.38
482.28	95.38
482.498	77.38
482.717	82.38
482.935	101.38
483.153	89.38
483.372	96.38
483.59	92.38
483.808	86.38
484.027	81.38
484.245	94.38
484.463	93.38
484.681	90.38
484.9	87.38
485.118	91.38
485.336	78.38
485.554	83.38
485.772	95.38
485.99	108.38
486.209	89.38
486.427	100.38
486.645	108.38
486.863	95.38
487.081	107.38
487.299	85.38
487.517	88.38
487.735	106.38
487.953	94.38
488.171	86.38
488.389	89.38
488.607	98.38
488.825	89.38
489.043	97.38
489.261	79.38
489.479	81.38
489.696	86.38
489.914	73.38
490.132	90.38
490.35	91.38
490.568	90.38
490.786	91.38
491.003	85.38
491.221	89.38
491.439	84.38
491.657	95.38
491.874	100.38
492.092	96.38
492.31	88.38
492.527	87.38
492.745	89.38
492.963	77.38
493.18	87.38
493.398	88.38
493.615	77.38
493.833	96.38
494.05	82.38
494.268	97.38
494.485	83.38
494.703	80.38
494.92	95.38
495.138	94.38
495.355	88.38
495.573	93.38
495.79	98.38
496.008	104.38
496.225	81.38
496.442	86.38
496.66	81.38
496.877	90.38
497.094	98.38
497.312	77.38
497.529	71.38
497.746	89.38
497.963	82.38
498.181	80.38
498.398	87.38
498.615	101.38
498.832	95.38
499.049	96.38
499.267	83.38
499.484	88.38
499.701	97.38
499.918	91.38
500.135	85.38
500.352	102.38
500.569	85.38
500.786	89.38
501.003	86.38
501.22	86.38
501.437	93.38
501.654	90.38
501.871	81.38
502.088	92.38
502.305	95.38
502.522	106.38
502.739	83.38
502.956	92.38
503.172	89.38
503.389	93.38
503.606	98.38
503.823	89.38
504.04	77.38
504.256	94.38
504.473	94.38
504.69	94.38
504.907	89.38
505.123	93.38
505.34	64.38
505.557	82.38
505.773	76.38
505.99	93.38
506.207	96.38
506.423	85.38
506.64	97.38
506.856	81.38
507.073	94.38
507.289	85.38
507.506	93.38
507.722	97.38
507.939	92.38
508.155	94.38
508.372	105.38
508.588	90.38
508.805	77.38
509.021	99.38
509.238	94.38
509.454	97.38
509.67	101.38
509.887	112.38
510.103	120.38
510.319	181.38
510.536	608.38
510.752	1875.38
510.968	557.38
511.184	138.38
511.401	103.38
511.617	91.38
511.833	85.38
512.049	88.38
512.265	99.38
512.481	92.38
512.698	99.38
512.914	103.38
513.13	92.38
513.346	83.38
513.562	96.38
513.778	93.38
513.994	90.38
514.21	94.38
514.426	104.38
514.642	109.38
514.858	117.38
515.074	147.38
515.29	370.38
515.506	1116.38
515.721	424.38
515.937	127.38
516.153	105.38
516.369	95.38
516.585	99.38
516.801	101.38
517.016	93.38
517.232	91.38
