Data from Uncirc_1997_H10_HRD10591_00091.txt Node
Date: Wed Jan 03 11:28:48 EST 2024
User: Yrep
Spectrometer: HR+D1059
Trigger mode: 1
Integration Time (sec): 1.000000E-1
Scans to average: 1
Electric dark correction enabled: true
Nonlinearity correction enabled: false
Boxcar width: 0
XAxis mode: Wavelengths
Number of Pixels in Spectrum: 2048
>>>>>Begin Spectral Data<<<<<
223.165	-17.62
223.4	-17.62
223.635	-17.62
223.869	-18.62
224.104	-15.62
224.338	-14.62
224.573	-13.62
224.808	-22.62
225.042	-1.62
225.277	-3.62
225.511	6.38
225.746	4.38
225.98	-4.62
226.215	7.38
226.449	20.38
226.683	14.38
226.918	33.38
227.152	26.38
227.387	45.38
227.621	30.38
227.856	45.38
228.09	36.38
228.324	44.38
228.559	55.38
228.793	60.38
229.027	53.38
229.262	74.38
229.496	70.38
229.73	76.38
229.964	66.38
230.199	75.38
230.433	59.38
230.667	76.38
230.901	61.38
231.136	76.38
231.37	72.38
231.604	69.38
231.838	79.38
232.072	89.38
232.306	77.38
232.541	71.38
232.775	83.38
233.009	74.38
233.243	80.38
233.477	83.38
233.711	75.38
233.945	84.38
234.179	93.38
234.413	74.38
234.647	54.38
234.881	81.38
235.115	70.38
235.349	77.38
235.583	83.38
235.817	72.38
236.051	74.38
236.285	74.38
236.519	85.38
236.753	77.38
236.987	72.38
237.221	82.38
237.455	85.38
237.689	76.38
237.922	67.38
238.156	64.38
238.39	73.38
238.624	65.38
238.858	69.38
239.091	78.38
239.325	86.38
239.559	85.38
239.793	71.38
240.027	59.38
240.26	75.38
240.494	72.38
240.728	71.38
240.961	67.38
241.195	71.38
241.429	63.38
241.662	70.38
241.896	76.38
242.13	70.38
242.363	81.38
242.597	76.38
242.83	75.38
243.064	75.38
243.298	70.38
243.531	59.38
243.765	74.38
243.998	68.38
244.232	69.38
244.465	84.38
244.699	73.38
244.932	74.38
245.166	64.38
245.399	70.38
245.633	79.38
245.866	68.38
246.099	64.38
246.333	73.38
246.566	78.38
246.8	77.38
247.033	51.38
247.266	82.38
247.5	83.38
247.733	83.38
247.966	74.38
248.2	79.38
248.433	75.38
248.666	56.38
248.899	77.38
249.133	86.38
249.366	78.38
249.599	76.38
249.832	86.38
250.066	69.38
250.299	86.38
250.532	74.38
250.765	68.38
250.998	60.38
251.231	79.38
251.465	83.38
251.698	63.38
251.931	75.38
252.164	82.38
252.397	71.38
252.63	66.38
252.863	79.38
253.096	69.38
253.329	90.38
253.562	79.38
253.795	74.38
254.028	73.38
254.261	94.38
254.494	84.38
254.727	84.38
254.96	70.38
255.193	72.38
255.426	76.38
255.659	87.38
255.892	82.38
256.124	70.38
256.357	57.38
256.59	63.38
256.823	70.38
257.056	72.38
257.289	62.38
257.521	80.38
257.754	87.38
257.987	80.38
258.22	77.38
258.452	89.38
258.685	85.38
258.918	85.38
259.151	59.38
259.383	72.38
259.616	66.38
259.849	85.38
260.081	82.38
260.314	80.38
260.547	72.38
260.779	84.38
261.012	76.38
261.244	78.38
261.477	83.38
261.71	77.38
261.942	93.38
262.175	101.38
262.407	88.38
262.64	90.38
262.872	78.38
263.105	68.38
263.337	88.38
263.57	86.38
263.802	74.38
264.035	78.38
264.267	78.38
264.499	79.38
264.732	87.38
264.964	78.38
265.197	71.38
265.429	75.38
265.661	79.38
265.894	63.38
266.126	70.38
266.358	80.38
266.591	91.38
266.823	79.38
267.055	70.38
267.287	83.38
267.52	67.38
267.752	91.38
267.984	75.38
268.216	88.38
268.448	82.38
268.681	91.38
268.913	72.38
269.145	75.38
269.377	58.38
269.609	83.38
269.841	77.38
270.073	76.38
270.306	91.38
270.538	84.38
270.77	80.38
271.002	94.38
271.234	76.38
271.466	88.38
271.698	78.38
271.93	88.38
272.162	81.38
272.394	86.38
272.626	79.38
272.858	76.38
273.09	82.38
273.322	71.38
273.553	94.38
273.785	76.38
274.017	79.38
274.249	84.38
274.481	66.38
274.713	76.38
274.945	81.38
275.176	69.38
275.408	78.38
275.64	79.38
275.872	75.38
276.104	84.38
276.335	83.38
276.567	95.38
276.799	96.38
277.031	97.38
277.262	70.38
277.494	69.38
277.726	87.38
277.957	70.38
278.189	79.38
278.421	88.38
278.652	83.38
278.884	78.38
279.115	82.38
279.347	91.38
279.579	75.38
279.81	86.38
280.042	79.38
280.273	88.38
280.505	78.38
280.736	87.38
280.968	89.38
281.199	61.38
281.431	75.38
281.662	77.38
281.894	88.38
282.125	94.38
282.356	103.38
282.588	127.38
282.819	101.38
283.051	91.38
283.282	73.38
283.513	87.38
283.745	82.38
283.976	93.38
284.207	81.38
284.439	80.38
284.67	87.38
284.901	93.38
285.132	75.38
285.364	82.38
285.595	96.38
285.826	77.38
286.057	72.38
286.288	86.38
286.52	89.38
286.751	88.38
286.982	85.38
287.213	83.38
287.444	91.38
287.675	85.38
287.906	82.38
288.138	81.38
288.369	92.38
288.6	87.38
288.831	74.38
289.062	86.38
289.293	95.38
289.524	79.38
289.755	80.38
289.986	77.38
290.217	85.38
290.448	90.38
290.679	84.38
290.91	89.38
291.141	77.38
291.371	69.38
291.602	73.38
291.833	86.38
292.064	72.38
292.295	98.38
292.526	100.38
292.757	72.38
292.987	88.38
293.218	96.38
293.449	85.38
293.68	87.38
293.91	92.38
294.141	69.38
294.372	90.38
294.603	67.38
294.833	84.38
295.064	97.38
295.295	77.38
295.525	83.38
295.756	105.38
295.987	97.38
296.217	125.38
296.448	107.38
296.679	94.38
296.909	82.38
297.14	90.38
297.37	95.38
297.601	81.38
297.831	82.38
298.062	70.38
298.292	95.38
298.523	88.38
298.753	95.38
298.984	87.38
299.214	86.38
299.445	87.38
299.675	94.38
299.905	101.38
300.136	72.38
300.366	78.38
300.597	71.38
300.827	95.38
301.057	95.38
301.288	92.38
301.518	80.38
301.748	80.38
301.979	79.38
302.209	82.38
302.439	75.38
302.669	74.38
302.9	71.38
303.13	76.38
303.36	74.38
303.59	98.38
303.82	99.38
304.051	89.38
304.281	79.38
304.511	92.38
304.741	86.38
304.971	85.38
305.201	93.38
305.431	69.38
305.661	104.38
305.891	95.38
306.121	88.38
306.352	83.38
306.582	89.38
306.812	81.38
307.042	78.38
307.272	82.38
307.502	90.38
307.731	98.38
307.961	91.38
308.191	78.38
308.421	86.38
308.651	95.38
308.881	90.38
309.111	90.38
309.341	91.38
309.571	84.38
309.8	92.38
310.03	74.38
310.26	88.38
310.49	75.38
310.72	91.38
310.949	94.38
311.179	84.38
311.409	83.38
311.639	78.38
311.868	93.38
312.098	87.38
312.328	89.38
312.557	109.38
312.787	93.38
313.017	94.38
313.246	83.38
313.476	81.38
313.706	75.38
313.935	94.38
314.165	92.38
314.394	101.38
314.624	91.38
314.853	108.38
315.083	86.38
315.312	92.38
315.542	99.38
315.771	81.38
316.001	82.38
316.23	98.38
316.46	85.38
316.689	93.38
316.919	92.38
317.148	82.38
317.377	78.38
317.607	96.38
317.836	92.38
318.065	76.38
318.295	80.38
318.524	86.38
318.753	88.38
318.983	96.38
319.212	98.38
319.441	98.38
319.67	99.38
319.9	93.38
320.129	85.38
320.358	91.38
320.587	95.38
320.816	88.38
321.046	90.38
321.275	91.38
321.504	82.38
321.733	89.38
321.962	80.38
322.191	88.38
322.42	103.38
322.649	98.38
322.878	109.38
323.108	114.38
323.337	118.38
323.566	123.38
323.795	136.38
324.024	186.38
324.253	346.38
324.482	730.38
324.71	1476.38
324.939	1927.38
325.168	700.38
325.397	220.38
325.626	128.38
325.855	122.38
326.084	123.38
326.313	120.38
326.542	131.38
326.77	201.38
326.999	409.38
327.228	845.38
327.457	1519.38
327.686	1153.38
327.914	323.38
328.143	169.38
328.372	130.38
328.6	117.38
328.829	88.38
329.058	114.38
329.287	107.38
329.515	96.38
329.744	106.38
329.972	93.38
330.201	100.38
330.43	102.38
330.658	106.38
330.887	114.38
331.115	97.38
331.344	99.38
331.572	88.38
331.801	95.38
332.03	100.38
332.258	102.38
332.486	95.38
332.715	95.38
332.943	92.38
333.172	104.38
333.4	93.38
333.629	96.38
333.857	105.38
334.085	94.38
334.314	87.38
334.542	105.38
334.771	101.38
334.999	87.38
335.227	102.38
335.455	89.38
335.684	84.38
335.912	98.38
336.14	96.38
336.369	103.38
336.597	102.38
336.825	84.38
337.053	78.38
337.281	95.38
337.51	73.38
337.738	88.38
337.966	86.38
338.194	93.38
338.422	91.38
338.65	75.38
338.878	86.38
339.106	94.38
339.334	85.38
339.562	93.38
339.79	84.38
340.018	87.38
340.246	90.38
340.474	97.38
340.702	88.38
340.93	91.38
341.158	86.38
341.386	95.38
341.614	92.38
341.842	88.38
342.07	92.38
342.298	101.38
342.526	74.38
342.754	75.38
342.981	87.38
343.209	86.38
343.437	87.38
343.665	91.38
343.893	87.38
344.12	93.38
344.348	80.38
344.576	74.38
344.804	87.38
345.031	99.38
345.259	84.38
345.487	75.38
345.714	90.38
345.942	98.38
346.17	85.38
346.397	95.38
346.625	96.38
346.853	105.38
347.08	88.38
347.308	93.38
347.535	92.38
347.763	80.38
347.99	87.38
348.218	81.38
348.445	100.38
348.673	93.38
348.9	93.38
349.128	82.38
349.355	97.38
349.583	87.38
349.81	75.38
350.037	91.38
350.265	83.38
350.492	97.38
350.72	90.38
350.947	88.38
351.174	102.38
351.402	106.38
351.629	103.38
351.856	100.38
352.083	89.38
352.311	106.38
352.538	117.38
352.765	93.38
352.992	106.38
353.22	104.38
353.447	86.38
353.674	95.38
353.901	86.38
354.128	93.38
354.355	90.38
354.583	88.38
354.81	91.38
355.037	94.38
355.264	88.38
355.491	87.38
355.718	86.38
355.945	83.38
356.172	88.38
356.399	81.38
356.626	93.38
356.853	86.38
357.08	88.38
357.307	104.38
357.534	84.38
357.761	85.38
357.988	93.38
358.215	100.38
358.441	86.38
358.668	98.38
358.895	95.38
359.122	77.38
359.349	89.38
359.576	77.38
359.802	78.38
360.029	96.38
360.256	109.38
360.483	103.38
360.709	88.38
360.936	81.38
361.163	84.38
361.39	97.38
361.616	82.38
361.843	86.38
362.07	78.38
362.296	85.38
362.523	95.38
362.749	90.38
362.976	89.38
363.203	94.38
363.429	88.38
363.656	81.38
363.882	83.38
364.109	85.38
364.335	75.38
364.562	89.38
364.788	96.38
365.015	80.38
365.241	104.38
365.468	99.38
365.694	95.38
365.92	86.38
366.147	86.38
366.373	90.38
366.599	79.38
366.826	96.38
367.052	83.38
367.278	76.38
367.505	86.38
367.731	91.38
367.957	88.38
368.184	90.38
368.41	90.38
368.636	102.38
368.862	106.38
369.089	91.38
369.315	89.38
369.541	100.38
369.767	84.38
369.993	84.38
370.219	84.38
370.445	76.38
370.672	84.38
370.898	90.38
371.124	84.38
371.35	83.38
371.576	87.38
371.802	89.38
372.028	100.38
372.254	82.38
372.48	77.38
372.706	75.38
372.932	80.38
373.158	87.38
373.384	74.38
373.61	72.38
373.835	84.38
374.061	78.38
374.287	89.38
374.513	78.38
374.739	82.38
374.965	94.38
375.191	92.38
375.416	82.38
375.642	85.38
375.868	87.38
376.094	79.38
376.319	91.38
376.545	84.38
376.771	79.38
376.997	82.38
377.222	70.38
377.448	83.38
377.674	86.38
377.899	84.38
378.125	79.38
378.35	81.38
378.576	92.38
378.802	92.38
379.027	97.38
379.253	84.38
379.478	78.38
379.704	68.38
379.929	74.38
380.155	87.38
380.38	88.38
380.606	93.38
380.831	83.38
381.057	79.38
381.282	94.38
381.507	88.38
381.733	83.38
381.958	94.38
382.184	76.38
382.409	89.38
382.634	87.38
382.86	93.38
383.085	110.38
383.31	95.38
383.535	91.38
383.761	95.38
383.986	91.38
384.211	82.38
384.436	89.38
384.662	90.38
384.887	90.38
385.112	82.38
385.337	101.38
385.562	101.38
385.787	110.38
386.013	88.38
386.238	103.38
386.463	94.38
386.688	92.38
386.913	98.38
387.138	78.38
387.363	76.38
387.588	94.38
387.813	98.38
388.038	93.38
388.263	102.38
388.488	84.38
388.713	91.38
388.938	98.38
389.163	81.38
389.387	92.38
389.612	68.38
389.837	82.38
390.062	90.38
390.287	93.38
390.512	85.38
390.736	80.38
390.961	76.38
391.186	80.38
391.411	83.38
391.636	86.38
391.86	70.38
392.085	83.38
392.31	74.38
392.534	75.38
392.759	96.38
392.984	75.38
393.208	76.38
393.433	87.38
393.658	85.38
393.882	83.38
394.107	82.38
394.331	71.38
394.556	68.38
394.78	76.38
395.005	77.38
395.229	86.38
395.454	78.38
395.678	83.38
395.903	77.38
396.127	66.38
396.352	84.38
396.576	72.38
396.801	85.38
397.025	71.38
397.249	99.38
397.474	74.38
397.698	85.38
397.922	92.38
398.147	68.38
398.371	78.38
398.595	88.38
398.82	79.38
399.044	91.38
399.268	84.38
399.492	70.38
399.717	84.38
399.941	85.38
400.165	99.38
400.389	82.38
400.613	80.38
400.837	78.38
401.062	73.38
401.286	73.38
401.51	86.38
401.734	87.38
401.958	83.38
402.182	109.38
402.406	133.38
402.63	96.38
402.854	91.38
403.078	94.38
403.302	89.38
403.526	89.38
403.75	88.38
403.974	94.38
404.198	86.38
404.422	75.38
404.645	75.38
404.869	62.38
405.093	85.38
405.317	94.38
405.541	95.38
405.765	86.38
405.988	104.38
406.212	157.38
406.436	201.38
406.66	128.38
406.883	100.38
407.107	70.38
407.331	74.38
407.555	102.38
407.778	79.38
408.002	91.38
408.226	84.38
408.449	91.38
408.673	91.38
408.896	99.38
409.12	89.38
409.344	83.38
409.567	74.38
409.791	78.38
410.014	91.38
410.238	92.38
410.461	85.38
410.685	87.38
410.908	91.38
411.132	93.38
411.355	109.38
411.578	89.38
411.802	93.38
412.025	78.38
412.249	78.38
412.472	79.38
412.695	89.38
412.919	82.38
413.142	83.38
413.365	79.38
413.589	75.38
413.812	94.38
414.035	82.38
414.258	80.38
414.482	77.38
414.705	69.38
414.928	87.38
415.151	102.38
415.374	83.38
415.597	73.38
415.821	77.38
416.044	75.38
416.267	85.38
416.49	88.38
416.713	73.38
416.936	87.38
417.159	74.38
417.382	85.38
417.605	77.38
417.828	90.38
418.051	94.38
418.274	88.38
418.497	79.38
418.72	78.38
418.943	91.38
419.166	87.38
419.389	81.38
419.611	83.38
419.834	86.38
420.057	88.38
420.28	85.38
420.503	78.38
420.726	84.38
420.948	94.38
421.171	87.38
421.394	91.38
421.617	94.38
421.839	74.38
422.062	84.38
422.285	102.38
422.507	102.38
422.73	94.38
422.953	82.38
423.175	82.38
423.398	83.38
423.621	91.38
423.843	88.38
424.066	75.38
424.288	87.38
424.511	79.38
424.733	91.38
424.956	99.38
425.178	77.38
425.401	95.38
425.623	103.38
425.846	75.38
426.068	81.38
426.291	86.38
426.513	91.38
426.735	84.38
426.958	100.38
427.18	88.38
427.402	126.38
427.625	141.38
427.847	135.38
428.069	99.38
428.292	80.38
428.514	88.38
428.736	87.38
428.958	79.38
429.181	85.38
429.403	81.38
429.625	89.38
429.847	83.38
430.069	92.38
430.292	84.38
430.514	96.38
430.736	83.38
430.958	70.38
431.18	78.38
431.402	86.38
431.624	79.38
431.846	87.38
432.068	66.38
432.29	87.38
432.512	84.38
432.734	78.38
432.956	94.38
433.178	87.38
433.4	97.38
433.622	88.38
433.844	77.38
434.066	75.38
434.287	85.38
434.509	72.38
434.731	86.38
434.953	83.38
435.175	96.38
435.397	88.38
435.618	83.38
435.84	95.38
436.062	107.38
436.284	114.38
436.505	91.38
436.727	88.38
436.949	88.38
437.17	83.38
437.392	93.38
437.614	90.38
437.835	96.38
438.057	96.38
438.278	98.38
438.5	90.38
438.721	94.38
438.943	99.38
439.165	99.38
439.386	75.38
439.608	82.38
439.829	87.38
440.05	93.38
440.272	125.38
440.493	93.38
440.715	88.38
440.936	68.38
441.158	91.38
441.379	83.38
441.6	72.38
441.822	91.38
442.043	93.38
442.264	103.38
442.486	112.38
442.707	87.38
442.928	95.38
443.149	124.38
443.371	116.38
443.592	96.38
443.813	95.38
444.034	99.38
444.255	90.38
444.476	87.38
444.698	73.38
444.919	86.38
445.14	120.38
445.361	108.38
445.582	96.38
445.803	109.38
446.024	115.38
446.245	123.38
446.466	105.38
446.687	91.38
446.908	79.38
447.129	89.38
447.35	92.38
447.571	72.38
447.792	85.38
448.013	90.38
448.234	109.38
448.455	95.38
448.675	100.38
448.896	105.38
449.117	104.38
449.338	102.38
449.559	125.38
449.779	119.38
450	92.38
450.221	94.38
450.442	80.38
450.662	79.38
450.883	102.38
451.104	103.38
451.324	82.38
451.545	79.38
451.766	74.38
451.986	76.38
452.207	66.38
452.428	83.38
452.648	90.38
452.869	102.38
453.089	111.38
453.31	104.38
453.53	95.38
453.751	69.38
453.971	91.38
454.192	95.38
454.412	79.38
454.633	80.38
454.853	90.38
455.073	84.38
455.294	86.38
455.514	81.38
455.734	83.38
455.955	84.38
456.175	81.38
456.395	78.38
456.616	76.38
456.836	68.38
457.056	77.38
457.276	101.38
457.497	76.38
457.717	96.38
457.937	82.38
458.157	90.38
458.377	92.38
458.598	102.38
458.818	146.38
459.038	132.38
459.258	101.38
459.478	100.38
459.698	88.38
459.918	82.38
460.138	78.38
460.358	59.38
460.578	95.38
460.798	78.38
461.018	74.38
461.238	77.38
461.458	83.38
461.678	85.38
461.898	75.38
462.118	109.38
462.338	104.38
462.558	93.38
462.777	74.38
462.997	82.38
463.217	74.38
463.437	94.38
463.657	82.38
463.876	76.38
464.096	94.38
464.316	97.38
464.536	91.38
464.755	95.38
464.975	95.38
465.195	143.38
465.414	138.38
465.634	93.38
465.854	84.38
466.073	79.38
466.293	94.38
466.512	84.38
466.732	83.38
466.951	84.38
467.171	91.38
467.391	88.38
467.61	102.38
467.829	70.38
468.049	99.38
468.268	93.38
468.488	76.38
468.707	75.38
468.927	87.38
469.146	81.38
469.365	87.38
469.585	100.38
469.804	102.38
470.023	95.38
470.243	87.38
470.462	101.38
470.681	106.38
470.901	87.38
471.12	74.38
471.339	95.38
471.558	86.38
471.777	80.38
471.997	93.38
472.216	82.38
472.435	91.38
472.654	97.38
472.873	86.38
473.092	79.38
473.311	84.38
473.53	74.38
473.749	91.38
473.968	83.38
474.187	104.38
474.406	92.38
474.625	80.38
474.844	62.38
475.063	93.38
475.282	89.38
475.501	99.38
475.72	100.38
475.939	69.38
476.158	81.38
476.377	76.38
476.596	90.38
476.814	85.38
477.033	87.38
477.252	91.38
477.471	77.38
477.69	88.38
477.908	95.38
478.127	83.38
478.346	87.38
478.564	85.38
478.783	93.38
479.002	87.38
479.22	94.38
479.439	108.38
479.658	110.38
479.876	99.38
480.095	89.38
480.313	90.38
480.532	78.38
480.751	83.38
480.969	102.38
481.188	105.38
481.406	92.38
481.624	92.38
481.843	87.38
482.061	82.38
482.28	102.38
482.498	83.38
482.717	72.38
482.935	83.38
483.153	78.38
483.372	82.38
483.59	95.38
483.808	84.38
484.027	82.38
484.245	93.38
484.463	77.38
484.681	95.38
484.9	91.38
485.118	92.38
485.336	86.38
485.554	88.38
485.772	86.38
485.99	103.38
486.209	95.38
486.427	102.38
486.645	99.38
486.863	96.38
487.081	85.38
487.299	95.38
487.517	91.38
487.735	86.38
487.953	82.38
488.171	87.38
488.389	88.38
488.607	91.38
488.825	91.38
489.043	70.38
489.261	68.38
489.479	95.38
489.696	73.38
489.914	74.38
490.132	74.38
490.35	91.38
490.568	72.38
490.786	92.38
491.003	90.38
491.221	89.38
491.439	79.38
491.657	90.38
491.874	92.38
492.092	86.38
492.31	98.38
492.527	79.38
492.745	87.38
492.963	87.38
493.18	76.38
493.398	85.38
493.615	87.38
493.833	100.38
494.05	96.38
494.268	88.38
494.485	76.38
494.703	82.38
494.92	84.38
495.138	92.38
495.355	87.38
495.573	95.38
495.79	90.38
496.008	92.38
496.225	83.38
496.442	88.38
496.66	102.38
496.877	93.38
497.094	88.38
497.312	90.38
497.529	89.38
497.746	83.38
497.963	101.38
498.181	85.38
498.398	91.38
498.615	116.38
498.832	107.38
499.049	88.38
499.267	83.38
499.484	98.38
499.701	94.38
499.918	90.38
500.135	91.38
500.352	88.38
500.569	89.38
500.786	89.38
501.003	87.38
501.22	77.38
501.437	91.38
501.654	97.38
501.871	93.38
502.088	89.38
502.305	94.38
502.522	95.38
502.739	90.38
502.956	82.38
503.172	88.38
503.389	86.38
503.606	94.38
503.823	88.38
504.04	88.38
504.256	71.38
504.473	95.38
504.69	92.38
504.907	83.38
505.123	91.38
505.34	91.38
505.557	86.38
505.773	85.38
505.99	86.38
506.207	93.38
506.423	90.38
506.64	81.38
506.856	71.38
507.073	85.38
507.289	86.38
507.506	102.38
507.722	101.38
507.939	106.38
508.155	96.38
508.372	82.38
508.588	86.38
508.805	82.38
509.021	87.38
509.238	79.38
509.454	88.38
509.67	103.38
509.887	107.38
510.103	135.38
510.319	194.38
510.536	645.38
510.752	1981.38
510.968	545.38
511.184	133.38
511.401	95.38
511.617	94.38
511.833	88.38
512.049	104.38
512.265	85.38
512.481	100.38
512.698	89.38
512.914	90.38
513.13	96.38
513.346	88.38
513.562	94.38
513.778	94.38
513.994	93.38
514.21	100.38
514.426	105.38
514.642	120.38
514.858	114.38
515.074	156.38
515.29	381.38
515.506	1209.38
515.721	434.38
515.937	142.38
516.153	92.38
516.369	89.38
516.585	93.38
516.801	87.38
517.016	85.38
517.232	91.38
517.448	94.38
517.664	78.38
