Data from Uncirc_1997_H10_HRD10591_00056.txt Node
Date: Wed Jan 03 11:28:41 EST 2024
User: Yrep
Spectrometer: HR+D1059
Trigger mode: 1
Integration Time (sec): 1.000000E-1
Scans to average: 1
Electric dark correction enabled: true
Nonlinearity correction enabled: false
Boxcar width: 0
XAxis mode: Wavelengths
Number of Pixels in Spectrum: 2048
>>>>>Begin Spectral Data<<<<<
223.165	-12.06
223.4	-12.06
223.635	-12.06
223.869	-19.06
224.104	-25.06
224.338	-12.06
224.573	-16.06
224.808	-15.06
225.042	0.94
225.277	-5.06
225.511	8.94
225.746	-2.06
225.98	11.94
226.215	9.94
226.449	9.94
226.683	18.94
226.918	15.94
227.152	29.94
227.387	38.94
227.621	38.94
227.856	46.94
228.09	46.94
228.324	50.94
228.559	65.94
228.793	63.94
229.027	58.94
229.262	63.94
229.496	62.94
229.73	76.94
229.964	73.94
230.199	77.94
230.433	75.94
230.667	75.94
230.901	70.94
231.136	80.94
231.37	75.94
231.604	66.94
231.838	77.94
232.072	86.94
232.306	83.94
232.541	86.94
232.775	89.94
233.009	86.94
233.243	73.94
233.477	70.94
233.711	83.94
233.945	75.94
234.179	81.94
234.413	96.94
234.647	83.94
234.881	93.94
235.115	83.94
235.349	77.94
235.583	72.94
235.817	74.94
236.051	86.94
236.285	80.94
236.519	81.94
236.753	78.94
236.987	73.94
237.221	97.94
237.455	80.94
237.689	66.94
237.922	76.94
238.156	60.94
238.39	71.94
238.624	82.94
238.858	73.94
239.091	63.94
239.325	79.94
239.559	72.94
239.793	79.94
240.027	63.94
240.26	61.94
240.494	81.94
240.728	94.94
240.961	77.94
241.195	70.94
241.429	73.94
241.662	81.94
241.896	81.94
242.13	74.94
242.363	76.94
242.597	77.94
242.83	87.94
243.064	69.94
243.298	66.94
243.531	63.94
243.765	75.94
243.998	79.94
244.232	76.94
244.465	74.94
244.699	75.94
244.932	72.94
245.166	72.94
245.399	83.94
245.633	72.94
245.866	82.94
246.099	71.94
246.333	86.94
246.566	83.94
246.8	94.94
247.033	75.94
247.266	79.94
247.5	77.94
247.733	74.94
247.966	78.94
248.2	80.94
248.433	77.94
248.666	73.94
248.899	66.94
249.133	93.94
249.366	96.94
249.599	88.94
249.832	88.94
250.066	85.94
250.299	77.94
250.532	64.94
250.765	81.94
250.998	75.94
251.231	98.94
251.465	66.94
251.698	74.94
251.931	69.94
252.164	74.94
252.397	82.94
252.63	77.94
252.863	75.94
253.096	74.94
253.329	75.94
253.562	78.94
253.795	79.94
254.028	91.94
254.261	72.94
254.494	87.94
254.727	80.94
254.96	73.94
255.193	84.94
255.426	84.94
255.659	67.94
255.892	77.94
256.124	83.94
256.357	79.94
256.59	84.94
256.823	77.94
257.056	95.94
257.289	83.94
257.521	81.94
257.754	81.94
257.987	81.94
258.22	86.94
258.452	91.94
258.685	79.94
258.918	80.94
259.151	94.94
259.383	102.94
259.616	73.94
259.849	84.94
260.081	72.94
260.314	66.94
260.547	77.94
260.779	94.94
261.012	83.94
261.244	95.94
261.477	73.94
261.71	92.94
261.942	111.94
262.175	120.94
262.407	91.94
262.64	92.94
262.872	85.94
263.105	72.94
263.337	92.94
263.57	101.94
263.802	89.94
264.035	88.94
264.267	88.94
264.499	72.94
264.732	82.94
264.964	81.94
265.197	72.94
265.429	63.94
265.661	74.94
265.894	89.94
266.126	71.94
266.358	73.94
266.591	73.94
266.823	81.94
267.055	93.94
267.287	88.94
267.52	88.94
267.752	82.94
267.984	87.94
268.216	75.94
268.448	83.94
268.681	97.94
268.913	80.94
269.145	84.94
269.377	89.94
269.609	72.94
269.841	89.94
270.073	86.94
270.306	70.94
270.538	83.94
270.77	82.94
271.002	74.94
271.234	73.94
271.466	89.94
271.698	65.94
271.93	77.94
272.162	82.94
272.394	93.94
272.626	80.94
272.858	83.94
273.09	84.94
273.322	90.94
273.553	85.94
273.785	80.94
274.017	71.94
274.249	91.94
274.481	71.94
274.713	79.94
274.945	102.94
275.176	89.94
275.408	85.94
275.64	85.94
275.872	87.94
276.104	103.94
276.335	97.94
276.567	87.94
276.799	90.94
277.031	105.94
277.262	79.94
277.494	80.94
277.726	73.94
277.957	86.94
278.189	97.94
278.421	79.94
278.652	81.94
278.884	89.94
279.115	80.94
279.347	83.94
279.579	83.94
279.81	75.94
280.042	89.94
280.273	88.94
280.505	88.94
280.736	85.94
280.968	95.94
281.199	79.94
281.431	82.94
281.662	83.94
281.894	80.94
282.125	95.94
282.356	104.94
282.588	125.94
282.819	108.94
283.051	86.94
283.282	87.94
283.513	90.94
283.745	86.94
283.976	84.94
284.207	97.94
284.439	83.94
284.67	90.94
284.901	85.94
285.132	94.94
285.364	94.94
285.595	82.94
285.826	75.94
286.057	85.94
286.288	94.94
286.52	83.94
286.751	87.94
286.982	86.94
287.213	86.94
287.444	83.94
287.675	77.94
287.906	80.94
288.138	88.94
288.369	98.94
288.6	86.94
288.831	97.94
289.062	91.94
289.293	94.94
289.524	81.94
289.755	93.94
289.986	89.94
290.217	95.94
290.448	89.94
290.679	90.94
290.91	78.94
291.141	71.94
291.371	92.94
291.602	78.94
291.833	87.94
292.064	86.94
292.295	99.94
292.526	77.94
292.757	84.94
292.987	98.94
293.218	98.94
293.449	88.94
293.68	91.94
293.91	93.94
294.141	71.94
294.372	87.94
294.603	101.94
294.833	88.94
295.064	87.94
295.295	96.94
295.525	106.94
295.756	103.94
295.987	106.94
296.217	117.94
296.448	106.94
296.679	78.94
296.909	81.94
297.14	81.94
297.37	79.94
297.601	88.94
297.831	89.94
298.062	92.94
298.292	71.94
298.523	103.94
298.753	88.94
298.984	77.94
299.214	83.94
299.445	95.94
299.675	96.94
299.905	74.94
300.136	81.94
300.366	79.94
300.597	86.94
300.827	96.94
301.057	91.94
301.288	101.94
301.518	94.94
301.748	88.94
301.979	93.94
302.209	97.94
302.439	107.94
302.669	85.94
302.9	78.94
303.13	91.94
303.36	78.94
303.59	99.94
303.82	100.94
304.051	73.94
304.281	94.94
304.511	94.94
304.741	106.94
304.971	87.94
305.201	94.94
305.431	81.94
305.661	97.94
305.891	90.94
306.121	92.94
306.352	100.94
306.582	87.94
306.812	97.94
307.042	93.94
307.272	94.94
307.502	102.94
307.731	91.94
307.961	73.94
308.191	91.94
308.421	87.94
308.651	94.94
308.881	89.94
309.111	95.94
309.341	96.94
309.571	99.94
309.8	92.94
310.03	115.94
310.26	97.94
310.49	103.94
310.72	97.94
310.949	100.94
311.179	98.94
311.409	89.94
311.639	75.94
311.868	94.94
312.098	83.94
312.328	93.94
312.557	100.94
312.787	103.94
313.017	119.94
313.246	93.94
313.476	86.94
313.706	79.94
313.935	87.94
314.165	92.94
314.394	85.94
314.624	103.94
314.853	88.94
315.083	101.94
315.312	99.94
315.542	103.94
315.771	94.94
316.001	90.94
316.23	96.94
316.46	80.94
316.689	102.94
316.919	91.94
317.148	95.94
317.377	102.94
317.607	94.94
317.836	88.94
318.065	95.94
318.295	98.94
318.524	92.94
318.753	88.94
318.983	79.94
319.212	111.94
319.441	90.94
319.67	105.94
319.9	107.94
320.129	92.94
320.358	93.94
320.587	99.94
320.816	107.94
321.046	112.94
321.275	99.94
321.504	95.94
321.733	95.94
321.962	87.94
322.191	89.94
322.42	102.94
322.649	98.94
322.878	96.94
323.108	105.94
323.337	130.94
323.566	131.94
323.795	145.94
324.024	190.94
324.253	375.94
324.482	791.94
324.71	1564.94
324.939	2052.94
325.168	767.94
325.397	232.94
325.626	140.94
325.855	126.94
326.084	115.94
326.313	118.94
326.542	149.94
326.77	199.94
326.999	433.94
327.228	919.94
327.457	1557.94
327.686	1230.94
327.914	340.94
328.143	191.94
328.372	133.94
328.6	111.94
328.829	122.94
329.058	121.94
329.287	120.94
329.515	112.94
329.744	105.94
329.972	116.94
330.201	102.94
330.43	92.94
330.658	102.94
330.887	136.94
331.115	128.94
331.344	104.94
331.572	110.94
331.801	102.94
332.03	92.94
332.258	97.94
332.486	99.94
332.715	91.94
332.943	92.94
333.172	100.94
333.4	85.94
333.629	110.94
333.857	124.94
334.085	104.94
334.314	94.94
334.542	85.94
334.771	92.94
334.999	87.94
335.227	109.94
335.455	88.94
335.684	89.94
335.912	94.94
336.14	75.94
336.369	94.94
336.597	93.94
336.825	92.94
337.053	98.94
337.281	100.94
337.51	75.94
337.738	78.94
337.966	94.94
338.194	94.94
338.422	102.94
338.65	95.94
338.878	72.94
339.106	73.94
339.334	90.94
339.562	86.94
339.79	81.94
340.018	90.94
340.246	97.94
340.474	97.94
340.702	91.94
340.93	86.94
341.158	103.94
341.386	89.94
341.614	101.94
341.842	87.94
342.07	82.94
342.298	90.94
342.526	86.94
342.754	83.94
342.981	86.94
343.209	99.94
343.437	107.94
343.665	95.94
343.893	91.94
344.12	103.94
344.348	93.94
344.576	84.94
344.804	92.94
345.031	89.94
345.259	88.94
345.487	93.94
345.714	85.94
345.942	87.94
346.17	86.94
346.397	98.94
346.625	86.94
346.853	93.94
347.08	98.94
347.308	85.94
347.535	92.94
347.763	91.94
347.99	85.94
348.218	108.94
348.445	99.94
348.673	105.94
348.9	105.94
349.128	87.94
349.355	79.94
349.583	99.94
349.81	94.94
350.037	103.94
350.265	102.94
350.492	96.94
350.72	87.94
350.947	111.94
351.174	106.94
351.402	111.94
351.629	108.94
351.856	102.94
352.083	103.94
352.311	105.94
352.538	122.94
352.765	102.94
352.992	118.94
353.22	115.94
353.447	110.94
353.674	103.94
353.901	88.94
354.128	90.94
354.355	99.94
354.583	95.94
354.81	93.94
355.037	100.94
355.264	94.94
355.491	104.94
355.718	108.94
355.945	98.94
356.172	76.94
356.399	87.94
356.626	93.94
356.853	88.94
357.08	89.94
357.307	101.94
357.534	86.94
357.761	105.94
357.988	101.94
358.215	91.94
358.441	92.94
358.668	95.94
358.895	87.94
359.122	89.94
359.349	86.94
359.576	87.94
359.802	74.94
360.029	111.94
360.256	90.94
360.483	107.94
360.709	100.94
360.936	88.94
361.163	85.94
361.39	88.94
361.616	83.94
361.843	101.94
362.07	105.94
362.296	112.94
362.523	91.94
362.749	96.94
362.976	87.94
363.203	95.94
363.429	93.94
363.656	99.94
363.882	79.94
364.109	71.94
364.335	93.94
364.562	85.94
364.788	83.94
365.015	76.94
365.241	95.94
365.468	109.94
365.694	104.94
365.92	104.94
366.147	84.94
366.373	86.94
366.599	92.94
366.826	81.94
367.052	95.94
367.278	94.94
367.505	91.94
367.731	89.94
367.957	90.94
368.184	96.94
368.41	85.94
368.636	109.94
368.862	116.94
369.089	111.94
369.315	100.94
369.541	86.94
369.767	91.94
369.993	90.94
370.219	88.94
370.445	95.94
370.672	72.94
370.898	93.94
371.124	82.94
371.35	83.94
371.576	88.94
371.802	93.94
372.028	93.94
372.254	93.94
372.48	86.94
372.706	91.94
372.932	88.94
373.158	97.94
373.384	98.94
373.61	87.94
373.835	96.94
374.061	95.94
374.287	89.94
374.513	86.94
374.739	87.94
374.965	79.94
375.191	86.94
375.416	108.94
375.642	99.94
375.868	98.94
376.094	82.94
376.319	85.94
376.545	89.94
376.771	83.94
376.997	88.94
377.222	92.94
377.448	99.94
377.674	92.94
377.899	89.94
378.125	90.94
378.35	80.94
378.576	93.94
378.802	102.94
379.027	74.94
379.253	97.94
379.478	108.94
379.704	94.94
379.929	88.94
380.155	93.94
380.38	88.94
380.606	84.94
380.831	99.94
381.057	105.94
381.282	99.94
381.507	98.94
381.733	99.94
381.958	95.94
382.184	106.94
382.409	84.94
382.634	88.94
382.86	103.94
383.085	99.94
383.31	97.94
383.535	103.94
383.761	94.94
383.986	98.94
384.211	94.94
384.436	107.94
384.662	95.94
384.887	103.94
385.112	114.94
385.337	77.94
385.562	102.94
385.787	100.94
386.013	107.94
386.238	99.94
386.463	100.94
386.688	107.94
386.913	104.94
387.138	93.94
387.363	99.94
387.588	98.94
387.813	96.94
388.038	109.94
388.263	98.94
388.488	91.94
388.713	106.94
388.938	107.94
389.163	95.94
389.387	106.94
389.612	89.94
389.837	95.94
390.062	111.94
390.287	89.94
390.512	88.94
390.736	91.94
390.961	88.94
391.186	90.94
391.411	94.94
391.636	100.94
391.86	81.94
392.085	88.94
392.31	97.94
392.534	82.94
392.759	94.94
392.984	88.94
393.208	96.94
393.433	90.94
393.658	88.94
393.882	91.94
394.107	88.94
394.331	96.94
394.556	70.94
394.78	90.94
395.005	86.94
395.229	100.94
395.454	71.94
395.678	96.94
395.903	89.94
396.127	84.94
396.352	81.94
396.576	84.94
396.801	83.94
397.025	81.94
397.249	78.94
397.474	78.94
397.698	84.94
397.922	96.94
398.147	73.94
398.371	85.94
398.595	86.94
398.82	88.94
399.044	81.94
399.268	82.94
399.492	83.94
399.717	91.94
399.941	100.94
400.165	95.94
400.389	78.94
400.613	82.94
400.837	75.94
401.062	79.94
401.286	86.94
401.51	83.94
401.734	97.94
401.958	103.94
402.182	120.94
402.406	134.94
402.63	105.94
402.854	97.94
403.078	83.94
403.302	86.94
403.526	92.94
403.75	89.94
403.974	79.94
404.198	95.94
404.422	97.94
404.645	93.94
404.869	80.94
405.093	89.94
405.317	89.94
405.541	91.94
405.765	102.94
405.988	113.94
406.212	161.94
406.436	183.94
406.66	141.94
406.883	102.94
407.107	90.94
407.331	106.94
407.555	97.94
407.778	91.94
408.002	107.94
408.226	91.94
408.449	97.94
408.673	87.94
408.896	91.94
409.12	89.94
409.344	81.94
409.567	97.94
409.791	80.94
410.014	92.94
410.238	88.94
410.461	87.94
410.685	86.94
410.908	108.94
411.132	98.94
411.355	99.94
411.578	93.94
411.802	99.94
412.025	85.94
412.249	108.94
412.472	103.94
412.695	85.94
412.919	90.94
413.142	75.94
413.365	84.94
413.589	92.94
413.812	98.94
414.035	104.94
414.258	91.94
414.482	100.94
414.705	77.94
414.928	91.94
415.151	88.94
415.374	93.94
415.597	85.94
415.821	69.94
416.044	90.94
416.267	97.94
416.49	87.94
416.713	99.94
416.936	104.94
417.159	67.94
417.382	91.94
417.605	79.94
417.828	93.94
418.051	82.94
418.274	82.94
418.497	82.94
418.72	75.94
418.943	79.94
419.166	76.94
419.389	89.94
419.611	96.94
419.834	95.94
420.057	79.94
420.28	88.94
420.503	93.94
420.726	94.94
420.948	93.94
421.171	99.94
421.394	80.94
421.617	101.94
421.839	85.94
422.062	87.94
422.285	87.94
422.507	78.94
422.73	103.94
422.953	96.94
423.175	87.94
423.398	78.94
423.621	87.94
423.843	83.94
424.066	71.94
424.288	80.94
424.511	85.94
424.733	90.94
424.956	89.94
425.178	76.94
425.401	107.94
425.623	98.94
425.846	92.94
426.068	98.94
426.291	102.94
426.513	80.94
426.735	77.94
426.958	91.94
427.18	98.94
427.402	121.94
427.625	139.94
427.847	104.94
428.069	87.94
428.292	77.94
428.514	84.94
428.736	85.94
428.958	83.94
429.181	88.94
429.403	75.94
429.625	90.94
429.847	89.94
430.069	95.94
430.292	94.94
430.514	86.94
430.736	75.94
430.958	96.94
431.18	84.94
431.402	83.94
431.624	91.94
431.846	84.94
432.068	75.94
432.29	82.94
432.512	88.94
432.734	86.94
432.956	85.94
433.178	83.94
433.4	104.94
433.622	80.94
433.844	95.94
434.066	97.94
434.287	83.94
434.509	90.94
434.731	77.94
434.953	86.94
435.175	96.94
435.397	96.94
435.618	81.94
435.84	110.94
436.062	125.94
436.284	96.94
436.505	104.94
436.727	87.94
436.949	93.94
437.17	88.94
437.392	97.94
437.614	100.94
437.835	105.94
438.057	112.94
438.278	103.94
438.5	78.94
438.721	111.94
438.943	100.94
439.165	76.94
439.386	87.94
439.608	86.94
439.829	83.94
440.05	117.94
440.272	130.94
440.493	103.94
440.715	85.94
440.936	83.94
441.158	86.94
441.379	96.94
441.6	96.94
441.822	98.94
442.043	88.94
442.264	91.94
442.486	94.94
442.707	96.94
442.928	88.94
443.149	113.94
443.371	111.94
443.592	120.94
443.813	117.94
444.034	110.94
444.255	85.94
444.476	79.94
444.698	92.94
444.919	95.94
445.14	128.94
445.361	123.94
445.582	112.94
445.803	125.94
446.024	124.94
446.245	125.94
446.466	107.94
446.687	93.94
446.908	84.94
447.129	104.94
447.35	99.94
447.571	80.94
447.792	72.94
448.013	107.94
448.234	105.94
448.455	115.94
448.675	107.94
448.896	105.94
449.117	94.94
449.338	97.94
449.559	113.94
449.779	134.94
450	85.94
450.221	89.94
450.442	85.94
450.662	87.94
450.883	95.94
451.104	109.94
451.324	93.94
451.545	74.94
451.766	89.94
451.986	78.94
452.207	79.94
452.428	78.94
452.648	84.94
452.869	110.94
453.089	99.94
453.31	121.94
453.53	98.94
453.751	77.94
453.971	96.94
454.192	107.94
454.412	87.94
454.633	89.94
454.853	80.94
455.073	94.94
455.294	69.94
455.514	81.94
455.734	86.94
455.955	82.94
456.175	80.94
456.395	90.94
456.616	95.94
456.836	79.94
457.056	86.94
457.276	77.94
457.497	92.94
457.717	79.94
457.937	84.94
458.157	80.94
458.377	82.94
458.598	114.94
458.818	139.94
459.038	150.94
459.258	112.94
459.478	93.94
459.698	86.94
459.918	63.94
460.138	97.94
460.358	93.94
460.578	62.94
460.798	82.94
461.018	84.94
461.238	89.94
461.458	78.94
461.678	82.94
461.898	85.94
462.118	81.94
462.338	83.94
462.558	95.94
462.777	78.94
462.997	79.94
463.217	67.94
463.437	76.94
463.657	88.94
463.876	82.94
464.096	84.94
464.316	84.94
464.536	81.94
464.755	113.94
464.975	93.94
465.195	127.94
465.414	144.94
465.634	94.94
465.854	81.94
466.073	89.94
466.293	76.94
466.512	87.94
466.732	94.94
466.951	93.94
467.171	89.94
467.391	88.94
467.61	92.94
467.829	101.94
468.049	79.94
468.268	93.94
468.488	82.94
468.707	82.94
468.927	85.94
469.146	77.94
469.365	90.94
469.585	69.94
469.804	108.94
470.023	91.94
470.243	85.94
470.462	98.94
470.681	97.94
470.901	89.94
471.12	79.94
471.339	91.94
471.558	88.94
471.777	93.94
471.997	98.94
472.216	90.94
472.435	87.94
472.654	87.94
472.873	93.94
473.092	95.94
473.311	81.94
473.53	97.94
473.749	103.94
473.968	84.94
474.187	112.94
474.406	88.94
474.625	91.94
474.844	77.94
475.063	75.94
475.282	85.94
475.501	83.94
475.72	89.94
475.939	83.94
476.158	99.94
476.377	79.94
476.596	87.94
476.814	75.94
477.033	87.94
477.252	93.94
477.471	85.94
477.69	89.94
477.908	92.94
478.127	95.94
478.346	94.94
478.564	82.94
478.783	84.94
479.002	104.94
479.22	78.94
479.439	86.94
479.658	105.94
479.876	107.94
480.095	96.94
480.313	101.94
480.532	103.94
480.751	74.94
480.969	85.94
481.188	108.94
481.406	111.94
481.624	101.94
481.843	91.94
482.061	81.94
482.28	86.94
482.498	86.94
482.717	87.94
482.935	93.94
483.153	87.94
483.372	85.94
483.59	87.94
483.808	83.94
484.027	94.94
484.245	95.94
484.463	69.94
484.681	104.94
484.9	115.94
485.118	89.94
485.336	75.94
485.554	92.94
485.772	89.94
485.99	99.94
486.209	92.94
486.427	109.94
486.645	112.94
486.863	115.94
487.081	86.94
487.299	86.94
487.517	92.94
487.735	90.94
487.953	85.94
488.171	95.94
488.389	102.94
488.607	92.94
488.825	96.94
489.043	107.94
489.261	90.94
489.479	86.94
489.696	93.94
489.914	86.94
490.132	90.94
490.35	85.94
490.568	89.94
490.786	93.94
491.003	99.94
491.221	97.94
491.439	99.94
491.657	98.94
491.874	86.94
492.092	81.94
492.31	91.94
492.527	92.94
492.745	88.94
492.963	108.94
493.18	98.94
493.398	93.94
493.615	97.94
493.833	91.94
494.05	98.94
494.268	96.94
494.485	112.94
494.703	86.94
494.92	92.94
495.138	95.94
495.355	92.94
495.573	91.94
495.79	98.94
496.008	101.94
496.225	95.94
496.442	88.94
496.66	93.94
496.877	95.94
497.094	97.94
497.312	86.94
497.529	88.94
497.746	89.94
497.963	95.94
498.181	88.94
498.398	90.94
498.615	104.94
498.832	109.94
499.049	85.94
499.267	87.94
499.484	86.94
499.701	89.94
499.918	79.94
500.135	93.94
500.352	98.94
500.569	93.94
500.786	95.94
501.003	91.94
501.22	87.94
501.437	96.94
501.654	103.94
501.871	87.94
502.088	95.94
502.305	80.94
502.522	94.94
502.739	90.94
502.956	96.94
503.172	91.94
503.389	89.94
503.606	87.94
503.823	83.94
504.04	95.94
504.256	92.94
504.473	93.94
504.69	83.94
504.907	92.94
505.123	91.94
505.34	69.94
505.557	93.94
505.773	78.94
505.99	79.94
506.207	105.94
506.423	91.94
506.64	96.94
506.856	82.94
507.073	82.94
507.289	91.94
507.506	97.94
507.722	120.94
507.939	105.94
508.155	90.94
508.372	96.94
508.588	87.94
508.805	95.94
509.021	98.94
509.238	79.94
509.454	98.94
509.67	106.94
509.887	104.94
510.103	126.94
510.319	200.94
510.536	673.94
510.752	1981.94
510.968	557.94
511.184	139.94
511.401	89.94
511.617	82.94
511.833	94.94
512.049	96.94
512.265	98.94
512.481	90.94
512.698	84.94
512.914	80.94
513.13	91.94
513.346	89.94
513.562	94.94
513.778	92.94
513.994	88.94
514.21	92.94
514.426	104.94
514.642	115.94
514.858	118.94
515.074	150.94
515.29	412.94
515.506	1256.94
515.721	455.94
515.937	146.94
516.153	90.94
516.369	88.94
