Data from Uncirc_1997_H10_HRD10591_00010.txt Node
Date: Wed Jan 03 11:28:32 EST 2024
User: Yrep
Spectrometer: HR+D1059
Trigger mode: 1
Integration Time (sec): 1.000000E-1
Scans to average: 1
Electric dark correction enabled: true
Nonlinearity correction enabled: false
Boxcar width: 0
XAxis mode: Wavelengths
Number of Pixels in Spectrum: 2048
>>>>>Begin Spectral Data<<<<<
223.165	-9.5
223.4	-9.5
223.635	-9.5
223.869	-28.5
224.104	-22.5
224.338	-25.5
224.573	-24.5
224.808	-16.5
225.042	-4.5
225.277	-7.5
225.511	-8.5
225.746	18.5
225.98	7.5
226.215	16.5
226.449	16.5
226.683	17.5
226.918	29.5
227.152	41.5
227.387	34.5
227.621	33.5
227.856	41.5
228.09	48.5
228.324	48.5
228.559	57.5
228.793	54.5
229.027	62.5
229.262	77.5
229.496	77.5
229.73	67.5
229.964	87.5
230.199	72.5
230.433	76.5
230.667	66.5
230.901	75.5
231.136	74.5
231.37	86.5
231.604	83.5
231.838	61.5
232.072	73.5
232.306	76.5
232.541	72.5
232.775	89.5
233.009	86.5
233.243	92.5
233.477	89.5
233.711	94.5
233.945	64.5
234.179	81.5
234.413	95.5
234.647	85.5
234.881	80.5
235.115	79.5
235.349	72.5
235.583	73.5
235.817	75.5
236.051	91.5
236.285	78.5
236.519	79.5
236.753	82.5
236.987	69.5
237.221	89.5
237.455	94.5
237.689	86.5
237.922	79.5
238.156	71.5
238.39	74.5
238.624	77.5
238.858	61.5
239.091	82.5
239.325	69.5
239.559	79.5
239.793	95.5
240.027	66.5
240.26	67.5
240.494	84.5
240.728	75.5
240.961	79.5
241.195	78.5
241.429	73.5
241.662	76.5
241.896	70.5
242.13	81.5
242.363	76.5
242.597	60.5
242.83	82.5
243.064	83.5
243.298	79.5
243.531	82.5
243.765	100.5
243.998	69.5
244.232	79.5
244.465	79.5
244.699	77.5
244.932	75.5
245.166	82.5
245.399	86.5
245.633	83.5
245.866	64.5
246.099	73.5
246.333	67.5
246.566	80.5
246.8	74.5
247.033	72.5
247.266	85.5
247.5	82.5
247.733	82.5
247.966	73.5
248.2	79.5
248.433	88.5
248.666	72.5
248.899	81.5
249.133	84.5
249.366	99.5
249.599	85.5
249.832	85.5
250.066	77.5
250.299	83.5
250.532	82.5
250.765	88.5
250.998	84.5
251.231	82.5
251.465	75.5
251.698	85.5
251.931	75.5
252.164	69.5
252.397	66.5
252.63	62.5
252.863	73.5
253.096	71.5
253.329	86.5
253.562	77.5
253.795	93.5
254.028	85.5
254.261	82.5
254.494	75.5
254.727	84.5
254.96	78.5
255.193	80.5
255.426	74.5
255.659	82.5
255.892	78.5
256.124	84.5
256.357	78.5
256.59	97.5
256.823	86.5
257.056	85.5
257.289	85.5
257.521	86.5
257.754	77.5
257.987	81.5
258.22	80.5
258.452	76.5
258.685	85.5
258.918	89.5
259.151	83.5
259.383	94.5
259.616	83.5
259.849	82.5
260.081	95.5
260.314	77.5
260.547	83.5
260.779	89.5
261.012	89.5
261.244	80.5
261.477	86.5
261.71	80.5
261.942	104.5
262.175	96.5
262.407	87.5
262.64	91.5
262.872	92.5
263.105	81.5
263.337	79.5
263.57	71.5
263.802	88.5
264.035	92.5
264.267	77.5
264.499	84.5
264.732	91.5
264.964	85.5
265.197	78.5
265.429	73.5
265.661	78.5
265.894	78.5
266.126	85.5
266.358	83.5
266.591	74.5
266.823	78.5
267.055	78.5
267.287	77.5
267.52	88.5
267.752	91.5
267.984	92.5
268.216	85.5
268.448	75.5
268.681	73.5
268.913	81.5
269.145	77.5
269.377	91.5
269.609	69.5
269.841	97.5
270.073	82.5
270.306	83.5
270.538	89.5
270.77	90.5
271.002	105.5
271.234	86.5
271.466	82.5
271.698	77.5
271.93	79.5
272.162	87.5
272.394	81.5
272.626	69.5
272.858	83.5
273.09	99.5
273.322	87.5
273.553	80.5
273.785	73.5
274.017	75.5
274.249	76.5
274.481	80.5
274.713	78.5
274.945	92.5
275.176	79.5
275.408	86.5
275.64	76.5
275.872	81.5
276.104	97.5
276.335	98.5
276.567	89.5
276.799	82.5
277.031	77.5
277.262	80.5
277.494	99.5
277.726	86.5
277.957	94.5
278.189	85.5
278.421	76.5
278.652	76.5
278.884	95.5
279.115	87.5
279.347	91.5
279.579	82.5
279.81	82.5
280.042	70.5
280.273	94.5
280.505	87.5
280.736	82.5
280.968	99.5
281.199	69.5
281.431	96.5
281.662	91.5
281.894	90.5
282.125	88.5
282.356	102.5
282.588	114.5
282.819	95.5
283.051	88.5
283.282	85.5
283.513	78.5
283.745	76.5
283.976	84.5
284.207	75.5
284.439	91.5
284.67	89.5
284.901	90.5
285.132	90.5
285.364	77.5
285.595	91.5
285.826	86.5
286.057	89.5
286.288	94.5
286.52	86.5
286.751	89.5
286.982	74.5
287.213	78.5
287.444	95.5
287.675	69.5
287.906	88.5
288.138	87.5
288.369	96.5
288.6	75.5
288.831	95.5
289.062	94.5
289.293	88.5
289.524	74.5
289.755	75.5
289.986	83.5
290.217	92.5
290.448	79.5
290.679	73.5
290.91	89.5
291.141	78.5
291.371	90.5
291.602	80.5
291.833	87.5
292.064	96.5
292.295	87.5
292.526	82.5
292.757	77.5
292.987	87.5
293.218	91.5
293.449	84.5
293.68	80.5
293.91	77.5
294.141	77.5
294.372	96.5
294.603	88.5
294.833	62.5
295.064	85.5
295.295	90.5
295.525	93.5
295.756	109.5
295.987	111.5
296.217	119.5
296.448	101.5
296.679	83.5
296.909	84.5
297.14	79.5
297.37	86.5
297.601	87.5
297.831	98.5
298.062	84.5
298.292	90.5
298.523	92.5
298.753	97.5
298.984	83.5
299.214	93.5
299.445	97.5
299.675	91.5
299.905	95.5
300.136	90.5
300.366	86.5
300.597	92.5
300.827	86.5
301.057	73.5
301.288	93.5
301.518	79.5
301.748	84.5
301.979	99.5
302.209	96.5
302.439	98.5
302.669	92.5
302.9	69.5
303.13	90.5
303.36	94.5
303.59	102.5
303.82	105.5
304.051	94.5
304.281	87.5
304.511	98.5
304.741	77.5
304.971	93.5
305.201	91.5
305.431	85.5
305.661	86.5
305.891	92.5
306.121	87.5
306.352	88.5
306.582	99.5
306.812	90.5
307.042	91.5
307.272	88.5
307.502	80.5
307.731	79.5
307.961	81.5
308.191	82.5
308.421	95.5
308.651	90.5
308.881	82.5
309.111	73.5
309.341	90.5
309.571	94.5
309.8	82.5
310.03	90.5
310.26	107.5
310.49	85.5
310.72	99.5
310.949	86.5
311.179	82.5
311.409	96.5
311.639	91.5
311.868	96.5
312.098	96.5
312.328	95.5
312.557	104.5
312.787	95.5
313.017	107.5
313.246	89.5
313.476	86.5
313.706	91.5
313.935	95.5
314.165	92.5
314.394	87.5
314.624	87.5
314.853	80.5
315.083	90.5
315.312	75.5
315.542	82.5
315.771	81.5
316.001	83.5
316.23	86.5
316.46	86.5
316.689	88.5
316.919	89.5
317.148	98.5
317.377	89.5
317.607	81.5
317.836	90.5
318.065	82.5
318.295	99.5
318.524	90.5
318.753	103.5
318.983	77.5
319.212	89.5
319.441	98.5
319.67	96.5
319.9	95.5
320.129	81.5
320.358	89.5
320.587	85.5
320.816	100.5
321.046	107.5
321.275	93.5
321.504	80.5
321.733	89.5
321.962	93.5
322.191	107.5
322.42	102.5
322.649	104.5
322.878	107.5
323.108	115.5
323.337	100.5
323.566	116.5
323.795	138.5
324.024	183.5
324.253	338.5
324.482	675.5
324.71	1401.5
324.939	1799.5
325.168	671.5
325.397	209.5
325.626	147.5
325.855	111.5
326.084	107.5
326.313	118.5
326.542	145.5
326.77	216.5
326.999	391.5
327.228	787.5
327.457	1432.5
327.686	1089.5
327.914	309.5
328.143	157.5
328.372	129.5
328.6	107.5
328.829	96.5
329.058	106.5
329.287	105.5
329.515	99.5
329.744	104.5
329.972	90.5
330.201	94.5
330.43	97.5
330.658	98.5
330.887	117.5
331.115	103.5
331.344	100.5
331.572	102.5
331.801	102.5
332.03	99.5
332.258	72.5
332.486	85.5
332.715	85.5
332.943	92.5
333.172	92.5
333.4	90.5
333.629	93.5
333.857	114.5
334.085	93.5
334.314	88.5
334.542	106.5
334.771	98.5
334.999	101.5
335.227	96.5
335.455	101.5
335.684	105.5
335.912	83.5
336.14	100.5
336.369	92.5
336.597	90.5
336.825	93.5
337.053	88.5
337.281	85.5
337.51	88.5
337.738	90.5
337.966	97.5
338.194	90.5
338.422	88.5
338.65	75.5
338.878	89.5
339.106	96.5
339.334	86.5
339.562	96.5
339.79	89.5
340.018	78.5
340.246	85.5
340.474	94.5
340.702	86.5
340.93	87.5
341.158	97.5
341.386	96.5
341.614	93.5
341.842	100.5
342.07	89.5
342.298	74.5
342.526	85.5
342.754	89.5
342.981	72.5
343.209	80.5
343.437	104.5
343.665	91.5
343.893	98.5
344.12	81.5
344.348	93.5
344.576	101.5
344.804	98.5
345.031	90.5
345.259	99.5
345.487	81.5
345.714	99.5
345.942	95.5
346.17	114.5
346.397	89.5
346.625	80.5
346.853	82.5
347.08	76.5
347.308	85.5
347.535	98.5
347.763	87.5
347.99	86.5
348.218	95.5
348.445	101.5
348.673	81.5
348.9	100.5
349.128	89.5
349.355	99.5
349.583	103.5
349.81	110.5
350.037	104.5
350.265	97.5
350.492	111.5
350.72	93.5
350.947	110.5
351.174	98.5
351.402	91.5
351.629	91.5
351.856	102.5
352.083	96.5
352.311	114.5
352.538	99.5
352.765	98.5
352.992	108.5
353.22	109.5
353.447	102.5
353.674	89.5
353.901	97.5
354.128	95.5
354.355	89.5
354.583	89.5
354.81	99.5
355.037	99.5
355.264	97.5
355.491	78.5
355.718	108.5
355.945	91.5
356.172	106.5
356.399	95.5
356.626	107.5
356.853	94.5
357.08	85.5
357.307	86.5
357.534	86.5
357.761	92.5
357.988	101.5
358.215	82.5
358.441	102.5
358.668	80.5
358.895	94.5
359.122	86.5
359.349	74.5
359.576	79.5
359.802	89.5
360.029	98.5
360.256	105.5
360.483	88.5
360.709	81.5
360.936	82.5
361.163	88.5
361.39	81.5
361.616	105.5
361.843	80.5
362.07	89.5
362.296	86.5
362.523	95.5
362.749	108.5
362.976	89.5
363.203	85.5
363.429	86.5
363.656	80.5
363.882	91.5
364.109	104.5
364.335	92.5
364.562	77.5
364.788	95.5
365.015	106.5
365.241	95.5
365.468	96.5
365.694	92.5
365.92	88.5
366.147	85.5
366.373	99.5
366.599	83.5
366.826	87.5
367.052	97.5
367.278	90.5
367.505	85.5
367.731	82.5
367.957	77.5
368.184	93.5
368.41	103.5
368.636	93.5
368.862	103.5
369.089	100.5
369.315	101.5
369.541	105.5
369.767	106.5
369.993	89.5
370.219	89.5
370.445	96.5
370.672	95.5
370.898	78.5
371.124	94.5
371.35	97.5
371.576	82.5
371.802	85.5
372.028	91.5
372.254	84.5
372.48	89.5
372.706	75.5
372.932	93.5
373.158	82.5
373.384	92.5
373.61	89.5
373.835	94.5
374.061	81.5
374.287	81.5
374.513	81.5
374.739	75.5
374.965	79.5
375.191	82.5
375.416	85.5
375.642	100.5
375.868	88.5
376.094	93.5
376.319	91.5
376.545	104.5
376.771	95.5
376.997	95.5
377.222	87.5
377.448	93.5
377.674	84.5
377.899	86.5
378.125	93.5
378.35	89.5
378.576	105.5
378.802	94.5
379.027	87.5
379.253	81.5
379.478	75.5
379.704	90.5
379.929	97.5
380.155	106.5
380.38	105.5
380.606	92.5
380.831	92.5
381.057	87.5
381.282	87.5
381.507	94.5
381.733	100.5
381.958	98.5
382.184	102.5
382.409	88.5
382.634	107.5
382.86	97.5
383.085	96.5
383.31	104.5
383.535	86.5
383.761	107.5
383.986	97.5
384.211	85.5
384.436	86.5
384.662	99.5
384.887	93.5
385.112	114.5
385.337	109.5
385.562	96.5
385.787	112.5
386.013	113.5
386.238	91.5
386.463	95.5
386.688	108.5
386.913	105.5
387.138	98.5
387.363	104.5
387.588	113.5
387.813	96.5
388.038	103.5
388.263	104.5
388.488	110.5
388.713	98.5
388.938	107.5
389.163	98.5
389.387	101.5
389.612	107.5
389.837	87.5
390.062	88.5
390.287	82.5
390.512	80.5
390.736	96.5
390.961	97.5
391.186	85.5
391.411	81.5
391.636	91.5
391.86	69.5
392.085	81.5
392.31	73.5
392.534	80.5
392.759	90.5
392.984	80.5
393.208	85.5
393.433	97.5
393.658	108.5
393.882	96.5
394.107	84.5
394.331	96.5
394.556	85.5
394.78	84.5
395.005	77.5
395.229	79.5
395.454	76.5
395.678	89.5
395.903	79.5
396.127	91.5
396.352	97.5
396.576	77.5
396.801	79.5
397.025	85.5
397.249	96.5
397.474	95.5
397.698	87.5
397.922	98.5
398.147	91.5
398.371	87.5
398.595	75.5
398.82	75.5
399.044	92.5
399.268	97.5
399.492	86.5
399.717	92.5
399.941	98.5
400.165	94.5
400.389	85.5
400.613	81.5
400.837	78.5
401.062	102.5
401.286	93.5
401.51	84.5
401.734	108.5
401.958	96.5
402.182	110.5
402.406	134.5
402.63	107.5
402.854	85.5
403.078	80.5
403.302	96.5
403.526	79.5
403.75	85.5
403.974	93.5
404.198	81.5
404.422	85.5
404.645	100.5
404.869	85.5
405.093	104.5
405.317	96.5
405.541	83.5
405.765	103.5
405.988	121.5
406.212	145.5
406.436	194.5
406.66	119.5
406.883	106.5
407.107	93.5
407.331	82.5
407.555	108.5
407.778	97.5
408.002	90.5
408.226	83.5
408.449	83.5
408.673	91.5
408.896	86.5
409.12	96.5
409.344	88.5
409.567	79.5
409.791	89.5
410.014	106.5
410.238	95.5
410.461	79.5
410.685	102.5
410.908	97.5
411.132	92.5
411.355	109.5
411.578	97.5
411.802	95.5
412.025	81.5
412.249	99.5
412.472	91.5
412.695	94.5
412.919	83.5
413.142	75.5
413.365	79.5
413.589	88.5
413.812	87.5
414.035	86.5
414.258	100.5
414.482	93.5
414.705	88.5
414.928	89.5
415.151	96.5
415.374	95.5
415.597	90.5
415.821	82.5
416.044	74.5
416.267	66.5
416.49	93.5
416.713	93.5
416.936	99.5
417.159	78.5
417.382	103.5
417.605	97.5
417.828	75.5
418.051	83.5
418.274	93.5
418.497	90.5
418.72	81.5
418.943	106.5
419.166	74.5
419.389	92.5
419.611	83.5
419.834	81.5
420.057	65.5
420.28	104.5
420.503	94.5
420.726	89.5
420.948	83.5
421.171	101.5
421.394	78.5
421.617	97.5
421.839	88.5
422.062	85.5
422.285	88.5
422.507	103.5
422.73	115.5
422.953	89.5
423.175	86.5
423.398	103.5
423.621	99.5
423.843	96.5
424.066	83.5
424.288	91.5
424.511	87.5
424.733	99.5
424.956	92.5
425.178	94.5
425.401	86.5
425.623	100.5
425.846	85.5
426.068	102.5
426.291	84.5
426.513	93.5
426.735	104.5
426.958	89.5
427.18	81.5
427.402	114.5
427.625	151.5
427.847	124.5
428.069	93.5
428.292	87.5
428.514	94.5
428.736	80.5
428.958	84.5
429.181	91.5
429.403	95.5
429.625	75.5
429.847	88.5
430.069	86.5
430.292	89.5
430.514	88.5
430.736	87.5
430.958	103.5
431.18	87.5
431.402	81.5
431.624	73.5
431.846	87.5
432.068	81.5
432.29	77.5
432.512	91.5
432.734	86.5
432.956	97.5
433.178	111.5
433.4	92.5
433.622	81.5
433.844	98.5
434.066	91.5
434.287	87.5
434.509	104.5
434.731	87.5
434.953	92.5
435.175	82.5
435.397	84.5
435.618	76.5
435.84	105.5
436.062	110.5
436.284	100.5
436.505	113.5
436.727	103.5
436.949	80.5
437.17	80.5
437.392	92.5
437.614	90.5
437.835	103.5
438.057	109.5
438.278	114.5
438.5	119.5
438.721	126.5
438.943	101.5
439.165	85.5
439.386	74.5
439.608	93.5
439.829	97.5
440.05	103.5
440.272	112.5
440.493	92.5
440.715	97.5
440.936	88.5
441.158	85.5
441.379	97.5
441.6	88.5
441.822	99.5
442.043	102.5
442.264	100.5
442.486	93.5
442.707	85.5
442.928	108.5
443.149	108.5
443.371	93.5
443.592	113.5
443.813	113.5
444.034	97.5
444.255	81.5
444.476	83.5
444.698	82.5
444.919	87.5
445.14	119.5
445.361	107.5
445.582	106.5
445.803	124.5
446.024	126.5
446.245	122.5
446.466	98.5
446.687	88.5
446.908	95.5
447.129	80.5
447.35	84.5
447.571	88.5
447.792	99.5
448.013	102.5
448.234	99.5
448.455	99.5
448.675	99.5
448.896	100.5
449.117	91.5
449.338	93.5
449.559	118.5
449.779	125.5
450	91.5
450.221	86.5
450.442	96.5
450.662	98.5
450.883	96.5
451.104	111.5
451.324	86.5
451.545	87.5
451.766	90.5
451.986	98.5
452.207	86.5
452.428	100.5
452.648	91.5
452.869	100.5
453.089	103.5
453.31	89.5
453.53	88.5
453.751	69.5
453.971	105.5
454.192	91.5
454.412	99.5
454.633	94.5
454.853	96.5
455.073	95.5
455.294	102.5
455.514	91.5
455.734	97.5
455.955	100.5
456.175	84.5
456.395	73.5
456.616	90.5
456.836	91.5
457.056	87.5
457.276	91.5
457.497	84.5
457.717	82.5
457.937	95.5
458.157	85.5
458.377	76.5
458.598	91.5
458.818	124.5
459.038	134.5
459.258	108.5
459.478	85.5
459.698	85.5
459.918	91.5
460.138	84.5
460.358	70.5
460.578	80.5
460.798	83.5
461.018	90.5
461.238	88.5
461.458	86.5
461.678	97.5
461.898	89.5
462.118	94.5
462.338	82.5
462.558	80.5
462.777	82.5
462.997	68.5
463.217	96.5
463.437	87.5
463.657	88.5
463.876	112.5
464.096	86.5
464.316	97.5
464.536	104.5
464.755	90.5
464.975	98.5
465.195	137.5
465.414	121.5
465.634	82.5
465.854	69.5
466.073	88.5
466.293	84.5
466.512	90.5
466.732	73.5
466.951	90.5
467.171	89.5
467.391	78.5
467.61	98.5
467.829	103.5
468.049	97.5
468.268	85.5
468.488	73.5
468.707	79.5
468.927	88.5
469.146	75.5
469.365	78.5
469.585	85.5
469.804	89.5
470.023	74.5
470.243	75.5
470.462	83.5
470.681	94.5
470.901	95.5
471.12	78.5
471.339	83.5
471.558	87.5
471.777	92.5
471.997	96.5
472.216	86.5
472.435	90.5
472.654	102.5
472.873	81.5
473.092	93.5
473.311	88.5
473.53	79.5
473.749	91.5
473.968	97.5
474.187	88.5
474.406	98.5
474.625	96.5
474.844	91.5
475.063	95.5
475.282	94.5
475.501	85.5
475.72	97.5
475.939	86.5
476.158	82.5
476.377	79.5
476.596	95.5
476.814	94.5
477.033	96.5
477.252	90.5
477.471	90.5
477.69	70.5
477.908	90.5
478.127	83.5
478.346	99.5
478.564	87.5
478.783	91.5
479.002	87.5
479.22	91.5
479.439	97.5
479.658	93.5
479.876	87.5
480.095	89.5
480.313	83.5
480.532	85.5
480.751	97.5
480.969	86.5
481.188	101.5
481.406	98.5
481.624	95.5
481.843	89.5
482.061	95.5
482.28	89.5
482.498	90.5
482.717	95.5
482.935	80.5
483.153	81.5
483.372	85.5
483.59	93.5
483.808	96.5
484.027	98.5
484.245	80.5
484.463	90.5
484.681	81.5
484.9	93.5
485.118	99.5
485.336	104.5
485.554	85.5
485.772	85.5
485.99	103.5
486.209	97.5
486.427	96.5
486.645	103.5
486.863	96.5
487.081	99.5
487.299	95.5
487.517	86.5
487.735	84.5
487.953	91.5
488.171	95.5
488.389	80.5
488.607	98.5
488.825	101.5
489.043	93.5
489.261	94.5
489.479	88.5
489.696	87.5
489.914	93.5
490.132	85.5
490.35	95.5
490.568	83.5
490.786	83.5
491.003	75.5
491.221	85.5
491.439	93.5
491.657	95.5
491.874	105.5
492.092	83.5
492.31	98.5
492.527	100.5
492.745	102.5
492.963	99.5
493.18	85.5
493.398	92.5
493.615	104.5
493.833	100.5
494.05	94.5
494.268	81.5
494.485	100.5
494.703	89.5
494.92	93.5
495.138	86.5
495.355	88.5
495.573	87.5
495.79	93.5
496.008	95.5
496.225	87.5
496.442	85.5
496.66	85.5
496.877	84.5
497.094	85.5
497.312	81.5
497.529	97.5
497.746	80.5
497.963	101.5
498.181	91.5
498.398	89.5
498.615	101.5
498.832	91.5
499.049	80.5
499.267	93.5
499.484	91.5
499.701	69.5
499.918	93.5
500.135	74.5
500.352	84.5
500.569	87.5
500.786	93.5
501.003	96.5
501.22	72.5
501.437	94.5
501.654	81.5
501.871	94.5
502.088	87.5
502.305	80.5
502.522	91.5
502.739	93.5
502.956	93.5
503.172	91.5
503.389	97.5
503.606	102.5
503.823	98.5
504.04	91.5
504.256	79.5
504.473	92.5
504.69	88.5
504.907	82.5
505.123	107.5
505.34	94.5
505.557	86.5
505.773	85.5
505.99	83.5
506.207	90.5
506.423	89.5
506.64	94.5
506.856	94.5
507.073	93.5
507.289	91.5
507.506	94.5
507.722	95.5
507.939	101.5
508.155	76.5
508.372	88.5
508.588	87.5
508.805	89.5
509.021	98.5
509.238	105.5
509.454	86.5
509.67	95.5
509.887	106.5
510.103	113.5
510.319	176.5
510.536	588.5
510.752	1632.5
510.968	466.5
511.184	121.5
511.401	85.5
511.617	92.5
511.833	102.5
512.049	93.5
512.265	90.5
512.481	90.5
512.698	98.5
512.914	99.5
513.13	89.5
513.346	89.5
513.562	83.5
513.778	83.5
513.994	95.5
514.21	100.5
514.426	114.5
514.642	114.5
514.858	109.5
515.074	157.5
515.29	327.5
515.506	1022.5
515.721	376.5
515.937	133.5
516.153	120.5
516.369	91.5
516.585	90.5
516.801	96.5
517.016	94.5
517.232	95.5
517.448	77.5
517.664	84.5
517.879	92.5
518.095	93.5
518.311	106.5
518.527	94.5
518.742	83.5
518.958	88.5
519.173	88.5
519.389	91.5
519.605	93.5
519.82	101.5
520.036	98.5
520.251	99.5
520.467	112.5
520.682	102.5
520.898	102.5
521.113	119.5
521.329	119.5
521.544	161.5
521.76	392.5
521.975	1601.5
522.19	965.5
522.406	222.5
522.621	108.5
522.836	99.5
523.052	85.5
523.267	89.5
523.482	87.5
523.698	103.5
523.913	102.5
524.128	89.5
524.343	98.5
524.559	87.5
524.774	83.5
524.989	97.5
525.204	104.5
525.419	101.5
525.634	97.5
525.849	91.5
526.064	79.5
526.28	103.5
526.495	101.5
526.71	84.5
526.925	86.5
527.14	96.5
527.355	91.5
527.57	85.5
527.785	89.5
527.999	92.5
528.214	90.5
528.429	95.5
528.644	94.5
528.859	92.5
529.074	96.5
529.289	107.5
529.503	133.5
529.718	113.5
529.933	93.5
530.148	93.5
530.363	90.5
530.577	93.5
530.792	103.5
531.007	95.5
531.221	105.5
531.436	91.5
531.651	80.5
531.865	90.5
532.08	93.5
532.295	88.5
532.509	102.5
532.724	88.5
532.938	106.5
533.153	97.5
533.367	82.5
533.582	89.5
533.796	85.5
534.011	81.5
534.225	80.5
534.44	86.5
534.654	82.5
534.868	91.5
535.083	85.5
535.297	98.5
535.511	103.5
535.726	115.5
535.94	100.5
536.154	91.5
536.369	77.5
536.583	79.5
