Data from Uncirc_1997_H10_HRD10591_00043.txt Node
Date: Wed Jan 03 11:28:39 EST 2024
User: Yrep
Spectrometer: HR+D1059
Trigger mode: 1
Integration Time (sec): 1.000000E-1
Scans to average: 1
Electric dark correction enabled: true
Nonlinearity correction enabled: false
Boxcar width: 0
XAxis mode: Wavelengths
Number of Pixels in Spectrum: 2048
>>>>>Begin Spectral Data<<<<<
223.165	-10.06
223.4	-10.06
223.635	-10.06
223.869	-18.06
224.104	-9.06
224.338	-14.06
224.573	-10.06
224.808	-16.06
225.042	-7.06
225.277	4.94
225.511	-7.06
225.746	-5.06
225.98	-4.06
226.215	-4.06
226.449	17.94
226.683	23.94
226.918	24.94
227.152	32.94
227.387	43.94
227.621	16.94
227.856	32.94
228.09	47.94
228.324	50.94
228.559	58.94
228.793	69.94
229.027	66.94
229.262	60.94
229.496	71.94
229.73	64.94
229.964	78.94
230.199	62.94
230.433	70.94
230.667	71.94
230.901	79.94
231.136	71.94
231.37	74.94
231.604	93.94
231.838	75.94
232.072	90.94
232.306	83.94
232.541	87.94
232.775	85.94
233.009	75.94
233.243	80.94
233.477	82.94
233.711	95.94
233.945	75.94
234.179	74.94
234.413	75.94
234.647	76.94
234.881	70.94
235.115	64.94
235.349	79.94
235.583	76.94
235.817	82.94
236.051	80.94
236.285	66.94
236.519	83.94
236.753	96.94
236.987	82.94
237.221	89.94
237.455	80.94
237.689	75.94
237.922	72.94
238.156	71.94
238.39	74.94
238.624	83.94
238.858	78.94
239.091	59.94
239.325	83.94
239.559	76.94
239.793	59.94
240.027	70.94
240.26	80.94
240.494	72.94
240.728	77.94
240.961	74.94
241.195	76.94
241.429	78.94
241.662	71.94
241.896	72.94
242.13	84.94
242.363	70.94
242.597	76.94
242.83	73.94
243.064	76.94
243.298	68.94
243.531	87.94
243.765	69.94
243.998	67.94
244.232	73.94
244.465	83.94
244.699	72.94
244.932	69.94
245.166	72.94
245.399	66.94
245.633	70.94
245.866	66.94
246.099	75.94
246.333	88.94
246.566	76.94
246.8	74.94
247.033	69.94
247.266	88.94
247.5	70.94
247.733	77.94
247.966	68.94
248.2	72.94
248.433	86.94
248.666	91.94
248.899	75.94
249.133	75.94
249.366	88.94
249.599	93.94
249.832	80.94
250.066	77.94
250.299	86.94
250.532	72.94
250.765	66.94
250.998	75.94
251.231	76.94
251.465	77.94
251.698	72.94
251.931	74.94
252.164	66.94
252.397	76.94
252.63	84.94
252.863	53.94
253.096	66.94
253.329	66.94
253.562	84.94
253.795	82.94
254.028	67.94
254.261	76.94
254.494	78.94
254.727	65.94
254.96	69.94
255.193	78.94
255.426	74.94
255.659	69.94
255.892	74.94
256.124	75.94
256.357	67.94
256.59	77.94
256.823	78.94
257.056	64.94
257.289	88.94
257.521	82.94
257.754	82.94
257.987	84.94
258.22	76.94
258.452	76.94
258.685	80.94
258.918	61.94
259.151	75.94
259.383	77.94
259.616	70.94
259.849	77.94
260.081	77.94
260.314	85.94
260.547	88.94
260.779	76.94
261.012	79.94
261.244	85.94
261.477	79.94
261.71	95.94
261.942	112.94
262.175	109.94
262.407	87.94
262.64	84.94
262.872	87.94
263.105	72.94
263.337	69.94
263.57	84.94
263.802	73.94
264.035	90.94
264.267	83.94
264.499	72.94
264.732	84.94
264.964	64.94
265.197	90.94
265.429	82.94
265.661	86.94
265.894	86.94
266.126	86.94
266.358	88.94
266.591	70.94
266.823	79.94
267.055	75.94
267.287	72.94
267.52	74.94
267.752	66.94
267.984	72.94
268.216	66.94
268.448	84.94
268.681	76.94
268.913	93.94
269.145	89.94
269.377	86.94
269.609	87.94
269.841	101.94
270.073	75.94
270.306	58.94
270.538	91.94
270.77	75.94
271.002	86.94
271.234	68.94
271.466	86.94
271.698	78.94
271.93	69.94
272.162	84.94
272.394	79.94
272.626	84.94
272.858	84.94
273.09	81.94
273.322	91.94
273.553	82.94
273.785	83.94
274.017	80.94
274.249	79.94
274.481	61.94
274.713	80.94
274.945	70.94
275.176	74.94
275.408	73.94
275.64	83.94
275.872	75.94
276.104	80.94
276.335	80.94
276.567	94.94
276.799	102.94
277.031	81.94
277.262	86.94
277.494	76.94
277.726	82.94
277.957	72.94
278.189	84.94
278.421	89.94
278.652	91.94
278.884	89.94
279.115	77.94
279.347	86.94
279.579	87.94
279.81	77.94
280.042	63.94
280.273	69.94
280.505	86.94
280.736	86.94
280.968	81.94
281.199	72.94
281.431	88.94
281.662	79.94
281.894	83.94
282.125	93.94
282.356	107.94
282.588	126.94
282.819	99.94
283.051	74.94
283.282	80.94
283.513	96.94
283.745	78.94
283.976	87.94
284.207	72.94
284.439	78.94
284.67	74.94
284.901	83.94
285.132	80.94
285.364	92.94
285.595	74.94
285.826	77.94
286.057	84.94
286.288	79.94
286.52	64.94
286.751	82.94
286.982	78.94
287.213	81.94
287.444	87.94
287.675	89.94
287.906	76.94
288.138	90.94
288.369	77.94
288.6	63.94
288.831	85.94
289.062	83.94
289.293	78.94
289.524	87.94
289.755	88.94
289.986	88.94
290.217	76.94
290.448	78.94
290.679	84.94
290.91	89.94
291.141	85.94
291.371	88.94
291.602	83.94
291.833	87.94
292.064	81.94
292.295	77.94
292.526	82.94
292.757	85.94
292.987	80.94
293.218	82.94
293.449	88.94
293.68	90.94
293.91	79.94
294.141	85.94
294.372	77.94
294.603	78.94
294.833	74.94
295.064	76.94
295.295	72.94
295.525	97.94
295.756	100.94
295.987	110.94
296.217	140.94
296.448	123.94
296.679	95.94
296.909	96.94
297.14	71.94
297.37	74.94
297.601	74.94
297.831	92.94
298.062	82.94
298.292	83.94
298.523	80.94
298.753	84.94
298.984	81.94
299.214	82.94
299.445	88.94
299.675	80.94
299.905	98.94
300.136	101.94
300.366	92.94
300.597	74.94
300.827	94.94
301.057	84.94
301.288	84.94
301.518	101.94
301.748	89.94
301.979	91.94
302.209	89.94
302.439	88.94
302.669	72.94
302.9	72.94
303.13	76.94
303.36	94.94
303.59	100.94
303.82	118.94
304.051	80.94
304.281	75.94
304.511	72.94
304.741	79.94
304.971	92.94
305.201	85.94
305.431	82.94
305.661	80.94
305.891	100.94
306.121	91.94
306.352	96.94
306.582	91.94
306.812	74.94
307.042	80.94
307.272	80.94
307.502	92.94
307.731	100.94
307.961	90.94
308.191	82.94
308.421	75.94
308.651	89.94
308.881	78.94
309.111	89.94
309.341	94.94
309.571	101.94
309.8	98.94
310.03	79.94
310.26	89.94
310.49	100.94
310.72	93.94
310.949	96.94
311.179	90.94
311.409	80.94
311.639	91.94
311.868	94.94
312.098	84.94
312.328	91.94
312.557	88.94
312.787	88.94
313.017	98.94
313.246	81.94
313.476	86.94
313.706	79.94
313.935	82.94
314.165	87.94
314.394	90.94
314.624	86.94
314.853	82.94
315.083	93.94
315.312	79.94
315.542	92.94
315.771	83.94
316.001	87.94
316.23	86.94
316.46	83.94
316.689	70.94
316.919	98.94
317.148	92.94
317.377	82.94
317.607	90.94
317.836	74.94
318.065	75.94
318.295	98.94
318.524	95.94
318.753	97.94
318.983	94.94
319.212	98.94
319.441	97.94
319.67	99.94
319.9	91.94
320.129	82.94
320.358	70.94
320.587	90.94
320.816	91.94
321.046	101.94
321.275	86.94
321.504	89.94
321.733	85.94
321.962	104.94
322.191	90.94
322.42	94.94
322.649	83.94
322.878	92.94
323.108	91.94
323.337	111.94
323.566	120.94
323.795	136.94
324.024	188.94
324.253	348.94
324.482	722.94
324.71	1478.94
324.939	1879.94
325.168	702.94
325.397	214.94
325.626	132.94
325.855	121.94
326.084	117.94
326.313	107.94
326.542	137.94
326.77	216.94
326.999	397.94
327.228	850.94
327.457	1483.94
327.686	1186.94
327.914	327.94
328.143	166.94
328.372	130.94
328.6	117.94
328.829	123.94
329.058	115.94
329.287	97.94
329.515	95.94
329.744	99.94
329.972	97.94
330.201	88.94
330.43	90.94
330.658	105.94
330.887	118.94
331.115	96.94
331.344	98.94
331.572	95.94
331.801	100.94
332.03	90.94
332.258	96.94
332.486	86.94
332.715	95.94
332.943	96.94
333.172	89.94
333.4	87.94
333.629	90.94
333.857	86.94
334.085	94.94
334.314	95.94
334.542	109.94
334.771	86.94
334.999	100.94
335.227	92.94
335.455	96.94
335.684	85.94
335.912	103.94
336.14	89.94
336.369	91.94
336.597	97.94
336.825	89.94
337.053	90.94
337.281	91.94
337.51	94.94
337.738	101.94
337.966	93.94
338.194	86.94
338.422	85.94
338.65	76.94
338.878	77.94
339.106	87.94
339.334	89.94
339.562	86.94
339.79	83.94
340.018	87.94
340.246	90.94
340.474	79.94
340.702	85.94
340.93	85.94
341.158	83.94
341.386	91.94
341.614	77.94
341.842	96.94
342.07	82.94
342.298	88.94
342.526	91.94
342.754	86.94
342.981	87.94
343.209	74.94
343.437	100.94
343.665	90.94
343.893	83.94
344.12	82.94
344.348	88.94
344.576	82.94
344.804	95.94
345.031	98.94
345.259	94.94
345.487	95.94
345.714	104.94
345.942	99.94
346.17	93.94
346.397	71.94
346.625	85.94
346.853	81.94
347.08	94.94
347.308	88.94
347.535	103.94
347.763	86.94
347.99	83.94
348.218	74.94
348.445	88.94
348.673	81.94
348.9	86.94
349.128	90.94
349.355	101.94
349.583	94.94
349.81	94.94
350.037	89.94
350.265	81.94
350.492	80.94
350.72	84.94
350.947	89.94
351.174	98.94
351.402	107.94
351.629	99.94
351.856	89.94
352.083	94.94
352.311	100.94
352.538	107.94
352.765	98.94
352.992	103.94
353.22	99.94
353.447	89.94
353.674	95.94
353.901	90.94
354.128	84.94
354.355	88.94
354.583	95.94
354.81	99.94
355.037	92.94
355.264	94.94
355.491	74.94
355.718	87.94
355.945	81.94
356.172	79.94
356.399	92.94
356.626	84.94
356.853	82.94
357.08	93.94
357.307	91.94
357.534	91.94
357.761	92.94
357.988	85.94
358.215	89.94
358.441	92.94
358.668	83.94
358.895	82.94
359.122	93.94
359.349	91.94
359.576	87.94
359.802	96.94
360.029	99.94
360.256	104.94
360.483	79.94
360.709	83.94
360.936	101.94
361.163	70.94
361.39	87.94
361.616	87.94
361.843	93.94
362.07	73.94
362.296	93.94
362.523	77.94
362.749	79.94
362.976	90.94
363.203	74.94
363.429	98.94
363.656	96.94
363.882	100.94
364.109	76.94
364.335	79.94
364.562	73.94
364.788	82.94
365.015	104.94
365.241	79.94
365.468	116.94
365.694	116.94
365.92	82.94
366.147	85.94
366.373	91.94
366.599	76.94
366.826	83.94
367.052	89.94
367.278	83.94
367.505	89.94
367.731	89.94
367.957	82.94
368.184	93.94
368.41	93.94
368.636	98.94
368.862	110.94
369.089	103.94
369.315	100.94
369.541	84.94
369.767	89.94
369.993	85.94
370.219	90.94
370.445	85.94
370.672	66.94
370.898	86.94
371.124	77.94
371.35	85.94
371.576	86.94
371.802	100.94
372.028	70.94
372.254	83.94
372.48	81.94
372.706	73.94
372.932	82.94
373.158	82.94
373.384	85.94
373.61	93.94
373.835	67.94
374.061	95.94
374.287	87.94
374.513	98.94
374.739	85.94
374.965	67.94
375.191	82.94
375.416	83.94
375.642	84.94
375.868	90.94
376.094	99.94
376.319	71.94
376.545	78.94
376.771	84.94
376.997	74.94
377.222	88.94
377.448	93.94
377.674	84.94
377.899	79.94
378.125	89.94
378.35	78.94
378.576	80.94
378.802	92.94
379.027	82.94
379.253	85.94
379.478	86.94
379.704	83.94
379.929	84.94
380.155	94.94
380.38	87.94
380.606	79.94
380.831	82.94
381.057	96.94
381.282	89.94
381.507	98.94
381.733	90.94
381.958	85.94
382.184	79.94
382.409	94.94
382.634	92.94
382.86	102.94
383.085	93.94
383.31	87.94
383.535	116.94
383.761	106.94
383.986	98.94
384.211	90.94
384.436	93.94
384.662	94.94
384.887	92.94
385.112	87.94
385.337	94.94
385.562	88.94
385.787	93.94
386.013	88.94
386.238	102.94
386.463	99.94
386.688	103.94
386.913	84.94
387.138	101.94
387.363	104.94
387.588	86.94
387.813	105.94
388.038	95.94
388.263	109.94
388.488	89.94
388.713	83.94
388.938	91.94
389.163	105.94
389.387	98.94
389.612	92.94
389.837	92.94
390.062	90.94
390.287	87.94
390.512	86.94
390.736	85.94
390.961	84.94
391.186	95.94
391.411	84.94
391.636	93.94
391.86	84.94
392.085	83.94
392.31	87.94
392.534	88.94
392.759	94.94
392.984	98.94
393.208	81.94
393.433	86.94
393.658	58.94
393.882	71.94
394.107	73.94
394.331	81.94
394.556	75.94
394.78	80.94
395.005	90.94
395.229	92.94
395.454	80.94
395.678	73.94
395.903	94.94
396.127	76.94
396.352	82.94
396.576	99.94
396.801	92.94
397.025	83.94
397.249	76.94
397.474	86.94
397.698	92.94
397.922	93.94
398.147	76.94
398.371	78.94
398.595	89.94
398.82	84.94
399.044	84.94
399.268	91.94
399.492	92.94
399.717	90.94
399.941	79.94
400.165	78.94
400.389	74.94
400.613	79.94
400.837	85.94
401.062	79.94
401.286	85.94
401.51	79.94
401.734	86.94
401.958	99.94
402.182	118.94
402.406	130.94
402.63	101.94
402.854	76.94
403.078	96.94
403.302	103.94
403.526	87.94
403.75	76.94
403.974	75.94
404.198	67.94
404.422	69.94
404.645	86.94
404.869	70.94
405.093	88.94
405.317	100.94
405.541	96.94
405.765	91.94
405.988	88.94
406.212	158.94
406.436	180.94
406.66	132.94
406.883	80.94
407.107	87.94
407.331	86.94
407.555	87.94
407.778	90.94
408.002	87.94
408.226	83.94
408.449	80.94
408.673	91.94
408.896	82.94
409.12	81.94
409.344	68.94
409.567	86.94
409.791	67.94
410.014	74.94
410.238	92.94
410.461	91.94
410.685	81.94
410.908	96.94
411.132	99.94
411.355	83.94
411.578	86.94
411.802	82.94
412.025	82.94
412.249	80.94
412.472	95.94
412.695	75.94
412.919	84.94
413.142	72.94
413.365	72.94
413.589	83.94
413.812	92.94
414.035	94.94
414.258	83.94
414.482	80.94
414.705	79.94
414.928	86.94
415.151	79.94
415.374	90.94
415.597	90.94
415.821	86.94
416.044	86.94
416.267	93.94
416.49	71.94
416.713	79.94
416.936	80.94
417.159	80.94
417.382	87.94
417.605	85.94
417.828	66.94
418.051	91.94
418.274	91.94
418.497	85.94
418.72	87.94
418.943	80.94
419.166	91.94
419.389	87.94
419.611	91.94
419.834	82.94
420.057	75.94
420.28	82.94
420.503	86.94
420.726	77.94
420.948	83.94
421.171	90.94
421.394	69.94
421.617	60.94
421.839	83.94
422.062	88.94
422.285	84.94
422.507	99.94
422.73	92.94
422.953	88.94
423.175	83.94
423.398	96.94
423.621	92.94
423.843	85.94
424.066	97.94
424.288	78.94
424.511	86.94
424.733	80.94
424.956	72.94
425.178	79.94
425.401	91.94
425.623	92.94
425.846	77.94
426.068	84.94
426.291	79.94
426.513	98.94
426.735	82.94
426.958	71.94
427.18	104.94
427.402	119.94
427.625	149.94
427.847	127.94
428.069	91.94
428.292	71.94
428.514	84.94
428.736	87.94
428.958	87.94
429.181	77.94
429.403	89.94
429.625	91.94
429.847	94.94
430.069	91.94
430.292	93.94
430.514	79.94
430.736	100.94
430.958	77.94
431.18	84.94
431.402	67.94
431.624	76.94
431.846	81.94
432.068	75.94
432.29	84.94
432.512	88.94
432.734	81.94
432.956	94.94
433.178	100.94
433.4	92.94
433.622	98.94
433.844	62.94
434.066	89.94
434.287	84.94
434.509	79.94
434.731	92.94
434.953	74.94
435.175	89.94
435.397	80.94
435.618	93.94
435.84	100.94
436.062	125.94
436.284	103.94
436.505	93.94
436.727	95.94
436.949	94.94
437.17	84.94
437.392	93.94
437.614	93.94
437.835	96.94
438.057	103.94
438.278	108.94
438.5	95.94
438.721	118.94
438.943	100.94
439.165	98.94
439.386	73.94
439.608	79.94
439.829	105.94
440.05	110.94
440.272	127.94
440.493	90.94
440.715	85.94
440.936	90.94
441.158	88.94
441.379	90.94
441.6	93.94
441.822	102.94
442.043	96.94
442.264	96.94
442.486	98.94
442.707	92.94
442.928	107.94
443.149	120.94
443.371	109.94
443.592	96.94
443.813	103.94
444.034	105.94
444.255	76.94
444.476	76.94
444.698	78.94
444.919	82.94
445.14	120.94
445.361	131.94
445.582	115.94
445.803	120.94
446.024	115.94
446.245	117.94
446.466	105.94
446.687	86.94
446.908	70.94
447.129	85.94
447.35	91.94
447.571	84.94
447.792	92.94
448.013	98.94
448.234	93.94
448.455	74.94
448.675	108.94
448.896	117.94
449.117	84.94
449.338	100.94
449.559	112.94
449.779	115.94
450	77.94
450.221	78.94
450.442	87.94
450.662	86.94
450.883	86.94
451.104	82.94
451.324	85.94
451.545	87.94
451.766	85.94
451.986	83.94
452.207	69.94
452.428	85.94
452.648	86.94
452.869	95.94
453.089	106.94
453.31	107.94
453.53	108.94
453.751	88.94
453.971	98.94
454.192	106.94
454.412	83.94
454.633	74.94
454.853	84.94
455.073	83.94
455.294	79.94
455.514	87.94
455.734	62.94
455.955	93.94
456.175	92.94
456.395	76.94
456.616	98.94
456.836	86.94
457.056	81.94
457.276	79.94
457.497	78.94
457.717	73.94
457.937	91.94
458.157	79.94
458.377	73.94
458.598	93.94
458.818	136.94
459.038	142.94
459.258	110.94
459.478	79.94
459.698	84.94
459.918	93.94
460.138	83.94
460.358	74.94
460.578	83.94
460.798	90.94
461.018	95.94
461.238	91.94
461.458	78.94
461.678	78.94
461.898	82.94
462.118	90.94
462.338	82.94
462.558	83.94
462.777	77.94
462.997	86.94
463.217	76.94
463.437	94.94
463.657	82.94
463.876	74.94
464.096	90.94
464.316	86.94
464.536	91.94
464.755	89.94
464.975	104.94
465.195	142.94
465.414	150.94
465.634	99.94
465.854	81.94
466.073	79.94
466.293	88.94
466.512	88.94
466.732	83.94
466.951	82.94
467.171	88.94
467.391	94.94
467.61	94.94
467.829	87.94
468.049	88.94
468.268	84.94
468.488	92.94
468.707	92.94
468.927	73.94
469.146	82.94
469.365	90.94
469.585	84.94
469.804	90.94
470.023	102.94
470.243	98.94
470.462	91.94
470.681	91.94
470.901	92.94
471.12	92.94
471.339	81.94
471.558	79.94
471.777	84.94
471.997	95.94
472.216	88.94
472.435	102.94
472.654	83.94
472.873	98.94
473.092	90.94
473.311	94.94
473.53	71.94
473.749	83.94
473.968	86.94
474.187	97.94
474.406	80.94
474.625	82.94
474.844	79.94
475.063	75.94
475.282	79.94
475.501	78.94
475.72	93.94
475.939	77.94
476.158	82.94
476.377	83.94
476.596	71.94
476.814	89.94
477.033	90.94
477.252	87.94
477.471	88.94
477.69	90.94
477.908	90.94
478.127	80.94
478.346	76.94
478.564	78.94
478.783	81.94
479.002	87.94
479.22	87.94
479.439	98.94
479.658	95.94
479.876	77.94
480.095	91.94
480.313	84.94
480.532	79.94
480.751	76.94
480.969	85.94
481.188	96.94
481.406	110.94
481.624	86.94
481.843	90.94
482.061	72.94
482.28	91.94
482.498	72.94
482.717	88.94
482.935	96.94
483.153	94.94
483.372	80.94
483.59	84.94
483.808	77.94
484.027	95.94
484.245	92.94
484.463	72.94
484.681	79.94
484.9	85.94
485.118	74.94
485.336	88.94
485.554	79.94
485.772	82.94
485.99	94.94
486.209	96.94
486.427	98.94
486.645	108.94
486.863	91.94
487.081	95.94
487.299	93.94
487.517	80.94
487.735	83.94
487.953	95.94
488.171	96.94
488.389	85.94
488.607	80.94
488.825	83.94
489.043	78.94
489.261	94.94
489.479	92.94
489.696	99.94
489.914	98.94
490.132	90.94
490.35	87.94
490.568	94.94
490.786	91.94
491.003	83.94
491.221	95.94
491.439	88.94
491.657	86.94
491.874	84.94
492.092	95.94
492.31	84.94
492.527	82.94
492.745	88.94
492.963	88.94
493.18	98.94
493.398	85.94
493.615	87.94
493.833	86.94
494.05	78.94
494.268	83.94
494.485	86.94
494.703	86.94
494.92	82.94
495.138	67.94
495.355	87.94
495.573	93.94
495.79	88.94
496.008	85.94
496.225	79.94
496.442	84.94
496.66	93.94
496.877	91.94
497.094	90.94
497.312	77.94
497.529	84.94
497.746	88.94
497.963	76.94
498.181	90.94
498.398	94.94
498.615	88.94
498.832	93.94
499.049	77.94
499.267	86.94
499.484	82.94
499.701	90.94
499.918	87.94
500.135	89.94
500.352	74.94
500.569	82.94
500.786	94.94
501.003	73.94
501.22	85.94
501.437	90.94
501.654	86.94
501.871	108.94
502.088	81.94
502.305	74.94
502.522	95.94
502.739	99.94
502.956	70.94
503.172	81.94
503.389	96.94
503.606	94.94
503.823	88.94
504.04	94.94
504.256	91.94
504.473	84.94
504.69	90.94
504.907	63.94
505.123	79.94
505.34	84.94
505.557	86.94
505.773	63.94
505.99	83.94
506.207	86.94
506.423	63.94
506.64	95.94
506.856	96.94
507.073	85.94
507.289	72.94
507.506	103.94
507.722	100.94
507.939	100.94
508.155	89.94
508.372	85.94
508.588	74.94
508.805	90.94
509.021	82.94
509.238	90.94
509.454	90.94
509.67	83.94
509.887	97.94
510.103	122.94
510.319	219.94
510.536	658.94
510.752	2014.94
510.968	586.94
511.184	132.94
511.401	98.94
511.617	85.94
511.833	87.94
512.049	102.94
512.265	88.94
512.481	90.94
512.698	90.94
512.914	97.94
513.13	96.94
513.346	100.94
513.562	88.94
513.778	94.94
513.994	96.94
514.21	87.94
514.426	110.94
514.642	116.94
514.858	106.94
515.074	148.94
515.29	364.94
515.506	1236.94
515.721	455.94
515.937	146.94
516.153	101.94
516.369	111.94
516.585	80.94
516.801	82.94
517.016	86.94
517.232	85.94
517.448	91.94
517.664	89.94
517.879	97.94
