Data from Uncirc_1997_H10_HRD10591_00080.txt Node
Date: Wed Jan 03 11:28:46 EST 2024
User: Yrep
Spectrometer: HR+D1059
Trigger mode: 1
Integration Time (sec): 1.000000E-1
Scans to average: 1
Electric dark correction enabled: true
Nonlinearity correction enabled: false
Boxcar width: 0
XAxis mode: Wavelengths
Number of Pixels in Spectrum: 2048
>>>>>Begin Spectral Data<<<<<
223.165	-5.62
223.4	-5.62
223.635	-5.62
223.869	-19.62
224.104	-4.62
224.338	-22.62
224.573	-17.62
224.808	-13.62
225.042	-16.62
225.277	-4.62
225.511	-13.62
225.746	-5.62
225.98	6.38
226.215	16.38
226.449	10.38
226.683	27.38
226.918	28.38
227.152	35.38
227.387	31.38
227.621	38.38
227.856	50.38
228.09	35.38
228.324	54.38
228.559	45.38
228.793	61.38
229.027	60.38
229.262	70.38
229.496	67.38
229.73	90.38
229.964	83.38
230.199	75.38
230.433	80.38
230.667	78.38
230.901	72.38
231.136	66.38
231.37	79.38
231.604	75.38
231.838	88.38
232.072	77.38
232.306	73.38
232.541	75.38
232.775	85.38
233.009	94.38
233.243	90.38
233.477	93.38
233.711	73.38
233.945	66.38
234.179	85.38
234.413	91.38
234.647	81.38
234.881	79.38
235.115	76.38
235.349	61.38
235.583	81.38
235.817	72.38
236.051	70.38
236.285	77.38
236.519	86.38
236.753	72.38
236.987	77.38
237.221	71.38
237.455	77.38
237.689	85.38
237.922	74.38
238.156	67.38
238.39	65.38
238.624	81.38
238.858	75.38
239.091	74.38
239.325	84.38
239.559	71.38
239.793	86.38
240.027	75.38
240.26	86.38
240.494	95.38
240.728	82.38
240.961	75.38
241.195	80.38
241.429	89.38
241.662	72.38
241.896	74.38
242.13	92.38
242.363	71.38
242.597	75.38
242.83	82.38
243.064	62.38
243.298	83.38
243.531	93.38
243.765	88.38
243.998	79.38
244.232	82.38
244.465	88.38
244.699	72.38
244.932	78.38
245.166	79.38
245.399	72.38
245.633	78.38
245.866	73.38
246.099	78.38
246.333	84.38
246.566	75.38
246.8	90.38
247.033	73.38
247.266	62.38
247.5	71.38
247.733	79.38
247.966	69.38
248.2	80.38
248.433	72.38
248.666	79.38
248.899	73.38
249.133	81.38
249.366	78.38
249.599	96.38
249.832	82.38
250.066	80.38
250.299	97.38
250.532	67.38
250.765	74.38
250.998	79.38
251.231	90.38
251.465	89.38
251.698	86.38
251.931	78.38
252.164	78.38
252.397	75.38
252.63	85.38
252.863	79.38
253.096	85.38
253.329	81.38
253.562	87.38
253.795	83.38
254.028	92.38
254.261	85.38
254.494	86.38
254.727	89.38
254.96	77.38
255.193	79.38
255.426	84.38
255.659	77.38
255.892	72.38
256.124	85.38
256.357	74.38
256.59	81.38
256.823	81.38
257.056	82.38
257.289	76.38
257.521	77.38
257.754	75.38
257.987	71.38
258.22	90.38
258.452	73.38
258.685	80.38
258.918	90.38
259.151	84.38
259.383	95.38
259.616	80.38
259.849	89.38
260.081	72.38
260.314	88.38
260.547	82.38
260.779	92.38
261.012	82.38
261.244	85.38
261.477	86.38
261.71	98.38
261.942	84.38
262.175	98.38
262.407	94.38
262.64	72.38
262.872	74.38
263.105	87.38
263.337	90.38
263.57	74.38
263.802	98.38
264.035	70.38
264.267	62.38
264.499	78.38
264.732	84.38
264.964	75.38
265.197	86.38
265.429	93.38
265.661	88.38
265.894	88.38
266.126	81.38
266.358	76.38
266.591	86.38
266.823	96.38
267.055	74.38
267.287	102.38
267.52	93.38
267.752	91.38
267.984	75.38
268.216	98.38
268.448	75.38
268.681	88.38
268.913	93.38
269.145	80.38
269.377	75.38
269.609	88.38
269.841	94.38
270.073	78.38
270.306	86.38
270.538	82.38
270.77	76.38
271.002	74.38
271.234	71.38
271.466	92.38
271.698	71.38
271.93	79.38
272.162	70.38
272.394	86.38
272.626	74.38
272.858	88.38
273.09	92.38
273.322	77.38
273.553	67.38
273.785	77.38
274.017	91.38
274.249	85.38
274.481	77.38
274.713	83.38
274.945	92.38
275.176	87.38
275.408	79.38
275.64	69.38
275.872	77.38
276.104	90.38
276.335	78.38
276.567	109.38
276.799	89.38
277.031	92.38
277.262	81.38
277.494	79.38
277.726	94.38
277.957	80.38
278.189	89.38
278.421	84.38
278.652	79.38
278.884	79.38
279.115	71.38
279.347	87.38
279.579	74.38
279.81	91.38
280.042	92.38
280.273	73.38
280.505	78.38
280.736	88.38
280.968	89.38
281.199	99.38
281.431	91.38
281.662	92.38
281.894	81.38
282.125	98.38
282.356	112.38
282.588	111.38
282.819	123.38
283.051	87.38
283.282	106.38
283.513	88.38
283.745	100.38
283.976	81.38
284.207	93.38
284.439	75.38
284.67	86.38
284.901	86.38
285.132	80.38
285.364	89.38
285.595	89.38
285.826	99.38
286.057	78.38
286.288	77.38
286.52	81.38
286.751	85.38
286.982	108.38
287.213	87.38
287.444	78.38
287.675	91.38
287.906	90.38
288.138	78.38
288.369	72.38
288.6	90.38
288.831	72.38
289.062	93.38
289.293	95.38
289.524	76.38
289.755	81.38
289.986	83.38
290.217	94.38
290.448	86.38
290.679	85.38
290.91	98.38
291.141	85.38
291.371	77.38
291.602	86.38
291.833	89.38
292.064	84.38
292.295	87.38
292.526	86.38
292.757	96.38
292.987	80.38
293.218	88.38
293.449	89.38
293.68	80.38
293.91	84.38
294.141	97.38
294.372	91.38
294.603	91.38
294.833	76.38
295.064	93.38
295.295	85.38
295.525	97.38
295.756	104.38
295.987	107.38
296.217	114.38
296.448	95.38
296.679	89.38
296.909	101.38
297.14	77.38
297.37	95.38
297.601	86.38
297.831	88.38
298.062	82.38
298.292	80.38
298.523	81.38
298.753	95.38
298.984	76.38
299.214	87.38
299.445	93.38
299.675	97.38
299.905	89.38
300.136	91.38
300.366	83.38
300.597	90.38
300.827	91.38
301.057	86.38
301.288	91.38
301.518	98.38
301.748	93.38
301.979	103.38
302.209	86.38
302.439	73.38
302.669	86.38
302.9	92.38
303.13	86.38
303.36	86.38
303.59	81.38
303.82	99.38
304.051	85.38
304.281	83.38
304.511	90.38
304.741	107.38
304.971	95.38
305.201	95.38
305.431	94.38
305.661	100.38
305.891	85.38
306.121	86.38
306.352	88.38
306.582	96.38
306.812	112.38
307.042	94.38
307.272	100.38
307.502	98.38
307.731	94.38
307.961	81.38
308.191	88.38
308.421	83.38
308.651	93.38
308.881	81.38
309.111	104.38
309.341	99.38
309.571	86.38
309.8	102.38
310.03	101.38
310.26	93.38
310.49	89.38
310.72	76.38
310.949	92.38
311.179	93.38
311.409	87.38
311.639	97.38
311.868	97.38
312.098	77.38
312.328	88.38
312.557	96.38
312.787	106.38
313.017	104.38
313.246	70.38
313.476	83.38
313.706	104.38
313.935	92.38
314.165	97.38
314.394	90.38
314.624	100.38
314.853	88.38
315.083	90.38
315.312	89.38
315.542	90.38
315.771	98.38
316.001	87.38
316.23	91.38
316.46	96.38
316.689	104.38
316.919	88.38
317.148	76.38
317.377	98.38
317.607	98.38
317.836	87.38
318.065	103.38
318.295	83.38
318.524	81.38
318.753	84.38
318.983	90.38
319.212	91.38
319.441	106.38
319.67	98.38
319.9	81.38
320.129	103.38
320.358	93.38
320.587	91.38
320.816	79.38
321.046	93.38
321.275	81.38
321.504	96.38
321.733	89.38
321.962	97.38
322.191	90.38
322.42	102.38
322.649	98.38
322.878	118.38
323.108	115.38
323.337	113.38
323.566	109.38
323.795	137.38
324.024	189.38
324.253	319.38
324.482	672.38
324.71	1342.38
324.939	1754.38
325.168	651.38
325.397	196.38
325.626	126.38
325.855	120.38
326.084	113.38
326.313	119.38
326.542	160.38
326.77	195.38
326.999	404.38
327.228	797.38
327.457	1375.38
327.686	1101.38
327.914	295.38
328.143	168.38
328.372	129.38
328.6	115.38
328.829	110.38
329.058	112.38
329.287	115.38
329.515	100.38
329.744	87.38
329.972	76.38
330.201	97.38
330.43	102.38
330.658	99.38
330.887	101.38
331.115	102.38
331.344	94.38
331.572	88.38
331.801	99.38
332.03	99.38
332.258	103.38
332.486	90.38
332.715	95.38
332.943	81.38
333.172	93.38
333.4	115.38
333.629	99.38
333.857	108.38
334.085	119.38
334.314	98.38
334.542	112.38
334.771	99.38
334.999	101.38
335.227	88.38
335.455	103.38
335.684	99.38
335.912	83.38
336.14	88.38
336.369	79.38
336.597	113.38
336.825	106.38
337.053	88.38
337.281	85.38
337.51	92.38
337.738	91.38
337.966	90.38
338.194	92.38
338.422	84.38
338.65	87.38
338.878	93.38
339.106	82.38
339.334	87.38
339.562	90.38
339.79	82.38
340.018	70.38
340.246	92.38
340.474	102.38
340.702	99.38
340.93	109.38
341.158	92.38
341.386	105.38
341.614	99.38
341.842	97.38
342.07	92.38
342.298	91.38
342.526	93.38
342.754	78.38
342.981	87.38
343.209	93.38
343.437	109.38
343.665	90.38
343.893	96.38
344.12	81.38
344.348	95.38
344.576	106.38
344.804	91.38
345.031	97.38
345.259	96.38
345.487	92.38
345.714	103.38
345.942	81.38
346.17	85.38
346.397	77.38
346.625	87.38
346.853	99.38
347.08	99.38
347.308	97.38
347.535	102.38
347.763	101.38
347.99	85.38
348.218	97.38
348.445	102.38
348.673	93.38
348.9	90.38
349.128	87.38
349.355	94.38
349.583	99.38
349.81	73.38
350.037	85.38
350.265	93.38
350.492	94.38
350.72	78.38
350.947	96.38
351.174	91.38
351.402	109.38
351.629	102.38
351.856	99.38
352.083	102.38
352.311	99.38
352.538	99.38
352.765	96.38
352.992	121.38
353.22	117.38
353.447	104.38
353.674	102.38
353.901	107.38
354.128	98.38
354.355	100.38
354.583	96.38
354.81	100.38
355.037	98.38
355.264	98.38
355.491	97.38
355.718	96.38
355.945	89.38
356.172	98.38
356.399	95.38
356.626	86.38
356.853	100.38
357.08	97.38
357.307	105.38
357.534	86.38
357.761	113.38
357.988	95.38
358.215	95.38
358.441	96.38
358.668	98.38
358.895	85.38
359.122	79.38
359.349	86.38
359.576	97.38
359.802	89.38
360.029	91.38
360.256	101.38
360.483	103.38
360.709	87.38
360.936	100.38
361.163	95.38
361.39	105.38
361.616	106.38
361.843	94.38
362.07	102.38
362.296	94.38
362.523	96.38
362.749	97.38
362.976	91.38
363.203	99.38
363.429	93.38
363.656	95.38
363.882	97.38
364.109	82.38
364.335	89.38
364.562	87.38
364.788	98.38
365.015	74.38
365.241	111.38
365.468	114.38
365.694	96.38
365.92	83.38
366.147	81.38
366.373	80.38
366.599	82.38
366.826	78.38
367.052	83.38
367.278	90.38
367.505	88.38
367.731	74.38
367.957	92.38
368.184	94.38
368.41	94.38
368.636	106.38
368.862	122.38
369.089	118.38
369.315	93.38
369.541	92.38
369.767	78.38
369.993	86.38
370.219	88.38
370.445	88.38
370.672	96.38
370.898	89.38
371.124	79.38
371.35	87.38
371.576	89.38
371.802	97.38
372.028	85.38
372.254	83.38
372.48	90.38
372.706	88.38
372.932	92.38
373.158	93.38
373.384	94.38
373.61	92.38
373.835	93.38
374.061	89.38
374.287	86.38
374.513	89.38
374.739	91.38
374.965	73.38
375.191	97.38
375.416	91.38
375.642	87.38
375.868	94.38
376.094	83.38
376.319	98.38
376.545	104.38
376.771	80.38
376.997	81.38
377.222	79.38
377.448	89.38
377.674	86.38
377.899	99.38
378.125	93.38
378.35	82.38
378.576	95.38
378.802	86.38
379.027	88.38
379.253	90.38
379.478	88.38
379.704	96.38
379.929	97.38
380.155	88.38
380.38	85.38
380.606	91.38
380.831	87.38
381.057	94.38
381.282	91.38
381.507	104.38
381.733	103.38
381.958	84.38
382.184	95.38
382.409	114.38
382.634	109.38
382.86	90.38
383.085	89.38
383.31	96.38
383.535	88.38
383.761	85.38
383.986	98.38
384.211	82.38
384.436	96.38
384.662	86.38
384.887	104.38
385.112	98.38
385.337	100.38
385.562	86.38
385.787	101.38
386.013	95.38
386.238	98.38
386.463	102.38
386.688	88.38
386.913	82.38
387.138	94.38
387.363	94.38
387.588	97.38
387.813	89.38
388.038	108.38
388.263	98.38
388.488	105.38
388.713	85.38
388.938	106.38
389.163	97.38
389.387	98.38
389.612	103.38
389.837	99.38
390.062	90.38
390.287	85.38
390.512	94.38
390.736	96.38
390.961	107.38
391.186	91.38
391.411	86.38
391.636	89.38
391.86	85.38
392.085	79.38
392.31	89.38
392.534	89.38
392.759	91.38
392.984	72.38
393.208	99.38
393.433	85.38
393.658	90.38
393.882	83.38
394.107	90.38
394.331	82.38
394.556	84.38
394.78	88.38
395.005	83.38
395.229	90.38
395.454	88.38
395.678	78.38
395.903	90.38
396.127	82.38
396.352	99.38
396.576	74.38
396.801	97.38
397.025	93.38
397.249	102.38
397.474	102.38
397.698	80.38
397.922	79.38
398.147	80.38
398.371	79.38
398.595	79.38
398.82	82.38
399.044	93.38
399.268	83.38
399.492	93.38
399.717	90.38
399.941	99.38
400.165	104.38
400.389	92.38
400.613	98.38
400.837	96.38
401.062	90.38
401.286	102.38
401.51	81.38
401.734	97.38
401.958	87.38
402.182	122.38
402.406	137.38
402.63	117.38
402.854	105.38
403.078	95.38
403.302	83.38
403.526	83.38
403.75	85.38
403.974	97.38
404.198	85.38
404.422	80.38
404.645	91.38
404.869	91.38
405.093	81.38
405.317	93.38
405.541	80.38
405.765	104.38
405.988	107.38
406.212	157.38
406.436	198.38
406.66	124.38
406.883	98.38
407.107	83.38
407.331	85.38
407.555	88.38
407.778	87.38
408.002	83.38
408.226	97.38
408.449	95.38
408.673	84.38
408.896	82.38
409.12	88.38
409.344	93.38
409.567	73.38
409.791	78.38
410.014	104.38
410.238	98.38
410.461	98.38
410.685	96.38
410.908	95.38
411.132	97.38
411.355	102.38
411.578	78.38
411.802	78.38
412.025	86.38
412.249	84.38
412.472	89.38
412.695	86.38
412.919	88.38
413.142	89.38
413.365	87.38
413.589	88.38
413.812	98.38
414.035	85.38
414.258	85.38
414.482	86.38
414.705	97.38
414.928	96.38
415.151	94.38
415.374	95.38
415.597	72.38
415.821	93.38
416.044	100.38
416.267	87.38
416.49	103.38
416.713	79.38
416.936	94.38
417.159	88.38
417.382	91.38
417.605	93.38
417.828	81.38
418.051	83.38
418.274	76.38
418.497	79.38
418.72	87.38
418.943	98.38
419.166	82.38
419.389	82.38
419.611	81.38
419.834	81.38
420.057	75.38
420.28	99.38
420.503	82.38
420.726	83.38
420.948	87.38
421.171	89.38
421.394	92.38
421.617	99.38
421.839	106.38
422.062	89.38
422.285	88.38
422.507	102.38
422.73	101.38
422.953	92.38
423.175	96.38
423.398	86.38
423.621	90.38
423.843	76.38
424.066	73.38
424.288	83.38
424.511	86.38
424.733	92.38
424.956	93.38
425.178	93.38
425.401	112.38
425.623	86.38
425.846	87.38
426.068	104.38
426.291	89.38
426.513	85.38
426.735	94.38
426.958	89.38
427.18	92.38
427.402	135.38
427.625	170.38
427.847	119.38
428.069	103.38
428.292	85.38
428.514	102.38
428.736	81.38
428.958	83.38
429.181	80.38
429.403	76.38
429.625	86.38
429.847	90.38
430.069	86.38
430.292	91.38
430.514	93.38
430.736	105.38
430.958	94.38
431.18	97.38
431.402	97.38
431.624	105.38
431.846	87.38
432.068	81.38
432.29	87.38
432.512	91.38
432.734	84.38
432.956	93.38
433.178	79.38
433.4	99.38
433.622	95.38
433.844	87.38
434.066	97.38
434.287	90.38
434.509	79.38
434.731	86.38
434.953	89.38
435.175	84.38
435.397	94.38
435.618	92.38
435.84	98.38
436.062	104.38
436.284	104.38
436.505	106.38
436.727	101.38
436.949	85.38
437.17	77.38
437.392	74.38
437.614	86.38
437.835	93.38
438.057	111.38
438.278	104.38
438.5	92.38
438.721	102.38
438.943	93.38
439.165	76.38
439.386	91.38
439.608	86.38
439.829	91.38
440.05	113.38
440.272	126.38
440.493	101.38
440.715	78.38
440.936	92.38
441.158	99.38
441.379	80.38
441.6	91.38
441.822	91.38
442.043	95.38
442.264	100.38
442.486	101.38
442.707	85.38
442.928	103.38
443.149	121.38
443.371	126.38
443.592	103.38
443.813	107.38
444.034	81.38
444.255	96.38
444.476	76.38
444.698	86.38
444.919	92.38
445.14	117.38
445.361	110.38
445.582	97.38
445.803	114.38
446.024	139.38
446.245	113.38
446.466	118.38
446.687	79.38
446.908	96.38
447.129	94.38
447.35	90.38
447.571	87.38
447.792	91.38
448.013	101.38
448.234	107.38
448.455	97.38
448.675	109.38
448.896	105.38
449.117	80.38
449.338	100.38
449.559	113.38
449.779	110.38
450	82.38
450.221	87.38
450.442	99.38
450.662	97.38
450.883	99.38
451.104	101.38
451.324	104.38
451.545	79.38
451.766	89.38
451.986	85.38
452.207	90.38
452.428	91.38
452.648	70.38
452.869	114.38
453.089	112.38
453.31	107.38
453.53	90.38
453.751	88.38
453.971	105.38
454.192	101.38
454.412	94.38
454.633	86.38
454.853	82.38
455.073	83.38
455.294	90.38
455.514	98.38
455.734	91.38
455.955	78.38
456.175	80.38
456.395	76.38
456.616	96.38
456.836	73.38
457.056	99.38
457.276	100.38
457.497	84.38
457.717	81.38
457.937	88.38
458.157	88.38
458.377	88.38
458.598	93.38
458.818	123.38
459.038	139.38
459.258	109.38
459.478	102.38
459.698	95.38
459.918	90.38
460.138	80.38
460.358	93.38
460.578	90.38
460.798	83.38
461.018	79.38
461.238	86.38
461.458	72.38
461.678	91.38
461.898	90.38
462.118	84.38
462.338	94.38
462.558	72.38
462.777	81.38
462.997	82.38
463.217	81.38
463.437	78.38
463.657	79.38
463.876	94.38
464.096	95.38
464.316	70.38
464.536	86.38
464.755	91.38
464.975	96.38
465.195	128.38
465.414	130.38
465.634	92.38
465.854	89.38
466.073	84.38
466.293	94.38
466.512	81.38
466.732	73.38
466.951	79.38
467.171	91.38
467.391	88.38
467.61	109.38
467.829	101.38
468.049	72.38
468.268	98.38
468.488	81.38
468.707	71.38
468.927	81.38
469.146	81.38
469.365	83.38
469.585	85.38
469.804	85.38
470.023	96.38
470.243	93.38
470.462	87.38
470.681	102.38
470.901	75.38
471.12	88.38
471.339	85.38
471.558	96.38
471.777	82.38
471.997	79.38
472.216	105.38
472.435	85.38
472.654	97.38
472.873	89.38
473.092	88.38
473.311	76.38
473.53	90.38
473.749	81.38
473.968	84.38
474.187	105.38
474.406	95.38
474.625	87.38
474.844	76.38
475.063	95.38
475.282	73.38
475.501	78.38
475.72	93.38
475.939	80.38
476.158	86.38
476.377	84.38
476.596	87.38
476.814	86.38
477.033	86.38
477.252	93.38
477.471	80.38
477.69	83.38
477.908	74.38
478.127	97.38
478.346	93.38
478.564	79.38
478.783	88.38
479.002	96.38
479.22	90.38
479.439	101.38
479.658	88.38
479.876	95.38
480.095	82.38
480.313	80.38
480.532	98.38
480.751	88.38
480.969	89.38
481.188	116.38
481.406	93.38
481.624	89.38
481.843	81.38
482.061	86.38
482.28	99.38
482.498	89.38
482.717	81.38
482.935	85.38
483.153	82.38
483.372	75.38
483.59	77.38
483.808	88.38
484.027	90.38
484.245	94.38
484.463	85.38
484.681	105.38
484.9	84.38
485.118	105.38
485.336	93.38
485.554	98.38
485.772	98.38
485.99	93.38
486.209	105.38
486.427	103.38
486.645	97.38
486.863	105.38
487.081	82.38
487.299	91.38
487.517	97.38
487.735	99.38
487.953	96.38
488.171	93.38
488.389	78.38
488.607	80.38
488.825	97.38
489.043	86.38
489.261	97.38
489.479	92.38
489.696	78.38
489.914	92.38
490.132	92.38
490.35	89.38
490.568	74.38
490.786	71.38
491.003	94.38
491.221	98.38
491.439	88.38
491.657	102.38
491.874	104.38
492.092	89.38
492.31	84.38
492.527	75.38
492.745	81.38
492.963	91.38
493.18	82.38
493.398	76.38
493.615	90.38
493.833	87.38
494.05	85.38
494.268	85.38
494.485	85.38
494.703	74.38
494.92	76.38
495.138	94.38
495.355	95.38
495.573	86.38
495.79	93.38
496.008	84.38
496.225	91.38
496.442	72.38
496.66	99.38
496.877	91.38
497.094	91.38
497.312	88.38
497.529	97.38
497.746	78.38
497.963	90.38
498.181	81.38
498.398	93.38
498.615	119.38
498.832	111.38
499.049	75.38
499.267	85.38
499.484	93.38
499.701	96.38
499.918	94.38
500.135	77.38
500.352	78.38
500.569	89.38
500.786	97.38
501.003	89.38
501.22	87.38
501.437	89.38
501.654	86.38
501.871	96.38
502.088	89.38
502.305	88.38
502.522	80.38
502.739	74.38
502.956	87.38
503.172	92.38
503.389	88.38
503.606	103.38
503.823	83.38
504.04	81.38
504.256	100.38
504.473	95.38
504.69	92.38
504.907	72.38
505.123	95.38
505.34	88.38
505.557	88.38
505.773	91.38
505.99	86.38
506.207	78.38
506.423	70.38
506.64	101.38
506.856	89.38
507.073	93.38
507.289	88.38
507.506	92.38
507.722	110.38
507.939	97.38
508.155	97.38
508.372	81.38
508.588	101.38
508.805	104.38
509.021	89.38
509.238	89.38
509.454	98.38
509.67	93.38
509.887	113.38
510.103	117.38
510.319	200.38
510.536	650.38
510.752	1987.38
510.968	561.38
511.184	132.38
511.401	103.38
511.617	111.38
511.833	100.38
512.049	100.38
512.265	98.38
512.481	85.38
512.698	78.38
512.914	89.38
513.13	87.38
513.346	77.38
513.562	98.38
513.778	88.38
513.994	94.38
514.21	97.38
514.426	106.38
514.642	117.38
514.858	127.38
515.074	156.38
515.29	364.38
515.506	1222.38
515.721	450.38
515.937	131.38
516.153	110.38
516.369	94.38
516.585	86.38
516.801	88.38
