Data from Uncirc_1997_H10_HRD10591_00018.txt Node
Date: Wed Jan 03 11:28:34 EST 2024
User: Yrep
Spectrometer: HR+D1059
Trigger mode: 1
Integration Time (sec): 1.000000E-1
Scans to average: 1
Electric dark correction enabled: true
Nonlinearity correction enabled: false
Boxcar width: 0
XAxis mode: Wavelengths
Number of Pixels in Spectrum: 2048
>>>>>Begin Spectral Data<<<<<
223.165	-24.88
223.4	-24.88
223.635	-24.88
223.869	-24.88
224.104	-19.88
224.338	-9.88
224.573	-5.88
224.808	-19.88
225.042	-3.88
225.277	-0.88
225.511	-5.88
225.746	-5.88
225.98	-4.88
226.215	15.12
226.449	30.12
226.683	16.12
226.918	34.12
227.152	31.12
227.387	35.12
227.621	31.12
227.856	43.12
228.09	46.12
228.324	48.12
228.559	57.12
228.793	50.12
229.027	67.12
229.262	70.12
229.496	65.12
229.73	75.12
229.964	90.12
230.199	66.12
230.433	66.12
230.667	66.12
230.901	79.12
231.136	96.12
231.37	83.12
231.604	86.12
231.838	78.12
232.072	80.12
232.306	68.12
232.541	88.12
232.775	68.12
233.009	74.12
233.243	68.12
233.477	82.12
233.711	76.12
233.945	82.12
234.179	84.12
234.413	66.12
234.647	81.12
234.881	87.12
235.115	78.12
235.349	81.12
235.583	77.12
235.817	78.12
236.051	72.12
236.285	86.12
236.519	92.12
236.753	91.12
236.987	71.12
237.221	71.12
237.455	75.12
237.689	75.12
237.922	70.12
238.156	76.12
238.39	81.12
238.624	84.12
238.858	68.12
239.091	59.12
239.325	75.12
239.559	71.12
239.793	70.12
240.027	72.12
240.26	75.12
240.494	87.12
240.728	73.12
240.961	66.12
241.195	82.12
241.429	62.12
241.662	71.12
241.896	78.12
242.13	72.12
242.363	80.12
242.597	77.12
242.83	79.12
243.064	75.12
243.298	67.12
243.531	78.12
243.765	79.12
243.998	87.12
244.232	62.12
244.465	86.12
244.699	79.12
244.932	88.12
245.166	70.12
245.399	84.12
245.633	76.12
245.866	75.12
246.099	82.12
246.333	73.12
246.566	75.12
246.8	73.12
247.033	71.12
247.266	86.12
247.5	80.12
247.733	84.12
247.966	94.12
248.2	88.12
248.433	86.12
248.666	81.12
248.899	81.12
249.133	86.12
249.366	90.12
249.599	99.12
249.832	71.12
250.066	88.12
250.299	86.12
250.532	91.12
250.765	90.12
250.998	79.12
251.231	76.12
251.465	94.12
251.698	87.12
251.931	90.12
252.164	84.12
252.397	73.12
252.63	101.12
252.863	84.12
253.096	84.12
253.329	84.12
253.562	92.12
253.795	78.12
254.028	82.12
254.261	91.12
254.494	77.12
254.727	87.12
254.96	76.12
255.193	92.12
255.426	76.12
255.659	82.12
255.892	67.12
256.124	92.12
256.357	82.12
256.59	81.12
256.823	85.12
257.056	94.12
257.289	66.12
257.521	82.12
257.754	73.12
257.987	62.12
258.22	73.12
258.452	86.12
258.685	81.12
258.918	80.12
259.151	75.12
259.383	82.12
259.616	76.12
259.849	73.12
260.081	83.12
260.314	85.12
260.547	82.12
260.779	82.12
261.012	87.12
261.244	79.12
261.477	95.12
261.71	87.12
261.942	98.12
262.175	108.12
262.407	90.12
262.64	88.12
262.872	78.12
263.105	75.12
263.337	83.12
263.57	91.12
263.802	96.12
264.035	82.12
264.267	81.12
264.499	74.12
264.732	83.12
264.964	88.12
265.197	83.12
265.429	89.12
265.661	82.12
265.894	97.12
266.126	78.12
266.358	80.12
266.591	94.12
266.823	81.12
267.055	82.12
267.287	87.12
267.52	85.12
267.752	94.12
267.984	84.12
268.216	89.12
268.448	81.12
268.681	89.12
268.913	88.12
269.145	88.12
269.377	81.12
269.609	82.12
269.841	73.12
270.073	67.12
270.306	59.12
270.538	81.12
270.77	82.12
271.002	80.12
271.234	91.12
271.466	92.12
271.698	88.12
271.93	84.12
272.162	88.12
272.394	87.12
272.626	91.12
272.858	94.12
273.09	90.12
273.322	87.12
273.553	96.12
273.785	84.12
274.017	80.12
274.249	90.12
274.481	79.12
274.713	82.12
274.945	85.12
275.176	77.12
275.408	96.12
275.64	76.12
275.872	84.12
276.104	82.12
276.335	82.12
276.567	98.12
276.799	85.12
277.031	87.12
277.262	102.12
277.494	80.12
277.726	80.12
277.957	91.12
278.189	90.12
278.421	99.12
278.652	82.12
278.884	95.12
279.115	90.12
279.347	90.12
279.579	83.12
279.81	83.12
280.042	94.12
280.273	88.12
280.505	96.12
280.736	93.12
280.968	72.12
281.199	86.12
281.431	76.12
281.662	86.12
281.894	77.12
282.125	95.12
282.356	114.12
282.588	117.12
282.819	104.12
283.051	90.12
283.282	95.12
283.513	85.12
283.745	86.12
283.976	89.12
284.207	88.12
284.439	75.12
284.67	78.12
284.901	82.12
285.132	71.12
285.364	76.12
285.595	92.12
285.826	90.12
286.057	89.12
286.288	85.12
286.52	96.12
286.751	90.12
286.982	83.12
287.213	104.12
287.444	90.12
287.675	82.12
287.906	92.12
288.138	79.12
288.369	84.12
288.6	77.12
288.831	89.12
289.062	86.12
289.293	87.12
289.524	72.12
289.755	86.12
289.986	89.12
290.217	82.12
290.448	88.12
290.679	94.12
290.91	83.12
291.141	88.12
291.371	92.12
291.602	76.12
291.833	98.12
292.064	87.12
292.295	83.12
292.526	84.12
292.757	104.12
292.987	85.12
293.218	100.12
293.449	92.12
293.68	86.12
293.91	71.12
294.141	96.12
294.372	72.12
294.603	77.12
294.833	89.12
295.064	74.12
295.295	88.12
295.525	86.12
295.756	107.12
295.987	106.12
296.217	114.12
296.448	121.12
296.679	76.12
296.909	93.12
297.14	78.12
297.37	87.12
297.601	89.12
297.831	98.12
298.062	94.12
298.292	95.12
298.523	92.12
298.753	95.12
298.984	91.12
299.214	90.12
299.445	90.12
299.675	92.12
299.905	99.12
300.136	90.12
300.366	85.12
300.597	88.12
300.827	104.12
301.057	111.12
301.288	103.12
301.518	79.12
301.748	85.12
301.979	104.12
302.209	99.12
302.439	94.12
302.669	100.12
302.9	93.12
303.13	91.12
303.36	96.12
303.59	98.12
303.82	94.12
304.051	97.12
304.281	96.12
304.511	99.12
304.741	87.12
304.971	88.12
305.201	89.12
305.431	84.12
305.661	88.12
305.891	79.12
306.121	93.12
306.352	100.12
306.582	100.12
306.812	102.12
307.042	91.12
307.272	93.12
307.502	91.12
307.731	102.12
307.961	94.12
308.191	92.12
308.421	90.12
308.651	87.12
308.881	92.12
309.111	98.12
309.341	91.12
309.571	103.12
309.8	96.12
310.03	91.12
310.26	103.12
310.49	96.12
310.72	87.12
310.949	96.12
311.179	97.12
311.409	106.12
311.639	92.12
311.868	101.12
312.098	94.12
312.328	86.12
312.557	105.12
312.787	101.12
313.017	107.12
313.246	106.12
313.476	92.12
313.706	91.12
313.935	103.12
314.165	98.12
314.394	108.12
314.624	91.12
314.853	80.12
315.083	92.12
315.312	84.12
315.542	92.12
315.771	82.12
316.001	92.12
316.23	86.12
316.46	86.12
316.689	89.12
316.919	86.12
317.148	100.12
317.377	85.12
317.607	98.12
317.836	90.12
318.065	82.12
318.295	78.12
318.524	81.12
318.753	81.12
318.983	78.12
319.212	100.12
319.441	101.12
319.67	105.12
319.9	96.12
320.129	96.12
320.358	75.12
320.587	88.12
320.816	106.12
321.046	102.12
321.275	100.12
321.504	93.12
321.733	99.12
321.962	83.12
322.191	93.12
322.42	87.12
322.649	103.12
322.878	109.12
323.108	116.12
323.337	103.12
323.566	108.12
323.795	134.12
324.024	180.12
324.253	351.12
324.482	722.12
324.71	1406.12
324.939	1844.12
325.168	703.12
325.397	219.12
325.626	151.12
325.855	108.12
326.084	121.12
326.313	133.12
326.542	138.12
326.77	199.12
326.999	413.12
327.228	848.12
327.457	1459.12
327.686	1153.12
327.914	309.12
328.143	163.12
328.372	132.12
328.6	100.12
328.829	108.12
329.058	107.12
329.287	108.12
329.515	110.12
329.744	97.12
329.972	82.12
330.201	102.12
330.43	106.12
330.658	126.12
330.887	131.12
331.115	117.12
331.344	90.12
331.572	94.12
331.801	104.12
332.03	102.12
332.258	90.12
332.486	86.12
332.715	105.12
332.943	91.12
333.172	77.12
333.4	115.12
333.629	106.12
333.857	113.12
334.085	104.12
334.314	102.12
334.542	122.12
334.771	97.12
334.999	112.12
335.227	106.12
335.455	104.12
335.684	103.12
335.912	95.12
336.14	87.12
336.369	103.12
336.597	98.12
336.825	98.12
337.053	89.12
337.281	95.12
337.51	94.12
337.738	90.12
337.966	107.12
338.194	95.12
338.422	91.12
338.65	103.12
338.878	103.12
339.106	100.12
339.334	92.12
339.562	96.12
339.79	99.12
340.018	99.12
340.246	82.12
340.474	89.12
340.702	92.12
340.93	101.12
341.158	91.12
341.386	90.12
341.614	90.12
341.842	96.12
342.07	82.12
342.298	83.12
342.526	90.12
342.754	90.12
342.981	87.12
343.209	90.12
343.437	108.12
343.665	97.12
343.893	93.12
344.12	86.12
344.348	83.12
344.576	82.12
344.804	94.12
345.031	95.12
345.259	91.12
345.487	82.12
345.714	91.12
345.942	87.12
346.17	103.12
346.397	99.12
346.625	80.12
346.853	85.12
347.08	87.12
347.308	110.12
347.535	108.12
347.763	78.12
347.99	100.12
348.218	96.12
348.445	109.12
348.673	111.12
348.9	96.12
349.128	107.12
349.355	93.12
349.583	99.12
349.81	97.12
350.037	99.12
350.265	83.12
350.492	87.12
350.72	86.12
350.947	112.12
351.174	96.12
351.402	114.12
351.629	105.12
351.856	79.12
352.083	91.12
352.311	103.12
352.538	110.12
352.765	100.12
352.992	107.12
353.22	125.12
353.447	95.12
353.674	95.12
353.901	88.12
354.128	100.12
354.355	98.12
354.583	97.12
354.81	89.12
355.037	95.12
355.264	89.12
355.491	98.12
355.718	101.12
355.945	111.12
356.172	92.12
356.399	99.12
356.626	109.12
356.853	110.12
357.08	93.12
357.307	74.12
357.534	82.12
357.761	96.12
357.988	92.12
358.215	99.12
358.441	92.12
358.668	87.12
358.895	107.12
359.122	93.12
359.349	94.12
359.576	96.12
359.802	98.12
360.029	108.12
360.256	99.12
360.483	105.12
360.709	79.12
360.936	100.12
361.163	97.12
361.39	90.12
361.616	94.12
361.843	91.12
362.07	73.12
362.296	86.12
362.523	100.12
362.749	93.12
362.976	87.12
363.203	90.12
363.429	86.12
363.656	90.12
363.882	84.12
364.109	89.12
364.335	87.12
364.562	92.12
364.788	90.12
365.015	83.12
365.241	113.12
365.468	98.12
365.694	99.12
365.92	94.12
366.147	98.12
366.373	94.12
366.599	86.12
366.826	90.12
367.052	78.12
367.278	94.12
367.505	86.12
367.731	77.12
367.957	92.12
368.184	96.12
368.41	103.12
368.636	94.12
368.862	105.12
369.089	98.12
369.315	102.12
369.541	84.12
369.767	89.12
369.993	91.12
370.219	96.12
370.445	93.12
370.672	89.12
370.898	89.12
371.124	98.12
371.35	78.12
371.576	91.12
371.802	89.12
372.028	87.12
372.254	93.12
372.48	71.12
372.706	87.12
372.932	92.12
373.158	85.12
373.384	85.12
373.61	100.12
373.835	87.12
374.061	79.12
374.287	99.12
374.513	82.12
374.739	81.12
374.965	88.12
375.191	86.12
375.416	93.12
375.642	86.12
375.868	84.12
376.094	80.12
376.319	88.12
376.545	83.12
376.771	94.12
376.997	87.12
377.222	91.12
377.448	97.12
377.674	91.12
377.899	82.12
378.125	94.12
378.35	109.12
378.576	97.12
378.802	90.12
379.027	102.12
379.253	94.12
379.478	85.12
379.704	102.12
379.929	107.12
380.155	88.12
380.38	86.12
380.606	82.12
380.831	91.12
381.057	100.12
381.282	98.12
381.507	81.12
381.733	99.12
381.958	90.12
382.184	92.12
382.409	95.12
382.634	95.12
382.86	94.12
383.085	99.12
383.31	96.12
383.535	100.12
383.761	80.12
383.986	95.12
384.211	108.12
384.436	93.12
384.662	101.12
384.887	106.12
385.112	100.12
385.337	99.12
385.562	109.12
385.787	107.12
386.013	106.12
386.238	98.12
386.463	101.12
386.688	125.12
386.913	97.12
387.138	108.12
387.363	110.12
387.588	114.12
387.813	94.12
388.038	99.12
388.263	95.12
388.488	94.12
388.713	105.12
388.938	105.12
389.163	103.12
389.387	94.12
389.612	95.12
389.837	82.12
390.062	86.12
390.287	109.12
390.512	104.12
390.736	94.12
390.961	110.12
391.186	92.12
391.411	104.12
391.636	82.12
391.86	80.12
392.085	86.12
392.31	85.12
392.534	91.12
392.759	100.12
392.984	98.12
393.208	84.12
393.433	102.12
393.658	90.12
393.882	74.12
394.107	84.12
394.331	84.12
394.556	76.12
394.78	82.12
395.005	73.12
395.229	75.12
395.454	89.12
395.678	81.12
395.903	80.12
396.127	79.12
396.352	100.12
396.576	83.12
396.801	74.12
397.025	91.12
397.249	77.12
397.474	94.12
397.698	84.12
397.922	90.12
398.147	80.12
398.371	87.12
398.595	80.12
398.82	81.12
399.044	72.12
399.268	69.12
399.492	75.12
399.717	95.12
399.941	88.12
400.165	88.12
400.389	98.12
400.613	92.12
400.837	86.12
401.062	88.12
401.286	77.12
401.51	97.12
401.734	86.12
401.958	103.12
402.182	96.12
402.406	129.12
402.63	121.12
402.854	76.12
403.078	88.12
403.302	86.12
403.526	78.12
403.75	87.12
403.974	85.12
404.198	92.12
404.422	88.12
404.645	94.12
404.869	92.12
405.093	94.12
405.317	83.12
405.541	98.12
405.765	88.12
405.988	110.12
406.212	139.12
406.436	190.12
406.66	119.12
406.883	104.12
407.107	100.12
407.331	95.12
407.555	75.12
407.778	86.12
408.002	103.12
408.226	94.12
408.449	74.12
408.673	93.12
408.896	81.12
409.12	98.12
409.344	89.12
409.567	98.12
409.791	86.12
410.014	94.12
410.238	90.12
410.461	94.12
410.685	98.12
410.908	109.12
411.132	102.12
411.355	101.12
411.578	101.12
411.802	83.12
412.025	93.12
412.249	94.12
412.472	97.12
412.695	94.12
412.919	88.12
413.142	71.12
413.365	89.12
413.589	110.12
413.812	82.12
414.035	87.12
414.258	93.12
414.482	91.12
414.705	89.12
414.928	91.12
415.151	82.12
415.374	101.12
415.597	84.12
415.821	103.12
416.044	94.12
416.267	83.12
416.49	89.12
416.713	88.12
416.936	81.12
417.159	73.12
417.382	90.12
417.605	91.12
417.828	96.12
418.051	84.12
418.274	92.12
418.497	78.12
418.72	89.12
418.943	96.12
419.166	82.12
419.389	74.12
419.611	86.12
419.834	100.12
420.057	89.12
420.28	79.12
420.503	83.12
420.726	94.12
420.948	70.12
421.171	94.12
421.394	105.12
421.617	93.12
421.839	86.12
422.062	91.12
422.285	96.12
422.507	96.12
422.73	97.12
422.953	94.12
423.175	100.12
423.398	93.12
423.621	87.12
423.843	71.12
424.066	66.12
424.288	90.12
424.511	78.12
424.733	87.12
424.956	92.12
425.178	91.12
425.401	98.12
425.623	106.12
425.846	90.12
426.068	98.12
426.291	92.12
426.513	87.12
426.735	96.12
426.958	97.12
427.18	106.12
427.402	121.12
427.625	143.12
427.847	105.12
428.069	88.12
428.292	88.12
428.514	72.12
428.736	89.12
428.958	96.12
429.181	88.12
429.403	79.12
429.625	83.12
429.847	84.12
430.069	96.12
430.292	94.12
430.514	76.12
430.736	79.12
430.958	89.12
431.18	76.12
431.402	95.12
431.624	78.12
431.846	83.12
432.068	78.12
432.29	99.12
432.512	66.12
432.734	72.12
432.956	95.12
433.178	96.12
433.4	106.12
433.622	104.12
433.844	92.12
434.066	98.12
434.287	83.12
434.509	89.12
434.731	85.12
434.953	100.12
435.175	90.12
435.397	99.12
435.618	86.12
435.84	96.12
436.062	103.12
436.284	100.12
436.505	116.12
436.727	99.12
436.949	95.12
437.17	99.12
437.392	78.12
437.614	84.12
437.835	89.12
438.057	98.12
438.278	96.12
438.5	100.12
438.721	110.12
438.943	100.12
439.165	94.12
439.386	94.12
439.608	84.12
439.829	96.12
440.05	95.12
440.272	118.12
440.493	99.12
440.715	86.12
440.936	81.12
441.158	78.12
441.379	79.12
441.6	91.12
441.822	104.12
442.043	84.12
442.264	99.12
442.486	87.12
442.707	87.12
442.928	104.12
443.149	113.12
443.371	114.12
443.592	93.12
443.813	114.12
444.034	104.12
444.255	91.12
444.476	78.12
444.698	94.12
444.919	90.12
445.14	127.12
445.361	127.12
445.582	107.12
445.803	124.12
446.024	130.12
446.245	115.12
446.466	98.12
446.687	92.12
446.908	88.12
447.129	85.12
447.35	91.12
447.571	103.12
447.792	112.12
448.013	91.12
448.234	96.12
448.455	89.12
448.675	102.12
448.896	111.12
449.117	97.12
449.338	96.12
449.559	119.12
449.779	109.12
450	91.12
450.221	86.12
450.442	97.12
450.662	90.12
450.883	116.12
451.104	108.12
451.324	95.12
451.545	98.12
451.766	77.12
451.986	75.12
452.207	87.12
452.428	93.12
452.648	106.12
452.869	102.12
453.089	98.12
453.31	103.12
453.53	84.12
453.751	77.12
453.971	90.12
454.192	108.12
454.412	93.12
454.633	83.12
454.853	78.12
455.073	94.12
455.294	91.12
455.514	86.12
455.734	78.12
455.955	83.12
456.175	87.12
456.395	91.12
456.616	86.12
456.836	77.12
457.056	99.12
457.276	89.12
457.497	81.12
457.717	79.12
457.937	84.12
458.157	105.12
458.377	106.12
458.598	89.12
458.818	132.12
459.038	158.12
459.258	111.12
459.478	86.12
459.698	83.12
459.918	87.12
460.138	87.12
460.358	79.12
460.578	82.12
460.798	91.12
461.018	89.12
461.238	82.12
461.458	76.12
461.678	78.12
461.898	82.12
462.118	88.12
462.338	71.12
462.558	81.12
462.777	83.12
462.997	89.12
463.217	71.12
463.437	84.12
463.657	95.12
463.876	100.12
464.096	90.12
464.316	87.12
464.536	110.12
464.755	87.12
464.975	98.12
465.195	127.12
465.414	134.12
465.634	100.12
465.854	93.12
466.073	86.12
466.293	81.12
466.512	86.12
466.732	94.12
466.951	92.12
467.171	91.12
467.391	88.12
467.61	96.12
467.829	103.12
468.049	90.12
468.268	90.12
468.488	80.12
468.707	90.12
468.927	76.12
469.146	91.12
469.365	88.12
469.585	95.12
469.804	91.12
470.023	86.12
470.243	95.12
470.462	95.12
470.681	104.12
470.901	91.12
471.12	84.12
471.339	76.12
471.558	90.12
471.777	83.12
471.997	89.12
472.216	90.12
472.435	112.12
472.654	89.12
472.873	79.12
473.092	80.12
473.311	81.12
473.53	84.12
473.749	81.12
473.968	101.12
474.187	97.12
474.406	94.12
474.625	99.12
474.844	85.12
475.063	89.12
475.282	106.12
475.501	79.12
475.72	88.12
475.939	85.12
476.158	94.12
476.377	81.12
476.596	100.12
476.814	87.12
477.033	92.12
477.252	92.12
477.471	61.12
477.69	86.12
477.908	100.12
478.127	95.12
478.346	84.12
478.564	103.12
478.783	85.12
479.002	82.12
479.22	91.12
479.439	87.12
479.658	87.12
479.876	90.12
480.095	92.12
480.313	90.12
480.532	93.12
480.751	88.12
480.969	100.12
481.188	108.12
481.406	97.12
481.624	78.12
481.843	87.12
482.061	94.12
482.28	90.12
482.498	93.12
482.717	91.12
482.935	91.12
483.153	87.12
483.372	90.12
483.59	83.12
483.808	91.12
484.027	103.12
484.245	79.12
484.463	100.12
484.681	82.12
484.9	91.12
485.118	87.12
485.336	95.12
485.554	91.12
485.772	92.12
485.99	104.12
486.209	92.12
486.427	114.12
486.645	108.12
486.863	115.12
487.081	92.12
487.299	99.12
487.517	93.12
487.735	96.12
487.953	93.12
488.171	82.12
488.389	87.12
488.607	92.12
488.825	90.12
489.043	81.12
489.261	97.12
489.479	91.12
489.696	86.12
489.914	90.12
490.132	83.12
490.35	98.12
490.568	95.12
490.786	104.12
491.003	87.12
491.221	85.12
491.439	98.12
491.657	91.12
491.874	82.12
492.092	88.12
492.31	79.12
492.527	98.12
492.745	75.12
492.963	73.12
493.18	104.12
493.398	92.12
493.615	96.12
493.833	94.12
494.05	84.12
494.268	80.12
494.485	82.12
494.703	76.12
494.92	86.12
495.138	107.12
495.355	102.12
495.573	96.12
495.79	99.12
496.008	85.12
496.225	86.12
496.442	91.12
496.66	91.12
496.877	92.12
497.094	87.12
497.312	106.12
497.529	71.12
497.746	76.12
497.963	86.12
498.181	87.12
498.398	100.12
498.615	114.12
498.832	86.12
499.049	79.12
499.267	88.12
499.484	72.12
499.701	87.12
499.918	81.12
500.135	89.12
500.352	80.12
500.569	97.12
500.786	82.12
501.003	86.12
501.22	83.12
501.437	99.12
501.654	89.12
501.871	105.12
502.088	94.12
502.305	97.12
502.522	93.12
502.739	95.12
502.956	91.12
503.172	81.12
503.389	88.12
503.606	91.12
503.823	95.12
504.04	99.12
504.256	89.12
504.473	74.12
504.69	104.12
504.907	93.12
505.123	88.12
505.34	88.12
505.557	87.12
505.773	95.12
505.99	90.12
506.207	96.12
506.423	84.12
506.64	66.12
506.856	86.12
507.073	94.12
507.289	85.12
507.506	88.12
507.722	101.12
507.939	111.12
508.155	100.12
508.372	84.12
508.588	104.12
508.805	84.12
509.021	96.12
509.238	91.12
509.454	100.12
509.67	101.12
509.887	100.12
510.103	119.12
510.319	194.12
510.536	606.12
510.752	1803.12
510.968	510.12
511.184	139.12
511.401	106.12
511.617	100.12
511.833	86.12
512.049	93.12
512.265	92.12
512.481	90.12
512.698	97.12
512.914	92.12
513.13	88.12
513.346	87.12
513.562	105.12
513.778	104.12
513.994	110.12
514.21	88.12
514.426	115.12
514.642	114.12
514.858	90.12
515.074	164.12
515.29	375.12
515.506	1131.12
515.721	441.12
515.937	152.12
516.153	102.12
