Data from Uncirc_1997_H10_HRD10591_00097.txt Node
Date: Wed Jan 03 11:28:50 EST 2024
User: Yrep
Spectrometer: HR+D1059
Trigger mode: 1
Integration Time (sec): 1.000000E-1
Scans to average: 1
Electric dark correction enabled: true
Nonlinearity correction enabled: false
Boxcar width: 0
XAxis mode: Wavelengths
Number of Pixels in Spectrum: 2048
>>>>>Begin Spectral Data<<<<<
223.165	-12.06
223.4	-12.06
223.635	-12.06
223.869	-29.06
224.104	-21.06
224.338	-13.06
224.573	-8.06
224.808	2.94
225.042	-1.06
225.277	-14.06
225.511	-24.06
225.746	22.94
225.98	11.94
226.215	9.94
226.449	17.94
226.683	7.94
226.918	27.94
227.152	20.94
227.387	39.94
227.621	40.94
227.856	52.94
228.09	75.94
228.324	42.94
228.559	46.94
228.793	65.94
229.027	67.94
229.262	73.94
229.496	82.94
229.73	85.94
229.964	73.94
230.199	73.94
230.433	74.94
230.667	72.94
230.901	79.94
231.136	80.94
231.37	76.94
231.604	72.94
231.838	77.94
232.072	74.94
232.306	76.94
232.541	72.94
232.775	72.94
233.009	78.94
233.243	83.94
233.477	75.94
233.711	81.94
233.945	74.94
234.179	86.94
234.413	77.94
234.647	72.94
234.881	90.94
235.115	77.94
235.349	79.94
235.583	77.94
235.817	79.94
236.051	83.94
236.285	80.94
236.519	90.94
236.753	83.94
236.987	80.94
237.221	88.94
237.455	84.94
237.689	79.94
237.922	82.94
238.156	84.94
238.39	85.94
238.624	71.94
238.858	80.94
239.091	90.94
239.325	79.94
239.559	93.94
239.793	73.94
240.027	83.94
240.26	70.94
240.494	85.94
240.728	77.94
240.961	78.94
241.195	77.94
241.429	87.94
241.662	80.94
241.896	66.94
242.13	82.94
242.363	78.94
242.597	87.94
242.83	83.94
243.064	74.94
243.298	80.94
243.531	87.94
243.765	86.94
243.998	78.94
244.232	70.94
244.465	96.94
244.699	82.94
244.932	64.94
245.166	78.94
245.399	73.94
245.633	79.94
245.866	76.94
246.099	72.94
246.333	90.94
246.566	76.94
246.8	82.94
247.033	80.94
247.266	80.94
247.5	81.94
247.733	85.94
247.966	78.94
248.2	79.94
248.433	77.94
248.666	81.94
248.899	90.94
249.133	88.94
249.366	88.94
249.599	101.94
249.832	91.94
250.066	77.94
250.299	80.94
250.532	66.94
250.765	85.94
250.998	85.94
251.231	77.94
251.465	91.94
251.698	78.94
251.931	68.94
252.164	77.94
252.397	85.94
252.63	76.94
252.863	70.94
253.096	71.94
253.329	91.94
253.562	88.94
253.795	78.94
254.028	85.94
254.261	86.94
254.494	79.94
254.727	79.94
254.96	80.94
255.193	78.94
255.426	82.94
255.659	79.94
255.892	91.94
256.124	82.94
256.357	88.94
256.59	95.94
256.823	86.94
257.056	94.94
257.289	75.94
257.521	83.94
257.754	81.94
257.987	76.94
258.22	80.94
258.452	85.94
258.685	78.94
258.918	84.94
259.151	78.94
259.383	90.94
259.616	94.94
259.849	79.94
260.081	67.94
260.314	95.94
260.547	88.94
260.779	89.94
261.012	89.94
261.244	86.94
261.477	85.94
261.71	94.94
261.942	98.94
262.175	94.94
262.407	89.94
262.64	81.94
262.872	87.94
263.105	88.94
263.337	91.94
263.57	85.94
263.802	79.94
264.035	78.94
264.267	79.94
264.499	78.94
264.732	82.94
264.964	94.94
265.197	81.94
265.429	81.94
265.661	104.94
265.894	87.94
266.126	76.94
266.358	95.94
266.591	80.94
266.823	80.94
267.055	75.94
267.287	86.94
267.52	93.94
267.752	85.94
267.984	83.94
268.216	75.94
268.448	99.94
268.681	86.94
268.913	79.94
269.145	75.94
269.377	86.94
269.609	85.94
269.841	74.94
270.073	83.94
270.306	87.94
270.538	88.94
270.77	81.94
271.002	91.94
271.234	83.94
271.466	86.94
271.698	93.94
271.93	84.94
272.162	82.94
272.394	88.94
272.626	86.94
272.858	89.94
273.09	70.94
273.322	77.94
273.553	80.94
273.785	77.94
274.017	93.94
274.249	79.94
274.481	85.94
274.713	96.94
274.945	92.94
275.176	86.94
275.408	84.94
275.64	93.94
275.872	89.94
276.104	92.94
276.335	77.94
276.567	96.94
276.799	104.94
277.031	91.94
277.262	96.94
277.494	88.94
277.726	100.94
277.957	83.94
278.189	73.94
278.421	79.94
278.652	83.94
278.884	80.94
279.115	82.94
279.347	82.94
279.579	88.94
279.81	99.94
280.042	101.94
280.273	93.94
280.505	92.94
280.736	100.94
280.968	89.94
281.199	83.94
281.431	89.94
281.662	86.94
281.894	83.94
282.125	87.94
282.356	115.94
282.588	141.94
282.819	109.94
283.051	92.94
283.282	94.94
283.513	85.94
283.745	86.94
283.976	84.94
284.207	82.94
284.439	90.94
284.67	88.94
284.901	86.94
285.132	69.94
285.364	86.94
285.595	96.94
285.826	93.94
286.057	80.94
286.288	70.94
286.52	84.94
286.751	82.94
286.982	76.94
287.213	99.94
287.444	97.94
287.675	82.94
287.906	89.94
288.138	93.94
288.369	85.94
288.6	91.94
288.831	93.94
289.062	87.94
289.293	77.94
289.524	80.94
289.755	82.94
289.986	84.94
290.217	91.94
290.448	75.94
290.679	75.94
290.91	88.94
291.141	75.94
291.371	97.94
291.602	95.94
291.833	89.94
292.064	100.94
292.295	96.94
292.526	95.94
292.757	82.94
292.987	100.94
293.218	86.94
293.449	92.94
293.68	94.94
293.91	92.94
294.141	82.94
294.372	87.94
294.603	81.94
294.833	85.94
295.064	73.94
295.295	91.94
295.525	83.94
295.756	98.94
295.987	115.94
296.217	128.94
296.448	114.94
296.679	87.94
296.909	89.94
297.14	95.94
297.37	85.94
297.601	88.94
297.831	75.94
298.062	97.94
298.292	86.94
298.523	97.94
298.753	94.94
298.984	87.94
299.214	81.94
299.445	78.94
299.675	93.94
299.905	89.94
300.136	92.94
300.366	82.94
300.597	86.94
300.827	74.94
301.057	92.94
301.288	90.94
301.518	85.94
301.748	82.94
301.979	77.94
302.209	92.94
302.439	89.94
302.669	76.94
302.9	85.94
303.13	77.94
303.36	79.94
303.59	101.94
303.82	126.94
304.051	107.94
304.281	103.94
304.511	96.94
304.741	85.94
304.971	91.94
305.201	90.94
305.431	96.94
305.661	93.94
305.891	88.94
306.121	84.94
306.352	105.94
306.582	97.94
306.812	90.94
307.042	88.94
307.272	90.94
307.502	89.94
307.731	99.94
307.961	89.94
308.191	91.94
308.421	95.94
308.651	102.94
308.881	102.94
309.111	94.94
309.341	96.94
309.571	94.94
309.8	95.94
310.03	96.94
310.26	81.94
310.49	104.94
310.72	96.94
310.949	101.94
311.179	100.94
311.409	87.94
311.639	74.94
311.868	90.94
312.098	106.94
312.328	104.94
312.557	114.94
312.787	112.94
313.017	105.94
313.246	106.94
313.476	91.94
313.706	81.94
313.935	94.94
314.165	93.94
314.394	94.94
314.624	94.94
314.853	109.94
315.083	89.94
315.312	90.94
315.542	93.94
315.771	85.94
316.001	97.94
316.23	90.94
316.46	73.94
316.689	87.94
316.919	93.94
317.148	91.94
317.377	87.94
317.607	105.94
317.836	80.94
318.065	88.94
318.295	87.94
318.524	87.94
318.753	99.94
318.983	99.94
319.212	90.94
319.441	106.94
319.67	94.94
319.9	95.94
320.129	94.94
320.358	101.94
320.587	96.94
320.816	99.94
321.046	92.94
321.275	96.94
321.504	95.94
321.733	92.94
321.962	93.94
322.191	106.94
322.42	95.94
322.649	112.94
322.878	99.94
323.108	107.94
323.337	123.94
323.566	131.94
323.795	128.94
324.024	176.94
324.253	339.94
324.482	733.94
324.71	1447.94
324.939	1897.94
325.168	736.94
325.397	231.94
325.626	141.94
325.855	124.94
326.084	114.94
326.313	135.94
326.542	141.94
326.77	211.94
326.999	399.94
327.228	818.94
327.457	1505.94
327.686	1175.94
327.914	338.94
328.143	184.94
328.372	133.94
328.6	114.94
328.829	115.94
329.058	119.94
329.287	112.94
329.515	108.94
329.744	96.94
329.972	91.94
330.201	89.94
330.43	101.94
330.658	112.94
330.887	130.94
331.115	129.94
331.344	93.94
331.572	101.94
331.801	106.94
332.03	98.94
332.258	90.94
332.486	83.94
332.715	75.94
332.943	86.94
333.172	88.94
333.4	96.94
333.629	99.94
333.857	97.94
334.085	96.94
334.314	112.94
334.542	113.94
334.771	96.94
334.999	93.94
335.227	98.94
335.455	88.94
335.684	83.94
335.912	96.94
336.14	102.94
336.369	87.94
336.597	107.94
336.825	100.94
337.053	106.94
337.281	92.94
337.51	89.94
337.738	88.94
337.966	88.94
338.194	93.94
338.422	98.94
338.65	94.94
338.878	89.94
339.106	81.94
339.334	93.94
339.562	107.94
339.79	86.94
340.018	86.94
340.246	97.94
340.474	85.94
340.702	98.94
340.93	92.94
341.158	88.94
341.386	95.94
341.614	88.94
341.842	97.94
342.07	82.94
342.298	83.94
342.526	88.94
342.754	90.94
342.981	84.94
343.209	77.94
343.437	107.94
343.665	106.94
343.893	95.94
344.12	85.94
344.348	94.94
344.576	97.94
344.804	107.94
345.031	106.94
345.259	106.94
345.487	90.94
345.714	78.94
345.942	82.94
346.17	99.94
346.397	86.94
346.625	88.94
346.853	98.94
347.08	85.94
347.308	87.94
347.535	104.94
347.763	95.94
347.99	87.94
348.218	106.94
348.445	104.94
348.673	85.94
348.9	84.94
349.128	90.94
349.355	90.94
349.583	78.94
349.81	98.94
350.037	89.94
350.265	103.94
350.492	98.94
350.72	92.94
350.947	97.94
351.174	104.94
351.402	99.94
351.629	92.94
351.856	106.94
352.083	86.94
352.311	95.94
352.538	97.94
352.765	110.94
352.992	111.94
353.22	108.94
353.447	101.94
353.674	105.94
353.901	89.94
354.128	109.94
354.355	90.94
354.583	103.94
354.81	95.94
355.037	80.94
355.264	95.94
355.491	92.94
355.718	81.94
355.945	97.94
356.172	96.94
356.399	87.94
356.626	85.94
356.853	87.94
357.08	94.94
357.307	99.94
357.534	94.94
357.761	96.94
357.988	96.94
358.215	97.94
358.441	96.94
358.668	92.94
358.895	74.94
359.122	78.94
359.349	91.94
359.576	88.94
359.802	112.94
360.029	97.94
360.256	111.94
360.483	115.94
360.709	94.94
360.936	92.94
361.163	92.94
361.39	87.94
361.616	86.94
361.843	82.94
362.07	99.94
362.296	109.94
362.523	90.94
362.749	93.94
362.976	80.94
363.203	86.94
363.429	89.94
363.656	83.94
363.882	83.94
364.109	98.94
364.335	91.94
364.562	93.94
364.788	98.94
365.015	78.94
365.241	114.94
365.468	104.94
365.694	104.94
365.92	104.94
366.147	90.94
366.373	89.94
366.599	81.94
366.826	95.94
367.052	85.94
367.278	99.94
367.505	97.94
367.731	103.94
367.957	104.94
368.184	90.94
368.41	109.94
368.636	89.94
368.862	114.94
369.089	106.94
369.315	87.94
369.541	86.94
369.767	94.94
369.993	98.94
370.219	94.94
370.445	92.94
370.672	81.94
370.898	75.94
371.124	98.94
371.35	88.94
371.576	87.94
371.802	85.94
372.028	99.94
372.254	80.94
372.48	74.94
372.706	90.94
372.932	77.94
373.158	94.94
373.384	100.94
373.61	89.94
373.835	105.94
374.061	78.94
374.287	78.94
374.513	72.94
374.739	77.94
374.965	82.94
375.191	98.94
375.416	98.94
375.642	96.94
375.868	85.94
376.094	89.94
376.319	77.94
376.545	71.94
376.771	91.94
376.997	82.94
377.222	78.94
377.448	77.94
377.674	95.94
377.899	90.94
378.125	98.94
378.35	79.94
378.576	99.94
378.802	85.94
379.027	94.94
379.253	95.94
379.478	95.94
379.704	77.94
379.929	84.94
380.155	94.94
380.38	88.94
380.606	84.94
380.831	98.94
381.057	98.94
381.282	94.94
381.507	99.94
381.733	105.94
381.958	99.94
382.184	90.94
382.409	113.94
382.634	85.94
382.86	85.94
383.085	90.94
383.31	101.94
383.535	97.94
383.761	88.94
383.986	88.94
384.211	109.94
384.436	97.94
384.662	80.94
384.887	90.94
385.112	87.94
385.337	82.94
385.562	83.94
385.787	109.94
386.013	98.94
386.238	105.94
386.463	95.94
386.688	102.94
386.913	97.94
387.138	106.94
387.363	101.94
387.588	92.94
387.813	100.94
388.038	109.94
388.263	92.94
388.488	105.94
388.713	94.94
388.938	75.94
389.163	106.94
389.387	90.94
389.612	95.94
389.837	95.94
390.062	81.94
390.287	92.94
390.512	90.94
390.736	89.94
390.961	83.94
391.186	107.94
391.411	102.94
391.636	85.94
391.86	82.94
392.085	67.94
392.31	81.94
392.534	77.94
392.759	83.94
392.984	71.94
393.208	102.94
393.433	91.94
393.658	82.94
393.882	84.94
394.107	81.94
394.331	81.94
394.556	92.94
394.78	79.94
395.005	84.94
395.229	93.94
395.454	92.94
395.678	91.94
395.903	84.94
396.127	77.94
396.352	89.94
396.576	91.94
396.801	85.94
397.025	81.94
397.249	89.94
397.474	91.94
397.698	96.94
397.922	94.94
398.147	81.94
398.371	83.94
398.595	101.94
398.82	81.94
399.044	89.94
399.268	85.94
399.492	95.94
399.717	92.94
399.941	90.94
400.165	92.94
400.389	100.94
400.613	93.94
400.837	79.94
401.062	98.94
401.286	81.94
401.51	78.94
401.734	78.94
401.958	113.94
402.182	115.94
402.406	143.94
402.63	114.94
402.854	93.94
403.078	89.94
403.302	84.94
403.526	79.94
403.75	87.94
403.974	96.94
404.198	89.94
404.422	92.94
404.645	91.94
404.869	79.94
405.093	64.94
405.317	98.94
405.541	89.94
405.765	98.94
405.988	111.94
406.212	165.94
406.436	205.94
406.66	150.94
406.883	100.94
407.107	87.94
407.331	95.94
407.555	111.94
407.778	86.94
408.002	85.94
408.226	73.94
408.449	98.94
408.673	96.94
408.896	104.94
409.12	105.94
409.344	94.94
409.567	83.94
409.791	85.94
410.014	78.94
410.238	85.94
410.461	80.94
410.685	90.94
410.908	94.94
411.132	101.94
411.355	100.94
411.578	81.94
411.802	86.94
412.025	77.94
412.249	78.94
412.472	75.94
412.695	99.94
412.919	92.94
413.142	80.94
413.365	85.94
413.589	76.94
413.812	105.94
414.035	91.94
414.258	83.94
414.482	89.94
414.705	84.94
414.928	90.94
415.151	84.94
415.374	86.94
415.597	74.94
415.821	80.94
416.044	79.94
416.267	96.94
416.49	83.94
416.713	91.94
416.936	90.94
417.159	90.94
417.382	89.94
417.605	91.94
417.828	88.94
418.051	86.94
418.274	94.94
418.497	80.94
418.72	83.94
418.943	89.94
419.166	86.94
419.389	81.94
419.611	90.94
419.834	82.94
420.057	88.94
420.28	80.94
420.503	78.94
420.726	85.94
420.948	79.94
421.171	89.94
421.394	90.94
421.617	83.94
421.839	86.94
422.062	83.94
422.285	83.94
422.507	103.94
422.73	104.94
422.953	95.94
423.175	75.94
423.398	86.94
423.621	73.94
423.843	83.94
424.066	82.94
424.288	79.94
424.511	89.94
424.733	82.94
424.956	107.94
425.178	89.94
425.401	80.94
425.623	97.94
425.846	79.94
426.068	89.94
426.291	88.94
426.513	93.94
426.735	82.94
426.958	102.94
427.18	106.94
427.402	126.94
427.625	146.94
427.847	121.94
428.069	107.94
428.292	84.94
428.514	82.94
428.736	92.94
428.958	89.94
429.181	82.94
429.403	91.94
429.625	80.94
429.847	85.94
430.069	92.94
430.292	90.94
430.514	85.94
430.736	87.94
430.958	78.94
431.18	79.94
431.402	90.94
431.624	76.94
431.846	108.94
432.068	96.94
432.29	90.94
432.512	89.94
432.734	79.94
432.956	96.94
433.178	90.94
433.4	92.94
433.622	96.94
433.844	91.94
434.066	95.94
434.287	86.94
434.509	91.94
434.731	88.94
434.953	97.94
435.175	95.94
435.397	89.94
435.618	81.94
435.84	89.94
436.062	120.94
436.284	106.94
436.505	101.94
436.727	92.94
436.949	73.94
437.17	93.94
437.392	80.94
437.614	85.94
437.835	98.94
438.057	105.94
438.278	100.94
438.5	92.94
438.721	118.94
438.943	94.94
439.165	82.94
439.386	98.94
439.608	94.94
439.829	97.94
440.05	116.94
440.272	119.94
440.493	108.94
440.715	92.94
440.936	80.94
441.158	98.94
441.379	86.94
441.6	94.94
441.822	95.94
442.043	94.94
442.264	101.94
442.486	82.94
442.707	95.94
442.928	101.94
443.149	125.94
443.371	124.94
443.592	96.94
443.813	110.94
444.034	100.94
444.255	84.94
444.476	86.94
444.698	96.94
444.919	91.94
445.14	124.94
445.361	113.94
445.582	114.94
445.803	125.94
446.024	125.94
446.245	127.94
446.466	90.94
446.687	94.94
446.908	78.94
447.129	74.94
447.35	75.94
447.571	104.94
447.792	90.94
448.013	96.94
448.234	105.94
448.455	105.94
448.675	117.94
448.896	99.94
449.117	92.94
449.338	95.94
449.559	114.94
449.779	110.94
450	100.94
450.221	90.94
450.442	86.94
450.662	93.94
450.883	105.94
451.104	107.94
451.324	96.94
451.545	91.94
451.766	75.94
451.986	80.94
452.207	98.94
452.428	93.94
452.648	88.94
452.869	97.94
453.089	92.94
453.31	104.94
453.53	101.94
453.751	96.94
453.971	98.94
454.192	107.94
454.412	87.94
454.633	83.94
454.853	88.94
455.073	81.94
455.294	93.94
455.514	105.94
455.734	85.94
455.955	99.94
456.175	76.94
456.395	82.94
456.616	68.94
456.836	79.94
457.056	83.94
457.276	91.94
457.497	72.94
457.717	73.94
457.937	91.94
458.157	97.94
458.377	85.94
458.598	98.94
458.818	149.94
459.038	142.94
459.258	122.94
459.478	91.94
459.698	89.94
459.918	83.94
460.138	83.94
460.358	80.94
460.578	80.94
460.798	88.94
461.018	86.94
461.238	100.94
461.458	85.94
461.678	75.94
461.898	74.94
462.118	103.94
462.338	82.94
462.558	88.94
462.777	89.94
462.997	92.94
463.217	89.94
463.437	86.94
463.657	89.94
463.876	77.94
464.096	85.94
464.316	99.94
464.536	92.94
464.755	95.94
464.975	99.94
465.195	157.94
465.414	146.94
465.634	93.94
465.854	95.94
466.073	90.94
466.293	84.94
466.512	97.94
466.732	86.94
466.951	79.94
467.171	88.94
467.391	105.94
467.61	93.94
467.829	85.94
468.049	91.94
468.268	94.94
468.488	73.94
468.707	82.94
468.927	89.94
469.146	80.94
469.365	73.94
469.585	92.94
469.804	98.94
470.023	94.94
470.243	90.94
470.462	104.94
470.681	113.94
470.901	75.94
471.12	81.94
471.339	82.94
471.558	83.94
471.777	88.94
471.997	103.94
472.216	90.94
472.435	84.94
472.654	83.94
472.873	91.94
473.092	92.94
473.311	87.94
473.53	82.94
473.749	85.94
473.968	89.94
474.187	113.94
474.406	103.94
474.625	86.94
474.844	90.94
475.063	96.94
475.282	86.94
475.501	90.94
475.72	94.94
475.939	90.94
476.158	88.94
476.377	80.94
476.596	70.94
476.814	89.94
477.033	96.94
477.252	81.94
477.471	95.94
477.69	84.94
477.908	82.94
478.127	80.94
478.346	86.94
478.564	91.94
478.783	105.94
479.002	105.94
479.22	77.94
479.439	91.94
479.658	97.94
479.876	79.94
480.095	89.94
480.313	97.94
480.532	92.94
480.751	88.94
480.969	96.94
481.188	94.94
481.406	96.94
481.624	78.94
481.843	79.94
482.061	86.94
482.28	82.94
482.498	91.94
482.717	84.94
482.935	84.94
483.153	90.94
483.372	90.94
483.59	89.94
483.808	79.94
484.027	79.94
484.245	102.94
484.463	82.94
484.681	98.94
484.9	81.94
485.118	85.94
485.336	93.94
485.554	103.94
485.772	94.94
485.99	93.94
486.209	103.94
486.427	95.94
486.645	100.94
486.863	107.94
487.081	104.94
487.299	95.94
487.517	90.94
487.735	95.94
487.953	90.94
488.171	105.94
488.389	88.94
488.607	82.94
488.825	78.94
489.043	88.94
489.261	92.94
489.479	85.94
489.696	77.94
489.914	90.94
490.132	91.94
490.35	86.94
490.568	71.94
490.786	88.94
491.003	96.94
491.221	89.94
491.439	88.94
491.657	82.94
491.874	93.94
492.092	89.94
492.31	103.94
492.527	93.94
492.745	73.94
492.963	82.94
493.18	97.94
493.398	98.94
493.615	94.94
493.833	94.94
494.05	81.94
494.268	95.94
494.485	85.94
494.703	88.94
494.92	92.94
495.138	79.94
495.355	90.94
495.573	104.94
495.79	90.94
496.008	102.94
496.225	90.94
496.442	93.94
496.66	89.94
496.877	91.94
497.094	98.94
497.312	84.94
497.529	77.94
497.746	89.94
497.963	88.94
498.181	79.94
498.398	102.94
498.615	101.94
498.832	77.94
499.049	93.94
499.267	100.94
499.484	104.94
499.701	105.94
499.918	87.94
500.135	87.94
500.352	83.94
500.569	86.94
500.786	94.94
501.003	95.94
501.22	77.94
501.437	94.94
501.654	91.94
501.871	98.94
502.088	87.94
502.305	83.94
502.522	70.94
502.739	81.94
502.956	84.94
503.172	105.94
503.389	103.94
503.606	101.94
503.823	80.94
504.04	99.94
504.256	87.94
504.473	80.94
504.69	94.94
504.907	99.94
505.123	81.94
505.34	93.94
505.557	80.94
505.773	85.94
505.99	87.94
506.207	77.94
506.423	98.94
506.64	89.94
506.856	86.94
507.073	91.94
507.289	104.94
507.506	85.94
507.722	92.94
507.939	106.94
508.155	103.94
508.372	99.94
508.588	96.94
508.805	95.94
509.021	96.94
509.238	96.94
509.454	106.94
509.67	103.94
509.887	106.94
510.103	133.94
510.319	212.94
510.536	693.94
510.752	2178.94
510.968	601.94
511.184	151.94
511.401	117.94
511.617	98.94
511.833	90.94
512.049	76.94
512.265	90.94
512.481	111.94
512.698	90.94
512.914	73.94
513.13	83.94
513.346	94.94
513.562	80.94
513.778	95.94
513.994	97.94
514.21	105.94
514.426	119.94
514.642	116.94
514.858	111.94
515.074	167.94
515.29	413.94
515.506	1361.94
515.721	490.94
515.937	163.94
516.153	99.94
516.369	95.94
516.585	86.94
