Data from Uncirc_1997_H10_HRD10591_00007.txt Node
Date: Wed Jan 03 11:28:32 EST 2024
User: Yrep
Spectrometer: HR+D1059
Trigger mode: 1
Integration Time (sec): 1.000000E-1
Scans to average: 1
Electric dark correction enabled: true
Nonlinearity correction enabled: false
Boxcar width: 0
XAxis mode: Wavelengths
Number of Pixels in Spectrum: 2048
>>>>>Begin Spectral Data<<<<<
223.165	-1.88
223.4	-1.88
223.635	-1.88
223.869	-25.88
224.104	-30.88
224.338	-12.88
224.573	-9.88
224.808	-16.88
225.042	-11.88
225.277	-2.88
225.511	-7.88
225.746	0.12
225.98	10.12
226.215	11.12
226.449	21.12
226.683	36.12
226.918	16.12
227.152	26.12
227.387	41.12
227.621	44.12
227.856	60.12
228.09	47.12
228.324	48.12
228.559	67.12
228.793	44.12
229.027	75.12
229.262	71.12
229.496	80.12
229.73	74.12
229.964	81.12
230.199	72.12
230.433	71.12
230.667	79.12
230.901	72.12
231.136	78.12
231.37	73.12
231.604	75.12
231.838	66.12
232.072	83.12
232.306	76.12
232.541	73.12
232.775	78.12
233.009	68.12
233.243	82.12
233.477	81.12
233.711	77.12
233.945	82.12
234.179	98.12
234.413	79.12
234.647	94.12
234.881	91.12
235.115	81.12
235.349	87.12
235.583	66.12
235.817	81.12
236.051	87.12
236.285	77.12
236.519	72.12
236.753	84.12
236.987	89.12
237.221	98.12
237.455	79.12
237.689	66.12
237.922	73.12
238.156	71.12
238.39	73.12
238.624	82.12
238.858	74.12
239.091	89.12
239.325	65.12
239.559	84.12
239.793	84.12
240.027	92.12
240.26	88.12
240.494	82.12
240.728	86.12
240.961	84.12
241.195	75.12
241.429	75.12
241.662	79.12
241.896	73.12
242.13	69.12
242.363	80.12
242.597	71.12
242.83	81.12
243.064	72.12
243.298	92.12
243.531	76.12
243.765	79.12
243.998	73.12
244.232	73.12
244.465	80.12
244.699	93.12
244.932	79.12
245.166	79.12
245.399	69.12
245.633	60.12
245.866	78.12
246.099	77.12
246.333	85.12
246.566	80.12
246.8	78.12
247.033	87.12
247.266	81.12
247.5	81.12
247.733	82.12
247.966	88.12
248.2	68.12
248.433	63.12
248.666	77.12
248.899	84.12
249.133	88.12
249.366	89.12
249.599	90.12
249.832	90.12
250.066	80.12
250.299	69.12
250.532	77.12
250.765	81.12
250.998	77.12
251.231	79.12
251.465	84.12
251.698	82.12
251.931	74.12
252.164	79.12
252.397	94.12
252.63	83.12
252.863	83.12
253.096	67.12
253.329	81.12
253.562	91.12
253.795	85.12
254.028	85.12
254.261	76.12
254.494	80.12
254.727	76.12
254.96	82.12
255.193	74.12
255.426	79.12
255.659	89.12
255.892	79.12
256.124	76.12
256.357	81.12
256.59	80.12
256.823	81.12
257.056	88.12
257.289	83.12
257.521	81.12
257.754	75.12
257.987	81.12
258.22	80.12
258.452	74.12
258.685	79.12
258.918	75.12
259.151	78.12
259.383	91.12
259.616	83.12
259.849	98.12
260.081	83.12
260.314	88.12
260.547	76.12
260.779	71.12
261.012	72.12
261.244	79.12
261.477	94.12
261.71	96.12
261.942	93.12
262.175	96.12
262.407	71.12
262.64	83.12
262.872	78.12
263.105	73.12
263.337	83.12
263.57	91.12
263.802	99.12
264.035	87.12
264.267	100.12
264.499	88.12
264.732	87.12
264.964	85.12
265.197	71.12
265.429	86.12
265.661	87.12
265.894	75.12
266.126	90.12
266.358	76.12
266.591	94.12
266.823	83.12
267.055	75.12
267.287	83.12
267.52	65.12
267.752	82.12
267.984	85.12
268.216	87.12
268.448	96.12
268.681	93.12
268.913	89.12
269.145	88.12
269.377	81.12
269.609	83.12
269.841	95.12
270.073	84.12
270.306	90.12
270.538	86.12
270.77	82.12
271.002	79.12
271.234	88.12
271.466	94.12
271.698	77.12
271.93	87.12
272.162	90.12
272.394	73.12
272.626	87.12
272.858	83.12
273.09	79.12
273.322	98.12
273.553	90.12
273.785	76.12
274.017	88.12
274.249	94.12
274.481	97.12
274.713	80.12
274.945	89.12
275.176	81.12
275.408	80.12
275.64	85.12
275.872	90.12
276.104	88.12
276.335	89.12
276.567	98.12
276.799	97.12
277.031	89.12
277.262	96.12
277.494	91.12
277.726	84.12
277.957	87.12
278.189	86.12
278.421	80.12
278.652	80.12
278.884	92.12
279.115	80.12
279.347	76.12
279.579	82.12
279.81	84.12
280.042	93.12
280.273	93.12
280.505	95.12
280.736	82.12
280.968	79.12
281.199	89.12
281.431	93.12
281.662	81.12
281.894	91.12
282.125	96.12
282.356	106.12
282.588	116.12
282.819	99.12
283.051	84.12
283.282	98.12
283.513	91.12
283.745	75.12
283.976	89.12
284.207	95.12
284.439	89.12
284.67	93.12
284.901	83.12
285.132	79.12
285.364	69.12
285.595	80.12
285.826	72.12
286.057	93.12
286.288	100.12
286.52	90.12
286.751	87.12
286.982	78.12
287.213	88.12
287.444	90.12
287.675	76.12
287.906	85.12
288.138	96.12
288.369	75.12
288.6	99.12
288.831	92.12
289.062	83.12
289.293	79.12
289.524	73.12
289.755	86.12
289.986	86.12
290.217	82.12
290.448	87.12
290.679	85.12
290.91	87.12
291.141	79.12
291.371	71.12
291.602	87.12
291.833	97.12
292.064	91.12
292.295	95.12
292.526	81.12
292.757	82.12
292.987	104.12
293.218	95.12
293.449	91.12
293.68	85.12
293.91	89.12
294.141	83.12
294.372	99.12
294.603	93.12
294.833	82.12
295.064	99.12
295.295	95.12
295.525	79.12
295.756	97.12
295.987	111.12
296.217	121.12
296.448	127.12
296.679	111.12
296.909	79.12
297.14	71.12
297.37	90.12
297.601	96.12
297.831	77.12
298.062	89.12
298.292	90.12
298.523	88.12
298.753	96.12
298.984	92.12
299.214	75.12
299.445	79.12
299.675	85.12
299.905	95.12
300.136	87.12
300.366	82.12
300.597	90.12
300.827	94.12
301.057	90.12
301.288	90.12
301.518	95.12
301.748	91.12
301.979	97.12
302.209	87.12
302.439	83.12
302.669	92.12
302.9	78.12
303.13	84.12
303.36	88.12
303.59	101.12
303.82	99.12
304.051	82.12
304.281	100.12
304.511	94.12
304.741	98.12
304.971	96.12
305.201	92.12
305.431	77.12
305.661	97.12
305.891	87.12
306.121	91.12
306.352	105.12
306.582	113.12
306.812	97.12
307.042	92.12
307.272	91.12
307.502	91.12
307.731	97.12
307.961	92.12
308.191	112.12
308.421	90.12
308.651	93.12
308.881	84.12
309.111	82.12
309.341	97.12
309.571	96.12
309.8	88.12
310.03	103.12
310.26	105.12
310.49	96.12
310.72	95.12
310.949	97.12
311.179	101.12
311.409	96.12
311.639	89.12
311.868	90.12
312.098	107.12
312.328	92.12
312.557	104.12
312.787	111.12
313.017	98.12
313.246	95.12
313.476	87.12
313.706	96.12
313.935	103.12
314.165	98.12
314.394	94.12
314.624	93.12
314.853	91.12
315.083	93.12
315.312	103.12
315.542	105.12
315.771	91.12
316.001	87.12
316.23	98.12
316.46	100.12
316.689	82.12
316.919	100.12
317.148	87.12
317.377	88.12
317.607	100.12
317.836	81.12
318.065	90.12
318.295	85.12
318.524	85.12
318.753	85.12
318.983	89.12
319.212	104.12
319.441	90.12
319.67	113.12
319.9	105.12
320.129	89.12
320.358	107.12
320.587	93.12
320.816	100.12
321.046	95.12
321.275	89.12
321.504	100.12
321.733	106.12
321.962	105.12
322.191	99.12
322.42	99.12
322.649	113.12
322.878	104.12
323.108	112.12
323.337	116.12
323.566	125.12
323.795	133.12
324.024	176.12
324.253	349.12
324.482	703.12
324.71	1388.12
324.939	1801.12
325.168	686.12
325.397	224.12
325.626	137.12
325.855	128.12
326.084	123.12
326.313	130.12
326.542	125.12
326.77	206.12
326.999	399.12
327.228	818.12
327.457	1453.12
327.686	1136.12
327.914	316.12
328.143	163.12
328.372	121.12
328.6	110.12
328.829	114.12
329.058	123.12
329.287	121.12
329.515	99.12
329.744	105.12
329.972	107.12
330.201	97.12
330.43	95.12
330.658	111.12
330.887	124.12
331.115	109.12
331.344	102.12
331.572	87.12
331.801	92.12
332.03	88.12
332.258	95.12
332.486	88.12
332.715	103.12
332.943	100.12
333.172	97.12
333.4	100.12
333.629	98.12
333.857	101.12
334.085	101.12
334.314	105.12
334.542	100.12
334.771	105.12
334.999	107.12
335.227	86.12
335.455	102.12
335.684	87.12
335.912	89.12
336.14	83.12
336.369	97.12
336.597	97.12
336.825	106.12
337.053	97.12
337.281	101.12
337.51	95.12
337.738	89.12
337.966	92.12
338.194	91.12
338.422	92.12
338.65	107.12
338.878	95.12
339.106	86.12
339.334	107.12
339.562	91.12
339.79	83.12
340.018	88.12
340.246	97.12
340.474	100.12
340.702	92.12
340.93	85.12
341.158	92.12
341.386	91.12
341.614	103.12
341.842	97.12
342.07	90.12
342.298	92.12
342.526	82.12
342.754	105.12
342.981	94.12
343.209	75.12
343.437	108.12
343.665	79.12
343.893	83.12
344.12	100.12
344.348	92.12
344.576	96.12
344.804	89.12
345.031	109.12
345.259	92.12
345.487	105.12
345.714	98.12
345.942	93.12
346.17	98.12
346.397	85.12
346.625	100.12
346.853	104.12
347.08	97.12
347.308	96.12
347.535	100.12
347.763	103.12
347.99	86.12
348.218	92.12
348.445	81.12
348.673	91.12
348.9	99.12
349.128	95.12
349.355	100.12
349.583	83.12
349.81	103.12
350.037	102.12
350.265	93.12
350.492	97.12
350.72	88.12
350.947	107.12
351.174	125.12
351.402	120.12
351.629	106.12
351.856	96.12
352.083	111.12
352.311	107.12
352.538	93.12
352.765	106.12
352.992	121.12
353.22	110.12
353.447	96.12
353.674	113.12
353.901	109.12
354.128	107.12
354.355	99.12
354.583	107.12
354.81	93.12
355.037	104.12
355.264	105.12
355.491	110.12
355.718	106.12
355.945	93.12
356.172	99.12
356.399	97.12
356.626	86.12
356.853	88.12
357.08	94.12
357.307	91.12
357.534	78.12
357.761	118.12
357.988	97.12
358.215	87.12
358.441	85.12
358.668	96.12
358.895	87.12
359.122	79.12
359.349	97.12
359.576	92.12
359.802	105.12
360.029	101.12
360.256	104.12
360.483	108.12
360.709	97.12
360.936	89.12
361.163	95.12
361.39	100.12
361.616	93.12
361.843	83.12
362.07	99.12
362.296	109.12
362.523	98.12
362.749	98.12
362.976	85.12
363.203	94.12
363.429	81.12
363.656	97.12
363.882	94.12
364.109	92.12
364.335	96.12
364.562	97.12
364.788	93.12
365.015	91.12
365.241	90.12
365.468	107.12
365.694	101.12
365.92	91.12
366.147	105.12
366.373	87.12
366.599	92.12
366.826	82.12
367.052	93.12
367.278	81.12
367.505	95.12
367.731	91.12
367.957	93.12
368.184	90.12
368.41	92.12
368.636	89.12
368.862	123.12
369.089	104.12
369.315	100.12
369.541	87.12
369.767	108.12
369.993	101.12
370.219	79.12
370.445	91.12
370.672	91.12
370.898	90.12
371.124	94.12
371.35	81.12
371.576	84.12
371.802	88.12
372.028	89.12
372.254	84.12
372.48	91.12
372.706	78.12
372.932	82.12
373.158	91.12
373.384	97.12
373.61	104.12
373.835	85.12
374.061	102.12
374.287	94.12
374.513	85.12
374.739	109.12
374.965	84.12
375.191	92.12
375.416	77.12
375.642	84.12
375.868	98.12
376.094	100.12
376.319	86.12
376.545	87.12
376.771	92.12
376.997	89.12
377.222	91.12
377.448	94.12
377.674	83.12
377.899	103.12
378.125	96.12
378.35	90.12
378.576	81.12
378.802	105.12
379.027	81.12
379.253	98.12
379.478	87.12
379.704	93.12
379.929	88.12
380.155	94.12
380.38	91.12
380.606	101.12
380.831	94.12
381.057	95.12
381.282	102.12
381.507	100.12
381.733	99.12
381.958	107.12
382.184	101.12
382.409	89.12
382.634	98.12
382.86	89.12
383.085	94.12
383.31	102.12
383.535	96.12
383.761	98.12
383.986	110.12
384.211	95.12
384.436	97.12
384.662	111.12
384.887	96.12
385.112	103.12
385.337	102.12
385.562	105.12
385.787	92.12
386.013	100.12
386.238	112.12
386.463	108.12
386.688	108.12
386.913	98.12
387.138	104.12
387.363	105.12
387.588	85.12
387.813	97.12
388.038	119.12
388.263	115.12
388.488	108.12
388.713	108.12
388.938	95.12
389.163	93.12
389.387	108.12
389.612	104.12
389.837	96.12
390.062	89.12
390.287	111.12
390.512	90.12
390.736	93.12
390.961	87.12
391.186	89.12
391.411	93.12
391.636	99.12
391.86	95.12
392.085	79.12
392.31	92.12
392.534	106.12
392.759	88.12
392.984	95.12
393.208	90.12
393.433	84.12
393.658	85.12
393.882	85.12
394.107	104.12
394.331	95.12
394.556	95.12
394.78	90.12
395.005	83.12
395.229	79.12
395.454	73.12
395.678	99.12
395.903	93.12
396.127	104.12
396.352	99.12
396.576	93.12
396.801	90.12
397.025	99.12
397.249	105.12
397.474	90.12
397.698	93.12
397.922	98.12
398.147	84.12
398.371	97.12
398.595	82.12
398.82	78.12
399.044	85.12
399.268	84.12
399.492	79.12
399.717	87.12
399.941	94.12
400.165	96.12
400.389	101.12
400.613	95.12
400.837	90.12
401.062	100.12
401.286	83.12
401.51	77.12
401.734	80.12
401.958	97.12
402.182	120.12
402.406	127.12
402.63	116.12
402.854	96.12
403.078	93.12
403.302	90.12
403.526	89.12
403.75	90.12
403.974	77.12
404.198	78.12
404.422	83.12
404.645	101.12
404.869	101.12
405.093	83.12
405.317	98.12
405.541	92.12
405.765	96.12
405.988	115.12
406.212	139.12
406.436	186.12
406.66	118.12
406.883	98.12
407.107	89.12
407.331	103.12
407.555	89.12
407.778	85.12
408.002	101.12
408.226	91.12
408.449	82.12
408.673	90.12
408.896	83.12
409.12	103.12
409.344	95.12
409.567	72.12
409.791	92.12
410.014	104.12
410.238	103.12
410.461	97.12
410.685	92.12
410.908	96.12
411.132	103.12
411.355	98.12
411.578	108.12
411.802	73.12
412.025	91.12
412.249	79.12
412.472	84.12
412.695	90.12
412.919	85.12
413.142	81.12
413.365	96.12
413.589	95.12
413.812	75.12
414.035	95.12
414.258	92.12
414.482	91.12
414.705	100.12
414.928	104.12
415.151	91.12
415.374	91.12
415.597	89.12
415.821	87.12
416.044	88.12
416.267	99.12
416.49	95.12
416.713	87.12
416.936	92.12
417.159	92.12
417.382	86.12
417.605	98.12
417.828	111.12
418.051	92.12
418.274	88.12
418.497	88.12
418.72	83.12
418.943	101.12
419.166	76.12
419.389	85.12
419.611	81.12
419.834	84.12
420.057	100.12
420.28	97.12
420.503	87.12
420.726	85.12
420.948	84.12
421.171	91.12
421.394	103.12
421.617	85.12
421.839	91.12
422.062	87.12
422.285	88.12
422.507	88.12
422.73	106.12
422.953	96.12
423.175	93.12
423.398	75.12
423.621	73.12
423.843	95.12
424.066	97.12
424.288	88.12
424.511	89.12
424.733	100.12
424.956	101.12
425.178	102.12
425.401	98.12
425.623	91.12
425.846	101.12
426.068	96.12
426.291	103.12
426.513	91.12
426.735	89.12
426.958	94.12
427.18	91.12
427.402	129.12
427.625	146.12
427.847	112.12
428.069	115.12
428.292	95.12
428.514	66.12
428.736	109.12
428.958	85.12
429.181	86.12
429.403	106.12
429.625	94.12
429.847	94.12
430.069	83.12
430.292	93.12
430.514	96.12
430.736	85.12
430.958	80.12
431.18	91.12
431.402	77.12
431.624	95.12
431.846	82.12
432.068	83.12
432.29	73.12
432.512	82.12
432.734	80.12
432.956	100.12
433.178	100.12
433.4	110.12
433.622	108.12
433.844	93.12
434.066	78.12
434.287	84.12
434.509	105.12
434.731	98.12
434.953	92.12
435.175	93.12
435.397	99.12
435.618	80.12
435.84	82.12
436.062	112.12
436.284	122.12
436.505	106.12
436.727	97.12
436.949	71.12
437.17	82.12
437.392	90.12
437.614	101.12
437.835	98.12
438.057	94.12
438.278	109.12
438.5	95.12
438.721	108.12
438.943	103.12
439.165	97.12
439.386	88.12
439.608	87.12
439.829	95.12
440.05	112.12
440.272	116.12
440.493	91.12
440.715	96.12
440.936	87.12
441.158	96.12
441.379	89.12
441.6	95.12
441.822	89.12
442.043	77.12
442.264	94.12
442.486	102.12
442.707	90.12
442.928	102.12
443.149	140.12
443.371	114.12
443.592	106.12
443.813	93.12
444.034	116.12
444.255	80.12
444.476	79.12
444.698	91.12
444.919	83.12
445.14	140.12
445.361	120.12
445.582	105.12
445.803	119.12
446.024	129.12
446.245	107.12
446.466	95.12
446.687	89.12
446.908	97.12
447.129	88.12
447.35	88.12
447.571	92.12
447.792	89.12
448.013	93.12
448.234	91.12
448.455	89.12
448.675	106.12
448.896	112.12
449.117	98.12
449.338	83.12
449.559	136.12
449.779	121.12
450	90.12
450.221	86.12
450.442	79.12
450.662	86.12
450.883	114.12
451.104	87.12
451.324	95.12
451.545	72.12
451.766	88.12
451.986	101.12
452.207	82.12
452.428	89.12
452.648	101.12
452.869	100.12
453.089	104.12
453.31	110.12
453.53	114.12
453.751	88.12
453.971	102.12
454.192	97.12
454.412	101.12
454.633	82.12
454.853	83.12
455.073	80.12
455.294	99.12
455.514	87.12
455.734	85.12
455.955	104.12
456.175	85.12
456.395	91.12
456.616	101.12
456.836	92.12
457.056	75.12
457.276	92.12
457.497	95.12
457.717	81.12
457.937	88.12
458.157	89.12
458.377	87.12
458.598	92.12
458.818	132.12
459.038	117.12
459.258	100.12
459.478	102.12
459.698	77.12
459.918	75.12
460.138	89.12
460.358	88.12
460.578	92.12
460.798	94.12
461.018	69.12
461.238	79.12
461.458	80.12
461.678	95.12
461.898	85.12
462.118	82.12
462.338	85.12
462.558	95.12
462.777	84.12
462.997	91.12
463.217	81.12
463.437	81.12
463.657	88.12
463.876	97.12
464.096	97.12
464.316	83.12
464.536	79.12
464.755	95.12
464.975	102.12
465.195	137.12
465.414	147.12
465.634	98.12
465.854	83.12
466.073	79.12
466.293	90.12
466.512	84.12
466.732	88.12
466.951	81.12
467.171	87.12
467.391	91.12
467.61	100.12
467.829	87.12
468.049	83.12
468.268	91.12
468.488	83.12
468.707	91.12
468.927	88.12
469.146	70.12
469.365	95.12
469.585	87.12
469.804	98.12
470.023	92.12
470.243	103.12
470.462	91.12
470.681	92.12
470.901	91.12
471.12	87.12
471.339	86.12
471.558	104.12
471.777	86.12
471.997	81.12
472.216	94.12
472.435	95.12
472.654	93.12
472.873	100.12
473.092	95.12
473.311	94.12
473.53	94.12
473.749	87.12
473.968	101.12
474.187	100.12
474.406	88.12
474.625	81.12
474.844	94.12
475.063	83.12
475.282	87.12
475.501	89.12
475.72	94.12
475.939	98.12
476.158	87.12
476.377	97.12
476.596	99.12
476.814	94.12
477.033	77.12
477.252	78.12
477.471	90.12
477.69	79.12
477.908	94.12
478.127	95.12
478.346	99.12
478.564	84.12
478.783	90.12
479.002	75.12
479.22	87.12
479.439	98.12
479.658	94.12
479.876	88.12
480.095	92.12
480.313	80.12
480.532	82.12
480.751	86.12
480.969	85.12
481.188	110.12
481.406	98.12
481.624	88.12
481.843	98.12
482.061	91.12
482.28	90.12
482.498	93.12
482.717	85.12
482.935	91.12
483.153	81.12
483.372	86.12
483.59	107.12
483.808	89.12
484.027	82.12
484.245	91.12
484.463	98.12
484.681	97.12
484.9	97.12
485.118	94.12
485.336	90.12
485.554	100.12
485.772	105.12
485.99	105.12
486.209	108.12
486.427	104.12
486.645	120.12
486.863	108.12
487.081	101.12
487.299	94.12
487.517	91.12
487.735	85.12
487.953	90.12
488.171	91.12
488.389	94.12
488.607	104.12
488.825	103.12
489.043	93.12
489.261	86.12
489.479	82.12
489.696	89.12
489.914	96.12
490.132	95.12
490.35	92.12
490.568	88.12
490.786	92.12
491.003	90.12
491.221	98.12
491.439	76.12
491.657	92.12
491.874	107.12
492.092	105.12
492.31	93.12
492.527	88.12
492.745	94.12
492.963	93.12
493.18	100.12
493.398	85.12
493.615	109.12
493.833	96.12
494.05	85.12
494.268	99.12
494.485	88.12
494.703	81.12
494.92	79.12
495.138	79.12
495.355	93.12
495.573	97.12
495.79	92.12
496.008	103.12
496.225	88.12
496.442	95.12
496.66	90.12
496.877	93.12
497.094	95.12
497.312	76.12
497.529	89.12
497.746	92.12
497.963	110.12
498.181	86.12
498.398	87.12
498.615	105.12
498.832	93.12
499.049	91.12
499.267	95.12
499.484	84.12
499.701	90.12
499.918	96.12
500.135	98.12
500.352	96.12
500.569	81.12
500.786	99.12
501.003	88.12
501.22	93.12
501.437	94.12
501.654	93.12
501.871	91.12
502.088	91.12
502.305	79.12
502.522	88.12
502.739	90.12
502.956	94.12
503.172	107.12
503.389	93.12
503.606	103.12
503.823	100.12
504.04	94.12
504.256	91.12
504.473	80.12
504.69	84.12
504.907	96.12
505.123	76.12
505.34	89.12
505.557	86.12
505.773	106.12
505.99	100.12
506.207	86.12
506.423	88.12
506.64	106.12
506.856	91.12
507.073	93.12
507.289	97.12
507.506	96.12
507.722	108.12
507.939	116.12
508.155	77.12
508.372	79.12
508.588	90.12
508.805	102.12
509.021	95.12
509.238	89.12
509.454	97.12
509.67	104.12
509.887	109.12
510.103	121.12
510.319	157.12
510.536	613.12
510.752	1732.12
510.968	496.12
511.184	127.12
511.401	122.12
511.617	106.12
511.833	93.12
512.049	101.12
512.265	93.12
512.481	99.12
512.698	82.12
512.914	90.12
513.13	104.12
513.346	86.12
513.562	95.12
513.778	108.12
513.994	96.12
514.21	102.12
514.426	100.12
514.642	132.12
514.858	116.12
515.074	141.12
515.29	357.12
515.506	1035.12
515.721	407.12
