Data from Uncirc_1997_H10_HRD10591_00058.txt Node
Date: Wed Jan 03 11:28:42 EST 2024
User: Yrep
Spectrometer: HR+D1059
Trigger mode: 1
Integration Time (sec): 1.000000E-1
Scans to average: 1
Electric dark correction enabled: true
Nonlinearity correction enabled: false
Boxcar width: 0
XAxis mode: Wavelengths
Number of Pixels in Spectrum: 2048
>>>>>Begin Spectral Data<<<<<
223.165	-10.5
223.4	-10.5
223.635	-10.5
223.869	-21.5
224.104	-18.5
224.338	-16.5
224.573	-17.5
224.808	-12.5
225.042	-6.5
225.277	-5.5
225.511	7.5
225.746	-3.5
225.98	10.5
226.215	20.5
226.449	14.5
226.683	16.5
226.918	19.5
227.152	23.5
227.387	42.5
227.621	44.5
227.856	50.5
228.09	40.5
228.324	54.5
228.559	48.5
228.793	55.5
229.027	59.5
229.262	55.5
229.496	61.5
229.73	74.5
229.964	77.5
230.199	65.5
230.433	77.5
230.667	68.5
230.901	72.5
231.136	83.5
231.37	62.5
231.604	71.5
231.838	72.5
232.072	90.5
232.306	81.5
232.541	69.5
232.775	83.5
233.009	63.5
233.243	85.5
233.477	84.5
233.711	74.5
233.945	72.5
234.179	86.5
234.413	86.5
234.647	87.5
234.881	81.5
235.115	72.5
235.349	84.5
235.583	84.5
235.817	76.5
236.051	77.5
236.285	76.5
236.519	91.5
236.753	72.5
236.987	74.5
237.221	73.5
237.455	88.5
237.689	61.5
237.922	65.5
238.156	73.5
238.39	69.5
238.624	77.5
238.858	76.5
239.091	71.5
239.325	72.5
239.559	60.5
239.793	88.5
240.027	82.5
240.26	65.5
240.494	86.5
240.728	77.5
240.961	69.5
241.195	76.5
241.429	68.5
241.662	80.5
241.896	76.5
242.13	78.5
242.363	87.5
242.597	58.5
242.83	81.5
243.064	86.5
243.298	79.5
243.531	71.5
243.765	75.5
243.998	90.5
244.232	75.5
244.465	84.5
244.699	82.5
244.932	74.5
245.166	84.5
245.399	87.5
245.633	76.5
245.866	72.5
246.099	74.5
246.333	64.5
246.566	68.5
246.8	76.5
247.033	76.5
247.266	85.5
247.5	68.5
247.733	75.5
247.966	88.5
248.2	84.5
248.433	83.5
248.666	77.5
248.899	76.5
249.133	84.5
249.366	84.5
249.599	88.5
249.832	79.5
250.066	79.5
250.299	90.5
250.532	80.5
250.765	81.5
250.998	75.5
251.231	81.5
251.465	87.5
251.698	92.5
251.931	65.5
252.164	65.5
252.397	75.5
252.63	61.5
252.863	73.5
253.096	76.5
253.329	76.5
253.562	77.5
253.795	66.5
254.028	93.5
254.261	77.5
254.494	75.5
254.727	91.5
254.96	84.5
255.193	73.5
255.426	76.5
255.659	75.5
255.892	74.5
256.124	73.5
256.357	82.5
256.59	70.5
256.823	77.5
257.056	81.5
257.289	79.5
257.521	71.5
257.754	84.5
257.987	82.5
258.22	74.5
258.452	79.5
258.685	78.5
258.918	92.5
259.151	78.5
259.383	74.5
259.616	73.5
259.849	63.5
260.081	76.5
260.314	88.5
260.547	89.5
260.779	76.5
261.012	85.5
261.244	73.5
261.477	74.5
261.71	89.5
261.942	101.5
262.175	99.5
262.407	86.5
262.64	87.5
262.872	78.5
263.105	87.5
263.337	77.5
263.57	70.5
263.802	78.5
264.035	79.5
264.267	68.5
264.499	76.5
264.732	78.5
264.964	86.5
265.197	87.5
265.429	72.5
265.661	77.5
265.894	90.5
266.126	81.5
266.358	88.5
266.591	84.5
266.823	65.5
267.055	75.5
267.287	100.5
267.52	86.5
267.752	71.5
267.984	70.5
268.216	86.5
268.448	85.5
268.681	84.5
268.913	84.5
269.145	78.5
269.377	93.5
269.609	87.5
269.841	92.5
270.073	92.5
270.306	89.5
270.538	84.5
270.77	68.5
271.002	69.5
271.234	77.5
271.466	82.5
271.698	69.5
271.93	86.5
272.162	76.5
272.394	74.5
272.626	84.5
272.858	90.5
273.09	84.5
273.322	87.5
273.553	86.5
273.785	99.5
274.017	70.5
274.249	85.5
274.481	94.5
274.713	85.5
274.945	88.5
275.176	79.5
275.408	86.5
275.64	96.5
275.872	77.5
276.104	78.5
276.335	81.5
276.567	92.5
276.799	89.5
277.031	97.5
277.262	89.5
277.494	90.5
277.726	86.5
277.957	77.5
278.189	88.5
278.421	93.5
278.652	82.5
278.884	81.5
279.115	83.5
279.347	81.5
279.579	100.5
279.81	78.5
280.042	80.5
280.273	96.5
280.505	80.5
280.736	82.5
280.968	94.5
281.199	94.5
281.431	91.5
281.662	75.5
281.894	86.5
282.125	92.5
282.356	106.5
282.588	117.5
282.819	100.5
283.051	89.5
283.282	86.5
283.513	95.5
283.745	92.5
283.976	81.5
284.207	84.5
284.439	90.5
284.67	83.5
284.901	96.5
285.132	87.5
285.364	81.5
285.595	88.5
285.826	75.5
286.057	76.5
286.288	87.5
286.52	98.5
286.751	79.5
286.982	82.5
287.213	73.5
287.444	88.5
287.675	74.5
287.906	103.5
288.138	70.5
288.369	92.5
288.6	88.5
288.831	88.5
289.062	94.5
289.293	82.5
289.524	79.5
289.755	88.5
289.986	81.5
290.217	92.5
290.448	82.5
290.679	85.5
290.91	89.5
291.141	89.5
291.371	94.5
291.602	86.5
291.833	83.5
292.064	75.5
292.295	73.5
292.526	84.5
292.757	77.5
292.987	96.5
293.218	86.5
293.449	74.5
293.68	95.5
293.91	93.5
294.141	89.5
294.372	74.5
294.603	88.5
294.833	84.5
295.064	80.5
295.295	83.5
295.525	84.5
295.756	85.5
295.987	101.5
296.217	117.5
296.448	116.5
296.679	73.5
296.909	92.5
297.14	86.5
297.37	88.5
297.601	88.5
297.831	76.5
298.062	95.5
298.292	86.5
298.523	81.5
298.753	86.5
298.984	90.5
299.214	89.5
299.445	81.5
299.675	91.5
299.905	88.5
300.136	98.5
300.366	82.5
300.597	85.5
300.827	97.5
301.057	93.5
301.288	95.5
301.518	94.5
301.748	95.5
301.979	105.5
302.209	104.5
302.439	92.5
302.669	91.5
302.9	98.5
303.13	77.5
303.36	88.5
303.59	91.5
303.82	95.5
304.051	77.5
304.281	80.5
304.511	92.5
304.741	79.5
304.971	83.5
305.201	104.5
305.431	88.5
305.661	74.5
305.891	85.5
306.121	94.5
306.352	91.5
306.582	103.5
306.812	106.5
307.042	91.5
307.272	105.5
307.502	88.5
307.731	103.5
307.961	91.5
308.191	88.5
308.421	79.5
308.651	73.5
308.881	85.5
309.111	102.5
309.341	89.5
309.571	108.5
309.8	104.5
310.03	84.5
310.26	88.5
310.49	83.5
310.72	95.5
310.949	109.5
311.179	102.5
311.409	85.5
311.639	92.5
311.868	82.5
312.098	91.5
312.328	95.5
312.557	97.5
312.787	95.5
313.017	94.5
313.246	94.5
313.476	91.5
313.706	80.5
313.935	85.5
314.165	96.5
314.394	97.5
314.624	87.5
314.853	86.5
315.083	89.5
315.312	91.5
315.542	88.5
315.771	81.5
316.001	85.5
316.23	94.5
316.46	88.5
316.689	82.5
316.919	82.5
317.148	106.5
317.377	108.5
317.607	95.5
317.836	88.5
318.065	86.5
318.295	95.5
318.524	95.5
318.753	98.5
318.983	93.5
319.212	74.5
319.441	96.5
319.67	104.5
319.9	90.5
320.129	89.5
320.358	84.5
320.587	81.5
320.816	100.5
321.046	80.5
321.275	97.5
321.504	84.5
321.733	106.5
321.962	92.5
322.191	92.5
322.42	88.5
322.649	105.5
322.878	123.5
323.108	118.5
323.337	108.5
323.566	115.5
323.795	150.5
324.024	206.5
324.253	384.5
324.482	783.5
324.71	1594.5
324.939	2064.5
325.168	750.5
325.397	217.5
325.626	140.5
325.855	123.5
326.084	111.5
326.313	116.5
326.542	153.5
326.77	212.5
326.999	419.5
327.228	880.5
327.457	1610.5
327.686	1274.5
327.914	355.5
328.143	174.5
328.372	116.5
328.6	119.5
328.829	118.5
329.058	103.5
329.287	133.5
329.515	105.5
329.744	95.5
329.972	87.5
330.201	106.5
330.43	98.5
330.658	113.5
330.887	124.5
331.115	125.5
331.344	89.5
331.572	98.5
331.801	91.5
332.03	86.5
332.258	93.5
332.486	93.5
332.715	111.5
332.943	100.5
333.172	100.5
333.4	106.5
333.629	95.5
333.857	96.5
334.085	103.5
334.314	98.5
334.542	111.5
334.771	108.5
334.999	99.5
335.227	87.5
335.455	98.5
335.684	90.5
335.912	85.5
336.14	92.5
336.369	106.5
336.597	101.5
336.825	98.5
337.053	102.5
337.281	83.5
337.51	87.5
337.738	94.5
337.966	90.5
338.194	83.5
338.422	89.5
338.65	94.5
338.878	91.5
339.106	86.5
339.334	87.5
339.562	91.5
339.79	82.5
340.018	87.5
340.246	89.5
340.474	96.5
340.702	88.5
340.93	83.5
341.158	90.5
341.386	91.5
341.614	98.5
341.842	89.5
342.07	94.5
342.298	84.5
342.526	94.5
342.754	66.5
342.981	108.5
343.209	85.5
343.437	88.5
343.665	77.5
343.893	78.5
344.12	81.5
344.348	86.5
344.576	86.5
344.804	99.5
345.031	89.5
345.259	86.5
345.487	91.5
345.714	84.5
345.942	96.5
346.17	104.5
346.397	83.5
346.625	80.5
346.853	98.5
347.08	85.5
347.308	108.5
347.535	109.5
347.763	96.5
347.99	100.5
348.218	84.5
348.445	94.5
348.673	95.5
348.9	77.5
349.128	88.5
349.355	97.5
349.583	90.5
349.81	95.5
350.037	91.5
350.265	74.5
350.492	91.5
350.72	89.5
350.947	94.5
351.174	101.5
351.402	102.5
351.629	92.5
351.856	97.5
352.083	91.5
352.311	93.5
352.538	99.5
352.765	91.5
352.992	96.5
353.22	112.5
353.447	100.5
353.674	86.5
353.901	89.5
354.128	94.5
354.355	93.5
354.583	92.5
354.81	101.5
355.037	91.5
355.264	96.5
355.491	93.5
355.718	93.5
355.945	95.5
356.172	77.5
356.399	88.5
356.626	90.5
356.853	80.5
357.08	89.5
357.307	85.5
357.534	76.5
357.761	78.5
357.988	95.5
358.215	102.5
358.441	104.5
358.668	85.5
358.895	92.5
359.122	94.5
359.349	93.5
359.576	105.5
359.802	100.5
360.029	97.5
360.256	90.5
360.483	106.5
360.709	89.5
360.936	76.5
361.163	102.5
361.39	91.5
361.616	92.5
361.843	101.5
362.07	95.5
362.296	82.5
362.523	89.5
362.749	102.5
362.976	88.5
363.203	89.5
363.429	90.5
363.656	93.5
363.882	94.5
364.109	94.5
364.335	96.5
364.562	93.5
364.788	78.5
365.015	92.5
365.241	98.5
365.468	105.5
365.694	91.5
365.92	84.5
366.147	97.5
366.373	80.5
366.599	72.5
366.826	91.5
367.052	90.5
367.278	88.5
367.505	91.5
367.731	89.5
367.957	94.5
368.184	89.5
368.41	100.5
368.636	89.5
368.862	130.5
369.089	94.5
369.315	80.5
369.541	90.5
369.767	89.5
369.993	71.5
370.219	97.5
370.445	80.5
370.672	81.5
370.898	93.5
371.124	88.5
371.35	86.5
371.576	81.5
371.802	83.5
372.028	86.5
372.254	94.5
372.48	70.5
372.706	80.5
372.932	99.5
373.158	95.5
373.384	90.5
373.61	85.5
373.835	91.5
374.061	81.5
374.287	95.5
374.513	75.5
374.739	74.5
374.965	86.5
375.191	92.5
375.416	79.5
375.642	94.5
375.868	83.5
376.094	99.5
376.319	88.5
376.545	85.5
376.771	86.5
376.997	85.5
377.222	89.5
377.448	79.5
377.674	87.5
377.899	87.5
378.125	84.5
378.35	83.5
378.576	87.5
378.802	80.5
379.027	74.5
379.253	78.5
379.478	86.5
379.704	94.5
379.929	85.5
380.155	76.5
380.38	92.5
380.606	89.5
380.831	84.5
381.057	95.5
381.282	108.5
381.507	89.5
381.733	92.5
381.958	94.5
382.184	102.5
382.409	81.5
382.634	104.5
382.86	99.5
383.085	95.5
383.31	98.5
383.535	95.5
383.761	102.5
383.986	96.5
384.211	69.5
384.436	95.5
384.662	83.5
384.887	93.5
385.112	95.5
385.337	87.5
385.562	93.5
385.787	90.5
386.013	92.5
386.238	98.5
386.463	93.5
386.688	102.5
386.913	94.5
387.138	101.5
387.363	91.5
387.588	89.5
387.813	100.5
388.038	93.5
388.263	95.5
388.488	95.5
388.713	106.5
388.938	76.5
389.163	85.5
389.387	96.5
389.612	79.5
389.837	85.5
390.062	103.5
390.287	95.5
390.512	100.5
390.736	97.5
390.961	97.5
391.186	92.5
391.411	85.5
391.636	106.5
391.86	93.5
392.085	98.5
392.31	80.5
392.534	97.5
392.759	94.5
392.984	89.5
393.208	70.5
393.433	91.5
393.658	81.5
393.882	78.5
394.107	81.5
394.331	72.5
394.556	88.5
394.78	89.5
395.005	93.5
395.229	86.5
395.454	93.5
395.678	96.5
395.903	86.5
396.127	88.5
396.352	88.5
396.576	90.5
396.801	85.5
397.025	89.5
397.249	77.5
397.474	95.5
397.698	86.5
397.922	84.5
398.147	84.5
398.371	86.5
398.595	89.5
398.82	93.5
399.044	79.5
399.268	75.5
399.492	74.5
399.717	85.5
399.941	83.5
400.165	79.5
400.389	85.5
400.613	80.5
400.837	94.5
401.062	93.5
401.286	97.5
401.51	86.5
401.734	88.5
401.958	93.5
402.182	119.5
402.406	144.5
402.63	98.5
402.854	94.5
403.078	80.5
403.302	90.5
403.526	78.5
403.75	89.5
403.974	82.5
404.198	78.5
404.422	97.5
404.645	77.5
404.869	94.5
405.093	89.5
405.317	96.5
405.541	85.5
405.765	93.5
405.988	120.5
406.212	144.5
406.436	196.5
406.66	146.5
406.883	98.5
407.107	73.5
407.331	85.5
407.555	85.5
407.778	86.5
408.002	97.5
408.226	81.5
408.449	80.5
408.673	94.5
408.896	85.5
409.12	90.5
409.344	89.5
409.567	83.5
409.791	84.5
410.014	103.5
410.238	76.5
410.461	74.5
410.685	74.5
410.908	97.5
411.132	86.5
411.355	93.5
411.578	83.5
411.802	81.5
412.025	85.5
412.249	87.5
412.472	89.5
412.695	90.5
412.919	93.5
413.142	90.5
413.365	75.5
413.589	84.5
413.812	77.5
414.035	93.5
414.258	81.5
414.482	85.5
414.705	104.5
414.928	86.5
415.151	72.5
415.374	89.5
415.597	79.5
415.821	83.5
416.044	70.5
416.267	97.5
416.49	74.5
416.713	87.5
416.936	91.5
417.159	86.5
417.382	79.5
417.605	75.5
417.828	96.5
418.051	106.5
418.274	102.5
418.497	83.5
418.72	83.5
418.943	84.5
419.166	79.5
419.389	84.5
419.611	94.5
419.834	96.5
420.057	75.5
420.28	86.5
420.503	81.5
420.726	81.5
420.948	78.5
421.171	81.5
421.394	92.5
421.617	80.5
421.839	78.5
422.062	76.5
422.285	94.5
422.507	103.5
422.73	89.5
422.953	94.5
423.175	87.5
423.398	86.5
423.621	87.5
423.843	78.5
424.066	87.5
424.288	93.5
424.511	82.5
424.733	91.5
424.956	91.5
425.178	106.5
425.401	89.5
425.623	87.5
425.846	92.5
426.068	89.5
426.291	98.5
426.513	89.5
426.735	77.5
426.958	92.5
427.18	89.5
427.402	129.5
427.625	149.5
427.847	113.5
428.069	105.5
428.292	87.5
428.514	94.5
428.736	91.5
428.958	83.5
429.181	83.5
429.403	81.5
429.625	81.5
429.847	95.5
430.069	98.5
430.292	104.5
430.514	77.5
430.736	69.5
430.958	80.5
431.18	90.5
431.402	80.5
431.624	82.5
431.846	80.5
432.068	88.5
432.29	76.5
432.512	91.5
432.734	82.5
432.956	85.5
433.178	96.5
433.4	96.5
433.622	88.5
433.844	84.5
434.066	87.5
434.287	89.5
434.509	90.5
434.731	92.5
434.953	84.5
435.175	92.5
435.397	96.5
435.618	88.5
435.84	103.5
436.062	119.5
436.284	108.5
436.505	93.5
436.727	87.5
436.949	96.5
437.17	84.5
437.392	93.5
437.614	87.5
437.835	116.5
438.057	112.5
438.278	103.5
438.5	103.5
438.721	100.5
438.943	96.5
439.165	89.5
439.386	95.5
439.608	89.5
439.829	95.5
440.05	123.5
440.272	140.5
440.493	101.5
440.715	89.5
440.936	86.5
441.158	87.5
441.379	84.5
441.6	84.5
441.822	94.5
442.043	97.5
442.264	101.5
442.486	87.5
442.707	98.5
442.928	93.5
443.149	125.5
443.371	121.5
443.592	92.5
443.813	98.5
444.034	95.5
444.255	89.5
444.476	94.5
444.698	80.5
444.919	76.5
445.14	111.5
445.361	110.5
445.582	111.5
445.803	126.5
446.024	131.5
446.245	112.5
446.466	106.5
446.687	84.5
446.908	81.5
447.129	89.5
447.35	101.5
447.571	83.5
447.792	80.5
448.013	93.5
448.234	83.5
448.455	88.5
448.675	107.5
448.896	95.5
449.117	103.5
449.338	87.5
449.559	128.5
449.779	120.5
450	93.5
450.221	84.5
450.442	88.5
450.662	85.5
450.883	104.5
451.104	114.5
451.324	102.5
451.545	82.5
451.766	85.5
451.986	77.5
452.207	77.5
452.428	94.5
452.648	80.5
452.869	111.5
453.089	104.5
453.31	105.5
453.53	94.5
453.751	85.5
453.971	90.5
454.192	94.5
454.412	87.5
454.633	92.5
454.853	82.5
455.073	80.5
455.294	93.5
455.514	86.5
455.734	84.5
455.955	84.5
456.175	78.5
456.395	82.5
456.616	83.5
456.836	83.5
457.056	74.5
457.276	88.5
457.497	76.5
457.717	90.5
457.937	79.5
458.157	89.5
458.377	82.5
458.598	93.5
458.818	122.5
459.038	144.5
459.258	112.5
459.478	81.5
459.698	80.5
459.918	72.5
460.138	89.5
460.358	77.5
460.578	91.5
460.798	84.5
461.018	94.5
461.238	89.5
461.458	76.5
461.678	76.5
461.898	84.5
462.118	98.5
462.338	70.5
462.558	85.5
462.777	92.5
462.997	70.5
463.217	74.5
463.437	73.5
463.657	92.5
463.876	90.5
464.096	84.5
464.316	82.5
464.536	100.5
464.755	89.5
464.975	99.5
465.195	132.5
465.414	148.5
465.634	96.5
465.854	74.5
466.073	88.5
466.293	89.5
466.512	85.5
466.732	94.5
466.951	104.5
467.171	89.5
467.391	89.5
467.61	90.5
467.829	99.5
468.049	88.5
468.268	86.5
468.488	81.5
468.707	94.5
468.927	83.5
469.146	78.5
469.365	92.5
469.585	73.5
469.804	81.5
470.023	89.5
470.243	81.5
470.462	95.5
470.681	94.5
470.901	92.5
471.12	79.5
471.339	64.5
471.558	79.5
471.777	86.5
471.997	99.5
472.216	95.5
472.435	98.5
472.654	92.5
472.873	97.5
473.092	61.5
473.311	88.5
473.53	79.5
473.749	95.5
473.968	89.5
474.187	104.5
474.406	83.5
474.625	87.5
474.844	73.5
475.063	84.5
475.282	82.5
475.501	80.5
475.72	90.5
475.939	88.5
476.158	78.5
476.377	96.5
476.596	82.5
476.814	77.5
477.033	89.5
477.252	85.5
477.471	92.5
477.69	84.5
477.908	85.5
478.127	89.5
478.346	87.5
478.564	93.5
478.783	83.5
479.002	87.5
479.22	79.5
479.439	96.5
479.658	85.5
479.876	89.5
480.095	85.5
480.313	98.5
480.532	76.5
480.751	104.5
480.969	90.5
481.188	115.5
481.406	110.5
481.624	90.5
481.843	64.5
482.061	90.5
482.28	86.5
482.498	96.5
482.717	92.5
482.935	87.5
483.153	94.5
483.372	94.5
483.59	79.5
483.808	91.5
484.027	70.5
484.245	75.5
484.463	89.5
484.681	99.5
484.9	93.5
485.118	99.5
485.336	94.5
485.554	82.5
485.772	96.5
485.99	97.5
486.209	106.5
486.427	88.5
486.645	105.5
486.863	103.5
487.081	89.5
487.299	101.5
487.517	88.5
487.735	83.5
487.953	101.5
488.171	96.5
488.389	85.5
488.607	81.5
488.825	106.5
489.043	82.5
489.261	93.5
489.479	84.5
489.696	89.5
489.914	87.5
490.132	74.5
490.35	82.5
490.568	74.5
490.786	95.5
491.003	88.5
491.221	89.5
491.439	95.5
491.657	87.5
491.874	93.5
492.092	78.5
492.31	75.5
492.527	87.5
492.745	94.5
492.963	97.5
493.18	86.5
493.398	93.5
493.615	93.5
493.833	96.5
494.05	97.5
494.268	91.5
494.485	79.5
494.703	87.5
494.92	74.5
495.138	81.5
495.355	89.5
495.573	86.5
495.79	85.5
496.008	96.5
496.225	88.5
496.442	93.5
496.66	93.5
496.877	79.5
497.094	70.5
497.312	86.5
497.529	100.5
497.746	91.5
497.963	97.5
498.181	92.5
498.398	96.5
498.615	106.5
498.832	101.5
499.049	86.5
499.267	89.5
499.484	90.5
499.701	92.5
499.918	86.5
500.135	79.5
500.352	92.5
500.569	79.5
500.786	93.5
501.003	81.5
501.22	93.5
501.437	91.5
501.654	93.5
501.871	93.5
502.088	92.5
502.305	86.5
502.522	92.5
502.739	93.5
502.956	103.5
503.172	93.5
503.389	84.5
503.606	88.5
503.823	94.5
504.04	101.5
504.256	92.5
504.473	93.5
504.69	89.5
504.907	104.5
505.123	84.5
505.34	90.5
505.557	85.5
505.773	96.5
505.99	83.5
506.207	85.5
506.423	82.5
506.64	87.5
506.856	75.5
507.073	98.5
507.289	89.5
507.506	84.5
507.722	101.5
507.939	111.5
508.155	85.5
508.372	77.5
508.588	94.5
508.805	94.5
509.021	95.5
509.238	98.5
509.454	95.5
509.67	94.5
509.887	99.5
510.103	127.5
510.319	194.5
510.536	680.5
510.752	2104.5
510.968	596.5
511.184	166.5
511.401	109.5
511.617	91.5
511.833	84.5
512.049	95.5
512.265	97.5
512.481	86.5
512.698	97.5
512.914	75.5
513.13	88.5
513.346	97.5
513.562	78.5
513.778	98.5
513.994	104.5
514.21	96.5
514.426	121.5
514.642	122.5
514.858	108.5
515.074	153.5
515.29	396.5
515.506	1310.5
515.721	494.5
515.937	136.5
516.153	106.5
516.369	102.5
516.585	105.5
516.801	69.5
517.016	84.5
517.232	89.5
517.448	96.5
517.664	102.5
517.879	86.5
518.095	97.5
518.311	88.5
518.527	81.5
518.742	86.5
518.958	79.5
519.173	98.5
519.389	92.5
519.605	87.5
519.82	94.5
520.036	86.5
520.251	114.5
520.467	102.5
520.682	104.5
520.898	107.5
521.113	104.5
521.329	145.5
521.544	189.5
521.76	501.5
521.975	2096.5
522.19	1254.5
522.406	288.5
522.621	109.5
522.836	87.5
523.052	106.5
523.267	88.5
523.482	92.5
523.698	96.5
523.913	94.5
524.128	91.5
524.343	80.5
524.559	91.5
524.774	90.5
524.989	88.5
525.204	94.5
525.419	92.5
525.634	85.5
525.849	92.5
526.064	96.5
526.28	86.5
526.495	85.5
526.71	85.5
526.925	97.5
527.14	86.5
527.355	93.5
527.57	84.5
527.785	91.5
527.999	90.5
528.214	93.5
528.429	93.5
528.644	76.5
528.859	80.5
529.074	92.5
529.289	124.5
529.503	157.5
529.718	111.5
529.933	88.5
530.148	97.5
530.363	102.5
530.577	94.5
530.792	96.5
531.007	75.5
531.221	79.5
531.436	90.5
531.651	93.5
531.865	91.5
532.08	79.5
532.295	85.5
532.509	101.5
532.724	97.5
532.938	105.5
533.153	102.5
533.367	102.5
533.582	84.5
533.796	88.5
534.011	90.5
534.225	95.5
534.44	91.5
534.654	86.5
534.868	104.5
535.083	75.5
535.297	83.5
535.511	97.5
535.726	98.5
535.94	113.5
536.154	95.5
536.369	85.5
536.583	83.5
536.797	87.5
537.011	101.5
