Data from Uncirc_1997_H10_HRD10591_00005.txt Node
Date: Wed Jan 03 11:28:31 EST 2024
User: Yrep
Spectrometer: HR+D1059
Trigger mode: 1
Integration Time (sec): 1.000000E-1
Scans to average: 1
Electric dark correction enabled: true
Nonlinearity correction enabled: false
Boxcar width: 0
XAxis mode: Wavelengths
Number of Pixels in Spectrum: 2048
>>>>>Begin Spectral Data<<<<<
223.165	-21.44
223.4	-21.44
223.635	-21.44
223.869	-30.44
224.104	-25.44
224.338	4.56
224.573	-19.44
224.808	2.56
225.042	2.56
225.277	-6.44
225.511	6.56
225.746	9.56
225.98	0.56
226.215	-1.44
226.449	11.56
226.683	11.56
226.918	31.56
227.152	23.56
227.387	27.56
227.621	31.56
227.856	55.56
228.09	50.56
228.324	52.56
228.559	59.56
228.793	55.56
229.027	56.56
229.262	73.56
229.496	65.56
229.73	71.56
229.964	81.56
230.199	70.56
230.433	80.56
230.667	77.56
230.901	63.56
231.136	71.56
231.37	64.56
231.604	90.56
231.838	82.56
232.072	90.56
232.306	86.56
232.541	71.56
232.775	87.56
233.009	77.56
233.243	75.56
233.477	72.56
233.711	87.56
233.945	95.56
234.179	82.56
234.413	67.56
234.647	81.56
234.881	67.56
235.115	76.56
235.349	78.56
235.583	77.56
235.817	84.56
236.051	74.56
236.285	66.56
236.519	71.56
236.753	74.56
236.987	67.56
237.221	83.56
237.455	89.56
237.689	66.56
237.922	77.56
238.156	68.56
238.39	72.56
238.624	83.56
238.858	77.56
239.091	67.56
239.325	70.56
239.559	68.56
239.793	81.56
240.027	91.56
240.26	74.56
240.494	78.56
240.728	75.56
240.961	71.56
241.195	91.56
241.429	86.56
241.662	78.56
241.896	79.56
242.13	83.56
242.363	64.56
242.597	77.56
242.83	71.56
243.064	74.56
243.298	85.56
243.531	91.56
243.765	89.56
243.998	75.56
244.232	76.56
244.465	89.56
244.699	73.56
244.932	62.56
245.166	73.56
245.399	85.56
245.633	76.56
245.866	69.56
246.099	77.56
246.333	79.56
246.566	86.56
246.8	70.56
247.033	71.56
247.266	66.56
247.5	86.56
247.733	79.56
247.966	84.56
248.2	67.56
248.433	75.56
248.666	81.56
248.899	80.56
249.133	95.56
249.366	96.56
249.599	88.56
249.832	74.56
250.066	91.56
250.299	84.56
250.532	97.56
250.765	82.56
250.998	77.56
251.231	80.56
251.465	83.56
251.698	83.56
251.931	69.56
252.164	76.56
252.397	70.56
252.63	88.56
252.863	95.56
253.096	71.56
253.329	73.56
253.562	78.56
253.795	89.56
254.028	100.56
254.261	72.56
254.494	81.56
254.727	84.56
254.96	81.56
255.193	86.56
255.426	75.56
255.659	71.56
255.892	82.56
256.124	75.56
256.357	80.56
256.59	75.56
256.823	76.56
257.056	80.56
257.289	78.56
257.521	87.56
257.754	79.56
257.987	111.56
258.22	86.56
258.452	91.56
258.685	90.56
258.918	76.56
259.151	72.56
259.383	81.56
259.616	79.56
259.849	87.56
260.081	89.56
260.314	77.56
260.547	77.56
260.779	69.56
261.012	79.56
261.244	88.56
261.477	76.56
261.71	69.56
261.942	107.56
262.175	106.56
262.407	86.56
262.64	90.56
262.872	81.56
263.105	99.56
263.337	78.56
263.57	64.56
263.802	90.56
264.035	82.56
264.267	80.56
264.499	93.56
264.732	99.56
264.964	83.56
265.197	67.56
265.429	72.56
265.661	83.56
265.894	89.56
266.126	101.56
266.358	79.56
266.591	80.56
266.823	92.56
267.055	74.56
267.287	76.56
267.52	84.56
267.752	78.56
267.984	70.56
268.216	94.56
268.448	72.56
268.681	81.56
268.913	83.56
269.145	79.56
269.377	81.56
269.609	80.56
269.841	80.56
270.073	80.56
270.306	84.56
270.538	66.56
270.77	74.56
271.002	88.56
271.234	85.56
271.466	82.56
271.698	93.56
271.93	87.56
272.162	76.56
272.394	95.56
272.626	92.56
272.858	82.56
273.09	87.56
273.322	94.56
273.553	66.56
273.785	93.56
274.017	71.56
274.249	77.56
274.481	80.56
274.713	87.56
274.945	84.56
275.176	74.56
275.408	68.56
275.64	72.56
275.872	94.56
276.104	81.56
276.335	93.56
276.567	89.56
276.799	100.56
277.031	81.56
277.262	83.56
277.494	82.56
277.726	81.56
277.957	86.56
278.189	96.56
278.421	91.56
278.652	87.56
278.884	88.56
279.115	86.56
279.347	98.56
279.579	87.56
279.81	81.56
280.042	82.56
280.273	82.56
280.505	93.56
280.736	79.56
280.968	97.56
281.199	97.56
281.431	80.56
281.662	96.56
281.894	89.56
282.125	85.56
282.356	121.56
282.588	125.56
282.819	88.56
283.051	86.56
283.282	90.56
283.513	79.56
283.745	83.56
283.976	90.56
284.207	66.56
284.439	91.56
284.67	79.56
284.901	80.56
285.132	94.56
285.364	83.56
285.595	85.56
285.826	90.56
286.057	94.56
286.288	87.56
286.52	94.56
286.751	72.56
286.982	87.56
287.213	79.56
287.444	96.56
287.675	79.56
287.906	87.56
288.138	77.56
288.369	85.56
288.6	87.56
288.831	73.56
289.062	71.56
289.293	93.56
289.524	78.56
289.755	89.56
289.986	83.56
290.217	79.56
290.448	83.56
290.679	92.56
290.91	96.56
291.141	93.56
291.371	82.56
291.602	90.56
291.833	79.56
292.064	69.56
292.295	93.56
292.526	100.56
292.757	98.56
292.987	96.56
293.218	89.56
293.449	76.56
293.68	81.56
293.91	84.56
294.141	82.56
294.372	83.56
294.603	91.56
294.833	88.56
295.064	69.56
295.295	93.56
295.525	76.56
295.756	95.56
295.987	112.56
296.217	117.56
296.448	115.56
296.679	89.56
296.909	85.56
297.14	94.56
297.37	86.56
297.601	83.56
297.831	84.56
298.062	76.56
298.292	83.56
298.523	83.56
298.753	84.56
298.984	81.56
299.214	85.56
299.445	81.56
299.675	92.56
299.905	105.56
300.136	80.56
300.366	87.56
300.597	105.56
300.827	78.56
301.057	94.56
301.288	99.56
301.518	89.56
301.748	78.56
301.979	101.56
302.209	80.56
302.439	95.56
302.669	86.56
302.9	86.56
303.13	82.56
303.36	73.56
303.59	99.56
303.82	90.56
304.051	93.56
304.281	101.56
304.511	77.56
304.741	83.56
304.971	89.56
305.201	99.56
305.431	78.56
305.661	89.56
305.891	69.56
306.121	81.56
306.352	96.56
306.582	87.56
306.812	89.56
307.042	92.56
307.272	106.56
307.502	94.56
307.731	92.56
307.961	85.56
308.191	87.56
308.421	82.56
308.651	92.56
308.881	93.56
309.111	103.56
309.341	90.56
309.571	89.56
309.8	77.56
310.03	80.56
310.26	82.56
310.49	96.56
310.72	106.56
310.949	97.56
311.179	99.56
311.409	95.56
311.639	101.56
311.868	104.56
312.098	89.56
312.328	98.56
312.557	97.56
312.787	83.56
313.017	89.56
313.246	93.56
313.476	97.56
313.706	80.56
313.935	99.56
314.165	89.56
314.394	78.56
314.624	84.56
314.853	88.56
315.083	74.56
315.312	88.56
315.542	94.56
315.771	72.56
316.001	96.56
316.23	85.56
316.46	78.56
316.689	85.56
316.919	90.56
317.148	102.56
317.377	98.56
317.607	100.56
317.836	94.56
318.065	85.56
318.295	89.56
318.524	91.56
318.753	81.56
318.983	90.56
319.212	89.56
319.441	86.56
319.67	98.56
319.9	88.56
320.129	81.56
320.358	78.56
320.587	89.56
320.816	96.56
321.046	102.56
321.275	104.56
321.504	101.56
321.733	93.56
321.962	85.56
322.191	89.56
322.42	95.56
322.649	101.56
322.878	106.56
323.108	103.56
323.337	105.56
323.566	107.56
323.795	121.56
324.024	189.56
324.253	332.56
324.482	702.56
324.71	1408.56
324.939	1849.56
325.168	673.56
325.397	210.56
325.626	131.56
325.855	117.56
326.084	106.56
326.313	99.56
326.542	140.56
326.77	199.56
326.999	403.56
327.228	819.56
327.457	1471.56
327.686	1143.56
327.914	317.56
328.143	173.56
328.372	124.56
328.6	115.56
328.829	92.56
329.058	126.56
329.287	113.56
329.515	105.56
329.744	87.56
329.972	99.56
330.201	99.56
330.43	102.56
330.658	101.56
330.887	110.56
331.115	114.56
331.344	88.56
331.572	86.56
331.801	104.56
332.03	99.56
332.258	99.56
332.486	95.56
332.715	92.56
332.943	105.56
333.172	82.56
333.4	104.56
333.629	104.56
333.857	92.56
334.085	104.56
334.314	106.56
334.542	99.56
334.771	90.56
334.999	99.56
335.227	84.56
335.455	84.56
335.684	94.56
335.912	88.56
336.14	94.56
336.369	99.56
336.597	100.56
336.825	85.56
337.053	96.56
337.281	95.56
337.51	102.56
337.738	104.56
337.966	85.56
338.194	80.56
338.422	94.56
338.65	80.56
338.878	89.56
339.106	94.56
339.334	93.56
339.562	98.56
339.79	95.56
340.018	82.56
340.246	97.56
340.474	90.56
340.702	88.56
340.93	97.56
341.158	91.56
341.386	97.56
341.614	94.56
341.842	99.56
342.07	78.56
342.298	99.56
342.526	90.56
342.754	89.56
342.981	92.56
343.209	88.56
343.437	95.56
343.665	89.56
343.893	92.56
344.12	96.56
344.348	96.56
344.576	90.56
344.804	85.56
345.031	103.56
345.259	91.56
345.487	92.56
345.714	98.56
345.942	97.56
346.17	84.56
346.397	99.56
346.625	90.56
346.853	84.56
347.08	94.56
347.308	98.56
347.535	89.56
347.763	94.56
347.99	94.56
348.218	78.56
348.445	88.56
348.673	109.56
348.9	98.56
349.128	91.56
349.355	84.56
349.583	90.56
349.81	81.56
350.037	90.56
350.265	105.56
350.492	102.56
350.72	84.56
350.947	87.56
351.174	113.56
351.402	94.56
351.629	98.56
351.856	81.56
352.083	98.56
352.311	96.56
352.538	97.56
352.765	107.56
352.992	110.56
353.22	107.56
353.447	101.56
353.674	104.56
353.901	99.56
354.128	95.56
354.355	101.56
354.583	99.56
354.81	108.56
355.037	108.56
355.264	92.56
355.491	105.56
355.718	98.56
355.945	83.56
356.172	98.56
356.399	99.56
356.626	86.56
356.853	97.56
357.08	81.56
357.307	87.56
357.534	87.56
357.761	100.56
357.988	107.56
358.215	86.56
358.441	86.56
358.668	77.56
358.895	83.56
359.122	83.56
359.349	76.56
359.576	91.56
359.802	103.56
360.029	107.56
360.256	105.56
360.483	85.56
360.709	96.56
360.936	77.56
361.163	96.56
361.39	102.56
361.616	101.56
361.843	101.56
362.07	100.56
362.296	86.56
362.523	92.56
362.749	91.56
362.976	80.56
363.203	97.56
363.429	85.56
363.656	85.56
363.882	88.56
364.109	91.56
364.335	98.56
364.562	85.56
364.788	89.56
365.015	96.56
365.241	101.56
365.468	87.56
365.694	88.56
365.92	99.56
366.147	100.56
366.373	85.56
366.599	86.56
366.826	90.56
367.052	87.56
367.278	94.56
367.505	94.56
367.731	82.56
367.957	83.56
368.184	76.56
368.41	91.56
368.636	97.56
368.862	105.56
369.089	104.56
369.315	86.56
369.541	90.56
369.767	79.56
369.993	82.56
370.219	79.56
370.445	92.56
370.672	88.56
370.898	79.56
371.124	90.56
371.35	81.56
371.576	93.56
371.802	91.56
372.028	89.56
372.254	84.56
372.48	79.56
372.706	89.56
372.932	76.56
373.158	82.56
373.384	76.56
373.61	99.56
373.835	79.56
374.061	76.56
374.287	85.56
374.513	89.56
374.739	102.56
374.965	98.56
375.191	82.56
375.416	103.56
375.642	93.56
375.868	81.56
376.094	73.56
376.319	88.56
376.545	99.56
376.771	88.56
376.997	78.56
377.222	80.56
377.448	86.56
377.674	93.56
377.899	92.56
378.125	90.56
378.35	94.56
378.576	94.56
378.802	96.56
379.027	92.56
379.253	99.56
379.478	89.56
379.704	85.56
379.929	91.56
380.155	84.56
380.38	84.56
380.606	82.56
380.831	97.56
381.057	105.56
381.282	91.56
381.507	86.56
381.733	89.56
381.958	86.56
382.184	104.56
382.409	93.56
382.634	98.56
382.86	81.56
383.085	78.56
383.31	83.56
383.535	100.56
383.761	105.56
383.986	87.56
384.211	98.56
384.436	106.56
384.662	94.56
384.887	99.56
385.112	109.56
385.337	106.56
385.562	103.56
385.787	102.56
386.013	118.56
386.238	109.56
386.463	105.56
386.688	112.56
386.913	111.56
387.138	102.56
387.363	98.56
387.588	99.56
387.813	107.56
388.038	104.56
388.263	103.56
388.488	113.56
388.713	109.56
388.938	96.56
389.163	89.56
389.387	93.56
389.612	99.56
389.837	88.56
390.062	98.56
390.287	84.56
390.512	97.56
390.736	107.56
390.961	88.56
391.186	92.56
391.411	79.56
391.636	85.56
391.86	88.56
392.085	88.56
392.31	96.56
392.534	93.56
392.759	77.56
392.984	91.56
393.208	99.56
393.433	96.56
393.658	91.56
393.882	86.56
394.107	87.56
394.331	80.56
394.556	88.56
394.78	96.56
395.005	87.56
395.229	63.56
395.454	79.56
395.678	86.56
395.903	85.56
396.127	80.56
396.352	91.56
396.576	90.56
396.801	88.56
397.025	90.56
397.249	88.56
397.474	86.56
397.698	88.56
397.922	82.56
398.147	88.56
398.371	84.56
398.595	81.56
398.82	92.56
399.044	76.56
399.268	63.56
399.492	89.56
399.717	95.56
399.941	90.56
400.165	93.56
400.389	89.56
400.613	93.56
400.837	89.56
401.062	97.56
401.286	86.56
401.51	77.56
401.734	88.56
401.958	92.56
402.182	115.56
402.406	126.56
402.63	98.56
402.854	84.56
403.078	91.56
403.302	75.56
403.526	83.56
403.75	89.56
403.974	86.56
404.198	88.56
404.422	76.56
404.645	84.56
404.869	93.56
405.093	92.56
405.317	101.56
405.541	92.56
405.765	93.56
405.988	111.56
406.212	141.56
406.436	199.56
406.66	122.56
406.883	97.56
407.107	88.56
407.331	77.56
407.555	85.56
407.778	94.56
408.002	88.56
408.226	78.56
408.449	93.56
408.673	96.56
408.896	96.56
409.12	94.56
409.344	87.56
409.567	81.56
409.791	92.56
410.014	101.56
410.238	72.56
410.461	86.56
410.685	102.56
410.908	96.56
411.132	108.56
411.355	97.56
411.578	104.56
411.802	80.56
412.025	87.56
412.249	88.56
412.472	93.56
412.695	94.56
412.919	92.56
413.142	99.56
413.365	90.56
413.589	97.56
413.812	79.56
414.035	85.56
414.258	84.56
414.482	106.56
414.705	96.56
414.928	87.56
415.151	98.56
415.374	87.56
415.597	77.56
415.821	73.56
416.044	86.56
416.267	91.56
416.49	69.56
416.713	88.56
416.936	95.56
417.159	88.56
417.382	94.56
417.605	78.56
417.828	90.56
418.051	87.56
418.274	76.56
418.497	80.56
418.72	81.56
418.943	77.56
419.166	96.56
419.389	87.56
419.611	97.56
419.834	72.56
420.057	88.56
420.28	87.56
420.503	79.56
420.726	79.56
420.948	94.56
421.171	86.56
421.394	103.56
421.617	94.56
421.839	92.56
422.062	83.56
422.285	89.56
422.507	90.56
422.73	96.56
422.953	113.56
423.175	96.56
423.398	103.56
423.621	104.56
423.843	83.56
424.066	85.56
424.288	94.56
424.511	79.56
424.733	89.56
424.956	100.56
425.178	91.56
425.401	106.56
425.623	105.56
425.846	93.56
426.068	98.56
426.291	78.56
426.513	81.56
426.735	103.56
426.958	87.56
427.18	95.56
427.402	117.56
427.625	149.56
427.847	113.56
428.069	88.56
428.292	88.56
428.514	86.56
428.736	90.56
428.958	90.56
429.181	76.56
429.403	93.56
429.625	97.56
429.847	91.56
430.069	99.56
430.292	85.56
430.514	75.56
430.736	90.56
430.958	83.56
431.18	72.56
431.402	95.56
431.624	87.56
431.846	81.56
432.068	90.56
432.29	93.56
432.512	81.56
432.734	79.56
432.956	85.56
433.178	95.56
433.4	89.56
433.622	88.56
433.844	80.56
434.066	96.56
434.287	95.56
434.509	86.56
434.731	94.56
434.953	78.56
435.175	87.56
435.397	82.56
435.618	85.56
435.84	94.56
436.062	113.56
436.284	100.56
436.505	97.56
436.727	87.56
436.949	102.56
437.17	81.56
437.392	69.56
437.614	89.56
437.835	105.56
438.057	104.56
438.278	89.56
438.5	88.56
438.721	113.56
438.943	85.56
439.165	87.56
439.386	79.56
439.608	94.56
439.829	89.56
440.05	126.56
440.272	123.56
440.493	90.56
440.715	87.56
440.936	86.56
441.158	103.56
441.379	83.56
441.6	86.56
441.822	91.56
442.043	86.56
442.264	103.56
442.486	109.56
442.707	77.56
442.928	96.56
443.149	117.56
443.371	110.56
443.592	97.56
443.813	109.56
444.034	117.56
444.255	88.56
444.476	90.56
444.698	89.56
444.919	86.56
445.14	122.56
445.361	96.56
445.582	100.56
445.803	106.56
446.024	121.56
446.245	109.56
446.466	85.56
446.687	80.56
446.908	94.56
447.129	87.56
447.35	84.56
447.571	95.56
447.792	87.56
448.013	94.56
448.234	88.56
448.455	94.56
448.675	104.56
448.896	103.56
449.117	96.56
449.338	106.56
449.559	110.56
449.779	123.56
450	106.56
450.221	90.56
450.442	100.56
450.662	117.56
450.883	98.56
451.104	104.56
451.324	98.56
451.545	81.56
451.766	87.56
451.986	71.56
452.207	88.56
452.428	85.56
452.648	106.56
452.869	85.56
453.089	108.56
453.31	106.56
453.53	85.56
453.751	94.56
453.971	97.56
454.192	101.56
454.412	94.56
454.633	78.56
454.853	80.56
455.073	80.56
455.294	80.56
455.514	94.56
455.734	81.56
455.955	76.56
456.175	83.56
456.395	82.56
456.616	89.56
456.836	94.56
457.056	85.56
457.276	78.56
457.497	93.56
457.717	80.56
457.937	74.56
458.157	83.56
458.377	92.56
458.598	90.56
458.818	128.56
459.038	146.56
459.258	96.56
459.478	82.56
459.698	81.56
459.918	90.56
460.138	88.56
460.358	86.56
460.578	76.56
460.798	105.56
461.018	103.56
461.238	80.56
461.458	85.56
461.678	85.56
461.898	91.56
462.118	91.56
462.338	78.56
462.558	92.56
462.777	76.56
462.997	91.56
463.217	83.56
463.437	76.56
463.657	92.56
463.876	94.56
464.096	83.56
464.316	91.56
464.536	88.56
464.755	78.56
464.975	90.56
465.195	142.56
465.414	125.56
465.634	98.56
465.854	92.56
466.073	90.56
466.293	84.56
466.512	76.56
466.732	104.56
466.951	85.56
467.171	89.56
467.391	95.56
467.61	87.56
467.829	93.56
468.049	97.56
468.268	80.56
468.488	81.56
468.707	87.56
468.927	78.56
469.146	80.56
469.365	73.56
469.585	79.56
469.804	96.56
470.023	100.56
470.243	91.56
470.462	90.56
470.681	111.56
470.901	93.56
471.12	81.56
471.339	85.56
471.558	86.56
471.777	71.56
471.997	85.56
472.216	90.56
472.435	77.56
472.654	86.56
472.873	79.56
473.092	83.56
473.311	90.56
473.53	85.56
473.749	96.56
473.968	93.56
474.187	103.56
474.406	96.56
474.625	95.56
474.844	92.56
475.063	76.56
475.282	96.56
475.501	93.56
475.72	94.56
475.939	90.56
476.158	76.56
476.377	87.56
476.596	82.56
476.814	86.56
477.033	81.56
477.252	86.56
477.471	90.56
477.69	78.56
477.908	97.56
478.127	81.56
478.346	69.56
478.564	87.56
478.783	92.56
479.002	86.56
479.22	96.56
479.439	96.56
479.658	84.56
479.876	95.56
480.095	86.56
480.313	78.56
480.532	87.56
480.751	81.56
480.969	89.56
481.188	108.56
481.406	105.56
481.624	104.56
481.843	99.56
482.061	83.56
482.28	82.56
482.498	86.56
482.717	83.56
482.935	79.56
483.153	93.56
483.372	82.56
483.59	82.56
483.808	92.56
484.027	89.56
484.245	85.56
484.463	83.56
484.681	99.56
484.9	78.56
485.118	96.56
485.336	90.56
485.554	85.56
485.772	97.56
485.99	112.56
486.209	93.56
486.427	107.56
486.645	106.56
486.863	102.56
487.081	98.56
487.299	95.56
487.517	95.56
487.735	86.56
487.953	100.56
488.171	102.56
488.389	77.56
488.607	98.56
488.825	84.56
489.043	95.56
489.261	99.56
489.479	81.56
489.696	95.56
489.914	79.56
490.132	93.56
490.35	87.56
490.568	96.56
490.786	91.56
491.003	75.56
491.221	91.56
491.439	79.56
491.657	75.56
491.874	92.56
492.092	76.56
492.31	94.56
492.527	92.56
492.745	87.56
492.963	87.56
493.18	86.56
493.398	110.56
493.615	98.56
493.833	105.56
494.05	93.56
494.268	90.56
494.485	91.56
494.703	88.56
494.92	89.56
495.138	78.56
495.355	91.56
495.573	83.56
495.79	75.56
496.008	86.56
496.225	72.56
496.442	85.56
496.66	94.56
496.877	65.56
497.094	77.56
497.312	85.56
497.529	85.56
497.746	81.56
497.963	90.56
498.181	89.56
498.398	90.56
498.615	97.56
498.832	97.56
499.049	89.56
499.267	90.56
499.484	66.56
499.701	99.56
499.918	94.56
500.135	91.56
500.352	85.56
500.569	97.56
500.786	90.56
501.003	95.56
501.22	83.56
501.437	92.56
501.654	99.56
501.871	90.56
502.088	85.56
502.305	83.56
502.522	91.56
502.739	81.56
502.956	79.56
503.172	98.56
503.389	74.56
503.606	109.56
503.823	93.56
504.04	109.56
504.256	85.56
504.473	83.56
504.69	78.56
504.907	91.56
505.123	99.56
505.34	93.56
505.557	81.56
505.773	95.56
505.99	89.56
506.207	86.56
506.423	85.56
506.64	101.56
506.856	87.56
507.073	90.56
507.289	80.56
507.506	81.56
507.722	118.56
507.939	89.56
508.155	84.56
508.372	95.56
508.588	104.56
508.805	93.56
509.021	89.56
509.238	80.56
509.454	90.56
509.67	95.56
509.887	93.56
510.103	126.56
510.319	170.56
510.536	619.56
510.752	1771.56
510.968	524.56
511.184	126.56
511.401	99.56
511.617	85.56
511.833	89.56
512.049	100.56
512.265	98.56
512.481	99.56
512.698	82.56
512.914	78.56
513.13	98.56
513.346	79.56
513.562	109.56
513.778	96.56
513.994	97.56
514.21	88.56
514.426	102.56
514.642	116.56
514.858	117.56
515.074	149.56
515.29	357.56
515.506	1075.56
515.721	417.56
515.937	142.56
516.153	100.56
516.369	95.56
516.585	94.56
516.801	98.56
517.016	83.56
