Data from Uncirc_1997_H10_HRD10591_00071.txt Node
Date: Wed Jan 03 11:28:44 EST 2024
User: Yrep
Spectrometer: HR+D1059
Trigger mode: 1
Integration Time (sec): 1.000000E-1
Scans to average: 1
Electric dark correction enabled: true
Nonlinearity correction enabled: false
Boxcar width: 0
XAxis mode: Wavelengths
Number of Pixels in Spectrum: 2048
>>>>>Begin Spectral Data<<<<<
223.165	-14.94
223.4	-14.94
223.635	-14.94
223.869	-23.94
224.104	-22.94
224.338	-25.94
224.573	-19.94
224.808	-1.94
225.042	-10.94
225.277	3.06
225.511	0.06
225.746	-1.94
225.98	2.06
226.215	4.06
226.449	19.06
226.683	30.06
226.918	24.06
227.152	40.06
227.387	22.06
227.621	33.06
227.856	40.06
228.09	40.06
228.324	44.06
228.559	48.06
228.793	52.06
229.027	54.06
229.262	58.06
229.496	46.06
229.73	77.06
229.964	76.06
230.199	77.06
230.433	59.06
230.667	77.06
230.901	66.06
231.136	60.06
231.37	80.06
231.604	73.06
231.838	85.06
232.072	69.06
232.306	80.06
232.541	75.06
232.775	70.06
233.009	89.06
233.243	84.06
233.477	80.06
233.711	84.06
233.945	70.06
234.179	85.06
234.413	85.06
234.647	59.06
234.881	72.06
235.115	75.06
235.349	71.06
235.583	64.06
235.817	68.06
236.051	75.06
236.285	72.06
236.519	78.06
236.753	76.06
236.987	73.06
237.221	79.06
237.455	71.06
237.689	66.06
237.922	76.06
238.156	75.06
238.39	77.06
238.624	73.06
238.858	76.06
239.091	71.06
239.325	81.06
239.559	72.06
239.793	86.06
240.027	77.06
240.26	79.06
240.494	83.06
240.728	76.06
240.961	79.06
241.195	72.06
241.429	80.06
241.662	67.06
241.896	66.06
242.13	71.06
242.363	60.06
242.597	78.06
242.83	81.06
243.064	64.06
243.298	65.06
243.531	66.06
243.765	71.06
243.998	64.06
244.232	68.06
244.465	78.06
244.699	80.06
244.932	80.06
245.166	70.06
245.399	68.06
245.633	81.06
245.866	84.06
246.099	77.06
246.333	65.06
246.566	76.06
246.8	70.06
247.033	71.06
247.266	80.06
247.5	64.06
247.733	57.06
247.966	60.06
248.2	73.06
248.433	74.06
248.666	59.06
248.899	66.06
249.133	83.06
249.366	90.06
249.599	94.06
249.832	65.06
250.066	78.06
250.299	74.06
250.532	73.06
250.765	78.06
250.998	80.06
251.231	72.06
251.465	78.06
251.698	76.06
251.931	79.06
252.164	80.06
252.397	84.06
252.63	81.06
252.863	78.06
253.096	72.06
253.329	70.06
253.562	67.06
253.795	64.06
254.028	79.06
254.261	82.06
254.494	83.06
254.727	74.06
254.96	74.06
255.193	84.06
255.426	73.06
255.659	74.06
255.892	83.06
256.124	75.06
256.357	79.06
256.59	83.06
256.823	76.06
257.056	68.06
257.289	83.06
257.521	73.06
257.754	60.06
257.987	59.06
258.22	61.06
258.452	75.06
258.685	83.06
258.918	80.06
259.151	78.06
259.383	70.06
259.616	70.06
259.849	65.06
260.081	63.06
260.314	81.06
260.547	78.06
260.779	82.06
261.012	82.06
261.244	64.06
261.477	65.06
261.71	76.06
261.942	99.06
262.175	101.06
262.407	81.06
262.64	65.06
262.872	87.06
263.105	72.06
263.337	74.06
263.57	71.06
263.802	78.06
264.035	74.06
264.267	77.06
264.499	74.06
264.732	85.06
264.964	80.06
265.197	85.06
265.429	91.06
265.661	83.06
265.894	78.06
266.126	80.06
266.358	76.06
266.591	68.06
266.823	83.06
267.055	78.06
267.287	67.06
267.52	83.06
267.752	77.06
267.984	69.06
268.216	61.06
268.448	84.06
268.681	71.06
268.913	89.06
269.145	80.06
269.377	85.06
269.609	85.06
269.841	74.06
270.073	79.06
270.306	74.06
270.538	68.06
270.77	63.06
271.002	91.06
271.234	79.06
271.466	80.06
271.698	83.06
271.93	80.06
272.162	91.06
272.394	73.06
272.626	71.06
272.858	80.06
273.09	74.06
273.322	67.06
273.553	91.06
273.785	93.06
274.017	70.06
274.249	88.06
274.481	85.06
274.713	78.06
274.945	75.06
275.176	73.06
275.408	85.06
275.64	87.06
275.872	70.06
276.104	72.06
276.335	78.06
276.567	85.06
276.799	93.06
277.031	86.06
277.262	91.06
277.494	77.06
277.726	68.06
277.957	85.06
278.189	73.06
278.421	79.06
278.652	85.06
278.884	75.06
279.115	89.06
279.347	81.06
279.579	67.06
279.81	82.06
280.042	76.06
280.273	76.06
280.505	82.06
280.736	91.06
280.968	90.06
281.199	86.06
281.431	78.06
281.662	76.06
281.894	96.06
282.125	101.06
282.356	105.06
282.588	130.06
282.819	93.06
283.051	85.06
283.282	89.06
283.513	79.06
283.745	76.06
283.976	60.06
284.207	68.06
284.439	78.06
284.67	82.06
284.901	86.06
285.132	90.06
285.364	90.06
285.595	83.06
285.826	88.06
286.057	85.06
286.288	74.06
286.52	100.06
286.751	76.06
286.982	87.06
287.213	82.06
287.444	76.06
287.675	76.06
287.906	85.06
288.138	85.06
288.369	92.06
288.6	75.06
288.831	80.06
289.062	75.06
289.293	75.06
289.524	82.06
289.755	85.06
289.986	76.06
290.217	85.06
290.448	80.06
290.679	66.06
290.91	97.06
291.141	86.06
291.371	84.06
291.602	71.06
291.833	89.06
292.064	71.06
292.295	86.06
292.526	73.06
292.757	81.06
292.987	74.06
293.218	82.06
293.449	74.06
293.68	90.06
293.91	82.06
294.141	79.06
294.372	77.06
294.603	78.06
294.833	83.06
295.064	87.06
295.295	84.06
295.525	102.06
295.756	86.06
295.987	109.06
296.217	128.06
296.448	110.06
296.679	85.06
296.909	88.06
297.14	86.06
297.37	95.06
297.601	79.06
297.831	74.06
298.062	90.06
298.292	88.06
298.523	89.06
298.753	81.06
298.984	85.06
299.214	88.06
299.445	81.06
299.675	87.06
299.905	84.06
300.136	73.06
300.366	79.06
300.597	81.06
300.827	78.06
301.057	76.06
301.288	93.06
301.518	78.06
301.748	92.06
301.979	83.06
302.209	80.06
302.439	82.06
302.669	89.06
302.9	92.06
303.13	94.06
303.36	84.06
303.59	86.06
303.82	93.06
304.051	91.06
304.281	88.06
304.511	72.06
304.741	88.06
304.971	80.06
305.201	89.06
305.431	88.06
305.661	83.06
305.891	76.06
306.121	88.06
306.352	88.06
306.582	95.06
306.812	87.06
307.042	90.06
307.272	90.06
307.502	92.06
307.731	76.06
307.961	94.06
308.191	81.06
308.421	86.06
308.651	81.06
308.881	90.06
309.111	82.06
309.341	93.06
309.571	108.06
309.8	98.06
310.03	86.06
310.26	96.06
310.49	82.06
310.72	77.06
310.949	101.06
311.179	95.06
311.409	85.06
311.639	82.06
311.868	85.06
312.098	87.06
312.328	76.06
312.557	86.06
312.787	101.06
313.017	91.06
313.246	86.06
313.476	84.06
313.706	95.06
313.935	90.06
314.165	91.06
314.394	91.06
314.624	87.06
314.853	90.06
315.083	93.06
315.312	90.06
315.542	97.06
315.771	89.06
316.001	89.06
316.23	82.06
316.46	83.06
316.689	84.06
316.919	88.06
317.148	73.06
317.377	79.06
317.607	96.06
317.836	83.06
318.065	82.06
318.295	90.06
318.524	82.06
318.753	83.06
318.983	97.06
319.212	72.06
319.441	90.06
319.67	97.06
319.9	82.06
320.129	77.06
320.358	91.06
320.587	98.06
320.816	89.06
321.046	96.06
321.275	102.06
321.504	90.06
321.733	91.06
321.962	90.06
322.191	106.06
322.42	98.06
322.649	92.06
322.878	106.06
323.108	100.06
323.337	112.06
323.566	131.06
323.795	138.06
324.024	189.06
324.253	358.06
324.482	754.06
324.71	1545.06
324.939	1996.06
325.168	728.06
325.397	227.06
325.626	128.06
325.855	119.06
326.084	108.06
326.313	123.06
326.542	141.06
326.77	191.06
326.999	411.06
327.228	868.06
327.457	1537.06
327.686	1226.06
327.914	325.06
328.143	157.06
328.372	128.06
328.6	118.06
328.829	113.06
329.058	104.06
329.287	119.06
329.515	102.06
329.744	80.06
329.972	91.06
330.201	94.06
330.43	101.06
330.658	108.06
330.887	114.06
331.115	112.06
331.344	93.06
331.572	102.06
331.801	98.06
332.03	93.06
332.258	93.06
332.486	84.06
332.715	68.06
332.943	88.06
333.172	81.06
333.4	88.06
333.629	109.06
333.857	90.06
334.085	102.06
334.314	91.06
334.542	91.06
334.771	90.06
334.999	111.06
335.227	100.06
335.455	83.06
335.684	101.06
335.912	88.06
336.14	70.06
336.369	93.06
336.597	94.06
336.825	91.06
337.053	91.06
337.281	93.06
337.51	79.06
337.738	91.06
337.966	87.06
338.194	86.06
338.422	99.06
338.65	90.06
338.878	76.06
339.106	78.06
339.334	96.06
339.562	88.06
339.79	87.06
340.018	67.06
340.246	73.06
340.474	89.06
340.702	73.06
340.93	82.06
341.158	86.06
341.386	94.06
341.614	91.06
341.842	95.06
342.07	85.06
342.298	97.06
342.526	92.06
342.754	75.06
342.981	87.06
343.209	88.06
343.437	91.06
343.665	84.06
343.893	76.06
344.12	89.06
344.348	92.06
344.576	80.06
344.804	86.06
345.031	84.06
345.259	97.06
345.487	101.06
345.714	78.06
345.942	82.06
346.17	85.06
346.397	98.06
346.625	83.06
346.853	98.06
347.08	76.06
347.308	86.06
347.535	88.06
347.763	88.06
347.99	77.06
348.218	77.06
348.445	98.06
348.673	96.06
348.9	96.06
349.128	75.06
349.355	97.06
349.583	84.06
349.81	83.06
350.037	90.06
350.265	76.06
350.492	88.06
350.72	80.06
350.947	100.06
351.174	113.06
351.402	98.06
351.629	96.06
351.856	94.06
352.083	94.06
352.311	81.06
352.538	100.06
352.765	88.06
352.992	97.06
353.22	90.06
353.447	102.06
353.674	106.06
353.901	83.06
354.128	80.06
354.355	96.06
354.583	86.06
354.81	80.06
355.037	91.06
355.264	97.06
355.491	84.06
355.718	85.06
355.945	92.06
356.172	90.06
356.399	87.06
356.626	90.06
356.853	89.06
357.08	89.06
357.307	85.06
357.534	69.06
357.761	82.06
357.988	81.06
358.215	90.06
358.441	97.06
358.668	83.06
358.895	85.06
359.122	86.06
359.349	77.06
359.576	66.06
359.802	98.06
360.029	111.06
360.256	95.06
360.483	92.06
360.709	77.06
360.936	88.06
361.163	85.06
361.39	84.06
361.616	76.06
361.843	92.06
362.07	97.06
362.296	82.06
362.523	88.06
362.749	89.06
362.976	87.06
363.203	95.06
363.429	97.06
363.656	92.06
363.882	80.06
364.109	91.06
364.335	88.06
364.562	82.06
364.788	86.06
365.015	83.06
365.241	80.06
365.468	98.06
365.694	100.06
365.92	94.06
366.147	82.06
366.373	72.06
366.599	76.06
366.826	78.06
367.052	83.06
367.278	82.06
367.505	89.06
367.731	82.06
367.957	74.06
368.184	97.06
368.41	83.06
368.636	93.06
368.862	105.06
369.089	100.06
369.315	73.06
369.541	90.06
369.767	86.06
369.993	87.06
370.219	81.06
370.445	78.06
370.672	61.06
370.898	78.06
371.124	68.06
371.35	75.06
371.576	89.06
371.802	85.06
372.028	73.06
372.254	86.06
372.48	71.06
372.706	77.06
372.932	80.06
373.158	80.06
373.384	95.06
373.61	84.06
373.835	84.06
374.061	89.06
374.287	90.06
374.513	84.06
374.739	82.06
374.965	86.06
375.191	81.06
375.416	92.06
375.642	80.06
375.868	82.06
376.094	70.06
376.319	97.06
376.545	73.06
376.771	66.06
376.997	75.06
377.222	83.06
377.448	81.06
377.674	79.06
377.899	88.06
378.125	80.06
378.35	77.06
378.576	76.06
378.802	82.06
379.027	99.06
379.253	93.06
379.478	76.06
379.704	93.06
379.929	89.06
380.155	84.06
380.38	88.06
380.606	88.06
380.831	98.06
381.057	89.06
381.282	83.06
381.507	93.06
381.733	72.06
381.958	86.06
382.184	85.06
382.409	107.06
382.634	101.06
382.86	98.06
383.085	104.06
383.31	95.06
383.535	89.06
383.761	85.06
383.986	88.06
384.211	91.06
384.436	91.06
384.662	84.06
384.887	101.06
385.112	84.06
385.337	83.06
385.562	90.06
385.787	93.06
386.013	94.06
386.238	102.06
386.463	82.06
386.688	111.06
386.913	95.06
387.138	102.06
387.363	89.06
387.588	97.06
387.813	94.06
388.038	90.06
388.263	97.06
388.488	90.06
388.713	93.06
388.938	93.06
389.163	103.06
389.387	91.06
389.612	90.06
389.837	92.06
390.062	72.06
390.287	77.06
390.512	92.06
390.736	73.06
390.961	76.06
391.186	80.06
391.411	98.06
391.636	93.06
391.86	58.06
392.085	84.06
392.31	81.06
392.534	77.06
392.759	80.06
392.984	86.06
393.208	67.06
393.433	88.06
393.658	92.06
393.882	82.06
394.107	93.06
394.331	94.06
394.556	79.06
394.78	80.06
395.005	85.06
395.229	72.06
395.454	70.06
395.678	80.06
395.903	90.06
396.127	101.06
396.352	87.06
396.576	88.06
396.801	68.06
397.025	90.06
397.249	91.06
397.474	68.06
397.698	74.06
397.922	84.06
398.147	85.06
398.371	90.06
398.595	92.06
398.82	90.06
399.044	83.06
399.268	71.06
399.492	72.06
399.717	78.06
399.941	90.06
400.165	84.06
400.389	91.06
400.613	88.06
400.837	76.06
401.062	80.06
401.286	87.06
401.51	71.06
401.734	94.06
401.958	87.06
402.182	116.06
402.406	125.06
402.63	101.06
402.854	99.06
403.078	77.06
403.302	74.06
403.526	83.06
403.75	69.06
403.974	89.06
404.198	81.06
404.422	78.06
404.645	78.06
404.869	75.06
405.093	84.06
405.317	81.06
405.541	87.06
405.765	86.06
405.988	116.06
406.212	146.06
406.436	202.06
406.66	146.06
406.883	96.06
407.107	84.06
407.331	88.06
407.555	93.06
407.778	98.06
408.002	99.06
408.226	79.06
408.449	91.06
408.673	76.06
408.896	89.06
409.12	71.06
409.344	83.06
409.567	70.06
409.791	74.06
410.014	93.06
410.238	88.06
410.461	91.06
410.685	92.06
410.908	87.06
411.132	94.06
411.355	96.06
411.578	101.06
411.802	80.06
412.025	95.06
412.249	98.06
412.472	77.06
412.695	84.06
412.919	90.06
413.142	77.06
413.365	82.06
413.589	79.06
413.812	96.06
414.035	107.06
414.258	79.06
414.482	82.06
414.705	76.06
414.928	92.06
415.151	80.06
415.374	84.06
415.597	81.06
415.821	74.06
416.044	77.06
416.267	81.06
416.49	74.06
416.713	76.06
416.936	85.06
417.159	69.06
417.382	80.06
417.605	88.06
417.828	88.06
418.051	85.06
418.274	91.06
418.497	69.06
418.72	68.06
418.943	86.06
419.166	71.06
419.389	86.06
419.611	78.06
419.834	83.06
420.057	97.06
420.28	87.06
420.503	87.06
420.726	81.06
420.948	93.06
421.171	84.06
421.394	99.06
421.617	94.06
421.839	84.06
422.062	78.06
422.285	78.06
422.507	116.06
422.73	89.06
422.953	95.06
423.175	82.06
423.398	65.06
423.621	102.06
423.843	100.06
424.066	71.06
424.288	82.06
424.511	83.06
424.733	89.06
424.956	99.06
425.178	93.06
425.401	97.06
425.623	106.06
425.846	85.06
426.068	78.06
426.291	71.06
426.513	84.06
426.735	62.06
426.958	73.06
427.18	98.06
427.402	122.06
427.625	144.06
427.847	124.06
428.069	89.06
428.292	62.06
428.514	77.06
428.736	77.06
428.958	85.06
429.181	78.06
429.403	81.06
429.625	75.06
429.847	92.06
430.069	94.06
430.292	84.06
430.514	84.06
430.736	77.06
430.958	82.06
431.18	78.06
431.402	90.06
431.624	74.06
431.846	91.06
432.068	77.06
432.29	73.06
432.512	69.06
432.734	92.06
432.956	87.06
433.178	92.06
433.4	88.06
433.622	83.06
433.844	85.06
434.066	87.06
434.287	85.06
434.509	84.06
434.731	90.06
434.953	78.06
435.175	68.06
435.397	97.06
435.618	88.06
435.84	99.06
436.062	93.06
436.284	96.06
436.505	101.06
436.727	104.06
436.949	101.06
437.17	82.06
437.392	83.06
437.614	86.06
437.835	98.06
438.057	112.06
438.278	90.06
438.5	101.06
438.721	127.06
438.943	96.06
439.165	78.06
439.386	83.06
439.608	74.06
439.829	93.06
440.05	109.06
440.272	131.06
440.493	88.06
440.715	84.06
440.936	85.06
441.158	77.06
441.379	88.06
441.6	96.06
441.822	82.06
442.043	98.06
442.264	94.06
442.486	82.06
442.707	99.06
442.928	92.06
443.149	114.06
443.371	121.06
443.592	103.06
443.813	102.06
444.034	97.06
444.255	84.06
444.476	75.06
444.698	91.06
444.919	94.06
445.14	119.06
445.361	118.06
445.582	107.06
445.803	114.06
446.024	125.06
446.245	120.06
446.466	102.06
446.687	87.06
446.908	81.06
447.129	79.06
447.35	92.06
447.571	93.06
447.792	89.06
448.013	90.06
448.234	110.06
448.455	96.06
448.675	93.06
448.896	102.06
449.117	102.06
449.338	97.06
449.559	123.06
449.779	114.06
450	93.06
450.221	76.06
450.442	83.06
450.662	73.06
450.883	92.06
451.104	98.06
451.324	86.06
451.545	93.06
451.766	85.06
451.986	85.06
452.207	85.06
452.428	82.06
452.648	89.06
452.869	94.06
453.089	101.06
453.31	94.06
453.53	76.06
453.751	83.06
453.971	96.06
454.192	92.06
454.412	101.06
454.633	96.06
454.853	73.06
455.073	81.06
455.294	95.06
455.514	82.06
455.734	82.06
455.955	100.06
456.175	74.06
456.395	76.06
456.616	75.06
456.836	67.06
457.056	85.06
457.276	68.06
457.497	80.06
457.717	55.06
457.937	77.06
458.157	60.06
458.377	100.06
458.598	99.06
458.818	126.06
459.038	147.06
459.258	113.06
459.478	96.06
459.698	82.06
459.918	84.06
460.138	96.06
460.358	93.06
460.578	93.06
460.798	80.06
461.018	84.06
461.238	83.06
461.458	79.06
461.678	83.06
461.898	72.06
462.118	89.06
462.338	74.06
462.558	75.06
462.777	79.06
462.997	77.06
463.217	90.06
463.437	91.06
463.657	76.06
463.876	73.06
464.096	76.06
464.316	86.06
464.536	77.06
464.755	89.06
464.975	105.06
465.195	121.06
465.414	130.06
465.634	87.06
465.854	76.06
466.073	81.06
466.293	75.06
466.512	57.06
466.732	70.06
466.951	77.06
467.171	82.06
467.391	80.06
467.61	91.06
467.829	85.06
468.049	94.06
468.268	92.06
468.488	69.06
468.707	86.06
468.927	81.06
469.146	81.06
469.365	75.06
469.585	83.06
469.804	84.06
470.023	99.06
470.243	84.06
470.462	90.06
470.681	97.06
470.901	81.06
471.12	73.06
471.339	75.06
471.558	83.06
471.777	85.06
471.997	94.06
472.216	96.06
472.435	105.06
472.654	83.06
472.873	102.06
473.092	80.06
473.311	74.06
473.53	88.06
473.749	93.06
473.968	101.06
474.187	90.06
474.406	80.06
474.625	70.06
474.844	77.06
475.063	76.06
475.282	77.06
475.501	84.06
475.72	85.06
475.939	84.06
476.158	85.06
476.377	74.06
476.596	95.06
476.814	92.06
477.033	90.06
477.252	75.06
477.471	89.06
477.69	73.06
477.908	98.06
478.127	88.06
478.346	78.06
478.564	88.06
478.783	103.06
479.002	93.06
479.22	73.06
479.439	94.06
479.658	93.06
479.876	93.06
480.095	77.06
480.313	92.06
480.532	93.06
480.751	83.06
480.969	85.06
481.188	112.06
481.406	106.06
481.624	99.06
481.843	83.06
482.061	90.06
482.28	81.06
482.498	74.06
482.717	81.06
482.935	86.06
483.153	58.06
483.372	76.06
483.59	79.06
483.808	91.06
484.027	78.06
484.245	82.06
484.463	85.06
484.681	97.06
484.9	81.06
485.118	94.06
485.336	84.06
485.554	102.06
485.772	87.06
485.99	98.06
486.209	92.06
486.427	96.06
486.645	99.06
486.863	108.06
487.081	78.06
487.299	99.06
487.517	73.06
487.735	88.06
487.953	76.06
488.171	87.06
488.389	88.06
488.607	82.06
488.825	79.06
489.043	83.06
489.261	75.06
489.479	95.06
489.696	81.06
489.914	84.06
490.132	93.06
490.35	72.06
490.568	71.06
490.786	85.06
491.003	85.06
491.221	90.06
491.439	85.06
491.657	89.06
491.874	92.06
492.092	79.06
492.31	109.06
492.527	68.06
492.745	84.06
492.963	90.06
493.18	78.06
493.398	85.06
493.615	103.06
493.833	90.06
494.05	72.06
494.268	72.06
494.485	65.06
494.703	93.06
494.92	84.06
495.138	86.06
495.355	89.06
495.573	77.06
495.79	81.06
496.008	97.06
496.225	84.06
496.442	78.06
496.66	89.06
496.877	92.06
497.094	86.06
497.312	73.06
497.529	81.06
497.746	89.06
497.963	79.06
498.181	81.06
498.398	89.06
498.615	98.06
498.832	93.06
499.049	83.06
499.267	89.06
499.484	98.06
499.701	94.06
499.918	90.06
500.135	80.06
500.352	80.06
500.569	105.06
500.786	88.06
501.003	89.06
501.22	84.06
501.437	104.06
501.654	83.06
501.871	90.06
502.088	77.06
502.305	82.06
502.522	89.06
502.739	69.06
502.956	84.06
503.172	81.06
503.389	79.06
503.606	97.06
503.823	88.06
504.04	88.06
504.256	81.06
504.473	84.06
504.69	83.06
504.907	97.06
505.123	83.06
505.34	84.06
505.557	93.06
505.773	103.06
505.99	96.06
506.207	81.06
506.423	88.06
506.64	93.06
506.856	92.06
507.073	80.06
507.289	89.06
507.506	88.06
507.722	125.06
507.939	109.06
508.155	83.06
508.372	76.06
508.588	79.06
508.805	98.06
509.021	95.06
509.238	102.06
509.454	84.06
509.67	82.06
509.887	98.06
510.103	117.06
510.319	192.06
510.536	725.06
510.752	2123.06
510.968	594.06
511.184	143.06
511.401	94.06
511.617	96.06
511.833	91.06
512.049	75.06
512.265	103.06
512.481	101.06
512.698	107.06
512.914	78.06
513.13	91.06
513.346	70.06
513.562	77.06
513.778	94.06
513.994	94.06
514.21	107.06
514.426	103.06
514.642	133.06
514.858	122.06
515.074	151.06
515.29	402.06
515.506	1328.06
515.721	470.06
515.937	142.06
516.153	100.06
516.369	86.06
516.585	84.06
516.801	87.06
517.016	80.06
517.232	78.06
517.448	88.06
517.664	79.06
517.879	88.06
