Data from Circ_2002_H10_HRD10591_00083.txt Node
Date: Wed Jan 03 10:41:14 EST 2024
User: Yrep
Spectrometer: HR+D1059
Trigger mode: 1
Integration Time (sec): 1.000000E-1
Scans to average: 1
Electric dark correction enabled: true
Nonlinearity correction enabled: false
Boxcar width: 0
XAxis mode: Wavelengths
Number of Pixels in Spectrum: 2048
>>>>>Begin Spectral Data<<<<<
223.165	-22.75
223.4	-22.75
223.635	-22.75
223.869	-17.75
224.104	-18.75
224.338	-14.75
224.573	-10.75
224.808	-13.75
225.042	-6.75
225.277	7.25
225.511	6.25
225.746	0.25
225.98	-4.75
226.215	4.25
226.449	28.25
226.683	14.25
226.918	22.25
227.152	27.25
227.387	25.25
227.621	41.25
227.856	30.25
228.09	32.25
228.324	67.25
228.559	58.25
228.793	55.25
229.027	53.25
229.262	70.25
229.496	62.25
229.73	60.25
229.964	77.25
230.199	73.25
230.433	85.25
230.667	71.25
230.901	83.25
231.136	68.25
231.37	79.25
231.604	88.25
231.838	83.25
232.072	70.25
232.306	74.25
232.541	71.25
232.775	76.25
233.009	80.25
233.243	71.25
233.477	91.25
233.711	86.25
233.945	66.25
234.179	88.25
234.413	71.25
234.647	83.25
234.881	90.25
235.115	82.25
235.349	71.25
235.583	79.25
235.817	76.25
236.051	82.25
236.285	68.25
236.519	84.25
236.753	71.25
236.987	66.25
237.221	72.25
237.455	81.25
237.689	77.25
237.922	66.25
238.156	74.25
238.39	83.25
238.624	65.25
238.858	75.25
239.091	85.25
239.325	78.25
239.559	72.25
239.793	90.25
240.027	59.25
240.26	70.25
240.494	93.25
240.728	78.25
240.961	83.25
241.195	80.25
241.429	68.25
241.662	77.25
241.896	65.25
242.13	71.25
242.363	82.25
242.597	62.25
242.83	83.25
243.064	66.25
243.298	78.25
243.531	69.25
243.765	82.25
243.998	81.25
244.232	83.25
244.465	80.25
244.699	84.25
244.932	74.25
245.166	75.25
245.399	67.25
245.633	74.25
245.866	82.25
246.099	64.25
246.333	75.25
246.566	72.25
246.8	75.25
247.033	90.25
247.266	73.25
247.5	78.25
247.733	80.25
247.966	86.25
248.2	94.25
248.433	70.25
248.666	71.25
248.899	75.25
249.133	79.25
249.366	92.25
249.599	101.25
249.832	94.25
250.066	84.25
250.299	70.25
250.532	89.25
250.765	75.25
250.998	87.25
251.231	87.25
251.465	82.25
251.698	78.25
251.931	71.25
252.164	78.25
252.397	76.25
252.63	78.25
252.863	68.25
253.096	80.25
253.329	86.25
253.562	69.25
253.795	74.25
254.028	80.25
254.261	70.25
254.494	87.25
254.727	80.25
254.96	92.25
255.193	90.25
255.426	74.25
255.659	82.25
255.892	76.25
256.124	78.25
256.357	72.25
256.59	74.25
256.823	107.25
257.056	66.25
257.289	73.25
257.521	74.25
257.754	79.25
257.987	90.25
258.22	85.25
258.452	76.25
258.685	72.25
258.918	76.25
259.151	80.25
259.383	88.25
259.616	87.25
259.849	80.25
260.081	77.25
260.314	76.25
260.547	79.25
260.779	86.25
261.012	61.25
261.244	86.25
261.477	80.25
261.71	80.25
261.942	112.25
262.175	107.25
262.407	74.25
262.64	69.25
262.872	88.25
263.105	96.25
263.337	86.25
263.57	94.25
263.802	85.25
264.035	85.25
264.267	88.25
264.499	80.25
264.732	87.25
264.964	98.25
265.197	80.25
265.429	86.25
265.661	86.25
265.894	94.25
266.126	90.25
266.358	81.25
266.591	94.25
266.823	86.25
267.055	75.25
267.287	75.25
267.52	63.25
267.752	84.25
267.984	90.25
268.216	72.25
268.448	98.25
268.681	83.25
268.913	90.25
269.145	87.25
269.377	88.25
269.609	82.25
269.841	82.25
270.073	81.25
270.306	81.25
270.538	79.25
270.77	91.25
271.002	87.25
271.234	87.25
271.466	104.25
271.698	79.25
271.93	82.25
272.162	73.25
272.394	97.25
272.626	67.25
272.858	97.25
273.09	91.25
273.322	90.25
273.553	88.25
273.785	87.25
274.017	89.25
274.249	86.25
274.481	79.25
274.713	86.25
274.945	88.25
275.176	82.25
275.408	86.25
275.64	70.25
275.872	75.25
276.104	79.25
276.335	70.25
276.567	97.25
276.799	104.25
277.031	98.25
277.262	101.25
277.494	91.25
277.726	88.25
277.957	90.25
278.189	90.25
278.421	88.25
278.652	76.25
278.884	91.25
279.115	87.25
279.347	74.25
279.579	83.25
279.81	84.25
280.042	74.25
280.273	84.25
280.505	75.25
280.736	87.25
280.968	82.25
281.199	87.25
281.431	82.25
281.662	83.25
281.894	95.25
282.125	89.25
282.356	123.25
282.588	100.25
282.819	111.25
283.051	75.25
283.282	90.25
283.513	83.25
283.745	94.25
283.976	106.25
284.207	96.25
284.439	86.25
284.67	84.25
284.901	79.25
285.132	92.25
285.364	80.25
285.595	92.25
285.826	79.25
286.057	83.25
286.288	73.25
286.52	89.25
286.751	80.25
286.982	91.25
287.213	80.25
287.444	91.25
287.675	102.25
287.906	81.25
288.138	84.25
288.369	91.25
288.6	96.25
288.831	84.25
289.062	71.25
289.293	90.25
289.524	101.25
289.755	83.25
289.986	83.25
290.217	79.25
290.448	91.25
290.679	89.25
290.91	84.25
291.141	78.25
291.371	72.25
291.602	79.25
291.833	91.25
292.064	73.25
292.295	74.25
292.526	97.25
292.757	91.25
292.987	81.25
293.218	85.25
293.449	83.25
293.68	83.25
293.91	92.25
294.141	86.25
294.372	87.25
294.603	88.25
294.833	87.25
295.064	82.25
295.295	90.25
295.525	87.25
295.756	101.25
295.987	88.25
296.217	118.25
296.448	101.25
296.679	94.25
296.909	90.25
297.14	91.25
297.37	84.25
297.601	78.25
297.831	91.25
298.062	91.25
298.292	92.25
298.523	86.25
298.753	73.25
298.984	87.25
299.214	111.25
299.445	92.25
299.675	95.25
299.905	89.25
300.136	88.25
300.366	87.25
300.597	87.25
300.827	116.25
301.057	92.25
301.288	95.25
301.518	94.25
301.748	92.25
301.979	98.25
302.209	88.25
302.439	90.25
302.669	99.25
302.9	102.25
303.13	99.25
303.36	102.25
303.59	95.25
303.82	102.25
304.051	77.25
304.281	88.25
304.511	90.25
304.741	84.25
304.971	92.25
305.201	92.25
305.431	92.25
305.661	90.25
305.891	91.25
306.121	89.25
306.352	104.25
306.582	89.25
306.812	100.25
307.042	110.25
307.272	103.25
307.502	111.25
307.731	107.25
307.961	99.25
308.191	82.25
308.421	89.25
308.651	101.25
308.881	80.25
309.111	87.25
309.341	96.25
309.571	97.25
309.8	95.25
310.03	108.25
310.26	91.25
310.49	75.25
310.72	100.25
310.949	95.25
311.179	114.25
311.409	94.25
311.639	100.25
311.868	97.25
312.098	93.25
312.328	84.25
312.557	90.25
312.787	101.25
313.017	90.25
313.246	98.25
313.476	99.25
313.706	84.25
313.935	77.25
314.165	100.25
314.394	84.25
314.624	91.25
314.853	101.25
315.083	103.25
315.312	93.25
315.542	95.25
315.771	83.25
316.001	84.25
316.23	102.25
316.46	91.25
316.689	86.25
316.919	88.25
317.148	90.25
317.377	100.25
317.607	91.25
317.836	94.25
318.065	82.25
318.295	97.25
318.524	80.25
318.753	80.25
318.983	85.25
319.212	103.25
319.441	92.25
319.67	105.25
319.9	95.25
320.129	77.25
320.358	91.25
320.587	102.25
320.816	99.25
321.046	100.25
321.275	107.25
321.504	99.25
321.733	99.25
321.962	91.25
322.191	98.25
322.42	104.25
322.649	112.25
322.878	117.25
323.108	107.25
323.337	131.25
323.566	118.25
323.795	130.25
324.024	196.25
324.253	372.25
324.482	809.25
324.71	1646.25
324.939	2114.25
325.168	768.25
325.397	238.25
325.626	139.25
325.855	123.25
326.084	129.25
326.313	124.25
326.542	144.25
326.77	222.25
326.999	454.25
327.228	925.25
327.457	1690.25
327.686	1290.25
327.914	359.25
328.143	194.25
328.372	159.25
328.6	127.25
328.829	103.25
329.058	124.25
329.287	112.25
329.515	112.25
329.744	99.25
329.972	108.25
330.201	134.25
330.43	156.25
330.658	128.25
330.887	129.25
331.115	126.25
331.344	103.25
331.572	81.25
331.801	111.25
332.03	104.25
332.258	99.25
332.486	82.25
332.715	95.25
332.943	79.25
333.172	89.25
333.4	87.25
333.629	102.25
333.857	122.25
334.085	119.25
334.314	120.25
334.542	162.25
334.771	163.25
334.999	98.25
335.227	94.25
335.455	102.25
335.684	96.25
335.912	95.25
336.14	102.25
336.369	92.25
336.597	104.25
336.825	93.25
337.053	91.25
337.281	91.25
337.51	99.25
337.738	102.25
337.966	89.25
338.194	86.25
338.422	83.25
338.65	77.25
338.878	76.25
339.106	78.25
339.334	82.25
339.562	89.25
339.79	86.25
340.018	83.25
340.246	96.25
340.474	88.25
340.702	91.25
340.93	84.25
341.158	98.25
341.386	95.25
341.614	86.25
341.842	78.25
342.07	90.25
342.298	91.25
342.526	74.25
342.754	96.25
342.981	94.25
343.209	75.25
343.437	97.25
343.665	86.25
343.893	93.25
344.12	91.25
344.348	83.25
344.576	91.25
344.804	89.25
345.031	100.25
345.259	94.25
345.487	88.25
345.714	88.25
345.942	92.25
346.17	95.25
346.397	94.25
346.625	94.25
346.853	89.25
347.08	94.25
347.308	80.25
347.535	96.25
347.763	87.25
347.99	90.25
348.218	98.25
348.445	104.25
348.673	96.25
348.9	74.25
349.128	96.25
349.355	98.25
349.583	86.25
349.81	90.25
350.037	100.25
350.265	108.25
350.492	107.25
350.72	105.25
350.947	87.25
351.174	99.25
351.402	110.25
351.629	102.25
351.856	108.25
352.083	103.25
352.311	91.25
352.538	105.25
352.765	117.25
352.992	107.25
353.22	108.25
353.447	93.25
353.674	82.25
353.901	97.25
354.128	100.25
354.355	88.25
354.583	96.25
354.81	93.25
355.037	90.25
355.264	103.25
355.491	87.25
355.718	86.25
355.945	103.25
356.172	97.25
356.399	100.25
356.626	89.25
356.853	87.25
357.08	101.25
357.307	90.25
357.534	91.25
357.761	76.25
357.988	91.25
358.215	97.25
358.441	99.25
358.668	112.25
358.895	95.25
359.122	87.25
359.349	98.25
359.576	82.25
359.802	99.25
360.029	96.25
360.256	107.25
360.483	90.25
360.709	85.25
360.936	106.25
361.163	87.25
361.39	100.25
361.616	89.25
361.843	88.25
362.07	82.25
362.296	87.25
362.523	96.25
362.749	98.25
362.976	94.25
363.203	97.25
363.429	99.25
363.656	90.25
363.882	72.25
364.109	88.25
364.335	98.25
364.562	83.25
364.788	93.25
365.015	80.25
365.241	89.25
365.468	104.25
365.694	104.25
365.92	98.25
366.147	76.25
366.373	90.25
366.599	80.25
366.826	96.25
367.052	103.25
367.278	83.25
367.505	94.25
367.731	87.25
367.957	86.25
368.184	101.25
368.41	90.25
368.636	102.25
368.862	119.25
369.089	101.25
369.315	94.25
369.541	87.25
369.767	87.25
369.993	84.25
370.219	86.25
370.445	80.25
370.672	79.25
370.898	90.25
371.124	81.25
371.35	78.25
371.576	79.25
371.802	87.25
372.028	88.25
372.254	95.25
372.48	90.25
372.706	86.25
372.932	99.25
373.158	110.25
373.384	84.25
373.61	87.25
373.835	81.25
374.061	94.25
374.287	85.25
374.513	99.25
374.739	89.25
374.965	88.25
375.191	96.25
375.416	98.25
375.642	86.25
375.868	87.25
376.094	101.25
376.319	99.25
376.545	95.25
376.771	82.25
376.997	98.25
377.222	96.25
377.448	100.25
377.674	87.25
377.899	94.25
378.125	96.25
378.35	89.25
378.576	82.25
378.802	96.25
379.027	80.25
379.253	88.25
379.478	100.25
379.704	92.25
379.929	96.25
380.155	107.25
380.38	93.25
380.606	87.25
380.831	80.25
381.057	99.25
381.282	80.25
381.507	89.25
381.733	92.25
381.958	107.25
382.184	100.25
382.409	98.25
382.634	92.25
382.86	96.25
383.085	93.25
383.31	97.25
383.535	106.25
383.761	88.25
383.986	105.25
384.211	104.25
384.436	99.25
384.662	92.25
384.887	94.25
385.112	92.25
385.337	99.25
385.562	99.25
385.787	105.25
386.013	117.25
386.238	105.25
386.463	101.25
386.688	97.25
386.913	98.25
387.138	101.25
387.363	100.25
387.588	100.25
387.813	111.25
388.038	114.25
388.263	97.25
388.488	104.25
388.713	103.25
388.938	105.25
389.163	113.25
389.387	98.25
389.612	92.25
389.837	95.25
390.062	105.25
390.287	92.25
390.512	105.25
390.736	99.25
390.961	77.25
391.186	101.25
391.411	83.25
391.636	94.25
391.86	65.25
392.085	75.25
392.31	87.25
392.534	84.25
392.759	84.25
392.984	78.25
393.208	93.25
393.433	92.25
393.658	82.25
393.882	89.25
394.107	105.25
394.331	100.25
394.556	90.25
394.78	89.25
395.005	79.25
395.229	102.25
395.454	87.25
395.678	82.25
395.903	87.25
396.127	86.25
396.352	85.25
396.576	85.25
396.801	81.25
397.025	69.25
397.249	84.25
397.474	82.25
397.698	86.25
397.922	76.25
398.147	107.25
398.371	98.25
398.595	86.25
398.82	82.25
399.044	89.25
399.268	99.25
399.492	74.25
399.717	87.25
399.941	91.25
400.165	84.25
400.389	88.25
400.613	84.25
400.837	92.25
401.062	99.25
401.286	89.25
401.51	92.25
401.734	79.25
401.958	84.25
402.182	103.25
402.406	153.25
402.63	107.25
402.854	81.25
403.078	90.25
403.302	96.25
403.526	90.25
403.75	90.25
403.974	80.25
404.198	84.25
404.422	74.25
404.645	95.25
404.869	87.25
405.093	102.25
405.317	106.25
405.541	85.25
405.765	90.25
405.988	120.25
406.212	159.25
406.436	202.25
406.66	140.25
406.883	99.25
407.107	87.25
407.331	97.25
407.555	92.25
407.778	101.25
408.002	91.25
408.226	87.25
408.449	76.25
408.673	87.25
408.896	81.25
409.12	89.25
409.344	93.25
409.567	93.25
409.791	87.25
410.014	88.25
410.238	86.25
410.461	87.25
410.685	99.25
410.908	95.25
411.132	112.25
411.355	90.25
411.578	82.25
411.802	102.25
412.025	85.25
412.249	106.25
412.472	99.25
412.695	101.25
412.919	95.25
413.142	98.25
413.365	98.25
413.589	95.25
413.812	89.25
414.035	96.25
414.258	70.25
414.482	98.25
414.705	102.25
414.928	77.25
415.151	91.25
415.374	101.25
415.597	75.25
415.821	78.25
416.044	83.25
416.267	85.25
416.49	97.25
416.713	90.25
416.936	88.25
417.159	89.25
417.382	92.25
417.605	85.25
417.828	80.25
418.051	94.25
418.274	91.25
418.497	94.25
418.72	83.25
418.943	85.25
419.166	89.25
419.389	94.25
419.611	99.25
419.834	90.25
420.057	90.25
420.28	96.25
420.503	91.25
420.726	86.25
420.948	96.25
421.171	87.25
421.394	96.25
421.617	105.25
421.839	92.25
422.062	84.25
422.285	79.25
422.507	78.25
422.73	104.25
422.953	95.25
423.175	91.25
423.398	85.25
423.621	92.25
423.843	93.25
424.066	84.25
424.288	89.25
424.511	71.25
424.733	105.25
424.956	112.25
425.178	71.25
425.401	97.25
425.623	98.25
425.846	75.25
426.068	92.25
426.291	88.25
426.513	96.25
426.735	91.25
426.958	96.25
427.18	97.25
427.402	137.25
427.625	146.25
427.847	112.25
428.069	114.25
428.292	83.25
428.514	96.25
428.736	82.25
428.958	86.25
429.181	90.25
429.403	97.25
429.625	82.25
429.847	107.25
430.069	90.25
430.292	82.25
430.514	88.25
430.736	96.25
430.958	89.25
431.18	75.25
431.402	85.25
431.624	90.25
431.846	86.25
432.068	94.25
432.29	83.25
432.512	99.25
432.734	76.25
432.956	97.25
433.178	101.25
433.4	95.25
433.622	105.25
433.844	87.25
434.066	92.25
434.287	90.25
434.509	91.25
434.731	90.25
434.953	89.25
435.175	79.25
435.397	86.25
435.618	95.25
435.84	100.25
436.062	119.25
436.284	105.25
436.505	100.25
436.727	106.25
436.949	102.25
437.17	83.25
437.392	86.25
437.614	96.25
437.835	92.25
438.057	130.25
438.278	116.25
438.5	102.25
438.721	127.25
438.943	103.25
439.165	89.25
439.386	76.25
439.608	87.25
439.829	95.25
440.05	108.25
440.272	133.25
440.493	103.25
440.715	88.25
440.936	94.25
441.158	96.25
441.379	81.25
441.6	86.25
441.822	87.25
442.043	101.25
442.264	110.25
442.486	102.25
442.707	90.25
442.928	92.25
443.149	121.25
443.371	99.25
443.592	90.25
443.813	96.25
444.034	98.25
444.255	86.25
444.476	81.25
444.698	88.25
444.919	91.25
445.14	130.25
445.361	132.25
445.582	115.25
445.803	146.25
446.024	151.25
446.245	138.25
446.466	109.25
446.687	84.25
446.908	88.25
447.129	89.25
447.35	85.25
447.571	90.25
447.792	95.25
448.013	92.25
448.234	100.25
448.455	88.25
448.675	105.25
448.896	107.25
449.117	91.25
449.338	109.25
449.559	121.25
449.779	126.25
450	97.25
450.221	91.25
450.442	83.25
450.662	90.25
450.883	95.25
451.104	104.25
451.324	93.25
451.545	86.25
451.766	86.25
451.986	91.25
452.207	96.25
452.428	83.25
452.648	98.25
452.869	104.25
453.089	99.25
453.31	111.25
453.53	97.25
453.751	83.25
453.971	91.25
454.192	102.25
454.412	83.25
454.633	80.25
454.853	94.25
455.073	79.25
455.294	95.25
455.514	98.25
455.734	93.25
455.955	86.25
456.175	89.25
456.395	85.25
456.616	88.25
456.836	94.25
457.056	87.25
457.276	79.25
457.497	87.25
457.717	89.25
457.937	93.25
458.157	94.25
458.377	87.25
458.598	107.25
458.818	149.25
459.038	146.25
459.258	110.25
459.478	85.25
459.698	85.25
459.918	88.25
460.138	101.25
460.358	77.25
460.578	95.25
460.798	80.25
461.018	82.25
461.238	103.25
461.458	103.25
461.678	90.25
461.898	92.25
462.118	93.25
462.338	92.25
462.558	85.25
462.777	91.25
462.997	84.25
463.217	91.25
463.437	77.25
463.657	70.25
463.876	89.25
464.096	96.25
464.316	88.25
464.536	100.25
464.755	95.25
464.975	100.25
465.195	146.25
465.414	153.25
465.634	90.25
465.854	84.25
466.073	80.25
466.293	84.25
466.512	87.25
466.732	81.25
466.951	87.25
467.171	99.25
467.391	96.25
467.61	99.25
467.829	104.25
468.049	104.25
468.268	128.25
468.488	87.25
468.707	82.25
468.927	84.25
469.146	82.25
469.365	86.25
469.585	97.25
469.804	94.25
470.023	99.25
470.243	101.25
470.462	100.25
470.681	94.25
470.901	74.25
471.12	91.25
471.339	96.25
471.558	91.25
471.777	91.25
471.997	113.25
472.216	127.25
472.435	204.25
472.654	101.25
472.873	88.25
473.092	88.25
473.311	72.25
473.53	96.25
473.749	68.25
473.968	97.25
474.187	106.25
474.406	94.25
474.625	74.25
474.844	112.25
475.063	87.25
475.282	94.25
475.501	87.25
475.72	76.25
475.939	80.25
476.158	83.25
476.377	89.25
476.596	95.25
476.814	107.25
477.033	88.25
477.252	80.25
477.471	88.25
477.69	95.25
477.908	89.25
478.127	95.25
478.346	90.25
478.564	96.25
478.783	93.25
479.002	85.25
479.22	102.25
479.439	102.25
479.658	113.25
479.876	94.25
480.095	86.25
480.313	100.25
480.532	94.25
480.751	98.25
480.969	129.25
481.188	267.25
481.406	200.25
481.624	89.25
481.843	84.25
482.061	90.25
482.28	101.25
482.498	94.25
482.717	94.25
482.935	117.25
483.153	88.25
483.372	80.25
483.59	85.25
483.808	80.25
484.027	85.25
484.245	89.25
484.463	113.25
484.681	93.25
484.9	87.25
485.118	92.25
485.336	84.25
485.554	90.25
485.772	115.25
485.99	98.25
486.209	115.25
486.427	108.25
486.645	99.25
486.863	109.25
487.081	102.25
487.299	89.25
487.517	98.25
487.735	102.25
487.953	98.25
488.171	78.25
488.389	100.25
488.607	96.25
488.825	86.25
489.043	96.25
489.261	82.25
489.479	88.25
489.696	89.25
489.914	82.25
490.132	84.25
490.35	99.25
490.568	79.25
490.786	81.25
491.003	83.25
491.221	97.25
491.439	92.25
491.657	86.25
491.874	97.25
492.092	92.25
492.31	90.25
492.527	89.25
492.745	87.25
492.963	100.25
493.18	77.25
493.398	76.25
493.615	80.25
493.833	96.25
494.05	85.25
494.268	84.25
494.485	88.25
494.703	95.25
494.92	89.25
495.138	77.25
495.355	99.25
495.573	72.25
495.79	78.25
496.008	99.25
496.225	87.25
496.442	98.25
496.66	90.25
496.877	81.25
497.094	88.25
497.312	95.25
497.529	91.25
497.746	87.25
497.963	89.25
498.181	92.25
498.398	82.25
498.615	105.25
498.832	96.25
499.049	103.25
499.267	80.25
499.484	97.25
499.701	94.25
499.918	86.25
500.135	92.25
500.352	88.25
500.569	91.25
500.786	85.25
501.003	89.25
501.22	91.25
501.437	88.25
501.654	82.25
501.871	103.25
502.088	103.25
502.305	89.25
502.522	75.25
502.739	99.25
502.956	86.25
503.172	94.25
503.389	106.25
503.606	122.25
503.823	98.25
504.04	100.25
504.256	87.25
504.473	98.25
504.69	99.25
504.907	85.25
505.123	98.25
505.34	86.25
505.557	89.25
505.773	79.25
505.99	84.25
506.207	81.25
506.423	85.25
506.64	88.25
506.856	80.25
507.073	92.25
507.289	97.25
507.506	82.25
507.722	102.25
507.939	100.25
508.155	85.25
508.372	95.25
508.588	84.25
508.805	92.25
509.021	93.25
509.238	82.25
509.454	99.25
509.67	105.25
509.887	99.25
510.103	129.25
510.319	199.25
510.536	642.25
510.752	2032.25
510.968	590.25
511.184	130.25
511.401	107.25
511.617	76.25
511.833	81.25
512.049	86.25
512.265	94.25
512.481	92.25
512.698	89.25
512.914	108.25
513.13	90.25
513.346	91.25
513.562	79.25
513.778	105.25
513.994	104.25
514.21	96.25
514.426	99.25
514.642	113.25
514.858	132.25
515.074	153.25
515.29	390.25
515.506	1248.25
515.721	480.25
515.937	145.25
516.153	116.25
