Data from Circ_2002_H10_HRD10591_00076.txt Node
Date: Wed Jan 03 10:41:13 EST 2024
User: Yrep
Spectrometer: HR+D1059
Trigger mode: 1
Integration Time (sec): 1.000000E-1
Scans to average: 1
Electric dark correction enabled: true
Nonlinearity correction enabled: false
Boxcar width: 0
XAxis mode: Wavelengths
Number of Pixels in Spectrum: 2048
>>>>>Begin Spectral Data<<<<<
223.165	-24.88
223.4	-24.88
223.635	-24.88
223.869	-28.88
224.104	-22.88
224.338	-11.88
224.573	-9.88
224.808	-6.88
225.042	5.12
225.277	-19.88
225.511	-26.88
225.746	17.12
225.98	15.12
226.215	20.12
226.449	16.12
226.683	31.12
226.918	26.12
227.152	21.12
227.387	28.12
227.621	53.12
227.856	55.12
228.09	43.12
228.324	43.12
228.559	58.12
228.793	70.12
229.027	80.12
229.262	76.12
229.496	73.12
229.73	74.12
229.964	72.12
230.199	76.12
230.433	74.12
230.667	69.12
230.901	76.12
231.136	82.12
231.37	81.12
231.604	82.12
231.838	72.12
232.072	82.12
232.306	88.12
232.541	76.12
232.775	62.12
233.009	83.12
233.243	83.12
233.477	59.12
233.711	80.12
233.945	67.12
234.179	81.12
234.413	80.12
234.647	85.12
234.881	75.12
235.115	81.12
235.349	86.12
235.583	77.12
235.817	78.12
236.051	72.12
236.285	66.12
236.519	80.12
236.753	77.12
236.987	75.12
237.221	92.12
237.455	92.12
237.689	64.12
237.922	83.12
238.156	78.12
238.39	77.12
238.624	82.12
238.858	84.12
239.091	88.12
239.325	87.12
239.559	84.12
239.793	76.12
240.027	59.12
240.26	72.12
240.494	71.12
240.728	83.12
240.961	68.12
241.195	82.12
241.429	68.12
241.662	80.12
241.896	81.12
242.13	76.12
242.363	77.12
242.597	78.12
242.83	80.12
243.064	97.12
243.298	70.12
243.531	93.12
243.765	79.12
243.998	82.12
244.232	81.12
244.465	76.12
244.699	91.12
244.932	82.12
245.166	96.12
245.399	58.12
245.633	66.12
245.866	78.12
246.099	100.12
246.333	83.12
246.566	85.12
246.8	78.12
247.033	78.12
247.266	75.12
247.5	65.12
247.733	86.12
247.966	92.12
248.2	86.12
248.433	84.12
248.666	70.12
248.899	86.12
249.133	100.12
249.366	108.12
249.599	85.12
249.832	58.12
250.066	83.12
250.299	72.12
250.532	85.12
250.765	82.12
250.998	84.12
251.231	79.12
251.465	77.12
251.698	83.12
251.931	66.12
252.164	90.12
252.397	96.12
252.63	75.12
252.863	76.12
253.096	81.12
253.329	92.12
253.562	81.12
253.795	94.12
254.028	91.12
254.261	88.12
254.494	80.12
254.727	72.12
254.96	88.12
255.193	73.12
255.426	75.12
255.659	84.12
255.892	83.12
256.124	83.12
256.357	75.12
256.59	86.12
256.823	92.12
257.056	77.12
257.289	90.12
257.521	83.12
257.754	80.12
257.987	88.12
258.22	83.12
258.452	85.12
258.685	85.12
258.918	86.12
259.151	83.12
259.383	84.12
259.616	70.12
259.849	82.12
260.081	84.12
260.314	101.12
260.547	89.12
260.779	87.12
261.012	83.12
261.244	81.12
261.477	90.12
261.71	94.12
261.942	100.12
262.175	101.12
262.407	92.12
262.64	77.12
262.872	84.12
263.105	78.12
263.337	92.12
263.57	76.12
263.802	82.12
264.035	72.12
264.267	89.12
264.499	79.12
264.732	88.12
264.964	91.12
265.197	92.12
265.429	66.12
265.661	84.12
265.894	84.12
266.126	78.12
266.358	85.12
266.591	94.12
266.823	90.12
267.055	93.12
267.287	87.12
267.52	87.12
267.752	81.12
267.984	89.12
268.216	76.12
268.448	91.12
268.681	76.12
268.913	81.12
269.145	85.12
269.377	85.12
269.609	81.12
269.841	89.12
270.073	97.12
270.306	82.12
270.538	82.12
270.77	90.12
271.002	80.12
271.234	83.12
271.466	78.12
271.698	74.12
271.93	74.12
272.162	95.12
272.394	100.12
272.626	87.12
272.858	92.12
273.09	83.12
273.322	82.12
273.553	99.12
273.785	78.12
274.017	80.12
274.249	74.12
274.481	94.12
274.713	91.12
274.945	94.12
275.176	80.12
275.408	88.12
275.64	79.12
275.872	81.12
276.104	98.12
276.335	86.12
276.567	95.12
276.799	93.12
277.031	97.12
277.262	88.12
277.494	109.12
277.726	86.12
277.957	80.12
278.189	80.12
278.421	90.12
278.652	97.12
278.884	78.12
279.115	90.12
279.347	87.12
279.579	91.12
279.81	87.12
280.042	94.12
280.273	92.12
280.505	105.12
280.736	82.12
280.968	86.12
281.199	83.12
281.431	91.12
281.662	92.12
281.894	83.12
282.125	93.12
282.356	99.12
282.588	132.12
282.819	109.12
283.051	84.12
283.282	86.12
283.513	80.12
283.745	82.12
283.976	77.12
284.207	84.12
284.439	79.12
284.67	83.12
284.901	81.12
285.132	87.12
285.364	83.12
285.595	82.12
285.826	92.12
286.057	88.12
286.288	88.12
286.52	81.12
286.751	76.12
286.982	80.12
287.213	91.12
287.444	86.12
287.675	98.12
287.906	100.12
288.138	72.12
288.369	83.12
288.6	85.12
288.831	78.12
289.062	79.12
289.293	89.12
289.524	85.12
289.755	86.12
289.986	80.12
290.217	79.12
290.448	85.12
290.679	92.12
290.91	107.12
291.141	77.12
291.371	87.12
291.602	84.12
291.833	78.12
292.064	93.12
292.295	89.12
292.526	90.12
292.757	97.12
292.987	89.12
293.218	82.12
293.449	78.12
293.68	88.12
293.91	83.12
294.141	83.12
294.372	85.12
294.603	97.12
294.833	91.12
295.064	82.12
295.295	80.12
295.525	101.12
295.756	92.12
295.987	110.12
296.217	124.12
296.448	100.12
296.679	86.12
296.909	97.12
297.14	86.12
297.37	80.12
297.601	87.12
297.831	89.12
298.062	99.12
298.292	96.12
298.523	101.12
298.753	83.12
298.984	78.12
299.214	93.12
299.445	96.12
299.675	94.12
299.905	93.12
300.136	97.12
300.366	98.12
300.597	100.12
300.827	91.12
301.057	108.12
301.288	92.12
301.518	100.12
301.748	80.12
301.979	87.12
302.209	72.12
302.439	84.12
302.669	76.12
302.9	92.12
303.13	79.12
303.36	99.12
303.59	97.12
303.82	98.12
304.051	94.12
304.281	80.12
304.511	86.12
304.741	95.12
304.971	96.12
305.201	82.12
305.431	84.12
305.661	92.12
305.891	96.12
306.121	86.12
306.352	105.12
306.582	97.12
306.812	96.12
307.042	85.12
307.272	88.12
307.502	94.12
307.731	80.12
307.961	88.12
308.191	97.12
308.421	94.12
308.651	93.12
308.881	91.12
309.111	93.12
309.341	73.12
309.571	85.12
309.8	99.12
310.03	86.12
310.26	82.12
310.49	114.12
310.72	88.12
310.949	103.12
311.179	100.12
311.409	103.12
311.639	90.12
311.868	91.12
312.098	92.12
312.328	108.12
312.557	102.12
312.787	104.12
313.017	92.12
313.246	88.12
313.476	81.12
313.706	96.12
313.935	86.12
314.165	96.12
314.394	94.12
314.624	95.12
314.853	92.12
315.083	100.12
315.312	96.12
315.542	81.12
315.771	99.12
316.001	86.12
316.23	90.12
316.46	99.12
316.689	96.12
316.919	89.12
317.148	99.12
317.377	94.12
317.607	95.12
317.836	93.12
318.065	82.12
318.295	82.12
318.524	84.12
318.753	95.12
318.983	95.12
319.212	94.12
319.441	102.12
319.67	103.12
319.9	87.12
320.129	87.12
320.358	104.12
320.587	79.12
320.816	94.12
321.046	94.12
321.275	98.12
321.504	88.12
321.733	95.12
321.962	96.12
322.191	97.12
322.42	98.12
322.649	111.12
322.878	110.12
323.108	104.12
323.337	111.12
323.566	106.12
323.795	131.12
324.024	165.12
324.253	330.12
324.482	686.12
324.71	1346.12
324.939	1783.12
325.168	669.12
325.397	216.12
325.626	137.12
325.855	115.12
326.084	131.12
326.313	115.12
326.542	151.12
326.77	209.12
326.999	397.12
327.228	788.12
327.457	1404.12
327.686	1104.12
327.914	319.12
328.143	182.12
328.372	134.12
328.6	114.12
328.829	140.12
329.058	114.12
329.287	130.12
329.515	99.12
329.744	105.12
329.972	108.12
330.201	125.12
330.43	125.12
330.658	124.12
330.887	123.12
331.115	108.12
331.344	94.12
331.572	107.12
331.801	109.12
332.03	101.12
332.258	88.12
332.486	90.12
332.715	90.12
332.943	94.12
333.172	86.12
333.4	96.12
333.629	81.12
333.857	107.12
334.085	97.12
334.314	125.12
334.542	156.12
334.771	133.12
334.999	104.12
335.227	86.12
335.455	102.12
335.684	95.12
335.912	84.12
336.14	101.12
336.369	87.12
336.597	109.12
336.825	93.12
337.053	99.12
337.281	102.12
337.51	88.12
337.738	90.12
337.966	94.12
338.194	93.12
338.422	99.12
338.65	104.12
338.878	98.12
339.106	89.12
339.334	79.12
339.562	81.12
339.79	86.12
340.018	88.12
340.246	84.12
340.474	87.12
340.702	87.12
340.93	97.12
341.158	87.12
341.386	94.12
341.614	94.12
341.842	80.12
342.07	87.12
342.298	85.12
342.526	99.12
342.754	91.12
342.981	83.12
343.209	86.12
343.437	102.12
343.665	99.12
343.893	90.12
344.12	85.12
344.348	86.12
344.576	91.12
344.804	98.12
345.031	102.12
345.259	89.12
345.487	91.12
345.714	98.12
345.942	89.12
346.17	82.12
346.397	89.12
346.625	83.12
346.853	88.12
347.08	95.12
347.308	106.12
347.535	106.12
347.763	100.12
347.99	94.12
348.218	100.12
348.445	89.12
348.673	93.12
348.9	101.12
349.128	92.12
349.355	101.12
349.583	89.12
349.81	81.12
350.037	91.12
350.265	90.12
350.492	100.12
350.72	84.12
350.947	105.12
351.174	111.12
351.402	105.12
351.629	105.12
351.856	108.12
352.083	96.12
352.311	101.12
352.538	99.12
352.765	97.12
352.992	107.12
353.22	100.12
353.447	105.12
353.674	94.12
353.901	95.12
354.128	95.12
354.355	84.12
354.583	93.12
354.81	102.12
355.037	109.12
355.264	93.12
355.491	82.12
355.718	93.12
355.945	89.12
356.172	78.12
356.399	108.12
356.626	92.12
356.853	100.12
357.08	94.12
357.307	85.12
357.534	92.12
357.761	98.12
357.988	106.12
358.215	81.12
358.441	99.12
358.668	92.12
358.895	89.12
359.122	85.12
359.349	93.12
359.576	102.12
359.802	89.12
360.029	85.12
360.256	106.12
360.483	101.12
360.709	104.12
360.936	87.12
361.163	99.12
361.39	106.12
361.616	96.12
361.843	94.12
362.07	94.12
362.296	87.12
362.523	94.12
362.749	82.12
362.976	80.12
363.203	85.12
363.429	99.12
363.656	98.12
363.882	98.12
364.109	91.12
364.335	103.12
364.562	93.12
364.788	86.12
365.015	95.12
365.241	81.12
365.468	91.12
365.694	97.12
365.92	89.12
366.147	90.12
366.373	85.12
366.599	92.12
366.826	93.12
367.052	91.12
367.278	94.12
367.505	94.12
367.731	96.12
367.957	90.12
368.184	98.12
368.41	103.12
368.636	91.12
368.862	122.12
369.089	92.12
369.315	93.12
369.541	104.12
369.767	88.12
369.993	87.12
370.219	101.12
370.445	83.12
370.672	84.12
370.898	102.12
371.124	83.12
371.35	103.12
371.576	89.12
371.802	90.12
372.028	70.12
372.254	91.12
372.48	88.12
372.706	92.12
372.932	93.12
373.158	84.12
373.384	88.12
373.61	92.12
373.835	97.12
374.061	91.12
374.287	98.12
374.513	90.12
374.739	79.12
374.965	74.12
375.191	85.12
375.416	96.12
375.642	74.12
375.868	87.12
376.094	101.12
376.319	84.12
376.545	82.12
376.771	92.12
376.997	91.12
377.222	84.12
377.448	105.12
377.674	85.12
377.899	82.12
378.125	100.12
378.35	89.12
378.576	81.12
378.802	94.12
379.027	99.12
379.253	103.12
379.478	94.12
379.704	100.12
379.929	98.12
380.155	87.12
380.38	90.12
380.606	92.12
380.831	93.12
381.057	92.12
381.282	92.12
381.507	90.12
381.733	89.12
381.958	94.12
382.184	94.12
382.409	99.12
382.634	106.12
382.86	100.12
383.085	90.12
383.31	96.12
383.535	89.12
383.761	99.12
383.986	104.12
384.211	102.12
384.436	103.12
384.662	109.12
384.887	120.12
385.112	107.12
385.337	103.12
385.562	100.12
385.787	103.12
386.013	116.12
386.238	117.12
386.463	104.12
386.688	109.12
386.913	101.12
387.138	93.12
387.363	92.12
387.588	93.12
387.813	109.12
388.038	105.12
388.263	97.12
388.488	101.12
388.713	100.12
388.938	100.12
389.163	87.12
389.387	102.12
389.612	100.12
389.837	93.12
390.062	90.12
390.287	99.12
390.512	88.12
390.736	94.12
390.961	85.12
391.186	98.12
391.411	90.12
391.636	96.12
391.86	88.12
392.085	96.12
392.31	96.12
392.534	88.12
392.759	100.12
392.984	82.12
393.208	96.12
393.433	89.12
393.658	84.12
393.882	84.12
394.107	92.12
394.331	94.12
394.556	77.12
394.78	105.12
395.005	74.12
395.229	82.12
395.454	86.12
395.678	85.12
395.903	94.12
396.127	104.12
396.352	100.12
396.576	73.12
396.801	79.12
397.025	88.12
397.249	82.12
397.474	91.12
397.698	88.12
397.922	86.12
398.147	81.12
398.371	78.12
398.595	80.12
398.82	85.12
399.044	75.12
399.268	84.12
399.492	84.12
399.717	89.12
399.941	96.12
400.165	87.12
400.389	94.12
400.613	84.12
400.837	90.12
401.062	92.12
401.286	86.12
401.51	87.12
401.734	100.12
401.958	97.12
402.182	106.12
402.406	125.12
402.63	106.12
402.854	83.12
403.078	86.12
403.302	77.12
403.526	92.12
403.75	89.12
403.974	82.12
404.198	77.12
404.422	97.12
404.645	79.12
404.869	90.12
405.093	88.12
405.317	88.12
405.541	97.12
405.765	104.12
405.988	109.12
406.212	149.12
406.436	174.12
406.66	126.12
406.883	101.12
407.107	110.12
407.331	93.12
407.555	102.12
407.778	92.12
408.002	90.12
408.226	96.12
408.449	91.12
408.673	102.12
408.896	99.12
409.12	90.12
409.344	76.12
409.567	88.12
409.791	108.12
410.014	92.12
410.238	98.12
410.461	95.12
410.685	91.12
410.908	96.12
411.132	102.12
411.355	97.12
411.578	91.12
411.802	88.12
412.025	101.12
412.249	96.12
412.472	87.12
412.695	91.12
412.919	87.12
413.142	83.12
413.365	90.12
413.589	69.12
413.812	76.12
414.035	87.12
414.258	88.12
414.482	88.12
414.705	93.12
414.928	101.12
415.151	92.12
415.374	100.12
415.597	81.12
415.821	86.12
416.044	93.12
416.267	84.12
416.49	78.12
416.713	84.12
416.936	83.12
417.159	98.12
417.382	88.12
417.605	91.12
417.828	101.12
418.051	101.12
418.274	82.12
418.497	96.12
418.72	83.12
418.943	86.12
419.166	90.12
419.389	85.12
419.611	96.12
419.834	90.12
420.057	85.12
420.28	97.12
420.503	81.12
420.726	87.12
420.948	87.12
421.171	96.12
421.394	88.12
421.617	81.12
421.839	100.12
422.062	82.12
422.285	75.12
422.507	89.12
422.73	120.12
422.953	85.12
423.175	90.12
423.398	85.12
423.621	85.12
423.843	70.12
424.066	93.12
424.288	89.12
424.511	94.12
424.733	91.12
424.956	104.12
425.178	97.12
425.401	96.12
425.623	94.12
425.846	92.12
426.068	99.12
426.291	98.12
426.513	103.12
426.735	77.12
426.958	84.12
427.18	100.12
427.402	117.12
427.625	142.12
427.847	124.12
428.069	100.12
428.292	94.12
428.514	75.12
428.736	82.12
428.958	69.12
429.181	93.12
429.403	74.12
429.625	84.12
429.847	82.12
430.069	90.12
430.292	103.12
430.514	99.12
430.736	98.12
430.958	84.12
431.18	84.12
431.402	92.12
431.624	73.12
431.846	97.12
432.068	77.12
432.29	74.12
432.512	93.12
432.734	76.12
432.956	94.12
433.178	90.12
433.4	93.12
433.622	94.12
433.844	89.12
434.066	80.12
434.287	93.12
434.509	94.12
434.731	92.12
434.953	94.12
435.175	94.12
435.397	101.12
435.618	92.12
435.84	99.12
436.062	106.12
436.284	110.12
436.505	86.12
436.727	104.12
436.949	93.12
437.17	68.12
437.392	104.12
437.614	89.12
437.835	93.12
438.057	103.12
438.278	87.12
438.5	108.12
438.721	115.12
438.943	92.12
439.165	82.12
439.386	92.12
439.608	84.12
439.829	91.12
440.05	99.12
440.272	116.12
440.493	98.12
440.715	88.12
440.936	93.12
441.158	83.12
441.379	98.12
441.6	81.12
441.822	94.12
442.043	88.12
442.264	96.12
442.486	95.12
442.707	99.12
442.928	103.12
443.149	115.12
443.371	113.12
443.592	117.12
443.813	94.12
444.034	105.12
444.255	85.12
444.476	84.12
444.698	89.12
444.919	80.12
445.14	132.12
445.361	115.12
445.582	100.12
445.803	105.12
446.024	108.12
446.245	118.12
446.466	118.12
446.687	84.12
446.908	75.12
447.129	72.12
447.35	92.12
447.571	80.12
447.792	100.12
448.013	110.12
448.234	90.12
448.455	90.12
448.675	93.12
448.896	110.12
449.117	87.12
449.338	106.12
449.559	115.12
449.779	119.12
450	85.12
450.221	99.12
450.442	83.12
450.662	89.12
450.883	103.12
451.104	92.12
451.324	75.12
451.545	84.12
451.766	91.12
451.986	99.12
452.207	94.12
452.428	85.12
452.648	100.12
452.869	97.12
453.089	91.12
453.31	119.12
453.53	91.12
453.751	105.12
453.971	89.12
454.192	110.12
454.412	97.12
454.633	91.12
454.853	85.12
455.073	90.12
455.294	78.12
455.514	102.12
455.734	93.12
455.955	89.12
456.175	93.12
456.395	77.12
456.616	99.12
456.836	69.12
457.056	89.12
457.276	91.12
457.497	72.12
457.717	82.12
457.937	85.12
458.157	64.12
458.377	93.12
458.598	90.12
458.818	123.12
459.038	132.12
459.258	110.12
459.478	82.12
459.698	90.12
459.918	91.12
460.138	75.12
460.358	86.12
460.578	79.12
460.798	86.12
461.018	72.12
461.238	90.12
461.458	88.12
461.678	82.12
461.898	94.12
462.118	81.12
462.338	85.12
462.558	91.12
462.777	87.12
462.997	98.12
463.217	83.12
463.437	87.12
463.657	89.12
463.876	92.12
464.096	96.12
464.316	96.12
464.536	92.12
464.755	93.12
464.975	106.12
465.195	143.12
465.414	129.12
465.634	100.12
465.854	84.12
466.073	85.12
466.293	91.12
466.512	71.12
466.732	78.12
466.951	89.12
467.171	85.12
467.391	91.12
467.61	118.12
467.829	97.12
468.049	87.12
468.268	106.12
468.488	97.12
468.707	100.12
468.927	95.12
469.146	99.12
469.365	92.12
469.585	88.12
469.804	101.12
470.023	71.12
470.243	90.12
470.462	94.12
470.681	115.12
470.901	91.12
471.12	94.12
471.339	94.12
471.558	85.12
471.777	88.12
471.997	104.12
472.216	127.12
472.435	168.12
472.654	100.12
472.873	86.12
473.092	87.12
473.311	93.12
473.53	91.12
473.749	97.12
473.968	93.12
474.187	92.12
474.406	88.12
474.625	98.12
474.844	78.12
475.063	74.12
475.282	85.12
475.501	100.12
475.72	83.12
475.939	78.12
476.158	104.12
476.377	83.12
476.596	94.12
476.814	107.12
477.033	81.12
477.252	90.12
477.471	84.12
477.69	90.12
477.908	85.12
478.127	89.12
478.346	97.12
478.564	80.12
478.783	89.12
479.002	100.12
479.22	88.12
479.439	98.12
479.658	102.12
479.876	100.12
480.095	78.12
480.313	80.12
480.532	90.12
480.751	105.12
480.969	114.12
481.188	229.12
481.406	172.12
481.624	109.12
481.843	90.12
482.061	87.12
482.28	96.12
482.498	100.12
482.717	88.12
482.935	90.12
483.153	95.12
483.372	81.12
483.59	96.12
483.808	92.12
484.027	108.12
484.245	94.12
484.463	101.12
484.681	113.12
484.9	91.12
485.118	105.12
485.336	81.12
485.554	96.12
485.772	108.12
485.99	94.12
486.209	94.12
486.427	90.12
486.645	103.12
486.863	100.12
487.081	112.12
487.299	98.12
487.517	87.12
487.735	86.12
487.953	92.12
488.171	90.12
488.389	102.12
488.607	106.12
488.825	94.12
489.043	97.12
489.261	86.12
489.479	78.12
489.696	100.12
489.914	73.12
490.132	88.12
490.35	96.12
490.568	83.12
490.786	89.12
491.003	91.12
491.221	88.12
491.439	101.12
491.657	94.12
491.874	100.12
492.092	98.12
492.31	95.12
492.527	92.12
492.745	82.12
492.963	100.12
493.18	92.12
493.398	88.12
493.615	96.12
493.833	103.12
494.05	82.12
494.268	88.12
494.485	96.12
494.703	91.12
494.92	89.12
495.138	97.12
495.355	91.12
495.573	82.12
495.79	78.12
496.008	103.12
496.225	93.12
496.442	87.12
496.66	92.12
496.877	85.12
497.094	90.12
497.312	93.12
497.529	104.12
497.746	91.12
497.963	97.12
498.181	86.12
498.398	92.12
498.615	110.12
498.832	107.12
499.049	110.12
499.267	91.12
499.484	80.12
499.701	99.12
499.918	87.12
500.135	106.12
500.352	87.12
500.569	112.12
500.786	101.12
501.003	90.12
501.22	99.12
501.437	92.12
501.654	94.12
501.871	96.12
502.088	98.12
502.305	83.12
502.522	86.12
502.739	102.12
502.956	99.12
503.172	86.12
503.389	105.12
503.606	109.12
503.823	93.12
504.04	73.12
504.256	85.12
504.473	92.12
504.69	93.12
504.907	77.12
505.123	100.12
505.34	84.12
505.557	85.12
505.773	97.12
505.99	79.12
506.207	91.12
506.423	106.12
506.64	89.12
506.856	97.12
507.073	82.12
507.289	92.12
507.506	93.12
507.722	117.12
507.939	96.12
508.155	86.12
508.372	76.12
508.588	90.12
508.805	92.12
509.021	78.12
509.238	97.12
509.454	98.12
509.67	92.12
509.887	93.12
510.103	106.12
510.319	170.12
510.536	577.12
510.752	1751.12
510.968	502.12
511.184	133.12
511.401	102.12
511.617	106.12
511.833	91.12
512.049	91.12
512.265	86.12
512.481	104.12
512.698	92.12
512.914	99.12
513.13	96.12
513.346	80.12
513.562	107.12
513.778	91.12
513.994	102.12
514.21	104.12
514.426	98.12
514.642	115.12
514.858	108.12
515.074	133.12
515.29	318.12
515.506	1008.12
515.721	392.12
515.937	132.12
