Data from Circ_2002_H10_HRD10591_00072.txt Node
Date: Wed Jan 03 10:41:12 EST 2024
User: Yrep
Spectrometer: HR+D1059
Trigger mode: 1
Integration Time (sec): 1.000000E-1
Scans to average: 1
Electric dark correction enabled: true
Nonlinearity correction enabled: false
Boxcar width: 0
XAxis mode: Wavelengths
Number of Pixels in Spectrum: 2048
>>>>>Begin Spectral Data<<<<<
223.165	-15.75
223.4	-15.75
223.635	-15.75
223.869	-22.75
224.104	-12.75
224.338	-28.75
224.573	-6.75
224.808	-8.75
225.042	-9.75
225.277	-8.75
225.511	3.25
225.746	-9.75
225.98	4.25
226.215	10.25
226.449	31.25
226.683	9.25
226.918	31.25
227.152	34.25
227.387	23.25
227.621	41.25
227.856	38.25
228.09	50.25
228.324	55.25
228.559	46.25
228.793	64.25
229.027	71.25
229.262	64.25
229.496	74.25
229.73	85.25
229.964	85.25
230.199	76.25
230.433	82.25
230.667	65.25
230.901	78.25
231.136	69.25
231.37	76.25
231.604	74.25
231.838	66.25
232.072	84.25
232.306	73.25
232.541	91.25
232.775	88.25
233.009	72.25
233.243	84.25
233.477	101.25
233.711	80.25
233.945	72.25
234.179	91.25
234.413	83.25
234.647	100.25
234.881	82.25
235.115	81.25
235.349	79.25
235.583	67.25
235.817	85.25
236.051	73.25
236.285	83.25
236.519	84.25
236.753	85.25
236.987	79.25
237.221	76.25
237.455	70.25
237.689	73.25
237.922	84.25
238.156	78.25
238.39	74.25
238.624	79.25
238.858	67.25
239.091	81.25
239.325	67.25
239.559	79.25
239.793	78.25
240.027	69.25
240.26	70.25
240.494	74.25
240.728	68.25
240.961	82.25
241.195	71.25
241.429	85.25
241.662	54.25
241.896	82.25
242.13	84.25
242.363	87.25
242.597	86.25
242.83	83.25
243.064	74.25
243.298	85.25
243.531	82.25
243.765	90.25
243.998	76.25
244.232	90.25
244.465	87.25
244.699	84.25
244.932	79.25
245.166	73.25
245.399	83.25
245.633	77.25
245.866	69.25
246.099	90.25
246.333	64.25
246.566	72.25
246.8	83.25
247.033	71.25
247.266	85.25
247.5	88.25
247.733	81.25
247.966	74.25
248.2	97.25
248.433	96.25
248.666	64.25
248.899	72.25
249.133	94.25
249.366	87.25
249.599	91.25
249.832	88.25
250.066	95.25
250.299	80.25
250.532	63.25
250.765	81.25
250.998	92.25
251.231	72.25
251.465	75.25
251.698	64.25
251.931	67.25
252.164	77.25
252.397	87.25
252.63	95.25
252.863	78.25
253.096	75.25
253.329	92.25
253.562	75.25
253.795	84.25
254.028	81.25
254.261	76.25
254.494	76.25
254.727	91.25
254.96	71.25
255.193	83.25
255.426	83.25
255.659	76.25
255.892	70.25
256.124	84.25
256.357	74.25
256.59	80.25
256.823	71.25
257.056	75.25
257.289	76.25
257.521	92.25
257.754	66.25
257.987	80.25
258.22	78.25
258.452	77.25
258.685	81.25
258.918	82.25
259.151	72.25
259.383	93.25
259.616	87.25
259.849	89.25
260.081	88.25
260.314	88.25
260.547	79.25
260.779	92.25
261.012	89.25
261.244	87.25
261.477	70.25
261.71	95.25
261.942	107.25
262.175	128.25
262.407	92.25
262.64	56.25
262.872	92.25
263.105	83.25
263.337	81.25
263.57	88.25
263.802	75.25
264.035	96.25
264.267	73.25
264.499	73.25
264.732	87.25
264.964	87.25
265.197	84.25
265.429	79.25
265.661	72.25
265.894	80.25
266.126	81.25
266.358	92.25
266.591	73.25
266.823	89.25
267.055	68.25
267.287	83.25
267.52	92.25
267.752	96.25
267.984	86.25
268.216	97.25
268.448	86.25
268.681	84.25
268.913	78.25
269.145	82.25
269.377	96.25
269.609	87.25
269.841	83.25
270.073	85.25
270.306	85.25
270.538	86.25
270.77	102.25
271.002	92.25
271.234	66.25
271.466	86.25
271.698	74.25
271.93	83.25
272.162	72.25
272.394	74.25
272.626	66.25
272.858	96.25
273.09	97.25
273.322	73.25
273.553	78.25
273.785	91.25
274.017	87.25
274.249	87.25
274.481	88.25
274.713	90.25
274.945	84.25
275.176	82.25
275.408	82.25
275.64	91.25
275.872	77.25
276.104	89.25
276.335	80.25
276.567	74.25
276.799	103.25
277.031	95.25
277.262	72.25
277.494	70.25
277.726	82.25
277.957	98.25
278.189	89.25
278.421	84.25
278.652	101.25
278.884	77.25
279.115	77.25
279.347	89.25
279.579	93.25
279.81	78.25
280.042	86.25
280.273	93.25
280.505	78.25
280.736	80.25
280.968	80.25
281.199	84.25
281.431	88.25
281.662	86.25
281.894	108.25
282.125	95.25
282.356	109.25
282.588	111.25
282.819	99.25
283.051	88.25
283.282	85.25
283.513	81.25
283.745	79.25
283.976	91.25
284.207	87.25
284.439	86.25
284.67	91.25
284.901	93.25
285.132	87.25
285.364	91.25
285.595	88.25
285.826	86.25
286.057	84.25
286.288	98.25
286.52	98.25
286.751	93.25
286.982	78.25
287.213	88.25
287.444	86.25
287.675	85.25
287.906	82.25
288.138	81.25
288.369	91.25
288.6	87.25
288.831	96.25
289.062	88.25
289.293	83.25
289.524	81.25
289.755	98.25
289.986	91.25
290.217	83.25
290.448	107.25
290.679	76.25
290.91	90.25
291.141	88.25
291.371	85.25
291.602	99.25
291.833	102.25
292.064	93.25
292.295	88.25
292.526	82.25
292.757	90.25
292.987	85.25
293.218	84.25
293.449	83.25
293.68	76.25
293.91	91.25
294.141	104.25
294.372	91.25
294.603	84.25
294.833	91.25
295.064	80.25
295.295	83.25
295.525	89.25
295.756	95.25
295.987	119.25
296.217	119.25
296.448	132.25
296.679	93.25
296.909	78.25
297.14	102.25
297.37	90.25
297.601	83.25
297.831	73.25
298.062	69.25
298.292	78.25
298.523	93.25
298.753	88.25
298.984	92.25
299.214	87.25
299.445	98.25
299.675	91.25
299.905	76.25
300.136	89.25
300.366	88.25
300.597	83.25
300.827	91.25
301.057	98.25
301.288	90.25
301.518	86.25
301.748	83.25
301.979	84.25
302.209	84.25
302.439	96.25
302.669	92.25
302.9	74.25
303.13	82.25
303.36	88.25
303.59	91.25
303.82	99.25
304.051	97.25
304.281	87.25
304.511	88.25
304.741	79.25
304.971	85.25
305.201	93.25
305.431	79.25
305.661	98.25
305.891	87.25
306.121	95.25
306.352	107.25
306.582	100.25
306.812	99.25
307.042	92.25
307.272	80.25
307.502	86.25
307.731	107.25
307.961	80.25
308.191	78.25
308.421	96.25
308.651	82.25
308.881	95.25
309.111	83.25
309.341	87.25
309.571	78.25
309.8	92.25
310.03	90.25
310.26	85.25
310.49	94.25
310.72	90.25
310.949	96.25
311.179	100.25
311.409	89.25
311.639	73.25
311.868	94.25
312.098	96.25
312.328	87.25
312.557	96.25
312.787	108.25
313.017	90.25
313.246	106.25
313.476	89.25
313.706	98.25
313.935	99.25
314.165	95.25
314.394	90.25
314.624	85.25
314.853	80.25
315.083	86.25
315.312	97.25
315.542	85.25
315.771	83.25
316.001	82.25
316.23	89.25
316.46	81.25
316.689	71.25
316.919	91.25
317.148	85.25
317.377	91.25
317.607	98.25
317.836	104.25
318.065	81.25
318.295	89.25
318.524	96.25
318.753	83.25
318.983	80.25
319.212	104.25
319.441	92.25
319.67	98.25
319.9	95.25
320.129	91.25
320.358	93.25
320.587	93.25
320.816	94.25
321.046	102.25
321.275	88.25
321.504	97.25
321.733	96.25
321.962	91.25
322.191	90.25
322.42	90.25
322.649	105.25
322.878	104.25
323.108	114.25
323.337	116.25
323.566	131.25
323.795	143.25
324.024	191.25
324.253	351.25
324.482	736.25
324.71	1520.25
324.939	1889.25
325.168	711.25
325.397	230.25
325.626	122.25
325.855	123.25
326.084	118.25
326.313	113.25
326.542	149.25
326.77	213.25
326.999	419.25
327.228	850.25
327.457	1545.25
327.686	1219.25
327.914	340.25
328.143	171.25
328.372	154.25
328.6	113.25
328.829	125.25
329.058	127.25
329.287	98.25
329.515	105.25
329.744	90.25
329.972	119.25
330.201	108.25
330.43	132.25
330.658	111.25
330.887	135.25
331.115	95.25
331.344	102.25
331.572	108.25
331.801	111.25
332.03	107.25
332.258	98.25
332.486	88.25
332.715	93.25
332.943	104.25
333.172	89.25
333.4	101.25
333.629	100.25
333.857	115.25
334.085	106.25
334.314	124.25
334.542	134.25
334.771	136.25
334.999	100.25
335.227	83.25
335.455	80.25
335.684	87.25
335.912	101.25
336.14	114.25
336.369	96.25
336.597	78.25
336.825	89.25
337.053	91.25
337.281	94.25
337.51	89.25
337.738	94.25
337.966	103.25
338.194	103.25
338.422	89.25
338.65	91.25
338.878	82.25
339.106	92.25
339.334	97.25
339.562	97.25
339.79	73.25
340.018	78.25
340.246	92.25
340.474	98.25
340.702	91.25
340.93	96.25
341.158	83.25
341.386	91.25
341.614	90.25
341.842	92.25
342.07	100.25
342.298	91.25
342.526	90.25
342.754	89.25
342.981	85.25
343.209	90.25
343.437	101.25
343.665	91.25
343.893	89.25
344.12	92.25
344.348	93.25
344.576	82.25
344.804	94.25
345.031	88.25
345.259	102.25
345.487	92.25
345.714	90.25
345.942	104.25
346.17	102.25
346.397	90.25
346.625	89.25
346.853	95.25
347.08	98.25
347.308	88.25
347.535	101.25
347.763	99.25
347.99	105.25
348.218	90.25
348.445	93.25
348.673	92.25
348.9	95.25
349.128	97.25
349.355	92.25
349.583	87.25
349.81	103.25
350.037	87.25
350.265	84.25
350.492	90.25
350.72	103.25
350.947	110.25
351.174	103.25
351.402	117.25
351.629	101.25
351.856	108.25
352.083	86.25
352.311	106.25
352.538	100.25
352.765	100.25
352.992	106.25
353.22	109.25
353.447	89.25
353.674	105.25
353.901	100.25
354.128	104.25
354.355	102.25
354.583	104.25
354.81	95.25
355.037	88.25
355.264	88.25
355.491	83.25
355.718	72.25
355.945	98.25
356.172	98.25
356.399	100.25
356.626	91.25
356.853	88.25
357.08	91.25
357.307	98.25
357.534	95.25
357.761	94.25
357.988	104.25
358.215	112.25
358.441	87.25
358.668	89.25
358.895	95.25
359.122	101.25
359.349	91.25
359.576	91.25
359.802	106.25
360.029	101.25
360.256	93.25
360.483	96.25
360.709	89.25
360.936	98.25
361.163	80.25
361.39	92.25
361.616	89.25
361.843	79.25
362.07	88.25
362.296	96.25
362.523	80.25
362.749	88.25
362.976	86.25
363.203	106.25
363.429	101.25
363.656	85.25
363.882	89.25
364.109	91.25
364.335	85.25
364.562	98.25
364.788	96.25
365.015	98.25
365.241	88.25
365.468	113.25
365.694	100.25
365.92	90.25
366.147	105.25
366.373	98.25
366.599	78.25
366.826	91.25
367.052	100.25
367.278	78.25
367.505	93.25
367.731	95.25
367.957	99.25
368.184	81.25
368.41	92.25
368.636	111.25
368.862	105.25
369.089	99.25
369.315	77.25
369.541	86.25
369.767	90.25
369.993	93.25
370.219	83.25
370.445	84.25
370.672	70.25
370.898	73.25
371.124	92.25
371.35	103.25
371.576	89.25
371.802	91.25
372.028	92.25
372.254	92.25
372.48	85.25
372.706	92.25
372.932	81.25
373.158	95.25
373.384	97.25
373.61	83.25
373.835	85.25
374.061	87.25
374.287	89.25
374.513	82.25
374.739	94.25
374.965	95.25
375.191	90.25
375.416	88.25
375.642	83.25
375.868	91.25
376.094	80.25
376.319	75.25
376.545	87.25
376.771	94.25
376.997	94.25
377.222	93.25
377.448	91.25
377.674	84.25
377.899	86.25
378.125	77.25
378.35	89.25
378.576	75.25
378.802	93.25
379.027	86.25
379.253	87.25
379.478	86.25
379.704	91.25
379.929	84.25
380.155	97.25
380.38	102.25
380.606	98.25
380.831	88.25
381.057	105.25
381.282	105.25
381.507	104.25
381.733	100.25
381.958	87.25
382.184	103.25
382.409	100.25
382.634	102.25
382.86	98.25
383.085	113.25
383.31	90.25
383.535	113.25
383.761	96.25
383.986	106.25
384.211	104.25
384.436	100.25
384.662	113.25
384.887	130.25
385.112	107.25
385.337	104.25
385.562	120.25
385.787	100.25
386.013	107.25
386.238	127.25
386.463	94.25
386.688	109.25
386.913	98.25
387.138	94.25
387.363	105.25
387.588	107.25
387.813	99.25
388.038	92.25
388.263	117.25
388.488	117.25
388.713	95.25
388.938	104.25
389.163	103.25
389.387	95.25
389.612	82.25
389.837	88.25
390.062	91.25
390.287	99.25
390.512	95.25
390.736	84.25
390.961	94.25
391.186	99.25
391.411	100.25
391.636	97.25
391.86	79.25
392.085	89.25
392.31	95.25
392.534	93.25
392.759	90.25
392.984	87.25
393.208	96.25
393.433	95.25
393.658	90.25
393.882	96.25
394.107	78.25
394.331	75.25
394.556	96.25
394.78	88.25
395.005	69.25
395.229	67.25
395.454	89.25
395.678	95.25
395.903	84.25
396.127	83.25
396.352	97.25
396.576	83.25
396.801	94.25
397.025	90.25
397.249	92.25
397.474	88.25
397.698	88.25
397.922	88.25
398.147	90.25
398.371	81.25
398.595	102.25
398.82	99.25
399.044	87.25
399.268	91.25
399.492	83.25
399.717	84.25
399.941	84.25
400.165	91.25
400.389	90.25
400.613	91.25
400.837	84.25
401.062	88.25
401.286	94.25
401.51	98.25
401.734	85.25
401.958	87.25
402.182	108.25
402.406	142.25
402.63	113.25
402.854	96.25
403.078	87.25
403.302	89.25
403.526	88.25
403.75	87.25
403.974	80.25
404.198	86.25
404.422	88.25
404.645	100.25
404.869	98.25
405.093	99.25
405.317	78.25
405.541	98.25
405.765	106.25
405.988	114.25
406.212	151.25
406.436	186.25
406.66	124.25
406.883	91.25
407.107	100.25
407.331	107.25
407.555	95.25
407.778	91.25
408.002	96.25
408.226	87.25
408.449	97.25
408.673	75.25
408.896	85.25
409.12	103.25
409.344	92.25
409.567	103.25
409.791	91.25
410.014	92.25
410.238	91.25
410.461	90.25
410.685	94.25
410.908	115.25
411.132	108.25
411.355	72.25
411.578	88.25
411.802	89.25
412.025	91.25
412.249	91.25
412.472	95.25
412.695	92.25
412.919	97.25
413.142	98.25
413.365	70.25
413.589	91.25
413.812	89.25
414.035	90.25
414.258	97.25
414.482	86.25
414.705	82.25
414.928	103.25
415.151	98.25
415.374	100.25
415.597	92.25
415.821	93.25
416.044	87.25
416.267	89.25
416.49	88.25
416.713	86.25
416.936	98.25
417.159	94.25
417.382	80.25
417.605	76.25
417.828	90.25
418.051	85.25
418.274	96.25
418.497	90.25
418.72	81.25
418.943	90.25
419.166	87.25
419.389	95.25
419.611	76.25
419.834	79.25
420.057	86.25
420.28	97.25
420.503	96.25
420.726	89.25
420.948	85.25
421.171	87.25
421.394	87.25
421.617	94.25
421.839	87.25
422.062	94.25
422.285	103.25
422.507	88.25
422.73	95.25
422.953	100.25
423.175	87.25
423.398	88.25
423.621	94.25
423.843	99.25
424.066	83.25
424.288	98.25
424.511	87.25
424.733	112.25
424.956	99.25
425.178	88.25
425.401	87.25
425.623	84.25
425.846	88.25
426.068	76.25
426.291	102.25
426.513	94.25
426.735	86.25
426.958	91.25
427.18	103.25
427.402	119.25
427.625	144.25
427.847	127.25
428.069	105.25
428.292	89.25
428.514	80.25
428.736	89.25
428.958	80.25
429.181	75.25
429.403	73.25
429.625	86.25
429.847	82.25
430.069	102.25
430.292	92.25
430.514	89.25
430.736	79.25
430.958	75.25
431.18	75.25
431.402	92.25
431.624	92.25
431.846	95.25
432.068	81.25
432.29	83.25
432.512	83.25
432.734	92.25
432.956	82.25
433.178	90.25
433.4	90.25
433.622	91.25
433.844	96.25
434.066	87.25
434.287	78.25
434.509	68.25
434.731	83.25
434.953	86.25
435.175	99.25
435.397	100.25
435.618	90.25
435.84	98.25
436.062	123.25
436.284	113.25
436.505	90.25
436.727	106.25
436.949	102.25
437.17	100.25
437.392	92.25
437.614	95.25
437.835	98.25
438.057	107.25
438.278	111.25
438.5	109.25
438.721	111.25
438.943	81.25
439.165	93.25
439.386	84.25
439.608	91.25
439.829	115.25
440.05	113.25
440.272	128.25
440.493	96.25
440.715	70.25
440.936	85.25
441.158	100.25
441.379	99.25
441.6	100.25
441.822	83.25
442.043	95.25
442.264	96.25
442.486	97.25
442.707	79.25
442.928	99.25
443.149	119.25
443.371	116.25
443.592	108.25
443.813	98.25
444.034	116.25
444.255	82.25
444.476	90.25
444.698	74.25
444.919	90.25
445.14	127.25
445.361	117.25
445.582	109.25
445.803	115.25
446.024	113.25
446.245	124.25
446.466	101.25
446.687	91.25
446.908	89.25
447.129	81.25
447.35	85.25
447.571	96.25
447.792	102.25
448.013	91.25
448.234	95.25
448.455	87.25
448.675	99.25
448.896	119.25
449.117	101.25
449.338	104.25
449.559	117.25
449.779	120.25
450	100.25
450.221	90.25
450.442	89.25
450.662	84.25
450.883	98.25
451.104	113.25
451.324	97.25
451.545	95.25
451.766	85.25
451.986	93.25
452.207	84.25
452.428	98.25
452.648	99.25
452.869	105.25
453.089	103.25
453.31	104.25
453.53	87.25
453.751	85.25
453.971	82.25
454.192	105.25
454.412	88.25
454.633	94.25
454.853	82.25
455.073	94.25
455.294	85.25
455.514	91.25
455.734	99.25
455.955	76.25
456.175	92.25
456.395	76.25
456.616	86.25
456.836	91.25
457.056	77.25
457.276	78.25
457.497	83.25
457.717	82.25
457.937	84.25
458.157	75.25
458.377	82.25
458.598	90.25
458.818	129.25
459.038	126.25
459.258	90.25
459.478	80.25
459.698	96.25
459.918	85.25
460.138	88.25
460.358	82.25
460.578	89.25
460.798	91.25
461.018	96.25
461.238	80.25
461.458	100.25
461.678	88.25
461.898	79.25
462.118	81.25
462.338	90.25
462.558	87.25
462.777	91.25
462.997	82.25
463.217	82.25
463.437	75.25
463.657	89.25
463.876	98.25
464.096	95.25
464.316	97.25
464.536	83.25
464.755	104.25
464.975	111.25
465.195	134.25
465.414	130.25
465.634	88.25
465.854	82.25
466.073	102.25
466.293	88.25
466.512	96.25
466.732	75.25
466.951	83.25
467.171	92.25
467.391	98.25
467.61	106.25
467.829	84.25
468.049	93.25
468.268	106.25
468.488	98.25
468.707	91.25
468.927	90.25
469.146	93.25
469.365	72.25
469.585	88.25
469.804	82.25
470.023	92.25
470.243	86.25
470.462	99.25
470.681	104.25
470.901	80.25
471.12	90.25
471.339	82.25
471.558	80.25
471.777	87.25
471.997	84.25
472.216	118.25
472.435	163.25
472.654	110.25
472.873	97.25
473.092	83.25
473.311	109.25
473.53	95.25
473.749	95.25
473.968	104.25
474.187	103.25
474.406	103.25
474.625	87.25
474.844	87.25
475.063	95.25
475.282	95.25
475.501	85.25
475.72	87.25
475.939	83.25
476.158	88.25
476.377	79.25
476.596	87.25
476.814	87.25
477.033	79.25
477.252	74.25
477.471	81.25
477.69	82.25
477.908	90.25
478.127	100.25
478.346	96.25
478.564	95.25
478.783	101.25
479.002	111.25
479.22	81.25
479.439	90.25
479.658	90.25
479.876	95.25
480.095	100.25
480.313	101.25
480.532	87.25
480.751	82.25
480.969	103.25
481.188	233.25
481.406	176.25
481.624	99.25
481.843	99.25
482.061	98.25
482.28	74.25
482.498	91.25
482.717	91.25
482.935	99.25
483.153	101.25
483.372	94.25
483.59	90.25
483.808	97.25
484.027	97.25
484.245	97.25
484.463	90.25
484.681	92.25
484.9	96.25
485.118	95.25
485.336	113.25
485.554	102.25
485.772	111.25
485.99	96.25
486.209	97.25
486.427	112.25
486.645	100.25
486.863	98.25
487.081	101.25
487.299	110.25
487.517	95.25
487.735	102.25
487.953	93.25
488.171	85.25
488.389	80.25
488.607	99.25
488.825	78.25
489.043	99.25
489.261	86.25
489.479	97.25
489.696	88.25
489.914	89.25
490.132	96.25
490.35	89.25
490.568	88.25
490.786	84.25
491.003	97.25
491.221	91.25
491.439	93.25
491.657	100.25
491.874	102.25
492.092	88.25
492.31	89.25
492.527	83.25
492.745	89.25
492.963	88.25
493.18	99.25
493.398	94.25
493.615	88.25
493.833	87.25
494.05	77.25
494.268	90.25
494.485	92.25
494.703	87.25
494.92	85.25
495.138	101.25
495.355	98.25
495.573	86.25
495.79	83.25
496.008	89.25
496.225	96.25
496.442	90.25
496.66	74.25
496.877	74.25
497.094	102.25
497.312	96.25
497.529	81.25
497.746	102.25
497.963	84.25
498.181	86.25
498.398	81.25
498.615	99.25
498.832	104.25
499.049	84.25
499.267	84.25
499.484	82.25
499.701	94.25
499.918	88.25
500.135	80.25
500.352	81.25
500.569	97.25
500.786	76.25
501.003	86.25
501.22	83.25
501.437	85.25
501.654	81.25
501.871	100.25
502.088	90.25
502.305	90.25
502.522	81.25
502.739	75.25
502.956	96.25
503.172	83.25
503.389	103.25
503.606	86.25
503.823	95.25
504.04	88.25
504.256	88.25
504.473	102.25
504.69	98.25
504.907	96.25
505.123	83.25
505.34	89.25
505.557	87.25
505.773	84.25
505.99	92.25
506.207	86.25
506.423	91.25
506.64	87.25
506.856	83.25
507.073	86.25
507.289	95.25
507.506	96.25
507.722	92.25
507.939	92.25
508.155	90.25
508.372	97.25
508.588	105.25
508.805	88.25
509.021	80.25
509.238	92.25
509.454	94.25
509.67	93.25
509.887	102.25
510.103	112.25
510.319	178.25
510.536	578.25
510.752	1732.25
510.968	499.25
511.184	144.25
511.401	104.25
511.617	91.25
511.833	104.25
512.049	78.25
512.265	87.25
512.481	100.25
512.698	85.25
512.914	87.25
513.13	90.25
513.346	88.25
513.562	94.25
513.778	104.25
513.994	81.25
514.21	101.25
514.426	109.25
514.642	122.25
514.858	112.25
515.074	166.25
515.29	344.25
515.506	1079.25
515.721	403.25
515.937	137.25
516.153	96.25
