Data from Circ_2002_H10_HRD10591_00019.txt Node
Date: Wed Jan 03 10:41:02 EST 2024
User: Yrep
Spectrometer: HR+D1059
Trigger mode: 1
Integration Time (sec): 1.000000E-1
Scans to average: 1
Electric dark correction enabled: true
Nonlinearity correction enabled: false
Boxcar width: 0
XAxis mode: Wavelengths
Number of Pixels in Spectrum: 2048
>>>>>Begin Spectral Data<<<<<
223.165	-30.69
223.4	-30.69
223.635	-30.69
223.869	-15.69
224.104	-10.69
224.338	-4.69
224.573	-12.69
224.808	-8.69
225.042	-10.69
225.277	-7.69
225.511	-6.69
225.746	1.31
225.98	2.31
226.215	14.31
226.449	11.31
226.683	18.31
226.918	28.31
227.152	32.31
227.387	31.31
227.621	38.31
227.856	23.31
228.09	51.31
228.324	54.31
228.559	54.31
228.793	54.31
229.027	70.31
229.262	54.31
229.496	83.31
229.73	86.31
229.964	76.31
230.199	72.31
230.433	70.31
230.667	78.31
230.901	74.31
231.136	75.31
231.37	79.31
231.604	72.31
231.838	83.31
232.072	102.31
232.306	90.31
232.541	73.31
232.775	94.31
233.009	68.31
233.243	81.31
233.477	84.31
233.711	83.31
233.945	74.31
234.179	70.31
234.413	81.31
234.647	72.31
234.881	83.31
235.115	78.31
235.349	87.31
235.583	74.31
235.817	95.31
236.051	90.31
236.285	66.31
236.519	79.31
236.753	92.31
236.987	90.31
237.221	77.31
237.455	85.31
237.689	77.31
237.922	65.31
238.156	72.31
238.39	68.31
238.624	71.31
238.858	84.31
239.091	76.31
239.325	81.31
239.559	77.31
239.793	78.31
240.027	74.31
240.26	84.31
240.494	73.31
240.728	88.31
240.961	94.31
241.195	86.31
241.429	70.31
241.662	83.31
241.896	76.31
242.13	80.31
242.363	90.31
242.597	68.31
242.83	73.31
243.064	85.31
243.298	71.31
243.531	86.31
243.765	74.31
243.998	90.31
244.232	94.31
244.465	90.31
244.699	91.31
244.932	71.31
245.166	71.31
245.399	90.31
245.633	90.31
245.866	92.31
246.099	73.31
246.333	74.31
246.566	66.31
246.8	73.31
247.033	73.31
247.266	84.31
247.5	89.31
247.733	80.31
247.966	73.31
248.2	79.31
248.433	59.31
248.666	73.31
248.899	77.31
249.133	98.31
249.366	97.31
249.599	91.31
249.832	73.31
250.066	87.31
250.299	83.31
250.532	83.31
250.765	84.31
250.998	74.31
251.231	81.31
251.465	87.31
251.698	75.31
251.931	86.31
252.164	71.31
252.397	76.31
252.63	73.31
252.863	82.31
253.096	76.31
253.329	71.31
253.562	77.31
253.795	97.31
254.028	89.31
254.261	84.31
254.494	78.31
254.727	96.31
254.96	83.31
255.193	73.31
255.426	68.31
255.659	81.31
255.892	92.31
256.124	106.31
256.357	78.31
256.59	74.31
256.823	95.31
257.056	89.31
257.289	92.31
257.521	78.31
257.754	84.31
257.987	81.31
258.22	81.31
258.452	87.31
258.685	94.31
258.918	88.31
259.151	79.31
259.383	82.31
259.616	72.31
259.849	91.31
260.081	75.31
260.314	82.31
260.547	85.31
260.779	81.31
261.012	81.31
261.244	90.31
261.477	97.31
261.71	92.31
261.942	115.31
262.175	134.31
262.407	83.31
262.64	78.31
262.872	88.31
263.105	86.31
263.337	78.31
263.57	84.31
263.802	82.31
264.035	81.31
264.267	80.31
264.499	77.31
264.732	73.31
264.964	76.31
265.197	68.31
265.429	77.31
265.661	84.31
265.894	86.31
266.126	100.31
266.358	85.31
266.591	76.31
266.823	82.31
267.055	78.31
267.287	90.31
267.52	88.31
267.752	72.31
267.984	78.31
268.216	75.31
268.448	77.31
268.681	103.31
268.913	80.31
269.145	75.31
269.377	96.31
269.609	79.31
269.841	79.31
270.073	80.31
270.306	98.31
270.538	91.31
270.77	79.31
271.002	95.31
271.234	83.31
271.466	83.31
271.698	86.31
271.93	84.31
272.162	87.31
272.394	85.31
272.626	74.31
272.858	78.31
273.09	68.31
273.322	93.31
273.553	85.31
273.785	81.31
274.017	92.31
274.249	82.31
274.481	98.31
274.713	86.31
274.945	87.31
275.176	89.31
275.408	95.31
275.64	91.31
275.872	78.31
276.104	91.31
276.335	94.31
276.567	95.31
276.799	115.31
277.031	101.31
277.262	73.31
277.494	85.31
277.726	95.31
277.957	98.31
278.189	89.31
278.421	84.31
278.652	101.31
278.884	87.31
279.115	87.31
279.347	91.31
279.579	87.31
279.81	89.31
280.042	96.31
280.273	89.31
280.505	82.31
280.736	82.31
280.968	93.31
281.199	88.31
281.431	81.31
281.662	92.31
281.894	95.31
282.125	121.31
282.356	138.31
282.588	158.31
282.819	126.31
283.051	96.31
283.282	80.31
283.513	70.31
283.745	96.31
283.976	97.31
284.207	103.31
284.439	94.31
284.67	103.31
284.901	89.31
285.132	83.31
285.364	100.31
285.595	94.31
285.826	83.31
286.057	90.31
286.288	84.31
286.52	86.31
286.751	90.31
286.982	100.31
287.213	89.31
287.444	99.31
287.675	87.31
287.906	94.31
288.138	90.31
288.369	99.31
288.6	91.31
288.831	88.31
289.062	99.31
289.293	78.31
289.524	94.31
289.755	84.31
289.986	90.31
290.217	80.31
290.448	86.31
290.679	82.31
290.91	80.31
291.141	74.31
291.371	92.31
291.602	91.31
291.833	89.31
292.064	87.31
292.295	89.31
292.526	84.31
292.757	90.31
292.987	89.31
293.218	90.31
293.449	79.31
293.68	96.31
293.91	84.31
294.141	94.31
294.372	97.31
294.603	90.31
294.833	79.31
295.064	91.31
295.295	90.31
295.525	98.31
295.756	94.31
295.987	114.31
296.217	149.31
296.448	135.31
296.679	109.31
296.909	91.31
297.14	79.31
297.37	87.31
297.601	90.31
297.831	84.31
298.062	84.31
298.292	87.31
298.523	92.31
298.753	87.31
298.984	81.31
299.214	99.31
299.445	74.31
299.675	84.31
299.905	90.31
300.136	94.31
300.366	90.31
300.597	99.31
300.827	84.31
301.057	92.31
301.288	112.31
301.518	79.31
301.748	73.31
301.979	105.31
302.209	104.31
302.439	102.31
302.669	96.31
302.9	82.31
303.13	89.31
303.36	97.31
303.59	102.31
303.82	96.31
304.051	109.31
304.281	115.31
304.511	69.31
304.741	95.31
304.971	80.31
305.201	99.31
305.431	99.31
305.661	85.31
305.891	100.31
306.121	97.31
306.352	98.31
306.582	107.31
306.812	93.31
307.042	90.31
307.272	94.31
307.502	90.31
307.731	95.31
307.961	103.31
308.191	93.31
308.421	103.31
308.651	100.31
308.881	111.31
309.111	86.31
309.341	98.31
309.571	102.31
309.8	111.31
310.03	103.31
310.26	100.31
310.49	99.31
310.72	96.31
310.949	102.31
311.179	110.31
311.409	98.31
311.639	96.31
311.868	91.31
312.098	96.31
312.328	89.31
312.557	104.31
312.787	116.31
313.017	105.31
313.246	89.31
313.476	92.31
313.706	86.31
313.935	87.31
314.165	107.31
314.394	113.31
314.624	92.31
314.853	89.31
315.083	95.31
315.312	90.31
315.542	92.31
315.771	103.31
316.001	80.31
316.23	102.31
316.46	100.31
316.689	83.31
316.919	91.31
317.148	100.31
317.377	91.31
317.607	110.31
317.836	98.31
318.065	96.31
318.295	98.31
318.524	100.31
318.753	93.31
318.983	110.31
319.212	108.31
319.441	105.31
319.67	112.31
319.9	99.31
320.129	87.31
320.358	97.31
320.587	106.31
320.816	98.31
321.046	109.31
321.275	110.31
321.504	100.31
321.733	88.31
321.962	91.31
322.191	104.31
322.42	104.31
322.649	118.31
322.878	126.31
323.108	134.31
323.337	124.31
323.566	135.31
323.795	174.31
324.024	227.31
324.253	490.31
324.482	1042.31
324.71	2177.31
324.939	2829.31
325.168	986.31
325.397	278.31
325.626	185.31
325.855	152.31
326.084	140.31
326.313	153.31
326.542	169.31
326.77	291.31
326.999	562.31
327.228	1174.31
327.457	2169.31
327.686	1627.31
327.914	445.31
328.143	219.31
328.372	163.31
328.6	112.31
328.829	111.31
329.058	155.31
329.287	133.31
329.515	120.31
329.744	111.31
329.972	100.31
330.201	91.31
330.43	111.31
330.658	132.31
330.887	156.31
331.115	134.31
331.344	110.31
331.572	89.31
331.801	108.31
332.03	112.31
332.258	110.31
332.486	82.31
332.715	101.31
332.943	89.31
333.172	82.31
333.4	114.31
333.629	109.31
333.857	100.31
334.085	114.31
334.314	103.31
334.542	89.31
334.771	101.31
334.999	110.31
335.227	116.31
335.455	88.31
335.684	98.31
335.912	100.31
336.14	105.31
336.369	96.31
336.597	105.31
336.825	100.31
337.053	87.31
337.281	95.31
337.51	98.31
337.738	107.31
337.966	99.31
338.194	103.31
338.422	88.31
338.65	95.31
338.878	107.31
339.106	94.31
339.334	100.31
339.562	98.31
339.79	100.31
340.018	87.31
340.246	96.31
340.474	103.31
340.702	90.31
340.93	96.31
341.158	91.31
341.386	91.31
341.614	100.31
341.842	102.31
342.07	98.31
342.298	79.31
342.526	97.31
342.754	102.31
342.981	86.31
343.209	103.31
343.437	81.31
343.665	97.31
343.893	103.31
344.12	97.31
344.348	93.31
344.576	99.31
344.804	99.31
345.031	99.31
345.259	107.31
345.487	110.31
345.714	100.31
345.942	96.31
346.17	95.31
346.397	99.31
346.625	103.31
346.853	89.31
347.08	95.31
347.308	99.31
347.535	93.31
347.763	105.31
347.99	115.31
348.218	120.31
348.445	98.31
348.673	100.31
348.9	97.31
349.128	86.31
349.355	98.31
349.583	92.31
349.81	93.31
350.037	95.31
350.265	95.31
350.492	97.31
350.72	95.31
350.947	100.31
351.174	108.31
351.402	117.31
351.629	100.31
351.856	103.31
352.083	104.31
352.311	114.31
352.538	93.31
352.765	108.31
352.992	116.31
353.22	106.31
353.447	126.31
353.674	108.31
353.901	96.31
354.128	100.31
354.355	105.31
354.583	99.31
354.81	118.31
355.037	92.31
355.264	94.31
355.491	92.31
355.718	106.31
355.945	106.31
356.172	84.31
356.399	103.31
356.626	88.31
356.853	94.31
357.08	89.31
357.307	102.31
357.534	91.31
357.761	106.31
357.988	103.31
358.215	104.31
358.441	98.31
358.668	91.31
358.895	90.31
359.122	95.31
359.349	109.31
359.576	96.31
359.802	116.31
360.029	119.31
360.256	128.31
360.483	115.31
360.709	103.31
360.936	82.31
361.163	98.31
361.39	102.31
361.616	107.31
361.843	95.31
362.07	100.31
362.296	100.31
362.523	91.31
362.749	89.31
362.976	92.31
363.203	89.31
363.429	94.31
363.656	82.31
363.882	80.31
364.109	87.31
364.335	86.31
364.562	89.31
364.788	91.31
365.015	105.31
365.241	96.31
365.468	105.31
365.694	100.31
365.92	96.31
366.147	90.31
366.373	86.31
366.599	82.31
366.826	83.31
367.052	84.31
367.278	88.31
367.505	102.31
367.731	89.31
367.957	88.31
368.184	95.31
368.41	98.31
368.636	102.31
368.862	112.31
369.089	103.31
369.315	87.31
369.541	98.31
369.767	96.31
369.993	81.31
370.219	104.31
370.445	82.31
370.672	95.31
370.898	92.31
371.124	99.31
371.35	103.31
371.576	96.31
371.802	80.31
372.028	91.31
372.254	91.31
372.48	100.31
372.706	97.31
372.932	95.31
373.158	92.31
373.384	100.31
373.61	103.31
373.835	91.31
374.061	89.31
374.287	96.31
374.513	100.31
374.739	88.31
374.965	74.31
375.191	91.31
375.416	90.31
375.642	94.31
375.868	89.31
376.094	89.31
376.319	89.31
376.545	82.31
376.771	84.31
376.997	101.31
377.222	95.31
377.448	90.31
377.674	88.31
377.899	88.31
378.125	100.31
378.35	81.31
378.576	97.31
378.802	107.31
379.027	82.31
379.253	96.31
379.478	112.31
379.704	92.31
379.929	109.31
380.155	108.31
380.38	115.31
380.606	87.31
380.831	90.31
381.057	97.31
381.282	98.31
381.507	104.31
381.733	92.31
381.958	91.31
382.184	82.31
382.409	101.31
382.634	118.31
382.86	105.31
383.085	103.31
383.31	104.31
383.535	105.31
383.761	106.31
383.986	106.31
384.211	91.31
384.436	91.31
384.662	104.31
384.887	123.31
385.112	116.31
385.337	108.31
385.562	115.31
385.787	115.31
386.013	117.31
386.238	123.31
386.463	97.31
386.688	113.31
386.913	125.31
387.138	114.31
387.363	113.31
387.588	96.31
387.813	89.31
388.038	117.31
388.263	130.31
388.488	132.31
388.713	91.31
388.938	92.31
389.163	96.31
389.387	97.31
389.612	100.31
389.837	96.31
390.062	91.31
390.287	100.31
390.512	82.31
390.736	94.31
390.961	103.31
391.186	92.31
391.411	95.31
391.636	104.31
391.86	86.31
392.085	76.31
392.31	77.31
392.534	82.31
392.759	88.31
392.984	86.31
393.208	97.31
393.433	102.31
393.658	80.31
393.882	85.31
394.107	82.31
394.331	83.31
394.556	76.31
394.78	95.31
395.005	98.31
395.229	100.31
395.454	88.31
395.678	95.31
395.903	92.31
396.127	102.31
396.352	81.31
396.576	83.31
396.801	87.31
397.025	103.31
397.249	89.31
397.474	82.31
397.698	111.31
397.922	81.31
398.147	84.31
398.371	88.31
398.595	87.31
398.82	103.31
399.044	91.31
399.268	75.31
399.492	84.31
399.717	99.31
399.941	97.31
400.165	93.31
400.389	78.31
400.613	89.31
400.837	86.31
401.062	89.31
401.286	107.31
401.51	91.31
401.734	79.31
401.958	121.31
402.182	143.31
402.406	167.31
402.63	123.31
402.854	107.31
403.078	93.31
403.302	92.31
403.526	81.31
403.75	91.31
403.974	100.31
404.198	86.31
404.422	96.31
404.645	90.31
404.869	99.31
405.093	96.31
405.317	113.31
405.541	85.31
405.765	116.31
405.988	133.31
406.212	192.31
406.436	280.31
406.66	194.31
406.883	115.31
407.107	102.31
407.331	95.31
407.555	106.31
407.778	88.31
408.002	107.31
408.226	88.31
408.449	91.31
408.673	101.31
408.896	94.31
409.12	99.31
409.344	107.31
409.567	85.31
409.791	92.31
410.014	88.31
410.238	92.31
410.461	98.31
410.685	91.31
410.908	86.31
411.132	102.31
411.355	96.31
411.578	90.31
411.802	87.31
412.025	90.31
412.249	84.31
412.472	92.31
412.695	85.31
412.919	84.31
413.142	81.31
413.365	83.31
413.589	100.31
413.812	96.31
414.035	92.31
414.258	98.31
414.482	78.31
414.705	86.31
414.928	78.31
415.151	107.31
415.374	82.31
415.597	86.31
415.821	84.31
416.044	85.31
416.267	74.31
416.49	83.31
416.713	87.31
416.936	90.31
417.159	82.31
417.382	99.31
417.605	86.31
417.828	101.31
418.051	103.31
418.274	101.31
418.497	101.31
418.72	95.31
418.943	79.31
419.166	77.31
419.389	81.31
419.611	72.31
419.834	99.31
420.057	96.31
420.28	87.31
420.503	90.31
420.726	88.31
420.948	91.31
421.171	98.31
421.394	82.31
421.617	95.31
421.839	97.31
422.062	87.31
422.285	90.31
422.507	97.31
422.73	101.31
422.953	83.31
423.175	85.31
423.398	90.31
423.621	94.31
423.843	77.31
424.066	92.31
424.288	92.31
424.511	83.31
424.733	91.31
424.956	112.31
425.178	110.31
425.401	102.31
425.623	91.31
425.846	96.31
426.068	114.31
426.291	101.31
426.513	88.31
426.735	95.31
426.958	102.31
427.18	111.31
427.402	147.31
427.625	208.31
427.847	140.31
428.069	96.31
428.292	88.31
428.514	102.31
428.736	74.31
428.958	78.31
429.181	91.31
429.403	97.31
429.625	72.31
429.847	92.31
430.069	103.31
430.292	85.31
430.514	103.31
430.736	97.31
430.958	77.31
431.18	86.31
431.402	98.31
431.624	91.31
431.846	84.31
432.068	100.31
432.29	97.31
432.512	97.31
432.734	95.31
432.956	96.31
433.178	100.31
433.4	107.31
433.622	101.31
433.844	97.31
434.066	83.31
434.287	101.31
434.509	102.31
434.731	93.31
434.953	90.31
435.175	88.31
435.397	96.31
435.618	99.31
435.84	107.31
436.062	130.31
436.284	123.31
436.505	110.31
436.727	107.31
436.949	95.31
437.17	89.31
437.392	100.31
437.614	95.31
437.835	100.31
438.057	120.31
438.278	120.31
438.5	102.31
438.721	130.31
438.943	110.31
439.165	88.31
439.386	74.31
439.608	97.31
439.829	99.31
440.05	144.31
440.272	164.31
440.493	108.31
440.715	89.31
440.936	76.31
441.158	99.31
441.379	104.31
441.6	98.31
441.822	104.31
442.043	96.31
442.264	111.31
442.486	97.31
442.707	102.31
442.928	105.31
443.149	156.31
443.371	146.31
443.592	118.31
443.813	126.31
444.034	124.31
444.255	95.31
444.476	76.31
444.698	97.31
444.919	82.31
445.14	138.31
445.361	148.31
445.582	129.31
445.803	155.31
446.024	146.31
446.245	136.31
446.466	104.31
446.687	87.31
446.908	102.31
447.129	84.31
447.35	89.31
447.571	95.31
447.792	87.31
448.013	107.31
448.234	119.31
448.455	114.31
448.675	121.31
448.896	123.31
449.117	115.31
449.338	93.31
449.559	132.31
449.779	142.31
450	98.31
450.221	77.31
450.442	88.31
450.662	109.31
450.883	105.31
451.104	115.31
451.324	99.31
451.545	92.31
451.766	81.31
451.986	87.31
452.207	83.31
452.428	92.31
452.648	96.31
452.869	123.31
453.089	111.31
453.31	116.31
453.53	102.31
453.751	80.31
453.971	115.31
454.192	110.31
454.412	91.31
454.633	78.31
454.853	95.31
455.073	85.31
455.294	71.31
455.514	89.31
455.734	92.31
455.955	100.31
456.175	91.31
456.395	78.31
456.616	82.31
456.836	95.31
457.056	84.31
457.276	81.31
457.497	81.31
457.717	80.31
457.937	102.31
458.157	95.31
458.377	90.31
458.598	123.31
458.818	158.31
459.038	182.31
459.258	115.31
459.478	98.31
459.698	89.31
459.918	91.31
460.138	93.31
460.358	84.31
460.578	89.31
460.798	100.31
461.018	95.31
461.238	85.31
461.458	90.31
461.678	87.31
461.898	86.31
462.118	100.31
462.338	89.31
462.558	88.31
462.777	95.31
462.997	91.31
463.217	97.31
463.437	86.31
463.657	98.31
463.876	82.31
464.096	100.31
464.316	108.31
464.536	87.31
464.755	100.31
464.975	116.31
465.195	198.31
465.414	198.31
465.634	120.31
465.854	91.31
466.073	82.31
466.293	75.31
466.512	86.31
466.732	82.31
466.951	96.31
467.171	90.31
467.391	110.31
467.61	114.31
467.829	104.31
468.049	97.31
468.268	84.31
468.488	96.31
468.707	82.31
468.927	78.31
469.146	80.31
469.365	82.31
469.585	79.31
469.804	100.31
470.023	104.31
470.243	78.31
470.462	116.31
470.681	120.31
470.901	88.31
471.12	81.31
471.339	83.31
471.558	86.31
471.777	96.31
471.997	82.31
472.216	100.31
472.435	73.31
472.654	73.31
472.873	82.31
473.092	92.31
473.311	91.31
473.53	96.31
473.749	94.31
473.968	87.31
474.187	110.31
474.406	101.31
474.625	82.31
474.844	94.31
475.063	86.31
475.282	75.31
475.501	85.31
475.72	79.31
475.939	99.31
476.158	71.31
476.377	74.31
476.596	87.31
476.814	97.31
477.033	103.31
477.252	76.31
477.471	91.31
477.69	82.31
477.908	88.31
478.127	95.31
478.346	85.31
478.564	90.31
478.783	94.31
479.002	102.31
479.22	87.31
479.439	99.31
479.658	115.31
479.876	90.31
480.095	88.31
480.313	107.31
480.532	91.31
480.751	79.31
480.969	89.31
481.188	104.31
481.406	104.31
481.624	109.31
481.843	97.31
482.061	83.31
482.28	79.31
482.498	81.31
482.717	90.31
482.935	87.31
483.153	84.31
483.372	82.31
483.59	89.31
483.808	86.31
484.027	103.31
484.245	92.31
484.463	95.31
484.681	117.31
484.9	86.31
485.118	93.31
485.336	99.31
485.554	110.31
485.772	95.31
485.99	105.31
486.209	130.31
486.427	119.31
486.645	109.31
486.863	126.31
487.081	107.31
487.299	105.31
487.517	90.31
487.735	89.31
487.953	92.31
488.171	93.31
488.389	99.31
488.607	108.31
488.825	97.31
489.043	102.31
489.261	101.31
489.479	85.31
489.696	108.31
489.914	78.31
490.132	100.31
490.35	91.31
490.568	108.31
490.786	94.31
491.003	87.31
491.221	87.31
491.439	83.31
491.657	82.31
491.874	83.31
492.092	80.31
492.31	94.31
492.527	91.31
492.745	87.31
492.963	93.31
493.18	88.31
493.398	93.31
493.615	100.31
493.833	93.31
494.05	86.31
494.268	82.31
494.485	90.31
494.703	97.31
494.92	87.31
495.138	80.31
495.355	82.31
495.573	99.31
495.79	89.31
496.008	98.31
496.225	105.31
496.442	95.31
496.66	97.31
496.877	94.31
497.094	100.31
497.312	98.31
497.529	84.31
497.746	96.31
497.963	71.31
498.181	92.31
498.398	91.31
498.615	107.31
498.832	128.31
499.049	106.31
499.267	101.31
499.484	101.31
499.701	106.31
499.918	92.31
500.135	90.31
500.352	84.31
500.569	95.31
500.786	88.31
501.003	82.31
501.22	83.31
501.437	95.31
501.654	92.31
501.871	116.31
502.088	90.31
502.305	104.31
502.522	89.31
502.739	91.31
502.956	102.31
503.172	94.31
503.389	103.31
503.606	123.31
503.823	98.31
504.04	94.31
504.256	92.31
504.473	100.31
504.69	79.31
504.907	91.31
505.123	97.31
505.34	93.31
505.557	85.31
505.773	100.31
505.99	84.31
506.207	90.31
506.423	85.31
506.64	85.31
506.856	99.31
507.073	82.31
507.289	75.31
507.506	97.31
507.722	138.31
507.939	124.31
508.155	111.31
508.372	106.31
508.588	96.31
508.805	85.31
509.021	112.31
509.238	112.31
509.454	103.31
509.67	105.31
509.887	107.31
510.103	139.31
510.319	233.31
510.536	809.31
510.752	2692.31
510.968	731.31
511.184	158.31
511.401	102.31
511.617	93.31
511.833	96.31
512.049	89.31
512.265	96.31
512.481	83.31
512.698	99.31
512.914	90.31
513.13	104.31
513.346	93.31
513.562	90.31
513.778	104.31
513.994	105.31
514.21	108.31
514.426	141.31
