Data from Circ_2002_H10_HRD10591_00021.txt Node
Date: Wed Jan 03 10:41:02 EST 2024
User: Yrep
Spectrometer: HR+D1059
Trigger mode: 1
Integration Time (sec): 1.000000E-1
Scans to average: 1
Electric dark correction enabled: true
Nonlinearity correction enabled: false
Boxcar width: 0
XAxis mode: Wavelengths
Number of Pixels in Spectrum: 2048
>>>>>Begin Spectral Data<<<<<
223.165	-20.56
223.4	-20.56
223.635	-20.56
223.869	-20.56
224.104	-27.56
224.338	-4.56
224.573	-17.56
224.808	-15.56
225.042	-12.56
225.277	11.44
225.511	-1.56
225.746	8.44
225.98	2.44
226.215	-0.56
226.449	27.44
226.683	15.44
226.918	22.44
227.152	33.44
227.387	43.44
227.621	33.44
227.856	52.44
228.09	64.44
228.324	59.44
228.559	55.44
228.793	60.44
229.027	66.44
229.262	57.44
229.496	64.44
229.73	75.44
229.964	97.44
230.199	64.44
230.433	76.44
230.667	80.44
230.901	83.44
231.136	72.44
231.37	84.44
231.604	90.44
231.838	92.44
232.072	89.44
232.306	74.44
232.541	78.44
232.775	94.44
233.009	74.44
233.243	80.44
233.477	87.44
233.711	76.44
233.945	81.44
234.179	82.44
234.413	80.44
234.647	90.44
234.881	83.44
235.115	76.44
235.349	78.44
235.583	87.44
235.817	84.44
236.051	66.44
236.285	82.44
236.519	82.44
236.753	75.44
236.987	74.44
237.221	67.44
237.455	85.44
237.689	65.44
237.922	70.44
238.156	83.44
238.39	79.44
238.624	75.44
238.858	81.44
239.091	74.44
239.325	86.44
239.559	93.44
239.793	73.44
240.027	88.44
240.26	73.44
240.494	87.44
240.728	78.44
240.961	68.44
241.195	74.44
241.429	72.44
241.662	70.44
241.896	82.44
242.13	76.44
242.363	71.44
242.597	77.44
242.83	80.44
243.064	89.44
243.298	69.44
243.531	75.44
243.765	75.44
243.998	84.44
244.232	87.44
244.465	74.44
244.699	92.44
244.932	75.44
245.166	85.44
245.399	76.44
245.633	91.44
245.866	72.44
246.099	85.44
246.333	96.44
246.566	65.44
246.8	88.44
247.033	82.44
247.266	66.44
247.5	66.44
247.733	79.44
247.966	83.44
248.2	81.44
248.433	74.44
248.666	86.44
248.899	74.44
249.133	85.44
249.366	99.44
249.599	97.44
249.832	91.44
250.066	86.44
250.299	81.44
250.532	91.44
250.765	80.44
250.998	67.44
251.231	85.44
251.465	82.44
251.698	82.44
251.931	82.44
252.164	77.44
252.397	72.44
252.63	79.44
252.863	72.44
253.096	98.44
253.329	85.44
253.562	84.44
253.795	91.44
254.028	88.44
254.261	81.44
254.494	90.44
254.727	77.44
254.96	79.44
255.193	73.44
255.426	81.44
255.659	72.44
255.892	79.44
256.124	91.44
256.357	83.44
256.59	81.44
256.823	72.44
257.056	90.44
257.289	72.44
257.521	82.44
257.754	83.44
257.987	81.44
258.22	73.44
258.452	72.44
258.685	79.44
258.918	73.44
259.151	84.44
259.383	88.44
259.616	90.44
259.849	89.44
260.081	85.44
260.314	79.44
260.547	100.44
260.779	90.44
261.012	67.44
261.244	94.44
261.477	70.44
261.71	100.44
261.942	113.44
262.175	121.44
262.407	101.44
262.64	84.44
262.872	88.44
263.105	78.44
263.337	85.44
263.57	72.44
263.802	96.44
264.035	94.44
264.267	88.44
264.499	102.44
264.732	78.44
264.964	84.44
265.197	78.44
265.429	75.44
265.661	81.44
265.894	78.44
266.126	95.44
266.358	82.44
266.591	83.44
266.823	97.44
267.055	85.44
267.287	80.44
267.52	80.44
267.752	88.44
267.984	83.44
268.216	84.44
268.448	80.44
268.681	90.44
268.913	89.44
269.145	94.44
269.377	82.44
269.609	87.44
269.841	86.44
270.073	84.44
270.306	85.44
270.538	82.44
270.77	83.44
271.002	81.44
271.234	84.44
271.466	85.44
271.698	89.44
271.93	89.44
272.162	91.44
272.394	89.44
272.626	89.44
272.858	93.44
273.09	69.44
273.322	68.44
273.553	74.44
273.785	94.44
274.017	86.44
274.249	90.44
274.481	87.44
274.713	90.44
274.945	96.44
275.176	75.44
275.408	89.44
275.64	82.44
275.872	86.44
276.104	84.44
276.335	101.44
276.567	99.44
276.799	110.44
277.031	103.44
277.262	98.44
277.494	103.44
277.726	101.44
277.957	81.44
278.189	97.44
278.421	83.44
278.652	78.44
278.884	81.44
279.115	74.44
279.347	86.44
279.579	78.44
279.81	96.44
280.042	85.44
280.273	80.44
280.505	93.44
280.736	96.44
280.968	91.44
281.199	101.44
281.431	79.44
281.662	73.44
281.894	87.44
282.125	90.44
282.356	113.44
282.588	142.44
282.819	105.44
283.051	83.44
283.282	102.44
283.513	81.44
283.745	91.44
283.976	91.44
284.207	95.44
284.439	83.44
284.67	91.44
284.901	88.44
285.132	75.44
285.364	87.44
285.595	81.44
285.826	94.44
286.057	95.44
286.288	85.44
286.52	68.44
286.751	77.44
286.982	78.44
287.213	78.44
287.444	78.44
287.675	74.44
287.906	98.44
288.138	98.44
288.369	86.44
288.6	97.44
288.831	80.44
289.062	107.44
289.293	86.44
289.524	87.44
289.755	100.44
289.986	92.44
290.217	81.44
290.448	92.44
290.679	78.44
290.91	91.44
291.141	78.44
291.371	86.44
291.602	94.44
291.833	94.44
292.064	90.44
292.295	92.44
292.526	84.44
292.757	81.44
292.987	89.44
293.218	81.44
293.449	91.44
293.68	91.44
293.91	82.44
294.141	93.44
294.372	92.44
294.603	81.44
294.833	83.44
295.064	82.44
295.295	101.44
295.525	88.44
295.756	107.44
295.987	111.44
296.217	131.44
296.448	117.44
296.679	107.44
296.909	73.44
297.14	95.44
297.37	76.44
297.601	87.44
297.831	95.44
298.062	97.44
298.292	83.44
298.523	90.44
298.753	79.44
298.984	94.44
299.214	82.44
299.445	91.44
299.675	105.44
299.905	99.44
300.136	91.44
300.366	104.44
300.597	96.44
300.827	86.44
301.057	84.44
301.288	96.44
301.518	98.44
301.748	105.44
301.979	83.44
302.209	89.44
302.439	100.44
302.669	101.44
302.9	87.44
303.13	97.44
303.36	86.44
303.59	89.44
303.82	102.44
304.051	89.44
304.281	87.44
304.511	86.44
304.741	84.44
304.971	74.44
305.201	105.44
305.431	97.44
305.661	83.44
305.891	95.44
306.121	99.44
306.352	95.44
306.582	90.44
306.812	97.44
307.042	86.44
307.272	88.44
307.502	93.44
307.731	81.44
307.961	98.44
308.191	95.44
308.421	102.44
308.651	89.44
308.881	108.44
309.111	93.44
309.341	95.44
309.571	79.44
309.8	84.44
310.03	95.44
310.26	93.44
310.49	88.44
310.72	103.44
310.949	85.44
311.179	99.44
311.409	100.44
311.639	98.44
311.868	84.44
312.098	103.44
312.328	84.44
312.557	98.44
312.787	95.44
313.017	94.44
313.246	79.44
313.476	102.44
313.706	83.44
313.935	96.44
314.165	98.44
314.394	89.44
314.624	102.44
314.853	101.44
315.083	79.44
315.312	101.44
315.542	82.44
315.771	85.44
316.001	84.44
316.23	95.44
316.46	99.44
316.689	83.44
316.919	85.44
317.148	89.44
317.377	84.44
317.607	100.44
317.836	101.44
318.065	84.44
318.295	96.44
318.524	101.44
318.753	98.44
318.983	93.44
319.212	102.44
319.441	103.44
319.67	104.44
319.9	102.44
320.129	94.44
320.358	98.44
320.587	100.44
320.816	96.44
321.046	105.44
321.275	105.44
321.504	96.44
321.733	104.44
321.962	105.44
322.191	92.44
322.42	97.44
322.649	107.44
322.878	109.44
323.108	104.44
323.337	133.44
323.566	123.44
323.795	144.44
324.024	207.44
324.253	402.44
324.482	852.44
324.71	1776.44
324.939	2294.44
325.168	846.44
325.397	248.44
325.626	146.44
325.855	104.44
326.084	126.44
326.313	143.44
326.542	160.44
326.77	231.44
326.999	488.44
327.228	944.44
327.457	1765.44
327.686	1387.44
327.914	391.44
328.143	198.44
328.372	148.44
328.6	112.44
328.829	134.44
329.058	145.44
329.287	144.44
329.515	122.44
329.744	114.44
329.972	102.44
330.201	103.44
330.43	103.44
330.658	127.44
330.887	136.44
331.115	115.44
331.344	106.44
331.572	100.44
331.801	106.44
332.03	102.44
332.258	101.44
332.486	103.44
332.715	79.44
332.943	100.44
333.172	91.44
333.4	87.44
333.629	96.44
333.857	123.44
334.085	115.44
334.314	77.44
334.542	104.44
334.771	104.44
334.999	98.44
335.227	103.44
335.455	100.44
335.684	97.44
335.912	101.44
336.14	91.44
336.369	86.44
336.597	91.44
336.825	96.44
337.053	98.44
337.281	90.44
337.51	84.44
337.738	91.44
337.966	112.44
338.194	103.44
338.422	94.44
338.65	92.44
338.878	96.44
339.106	83.44
339.334	85.44
339.562	99.44
339.79	94.44
340.018	100.44
340.246	97.44
340.474	91.44
340.702	94.44
340.93	91.44
341.158	79.44
341.386	97.44
341.614	86.44
341.842	91.44
342.07	94.44
342.298	102.44
342.526	91.44
342.754	74.44
342.981	89.44
343.209	74.44
343.437	89.44
343.665	84.44
343.893	78.44
344.12	82.44
344.348	85.44
344.576	93.44
344.804	98.44
345.031	92.44
345.259	98.44
345.487	96.44
345.714	83.44
345.942	103.44
346.17	83.44
346.397	86.44
346.625	87.44
346.853	78.44
347.08	75.44
347.308	87.44
347.535	104.44
347.763	95.44
347.99	96.44
348.218	99.44
348.445	102.44
348.673	93.44
348.9	86.44
349.128	104.44
349.355	107.44
349.583	96.44
349.81	95.44
350.037	95.44
350.265	93.44
350.492	108.44
350.72	78.44
350.947	83.44
351.174	111.44
351.402	99.44
351.629	103.44
351.856	111.44
352.083	107.44
352.311	119.44
352.538	112.44
352.765	110.44
352.992	99.44
353.22	102.44
353.447	107.44
353.674	89.44
353.901	96.44
354.128	99.44
354.355	95.44
354.583	95.44
354.81	94.44
355.037	96.44
355.264	84.44
355.491	92.44
355.718	77.44
355.945	83.44
356.172	90.44
356.399	91.44
356.626	101.44
356.853	88.44
357.08	98.44
357.307	82.44
357.534	91.44
357.761	87.44
357.988	107.44
358.215	111.44
358.441	87.44
358.668	95.44
358.895	90.44
359.122	88.44
359.349	87.44
359.576	92.44
359.802	99.44
360.029	108.44
360.256	126.44
360.483	83.44
360.709	68.44
360.936	102.44
361.163	109.44
361.39	84.44
361.616	83.44
361.843	87.44
362.07	92.44
362.296	92.44
362.523	88.44
362.749	92.44
362.976	82.44
363.203	97.44
363.429	92.44
363.656	92.44
363.882	96.44
364.109	81.44
364.335	94.44
364.562	102.44
364.788	81.44
365.015	87.44
365.241	96.44
365.468	110.44
365.694	102.44
365.92	91.44
366.147	81.44
366.373	79.44
366.599	86.44
366.826	80.44
367.052	92.44
367.278	88.44
367.505	91.44
367.731	95.44
367.957	84.44
368.184	86.44
368.41	89.44
368.636	107.44
368.862	121.44
369.089	102.44
369.315	81.44
369.541	96.44
369.767	99.44
369.993	87.44
370.219	83.44
370.445	90.44
370.672	89.44
370.898	86.44
371.124	88.44
371.35	86.44
371.576	86.44
371.802	82.44
372.028	76.44
372.254	100.44
372.48	88.44
372.706	96.44
372.932	88.44
373.158	103.44
373.384	88.44
373.61	104.44
373.835	84.44
374.061	91.44
374.287	92.44
374.513	76.44
374.739	72.44
374.965	79.44
375.191	75.44
375.416	90.44
375.642	98.44
375.868	92.44
376.094	82.44
376.319	80.44
376.545	86.44
376.771	95.44
376.997	91.44
377.222	87.44
377.448	86.44
377.674	94.44
377.899	98.44
378.125	85.44
378.35	100.44
378.576	82.44
378.802	94.44
379.027	90.44
379.253	85.44
379.478	94.44
379.704	99.44
379.929	90.44
380.155	93.44
380.38	95.44
380.606	103.44
380.831	96.44
381.057	104.44
381.282	97.44
381.507	99.44
381.733	108.44
381.958	94.44
382.184	97.44
382.409	101.44
382.634	100.44
382.86	113.44
383.085	109.44
383.31	100.44
383.535	119.44
383.761	106.44
383.986	104.44
384.211	101.44
384.436	105.44
384.662	115.44
384.887	116.44
385.112	113.44
385.337	121.44
385.562	119.44
385.787	108.44
386.013	105.44
386.238	103.44
386.463	112.44
386.688	102.44
386.913	119.44
387.138	106.44
387.363	110.44
387.588	104.44
387.813	103.44
388.038	117.44
388.263	115.44
388.488	113.44
388.713	99.44
388.938	99.44
389.163	96.44
389.387	92.44
389.612	97.44
389.837	94.44
390.062	90.44
390.287	93.44
390.512	91.44
390.736	93.44
390.961	88.44
391.186	98.44
391.411	91.44
391.636	86.44
391.86	80.44
392.085	102.44
392.31	84.44
392.534	95.44
392.759	83.44
392.984	92.44
393.208	85.44
393.433	99.44
393.658	91.44
393.882	75.44
394.107	83.44
394.331	86.44
394.556	102.44
394.78	91.44
395.005	85.44
395.229	88.44
395.454	83.44
395.678	87.44
395.903	85.44
396.127	87.44
396.352	91.44
396.576	91.44
396.801	96.44
397.025	98.44
397.249	88.44
397.474	102.44
397.698	87.44
397.922	78.44
398.147	82.44
398.371	91.44
398.595	85.44
398.82	75.44
399.044	80.44
399.268	84.44
399.492	91.44
399.717	82.44
399.941	74.44
400.165	91.44
400.389	86.44
400.613	104.44
400.837	83.44
401.062	78.44
401.286	92.44
401.51	81.44
401.734	85.44
401.958	85.44
402.182	118.44
402.406	152.44
402.63	121.44
402.854	86.44
403.078	88.44
403.302	89.44
403.526	89.44
403.75	78.44
403.974	81.44
404.198	90.44
404.422	97.44
404.645	85.44
404.869	88.44
405.093	97.44
405.317	88.44
405.541	80.44
405.765	88.44
405.988	106.44
406.212	156.44
406.436	217.44
406.66	135.44
406.883	96.44
407.107	95.44
407.331	94.44
407.555	98.44
407.778	102.44
408.002	91.44
408.226	94.44
408.449	88.44
408.673	96.44
408.896	90.44
409.12	104.44
409.344	94.44
409.567	92.44
409.791	77.44
410.014	96.44
410.238	90.44
410.461	96.44
410.685	98.44
410.908	97.44
411.132	107.44
411.355	98.44
411.578	94.44
411.802	80.44
412.025	92.44
412.249	85.44
412.472	77.44
412.695	90.44
412.919	79.44
413.142	78.44
413.365	93.44
413.589	88.44
413.812	74.44
414.035	88.44
414.258	87.44
414.482	99.44
414.705	89.44
414.928	96.44
415.151	85.44
415.374	121.44
415.597	103.44
415.821	86.44
416.044	89.44
416.267	91.44
416.49	90.44
416.713	83.44
416.936	96.44
417.159	84.44
417.382	78.44
417.605	91.44
417.828	80.44
418.051	89.44
418.274	87.44
418.497	82.44
418.72	101.44
418.943	80.44
419.166	81.44
419.389	97.44
419.611	91.44
419.834	85.44
420.057	95.44
420.28	83.44
420.503	89.44
420.726	90.44
420.948	71.44
421.171	81.44
421.394	98.44
421.617	82.44
421.839	91.44
422.062	92.44
422.285	80.44
422.507	88.44
422.73	102.44
422.953	77.44
423.175	91.44
423.398	87.44
423.621	96.44
423.843	93.44
424.066	83.44
424.288	89.44
424.511	89.44
424.733	86.44
424.956	106.44
425.178	96.44
425.401	87.44
425.623	84.44
425.846	91.44
426.068	80.44
426.291	86.44
426.513	79.44
426.735	94.44
426.958	85.44
427.18	118.44
427.402	138.44
427.625	157.44
427.847	129.44
428.069	97.44
428.292	95.44
428.514	86.44
428.736	73.44
428.958	77.44
429.181	89.44
429.403	86.44
429.625	84.44
429.847	84.44
430.069	97.44
430.292	97.44
430.514	87.44
430.736	86.44
430.958	89.44
431.18	85.44
431.402	73.44
431.624	90.44
431.846	85.44
432.068	90.44
432.29	83.44
432.512	88.44
432.734	84.44
432.956	96.44
433.178	98.44
433.4	114.44
433.622	100.44
433.844	86.44
434.066	88.44
434.287	95.44
434.509	97.44
434.731	87.44
434.953	91.44
435.175	83.44
435.397	79.44
435.618	98.44
435.84	107.44
436.062	112.44
436.284	116.44
436.505	114.44
436.727	103.44
436.949	99.44
437.17	95.44
437.392	87.44
437.614	98.44
437.835	100.44
438.057	114.44
438.278	107.44
438.5	96.44
438.721	114.44
438.943	103.44
439.165	89.44
439.386	94.44
439.608	94.44
439.829	108.44
440.05	113.44
440.272	146.44
440.493	86.44
440.715	92.44
440.936	86.44
441.158	75.44
441.379	84.44
441.6	90.44
441.822	91.44
442.043	88.44
442.264	91.44
442.486	92.44
442.707	85.44
442.928	97.44
443.149	138.44
443.371	122.44
443.592	108.44
443.813	101.44
444.034	113.44
444.255	88.44
444.476	86.44
444.698	86.44
444.919	87.44
445.14	133.44
445.361	107.44
445.582	114.44
445.803	151.44
446.024	142.44
446.245	139.44
446.466	110.44
446.687	98.44
446.908	96.44
447.129	90.44
447.35	93.44
447.571	99.44
447.792	82.44
448.013	103.44
448.234	99.44
448.455	103.44
448.675	119.44
448.896	114.44
449.117	104.44
449.338	109.44
449.559	125.44
449.779	121.44
450	83.44
450.221	92.44
450.442	79.44
450.662	96.44
450.883	118.44
451.104	113.44
451.324	86.44
451.545	92.44
451.766	97.44
451.986	84.44
452.207	91.44
452.428	76.44
452.648	71.44
452.869	109.44
453.089	120.44
453.31	99.44
453.53	96.44
453.751	95.44
453.971	122.44
454.192	114.44
454.412	99.44
454.633	90.44
454.853	76.44
455.073	90.44
455.294	90.44
455.514	98.44
455.734	86.44
455.955	86.44
456.175	71.44
456.395	87.44
456.616	76.44
456.836	90.44
457.056	91.44
457.276	86.44
457.497	78.44
457.717	83.44
457.937	103.44
458.157	92.44
458.377	94.44
458.598	110.44
458.818	151.44
459.038	162.44
459.258	104.44
459.478	90.44
459.698	86.44
459.918	84.44
460.138	92.44
460.358	83.44
460.578	74.44
460.798	96.44
461.018	85.44
461.238	91.44
461.458	99.44
461.678	82.44
461.898	91.44
462.118	75.44
462.338	72.44
462.558	85.44
462.777	87.44
462.997	91.44
463.217	96.44
463.437	74.44
463.657	70.44
463.876	79.44
464.096	84.44
464.316	90.44
464.536	70.44
464.755	86.44
464.975	118.44
465.195	164.44
465.414	150.44
465.634	100.44
465.854	79.44
466.073	95.44
466.293	82.44
466.512	76.44
466.732	92.44
466.951	92.44
467.171	83.44
467.391	105.44
467.61	99.44
467.829	98.44
468.049	93.44
468.268	91.44
468.488	83.44
468.707	93.44
468.927	91.44
469.146	65.44
469.365	80.44
469.585	89.44
469.804	80.44
470.023	90.44
470.243	86.44
470.462	90.44
470.681	109.44
470.901	96.44
471.12	68.44
471.339	91.44
471.558	83.44
471.777	86.44
471.997	102.44
472.216	87.44
472.435	102.44
472.654	78.44
472.873	86.44
473.092	91.44
473.311	97.44
473.53	87.44
473.749	89.44
473.968	85.44
474.187	86.44
474.406	82.44
474.625	69.44
474.844	87.44
475.063	83.44
475.282	90.44
475.501	82.44
475.72	87.44
475.939	89.44
476.158	92.44
476.377	91.44
476.596	97.44
476.814	88.44
477.033	91.44
477.252	85.44
477.471	91.44
477.69	91.44
477.908	84.44
478.127	81.44
478.346	91.44
478.564	84.44
478.783	92.44
479.002	101.44
479.22	86.44
479.439	89.44
479.658	99.44
479.876	96.44
480.095	89.44
480.313	82.44
480.532	80.44
480.751	79.44
480.969	87.44
481.188	113.44
481.406	105.44
481.624	87.44
481.843	73.44
482.061	68.44
482.28	100.44
482.498	80.44
482.717	89.44
482.935	72.44
483.153	90.44
483.372	91.44
483.59	84.44
483.808	84.44
484.027	86.44
484.245	90.44
484.463	87.44
484.681	90.44
484.9	103.44
485.118	98.44
485.336	94.44
485.554	98.44
485.772	100.44
485.99	90.44
486.209	109.44
486.427	94.44
486.645	112.44
486.863	111.44
487.081	100.44
487.299	94.44
487.517	98.44
487.735	92.44
487.953	77.44
488.171	90.44
488.389	90.44
488.607	87.44
488.825	90.44
489.043	86.44
489.261	99.44
489.479	89.44
489.696	91.44
489.914	86.44
490.132	85.44
490.35	92.44
490.568	79.44
490.786	86.44
491.003	91.44
491.221	103.44
491.439	83.44
491.657	92.44
491.874	89.44
492.092	94.44
492.31	83.44
492.527	97.44
492.745	83.44
492.963	90.44
493.18	102.44
493.398	88.44
493.615	91.44
493.833	86.44
494.05	87.44
494.268	75.44
494.485	91.44
494.703	81.44
494.92	96.44
495.138	85.44
495.355	91.44
495.573	88.44
495.79	104.44
496.008	100.44
496.225	95.44
496.442	78.44
496.66	89.44
496.877	90.44
497.094	82.44
497.312	81.44
497.529	88.44
497.746	98.44
497.963	89.44
498.181	85.44
498.398	99.44
498.615	109.44
498.832	107.44
499.049	88.44
499.267	99.44
499.484	95.44
499.701	87.44
499.918	85.44
500.135	83.44
500.352	89.44
500.569	84.44
500.786	103.44
501.003	86.44
501.22	88.44
501.437	92.44
501.654	88.44
501.871	109.44
502.088	104.44
502.305	88.44
502.522	87.44
502.739	89.44
502.956	91.44
503.172	88.44
503.389	96.44
503.606	98.44
503.823	88.44
504.04	99.44
504.256	70.44
504.473	75.44
504.69	98.44
504.907	98.44
505.123	89.44
505.34	106.44
505.557	85.44
505.773	98.44
505.99	97.44
506.207	88.44
506.423	98.44
506.64	91.44
506.856	96.44
507.073	99.44
507.289	98.44
507.506	98.44
507.722	94.44
507.939	103.44
508.155	93.44
508.372	89.44
508.588	98.44
508.805	90.44
509.021	107.44
509.238	106.44
509.454	91.44
509.67	113.44
509.887	103.44
510.103	132.44
510.319	190.44
510.536	686.44
510.752	2214.44
510.968	613.44
511.184	146.44
511.401	105.44
511.617	105.44
511.833	87.44
512.049	78.44
512.265	88.44
512.481	99.44
512.698	85.44
512.914	83.44
513.13	83.44
513.346	103.44
513.562	92.44
513.778	98.44
513.994	96.44
514.21	91.44
514.426	120.44
514.642	126.44
514.858	132.44
515.074	159.44
515.29	427.44
515.506	1361.44
515.721	537.44
515.937	147.44
