Data from Circ_2002_H10_HRD10591_00038.txt Node
Date: Wed Jan 03 10:41:05 EST 2024
User: Yrep
Spectrometer: HR+D1059
Trigger mode: 1
Integration Time (sec): 1.000000E-1
Scans to average: 1
Electric dark correction enabled: true
Nonlinearity correction enabled: false
Boxcar width: 0
XAxis mode: Wavelengths
Number of Pixels in Spectrum: 2048
>>>>>Begin Spectral Data<<<<<
223.165	-24.38
223.4	-24.38
223.635	-24.38
223.869	-17.38
224.104	-17.38
224.338	-31.38
224.573	-8.38
224.808	-12.38
225.042	-8.38
225.277	-0.38
225.511	-12.38
225.746	6.62
225.98	18.62
226.215	7.62
226.449	20.62
226.683	30.62
226.918	16.62
227.152	31.62
227.387	34.62
227.621	39.62
227.856	46.62
228.09	41.62
228.324	67.62
228.559	66.62
228.793	50.62
229.027	66.62
229.262	79.62
229.496	72.62
229.73	81.62
229.964	77.62
230.199	88.62
230.433	80.62
230.667	79.62
230.901	71.62
231.136	72.62
231.37	70.62
231.604	75.62
231.838	74.62
232.072	70.62
232.306	70.62
232.541	66.62
232.775	70.62
233.009	68.62
233.243	70.62
233.477	86.62
233.711	75.62
233.945	80.62
234.179	77.62
234.413	67.62
234.647	79.62
234.881	86.62
235.115	70.62
235.349	77.62
235.583	79.62
235.817	67.62
236.051	72.62
236.285	76.62
236.519	79.62
236.753	70.62
236.987	94.62
237.221	72.62
237.455	73.62
237.689	82.62
237.922	77.62
238.156	74.62
238.39	68.62
238.624	62.62
238.858	71.62
239.091	72.62
239.325	68.62
239.559	71.62
239.793	67.62
240.027	85.62
240.26	63.62
240.494	69.62
240.728	75.62
240.961	67.62
241.195	95.62
241.429	75.62
241.662	74.62
241.896	69.62
242.13	62.62
242.363	78.62
242.597	69.62
242.83	70.62
243.064	85.62
243.298	89.62
243.531	84.62
243.765	77.62
243.998	72.62
244.232	85.62
244.465	82.62
244.699	85.62
244.932	85.62
245.166	68.62
245.399	80.62
245.633	60.62
245.866	69.62
246.099	79.62
246.333	71.62
246.566	74.62
246.8	77.62
247.033	69.62
247.266	71.62
247.5	84.62
247.733	79.62
247.966	72.62
248.2	67.62
248.433	80.62
248.666	82.62
248.899	91.62
249.133	80.62
249.366	76.62
249.599	88.62
249.832	74.62
250.066	85.62
250.299	84.62
250.532	90.62
250.765	80.62
250.998	67.62
251.231	78.62
251.465	79.62
251.698	74.62
251.931	64.62
252.164	80.62
252.397	76.62
252.63	78.62
252.863	70.62
253.096	71.62
253.329	76.62
253.562	71.62
253.795	77.62
254.028	72.62
254.261	84.62
254.494	75.62
254.727	84.62
254.96	76.62
255.193	81.62
255.426	70.62
255.659	85.62
255.892	82.62
256.124	78.62
256.357	85.62
256.59	75.62
256.823	93.62
257.056	83.62
257.289	74.62
257.521	66.62
257.754	81.62
257.987	75.62
258.22	88.62
258.452	60.62
258.685	80.62
258.918	88.62
259.151	80.62
259.383	93.62
259.616	76.62
259.849	80.62
260.081	70.62
260.314	76.62
260.547	71.62
260.779	76.62
261.012	84.62
261.244	66.62
261.477	69.62
261.71	79.62
261.942	106.62
262.175	98.62
262.407	76.62
262.64	74.62
262.872	80.62
263.105	64.62
263.337	76.62
263.57	68.62
263.802	77.62
264.035	81.62
264.267	76.62
264.499	86.62
264.732	81.62
264.964	83.62
265.197	71.62
265.429	80.62
265.661	80.62
265.894	68.62
266.126	91.62
266.358	69.62
266.591	74.62
266.823	84.62
267.055	76.62
267.287	91.62
267.52	94.62
267.752	68.62
267.984	78.62
268.216	72.62
268.448	88.62
268.681	83.62
268.913	79.62
269.145	70.62
269.377	84.62
269.609	79.62
269.841	88.62
270.073	92.62
270.306	88.62
270.538	75.62
270.77	94.62
271.002	80.62
271.234	86.62
271.466	73.62
271.698	87.62
271.93	71.62
272.162	82.62
272.394	82.62
272.626	84.62
272.858	87.62
273.09	90.62
273.322	84.62
273.553	75.62
273.785	82.62
274.017	84.62
274.249	89.62
274.481	80.62
274.713	76.62
274.945	79.62
275.176	76.62
275.408	78.62
275.64	74.62
275.872	88.62
276.104	91.62
276.335	84.62
276.567	97.62
276.799	89.62
277.031	99.62
277.262	96.62
277.494	92.62
277.726	81.62
277.957	86.62
278.189	89.62
278.421	81.62
278.652	75.62
278.884	84.62
279.115	66.62
279.347	71.62
279.579	82.62
279.81	69.62
280.042	78.62
280.273	85.62
280.505	77.62
280.736	82.62
280.968	84.62
281.199	86.62
281.431	84.62
281.662	86.62
281.894	73.62
282.125	100.62
282.356	109.62
282.588	136.62
282.819	101.62
283.051	89.62
283.282	85.62
283.513	93.62
283.745	74.62
283.976	82.62
284.207	77.62
284.439	79.62
284.67	82.62
284.901	79.62
285.132	78.62
285.364	79.62
285.595	78.62
285.826	86.62
286.057	85.62
286.288	72.62
286.52	72.62
286.751	81.62
286.982	83.62
287.213	79.62
287.444	99.62
287.675	73.62
287.906	87.62
288.138	87.62
288.369	80.62
288.6	101.62
288.831	86.62
289.062	81.62
289.293	93.62
289.524	86.62
289.755	84.62
289.986	87.62
290.217	76.62
290.448	78.62
290.679	76.62
290.91	81.62
291.141	78.62
291.371	81.62
291.602	75.62
291.833	69.62
292.064	83.62
292.295	87.62
292.526	86.62
292.757	86.62
292.987	82.62
293.218	96.62
293.449	82.62
293.68	82.62
293.91	80.62
294.141	78.62
294.372	85.62
294.603	93.62
294.833	76.62
295.064	86.62
295.295	84.62
295.525	89.62
295.756	103.62
295.987	107.62
296.217	116.62
296.448	107.62
296.679	86.62
296.909	87.62
297.14	83.62
297.37	87.62
297.601	95.62
297.831	92.62
298.062	85.62
298.292	90.62
298.523	82.62
298.753	92.62
298.984	86.62
299.214	67.62
299.445	100.62
299.675	87.62
299.905	88.62
300.136	87.62
300.366	87.62
300.597	84.62
300.827	93.62
301.057	90.62
301.288	93.62
301.518	90.62
301.748	82.62
301.979	90.62
302.209	92.62
302.439	96.62
302.669	88.62
302.9	84.62
303.13	89.62
303.36	78.62
303.59	82.62
303.82	94.62
304.051	87.62
304.281	72.62
304.511	85.62
304.741	83.62
304.971	92.62
305.201	96.62
305.431	82.62
305.661	87.62
305.891	77.62
306.121	96.62
306.352	90.62
306.582	101.62
306.812	84.62
307.042	102.62
307.272	94.62
307.502	85.62
307.731	108.62
307.961	86.62
308.191	71.62
308.421	75.62
308.651	78.62
308.881	84.62
309.111	92.62
309.341	101.62
309.571	93.62
309.8	103.62
310.03	86.62
310.26	79.62
310.49	91.62
310.72	96.62
310.949	92.62
311.179	100.62
311.409	96.62
311.639	87.62
311.868	99.62
312.098	95.62
312.328	90.62
312.557	87.62
312.787	92.62
313.017	97.62
313.246	87.62
313.476	101.62
313.706	82.62
313.935	94.62
314.165	90.62
314.394	104.62
314.624	92.62
314.853	95.62
315.083	95.62
315.312	89.62
315.542	90.62
315.771	75.62
316.001	89.62
316.23	83.62
316.46	77.62
316.689	80.62
316.919	83.62
317.148	82.62
317.377	88.62
317.607	94.62
317.836	86.62
318.065	86.62
318.295	100.62
318.524	87.62
318.753	80.62
318.983	76.62
319.212	89.62
319.441	96.62
319.67	102.62
319.9	76.62
320.129	85.62
320.358	88.62
320.587	102.62
320.816	100.62
321.046	104.62
321.275	87.62
321.504	75.62
321.733	87.62
321.962	104.62
322.191	97.62
322.42	101.62
322.649	103.62
322.878	83.62
323.108	95.62
323.337	124.62
323.566	141.62
323.795	142.62
324.024	200.62
324.253	391.62
324.482	819.62
324.71	1665.62
324.939	2150.62
325.168	755.62
325.397	224.62
325.626	139.62
325.855	122.62
326.084	117.62
326.313	111.62
326.542	143.62
326.77	237.62
326.999	448.62
327.228	949.62
327.457	1685.62
327.686	1329.62
327.914	339.62
328.143	194.62
328.372	134.62
328.6	114.62
328.829	115.62
329.058	128.62
329.287	124.62
329.515	96.62
329.744	86.62
329.972	87.62
330.201	102.62
330.43	112.62
330.658	124.62
330.887	138.62
331.115	118.62
331.344	94.62
331.572	87.62
331.801	97.62
332.03	79.62
332.258	83.62
332.486	84.62
332.715	83.62
332.943	86.62
333.172	81.62
333.4	100.62
333.629	91.62
333.857	97.62
334.085	85.62
334.314	101.62
334.542	95.62
334.771	110.62
334.999	94.62
335.227	86.62
335.455	82.62
335.684	92.62
335.912	70.62
336.14	81.62
336.369	96.62
336.597	102.62
336.825	94.62
337.053	86.62
337.281	96.62
337.51	83.62
337.738	98.62
337.966	78.62
338.194	76.62
338.422	82.62
338.65	96.62
338.878	72.62
339.106	85.62
339.334	101.62
339.562	82.62
339.79	88.62
340.018	87.62
340.246	92.62
340.474	100.62
340.702	102.62
340.93	76.62
341.158	89.62
341.386	94.62
341.614	88.62
341.842	84.62
342.07	85.62
342.298	98.62
342.526	95.62
342.754	84.62
342.981	78.62
343.209	82.62
343.437	85.62
343.665	96.62
343.893	73.62
344.12	83.62
344.348	89.62
344.576	82.62
344.804	88.62
345.031	89.62
345.259	81.62
345.487	87.62
345.714	94.62
345.942	108.62
346.17	79.62
346.397	68.62
346.625	71.62
346.853	86.62
347.08	88.62
347.308	82.62
347.535	82.62
347.763	95.62
347.99	95.62
348.218	87.62
348.445	99.62
348.673	104.62
348.9	109.62
349.128	96.62
349.355	88.62
349.583	94.62
349.81	88.62
350.037	91.62
350.265	81.62
350.492	88.62
350.72	87.62
350.947	96.62
351.174	101.62
351.402	94.62
351.629	87.62
351.856	94.62
352.083	87.62
352.311	107.62
352.538	103.62
352.765	101.62
352.992	94.62
353.22	112.62
353.447	95.62
353.674	91.62
353.901	101.62
354.128	102.62
354.355	103.62
354.583	98.62
354.81	78.62
355.037	90.62
355.264	87.62
355.491	83.62
355.718	94.62
355.945	94.62
356.172	89.62
356.399	84.62
356.626	96.62
356.853	87.62
357.08	82.62
357.307	80.62
357.534	80.62
357.761	76.62
357.988	95.62
358.215	101.62
358.441	86.62
358.668	87.62
358.895	96.62
359.122	86.62
359.349	88.62
359.576	81.62
359.802	87.62
360.029	110.62
360.256	95.62
360.483	79.62
360.709	83.62
360.936	107.62
361.163	85.62
361.39	88.62
361.616	88.62
361.843	93.62
362.07	87.62
362.296	94.62
362.523	90.62
362.749	96.62
362.976	85.62
363.203	82.62
363.429	81.62
363.656	98.62
363.882	79.62
364.109	83.62
364.335	77.62
364.562	86.62
364.788	85.62
365.015	93.62
365.241	87.62
365.468	101.62
365.694	91.62
365.92	93.62
366.147	71.62
366.373	94.62
366.599	81.62
366.826	75.62
367.052	92.62
367.278	111.62
367.505	74.62
367.731	77.62
367.957	85.62
368.184	97.62
368.41	94.62
368.636	98.62
368.862	102.62
369.089	96.62
369.315	96.62
369.541	84.62
369.767	92.62
369.993	72.62
370.219	76.62
370.445	93.62
370.672	89.62
370.898	91.62
371.124	89.62
371.35	82.62
371.576	82.62
371.802	88.62
372.028	79.62
372.254	74.62
372.48	71.62
372.706	80.62
372.932	70.62
373.158	81.62
373.384	84.62
373.61	88.62
373.835	95.62
374.061	80.62
374.287	82.62
374.513	100.62
374.739	83.62
374.965	95.62
375.191	92.62
375.416	99.62
375.642	100.62
375.868	96.62
376.094	90.62
376.319	86.62
376.545	111.62
376.771	95.62
376.997	78.62
377.222	71.62
377.448	84.62
377.674	92.62
377.899	88.62
378.125	82.62
378.35	90.62
378.576	82.62
378.802	76.62
379.027	83.62
379.253	77.62
379.478	82.62
379.704	99.62
379.929	96.62
380.155	81.62
380.38	106.62
380.606	100.62
380.831	96.62
381.057	87.62
381.282	93.62
381.507	84.62
381.733	98.62
381.958	95.62
382.184	102.62
382.409	87.62
382.634	85.62
382.86	100.62
383.085	100.62
383.31	113.62
383.535	94.62
383.761	97.62
383.986	90.62
384.211	71.62
384.436	94.62
384.662	74.62
384.887	106.62
385.112	79.62
385.337	109.62
385.562	102.62
385.787	89.62
386.013	106.62
386.238	112.62
386.463	88.62
386.688	101.62
386.913	83.62
387.138	90.62
387.363	91.62
387.588	99.62
387.813	96.62
388.038	104.62
388.263	96.62
388.488	91.62
388.713	84.62
388.938	88.62
389.163	92.62
389.387	78.62
389.612	82.62
389.837	83.62
390.062	78.62
390.287	95.62
390.512	96.62
390.736	75.62
390.961	90.62
391.186	85.62
391.411	101.62
391.636	88.62
391.86	88.62
392.085	77.62
392.31	81.62
392.534	88.62
392.759	82.62
392.984	92.62
393.208	95.62
393.433	93.62
393.658	75.62
393.882	83.62
394.107	86.62
394.331	87.62
394.556	71.62
394.78	84.62
395.005	83.62
395.229	81.62
395.454	76.62
395.678	80.62
395.903	79.62
396.127	84.62
396.352	79.62
396.576	85.62
396.801	86.62
397.025	96.62
397.249	90.62
397.474	104.62
397.698	71.62
397.922	79.62
398.147	83.62
398.371	74.62
398.595	86.62
398.82	83.62
399.044	86.62
399.268	93.62
399.492	103.62
399.717	83.62
399.941	75.62
400.165	92.62
400.389	86.62
400.613	79.62
400.837	78.62
401.062	84.62
401.286	93.62
401.51	80.62
401.734	97.62
401.958	71.62
402.182	112.62
402.406	142.62
402.63	118.62
402.854	83.62
403.078	89.62
403.302	83.62
403.526	76.62
403.75	96.62
403.974	97.62
404.198	80.62
404.422	84.62
404.645	83.62
404.869	87.62
405.093	87.62
405.317	90.62
405.541	92.62
405.765	100.62
405.988	79.62
406.212	149.62
406.436	203.62
406.66	127.62
406.883	91.62
407.107	92.62
407.331	84.62
407.555	94.62
407.778	94.62
408.002	103.62
408.226	86.62
408.449	77.62
408.673	90.62
408.896	84.62
409.12	86.62
409.344	84.62
409.567	72.62
409.791	85.62
410.014	77.62
410.238	84.62
410.461	94.62
410.685	91.62
410.908	93.62
411.132	103.62
411.355	94.62
411.578	93.62
411.802	84.62
412.025	85.62
412.249	89.62
412.472	74.62
412.695	75.62
412.919	75.62
413.142	87.62
413.365	71.62
413.589	79.62
413.812	66.62
414.035	67.62
414.258	85.62
414.482	77.62
414.705	103.62
414.928	92.62
415.151	92.62
415.374	91.62
415.597	75.62
415.821	74.62
416.044	69.62
416.267	93.62
416.49	87.62
416.713	87.62
416.936	84.62
417.159	92.62
417.382	79.62
417.605	72.62
417.828	86.62
418.051	86.62
418.274	74.62
418.497	80.62
418.72	85.62
418.943	84.62
419.166	87.62
419.389	82.62
419.611	77.62
419.834	87.62
420.057	88.62
420.28	83.62
420.503	79.62
420.726	82.62
420.948	86.62
421.171	79.62
421.394	93.62
421.617	89.62
421.839	91.62
422.062	91.62
422.285	84.62
422.507	98.62
422.73	98.62
422.953	86.62
423.175	80.62
423.398	103.62
423.621	83.62
423.843	92.62
424.066	78.62
424.288	84.62
424.511	78.62
424.733	88.62
424.956	84.62
425.178	88.62
425.401	96.62
425.623	97.62
425.846	85.62
426.068	81.62
426.291	84.62
426.513	80.62
426.735	91.62
426.958	94.62
427.18	96.62
427.402	127.62
427.625	170.62
427.847	109.62
428.069	108.62
428.292	84.62
428.514	76.62
428.736	83.62
428.958	85.62
429.181	79.62
429.403	81.62
429.625	84.62
429.847	86.62
430.069	97.62
430.292	89.62
430.514	70.62
430.736	88.62
430.958	83.62
431.18	71.62
431.402	107.62
431.624	77.62
431.846	67.62
432.068	78.62
432.29	84.62
432.512	83.62
432.734	84.62
432.956	87.62
433.178	107.62
433.4	85.62
433.622	90.62
433.844	93.62
434.066	76.62
434.287	82.62
434.509	75.62
434.731	77.62
434.953	93.62
435.175	77.62
435.397	94.62
435.618	86.62
435.84	100.62
436.062	101.62
436.284	98.62
436.505	110.62
436.727	105.62
436.949	91.62
437.17	84.62
437.392	71.62
437.614	80.62
437.835	92.62
438.057	106.62
438.278	107.62
438.5	80.62
438.721	105.62
438.943	94.62
439.165	78.62
439.386	82.62
439.608	79.62
439.829	77.62
440.05	89.62
440.272	138.62
440.493	97.62
440.715	90.62
440.936	79.62
441.158	72.62
441.379	91.62
441.6	79.62
441.822	98.62
442.043	97.62
442.264	113.62
442.486	84.62
442.707	81.62
442.928	95.62
443.149	115.62
443.371	118.62
443.592	106.62
443.813	115.62
444.034	103.62
444.255	96.62
444.476	104.62
444.698	87.62
444.919	102.62
445.14	134.62
445.361	113.62
445.582	115.62
445.803	112.62
446.024	124.62
446.245	139.62
446.466	99.62
446.687	74.62
446.908	85.62
447.129	87.62
447.35	73.62
447.571	75.62
447.792	72.62
448.013	85.62
448.234	95.62
448.455	85.62
448.675	106.62
448.896	106.62
449.117	91.62
449.338	103.62
449.559	112.62
449.779	111.62
450	90.62
450.221	92.62
450.442	92.62
450.662	86.62
450.883	84.62
451.104	100.62
451.324	84.62
451.545	85.62
451.766	77.62
451.986	84.62
452.207	87.62
452.428	90.62
452.648	106.62
452.869	100.62
453.089	111.62
453.31	114.62
453.53	87.62
453.751	94.62
453.971	91.62
454.192	105.62
454.412	88.62
454.633	70.62
454.853	101.62
455.073	74.62
455.294	80.62
455.514	88.62
455.734	93.62
455.955	78.62
456.175	68.62
456.395	88.62
456.616	87.62
456.836	85.62
457.056	91.62
457.276	75.62
457.497	89.62
457.717	86.62
457.937	84.62
458.157	75.62
458.377	92.62
458.598	99.62
458.818	128.62
459.038	156.62
459.258	102.62
459.478	91.62
459.698	86.62
459.918	85.62
460.138	64.62
460.358	86.62
460.578	89.62
460.798	74.62
461.018	84.62
461.238	75.62
461.458	76.62
461.678	78.62
461.898	89.62
462.118	74.62
462.338	79.62
462.558	83.62
462.777	78.62
462.997	75.62
463.217	74.62
463.437	87.62
463.657	86.62
463.876	82.62
464.096	83.62
464.316	91.62
464.536	91.62
464.755	104.62
464.975	104.62
465.195	146.62
465.414	145.62
465.634	71.62
465.854	87.62
466.073	72.62
466.293	79.62
466.512	84.62
466.732	81.62
466.951	85.62
467.171	100.62
467.391	84.62
467.61	93.62
467.829	82.62
468.049	83.62
468.268	103.62
468.488	86.62
468.707	84.62
468.927	79.62
469.146	69.62
469.365	68.62
469.585	95.62
469.804	93.62
470.023	85.62
470.243	98.62
470.462	93.62
470.681	106.62
470.901	98.62
471.12	93.62
471.339	81.62
471.558	85.62
471.777	77.62
471.997	85.62
472.216	104.62
472.435	108.62
472.654	74.62
472.873	87.62
473.092	75.62
473.311	80.62
473.53	74.62
473.749	82.62
473.968	81.62
474.187	97.62
474.406	87.62
474.625	89.62
474.844	82.62
475.063	88.62
475.282	87.62
475.501	77.62
475.72	97.62
475.939	91.62
476.158	75.62
476.377	74.62
476.596	87.62
476.814	86.62
477.033	94.62
477.252	84.62
477.471	88.62
477.69	84.62
477.908	87.62
478.127	93.62
478.346	77.62
478.564	71.62
478.783	91.62
479.002	70.62
479.22	90.62
479.439	91.62
479.658	83.62
479.876	80.62
480.095	87.62
480.313	91.62
480.532	78.62
480.751	82.62
480.969	82.62
481.188	134.62
481.406	114.62
481.624	79.62
481.843	95.62
482.061	86.62
482.28	83.62
482.498	84.62
482.717	85.62
482.935	75.62
483.153	86.62
483.372	80.62
483.59	86.62
483.808	88.62
484.027	88.62
484.245	82.62
484.463	87.62
484.681	93.62
484.9	72.62
485.118	88.62
485.336	99.62
485.554	95.62
485.772	91.62
485.99	96.62
486.209	101.62
486.427	112.62
486.645	96.62
486.863	101.62
487.081	111.62
487.299	94.62
487.517	87.62
487.735	101.62
487.953	96.62
488.171	106.62
488.389	77.62
488.607	78.62
488.825	74.62
489.043	83.62
489.261	82.62
489.479	85.62
489.696	85.62
489.914	84.62
490.132	79.62
490.35	94.62
490.568	91.62
490.786	83.62
491.003	86.62
491.221	84.62
491.439	88.62
491.657	109.62
491.874	108.62
492.092	86.62
492.31	87.62
492.527	87.62
492.745	69.62
492.963	86.62
493.18	82.62
493.398	83.62
493.615	102.62
493.833	88.62
494.05	71.62
494.268	75.62
494.485	76.62
494.703	82.62
494.92	91.62
495.138	76.62
495.355	82.62
495.573	84.62
495.79	88.62
496.008	98.62
496.225	78.62
496.442	72.62
496.66	86.62
496.877	79.62
497.094	81.62
497.312	97.62
497.529	71.62
497.746	84.62
497.963	89.62
498.181	78.62
498.398	88.62
498.615	92.62
498.832	101.62
499.049	86.62
499.267	87.62
499.484	91.62
499.701	93.62
499.918	87.62
500.135	90.62
500.352	73.62
500.569	95.62
500.786	84.62
501.003	95.62
501.22	82.62
501.437	95.62
501.654	69.62
501.871	89.62
502.088	83.62
502.305	80.62
502.522	96.62
502.739	87.62
502.956	90.62
503.172	94.62
503.389	94.62
503.606	93.62
503.823	89.62
504.04	84.62
504.256	72.62
504.473	90.62
504.69	85.62
504.907	91.62
505.123	99.62
505.34	86.62
505.557	101.62
505.773	85.62
505.99	85.62
506.207	87.62
506.423	91.62
506.64	103.62
506.856	87.62
507.073	84.62
507.289	86.62
507.506	96.62
507.722	98.62
507.939	102.62
508.155	83.62
508.372	80.62
508.588	100.62
508.805	104.62
509.021	97.62
509.238	106.62
509.454	85.62
509.67	118.62
509.887	84.62
510.103	127.62
510.319	179.62
510.536	654.62
510.752	1978.62
510.968	571.62
511.184	151.62
511.401	94.62
511.617	100.62
511.833	85.62
512.049	76.62
512.265	78.62
512.481	83.62
512.698	95.62
512.914	88.62
513.13	76.62
513.346	74.62
513.562	80.62
513.778	91.62
513.994	88.62
514.21	98.62
514.426	104.62
514.642	114.62
514.858	123.62
515.074	135.62
515.29	394.62
515.506	1270.62
515.721	462.62
515.937	154.62
516.153	96.62
516.369	103.62
516.585	94.62
516.801	81.62
517.016	90.62
517.232	83.62
