Data from Circ_2002_H10_HRD10591_00025.txt Node
Date: Wed Jan 03 10:41:03 EST 2024
User: Yrep
Spectrometer: HR+D1059
Trigger mode: 1
Integration Time (sec): 1.000000E-1
Scans to average: 1
Electric dark correction enabled: true
Nonlinearity correction enabled: false
Boxcar width: 0
XAxis mode: Wavelengths
Number of Pixels in Spectrum: 2048
>>>>>Begin Spectral Data<<<<<
223.165	-16.12
223.4	-16.12
223.635	-16.12
223.869	-23.12
224.104	-24.12
224.338	-7.12
224.573	-9.12
224.808	-13.12
225.042	-1.12
225.277	-7.12
225.511	-16.12
225.746	2.88
225.98	7.88
226.215	21.88
226.449	18.88
226.683	14.88
226.918	25.88
227.152	24.88
227.387	34.88
227.621	21.88
227.856	36.88
228.09	44.88
228.324	53.88
228.559	54.88
228.793	41.88
229.027	54.88
229.262	62.88
229.496	79.88
229.73	79.88
229.964	93.88
230.199	76.88
230.433	90.88
230.667	83.88
230.901	75.88
231.136	80.88
231.37	72.88
231.604	84.88
231.838	80.88
232.072	81.88
232.306	88.88
232.541	76.88
232.775	73.88
233.009	67.88
233.243	73.88
233.477	77.88
233.711	71.88
233.945	79.88
234.179	72.88
234.413	71.88
234.647	81.88
234.881	84.88
235.115	85.88
235.349	78.88
235.583	64.88
235.817	79.88
236.051	87.88
236.285	84.88
236.519	76.88
236.753	82.88
236.987	83.88
237.221	96.88
237.455	101.88
237.689	68.88
237.922	82.88
238.156	56.88
238.39	66.88
238.624	72.88
238.858	83.88
239.091	72.88
239.325	73.88
239.559	81.88
239.793	73.88
240.027	68.88
240.26	70.88
240.494	73.88
240.728	78.88
240.961	77.88
241.195	82.88
241.429	73.88
241.662	80.88
241.896	76.88
242.13	69.88
242.363	70.88
242.597	82.88
242.83	80.88
243.064	70.88
243.298	81.88
243.531	87.88
243.765	75.88
243.998	78.88
244.232	72.88
244.465	74.88
244.699	70.88
244.932	77.88
245.166	77.88
245.399	60.88
245.633	61.88
245.866	75.88
246.099	80.88
246.333	81.88
246.566	72.88
246.8	71.88
247.033	76.88
247.266	84.88
247.5	63.88
247.733	78.88
247.966	68.88
248.2	78.88
248.433	90.88
248.666	70.88
248.899	78.88
249.133	84.88
249.366	99.88
249.599	80.88
249.832	76.88
250.066	73.88
250.299	85.88
250.532	73.88
250.765	78.88
250.998	72.88
251.231	71.88
251.465	72.88
251.698	74.88
251.931	84.88
252.164	85.88
252.397	78.88
252.63	71.88
252.863	95.88
253.096	78.88
253.329	86.88
253.562	74.88
253.795	74.88
254.028	78.88
254.261	67.88
254.494	81.88
254.727	65.88
254.96	69.88
255.193	83.88
255.426	67.88
255.659	74.88
255.892	78.88
256.124	80.88
256.357	89.88
256.59	74.88
256.823	78.88
257.056	84.88
257.289	76.88
257.521	72.88
257.754	73.88
257.987	73.88
258.22	74.88
258.452	79.88
258.685	71.88
258.918	80.88
259.151	86.88
259.383	71.88
259.616	76.88
259.849	79.88
260.081	78.88
260.314	66.88
260.547	89.88
260.779	92.88
261.012	77.88
261.244	80.88
261.477	82.88
261.71	85.88
261.942	108.88
262.175	118.88
262.407	97.88
262.64	96.88
262.872	67.88
263.105	73.88
263.337	86.88
263.57	71.88
263.802	91.88
264.035	83.88
264.267	89.88
264.499	80.88
264.732	79.88
264.964	82.88
265.197	64.88
265.429	75.88
265.661	93.88
265.894	83.88
266.126	90.88
266.358	80.88
266.591	89.88
266.823	73.88
267.055	73.88
267.287	68.88
267.52	76.88
267.752	81.88
267.984	80.88
268.216	73.88
268.448	91.88
268.681	84.88
268.913	83.88
269.145	79.88
269.377	82.88
269.609	82.88
269.841	83.88
270.073	63.88
270.306	68.88
270.538	88.88
270.77	73.88
271.002	84.88
271.234	80.88
271.466	74.88
271.698	80.88
271.93	95.88
272.162	83.88
272.394	90.88
272.626	78.88
272.858	94.88
273.09	87.88
273.322	95.88
273.553	78.88
273.785	81.88
274.017	63.88
274.249	85.88
274.481	93.88
274.713	81.88
274.945	93.88
275.176	90.88
275.408	95.88
275.64	85.88
275.872	74.88
276.104	94.88
276.335	91.88
276.567	99.88
276.799	98.88
277.031	102.88
277.262	81.88
277.494	77.88
277.726	80.88
277.957	65.88
278.189	78.88
278.421	85.88
278.652	76.88
278.884	77.88
279.115	85.88
279.347	76.88
279.579	94.88
279.81	79.88
280.042	85.88
280.273	95.88
280.505	84.88
280.736	92.88
280.968	72.88
281.199	79.88
281.431	77.88
281.662	76.88
281.894	86.88
282.125	102.88
282.356	124.88
282.588	151.88
282.819	122.88
283.051	80.88
283.282	88.88
283.513	100.88
283.745	82.88
283.976	97.88
284.207	83.88
284.439	78.88
284.67	78.88
284.901	101.88
285.132	68.88
285.364	76.88
285.595	92.88
285.826	84.88
286.057	88.88
286.288	87.88
286.52	94.88
286.751	77.88
286.982	84.88
287.213	74.88
287.444	85.88
287.675	97.88
287.906	90.88
288.138	83.88
288.369	80.88
288.6	86.88
288.831	82.88
289.062	90.88
289.293	83.88
289.524	90.88
289.755	86.88
289.986	88.88
290.217	86.88
290.448	82.88
290.679	71.88
290.91	74.88
291.141	69.88
291.371	86.88
291.602	88.88
291.833	96.88
292.064	80.88
292.295	77.88
292.526	81.88
292.757	70.88
292.987	80.88
293.218	88.88
293.449	86.88
293.68	98.88
293.91	74.88
294.141	85.88
294.372	77.88
294.603	87.88
294.833	72.88
295.064	86.88
295.295	80.88
295.525	89.88
295.756	95.88
295.987	113.88
296.217	135.88
296.448	124.88
296.679	86.88
296.909	93.88
297.14	89.88
297.37	87.88
297.601	85.88
297.831	85.88
298.062	88.88
298.292	77.88
298.523	95.88
298.753	69.88
298.984	77.88
299.214	93.88
299.445	94.88
299.675	85.88
299.905	88.88
300.136	87.88
300.366	90.88
300.597	86.88
300.827	105.88
301.057	100.88
301.288	100.88
301.518	108.88
301.748	103.88
301.979	101.88
302.209	94.88
302.439	90.88
302.669	81.88
302.9	79.88
303.13	96.88
303.36	93.88
303.59	94.88
303.82	89.88
304.051	100.88
304.281	82.88
304.511	92.88
304.741	91.88
304.971	71.88
305.201	81.88
305.431	82.88
305.661	90.88
305.891	92.88
306.121	93.88
306.352	101.88
306.582	98.88
306.812	99.88
307.042	105.88
307.272	89.88
307.502	88.88
307.731	98.88
307.961	90.88
308.191	83.88
308.421	83.88
308.651	88.88
308.881	102.88
309.111	96.88
309.341	88.88
309.571	95.88
309.8	90.88
310.03	94.88
310.26	108.88
310.49	111.88
310.72	90.88
310.949	96.88
311.179	97.88
311.409	98.88
311.639	90.88
311.868	96.88
312.098	97.88
312.328	99.88
312.557	107.88
312.787	104.88
313.017	109.88
313.246	88.88
313.476	81.88
313.706	105.88
313.935	90.88
314.165	105.88
314.394	105.88
314.624	106.88
314.853	77.88
315.083	91.88
315.312	80.88
315.542	98.88
315.771	80.88
316.001	94.88
316.23	96.88
316.46	85.88
316.689	91.88
316.919	91.88
317.148	87.88
317.377	93.88
317.607	100.88
317.836	95.88
318.065	88.88
318.295	103.88
318.524	91.88
318.753	106.88
318.983	83.88
319.212	91.88
319.441	97.88
319.67	110.88
319.9	95.88
320.129	92.88
320.358	104.88
320.587	76.88
320.816	90.88
321.046	99.88
321.275	96.88
321.504	89.88
321.733	84.88
321.962	93.88
322.191	104.88
322.42	101.88
322.649	108.88
322.878	106.88
323.108	106.88
323.337	119.88
323.566	137.88
323.795	158.88
324.024	221.88
324.253	426.88
324.482	927.88
324.71	1905.88
324.939	2460.88
325.168	902.88
325.397	259.88
325.626	152.88
325.855	134.88
326.084	129.88
326.313	143.88
326.542	160.88
326.77	246.88
326.999	512.88
327.228	1072.88
327.457	1938.88
327.686	1525.88
327.914	389.88
328.143	213.88
328.372	156.88
328.6	112.88
328.829	120.88
329.058	129.88
329.287	134.88
329.515	104.88
329.744	94.88
329.972	98.88
330.201	123.88
330.43	116.88
330.658	136.88
330.887	142.88
331.115	113.88
331.344	101.88
331.572	98.88
331.801	98.88
332.03	102.88
332.258	91.88
332.486	88.88
332.715	74.88
332.943	86.88
333.172	80.88
333.4	88.88
333.629	109.88
333.857	107.88
334.085	106.88
334.314	102.88
334.542	101.88
334.771	100.88
334.999	93.88
335.227	93.88
335.455	104.88
335.684	98.88
335.912	85.88
336.14	103.88
336.369	95.88
336.597	91.88
336.825	92.88
337.053	75.88
337.281	87.88
337.51	102.88
337.738	94.88
337.966	91.88
338.194	85.88
338.422	87.88
338.65	84.88
338.878	93.88
339.106	76.88
339.334	80.88
339.562	83.88
339.79	82.88
340.018	80.88
340.246	109.88
340.474	95.88
340.702	93.88
340.93	86.88
341.158	102.88
341.386	80.88
341.614	90.88
341.842	95.88
342.07	89.88
342.298	87.88
342.526	80.88
342.754	90.88
342.981	80.88
343.209	77.88
343.437	96.88
343.665	86.88
343.893	95.88
344.12	101.88
344.348	88.88
344.576	90.88
344.804	92.88
345.031	94.88
345.259	92.88
345.487	81.88
345.714	86.88
345.942	85.88
346.17	85.88
346.397	89.88
346.625	88.88
346.853	83.88
347.08	92.88
347.308	88.88
347.535	94.88
347.763	107.88
347.99	101.88
348.218	94.88
348.445	111.88
348.673	99.88
348.9	101.88
349.128	90.88
349.355	95.88
349.583	84.88
349.81	100.88
350.037	100.88
350.265	91.88
350.492	93.88
350.72	96.88
350.947	97.88
351.174	105.88
351.402	95.88
351.629	93.88
351.856	100.88
352.083	109.88
352.311	116.88
352.538	93.88
352.765	115.88
352.992	114.88
353.22	117.88
353.447	93.88
353.674	110.88
353.901	89.88
354.128	83.88
354.355	97.88
354.583	95.88
354.81	101.88
355.037	99.88
355.264	89.88
355.491	99.88
355.718	112.88
355.945	96.88
356.172	100.88
356.399	97.88
356.626	96.88
356.853	79.88
357.08	91.88
357.307	76.88
357.534	79.88
357.761	85.88
357.988	94.88
358.215	104.88
358.441	87.88
358.668	82.88
358.895	91.88
359.122	97.88
359.349	79.88
359.576	94.88
359.802	86.88
360.029	111.88
360.256	105.88
360.483	113.88
360.709	88.88
360.936	83.88
361.163	77.88
361.39	96.88
361.616	98.88
361.843	78.88
362.07	101.88
362.296	87.88
362.523	97.88
362.749	81.88
362.976	92.88
363.203	105.88
363.429	87.88
363.656	84.88
363.882	95.88
364.109	89.88
364.335	96.88
364.562	89.88
364.788	90.88
365.015	98.88
365.241	98.88
365.468	104.88
365.694	96.88
365.92	98.88
366.147	86.88
366.373	89.88
366.599	77.88
366.826	88.88
367.052	98.88
367.278	97.88
367.505	76.88
367.731	92.88
367.957	77.88
368.184	85.88
368.41	90.88
368.636	102.88
368.862	115.88
369.089	93.88
369.315	85.88
369.541	81.88
369.767	82.88
369.993	96.88
370.219	89.88
370.445	92.88
370.672	86.88
370.898	88.88
371.124	85.88
371.35	83.88
371.576	92.88
371.802	80.88
372.028	86.88
372.254	88.88
372.48	94.88
372.706	84.88
372.932	84.88
373.158	86.88
373.384	103.88
373.61	95.88
373.835	85.88
374.061	84.88
374.287	90.88
374.513	95.88
374.739	89.88
374.965	88.88
375.191	101.88
375.416	83.88
375.642	109.88
375.868	90.88
376.094	93.88
376.319	83.88
376.545	77.88
376.771	98.88
376.997	95.88
377.222	85.88
377.448	86.88
377.674	79.88
377.899	88.88
378.125	85.88
378.35	84.88
378.576	94.88
378.802	93.88
379.027	92.88
379.253	94.88
379.478	86.88
379.704	89.88
379.929	93.88
380.155	82.88
380.38	84.88
380.606	90.88
380.831	89.88
381.057	110.88
381.282	87.88
381.507	85.88
381.733	102.88
381.958	89.88
382.184	103.88
382.409	102.88
382.634	92.88
382.86	104.88
383.085	98.88
383.31	85.88
383.535	109.88
383.761	101.88
383.986	96.88
384.211	83.88
384.436	85.88
384.662	104.88
384.887	108.88
385.112	109.88
385.337	118.88
385.562	92.88
385.787	102.88
386.013	107.88
386.238	99.88
386.463	106.88
386.688	109.88
386.913	113.88
387.138	113.88
387.363	116.88
387.588	102.88
387.813	112.88
388.038	104.88
388.263	105.88
388.488	106.88
388.713	98.88
388.938	99.88
389.163	92.88
389.387	104.88
389.612	87.88
389.837	91.88
390.062	90.88
390.287	80.88
390.512	91.88
390.736	95.88
390.961	93.88
391.186	89.88
391.411	86.88
391.636	90.88
391.86	84.88
392.085	73.88
392.31	84.88
392.534	96.88
392.759	83.88
392.984	85.88
393.208	96.88
393.433	101.88
393.658	92.88
393.882	73.88
394.107	84.88
394.331	94.88
394.556	90.88
394.78	93.88
395.005	95.88
395.229	87.88
395.454	71.88
395.678	83.88
395.903	81.88
396.127	68.88
396.352	85.88
396.576	77.88
396.801	96.88
397.025	96.88
397.249	83.88
397.474	81.88
397.698	76.88
397.922	98.88
398.147	91.88
398.371	81.88
398.595	94.88
398.82	82.88
399.044	84.88
399.268	89.88
399.492	97.88
399.717	85.88
399.941	85.88
400.165	81.88
400.389	86.88
400.613	99.88
400.837	67.88
401.062	86.88
401.286	85.88
401.51	78.88
401.734	91.88
401.958	101.88
402.182	116.88
402.406	160.88
402.63	120.88
402.854	92.88
403.078	98.88
403.302	88.88
403.526	79.88
403.75	84.88
403.974	69.88
404.198	80.88
404.422	87.88
404.645	88.88
404.869	96.88
405.093	89.88
405.317	97.88
405.541	104.88
405.765	87.88
405.988	139.88
406.212	172.88
406.436	244.88
406.66	154.88
406.883	88.88
407.107	90.88
407.331	94.88
407.555	88.88
407.778	95.88
408.002	81.88
408.226	94.88
408.449	85.88
408.673	106.88
408.896	85.88
409.12	87.88
409.344	80.88
409.567	96.88
409.791	88.88
410.014	96.88
410.238	92.88
410.461	103.88
410.685	100.88
410.908	100.88
411.132	102.88
411.355	88.88
411.578	80.88
411.802	86.88
412.025	83.88
412.249	98.88
412.472	82.88
412.695	91.88
412.919	86.88
413.142	83.88
413.365	106.88
413.589	85.88
413.812	80.88
414.035	101.88
414.258	90.88
414.482	70.88
414.705	89.88
414.928	88.88
415.151	103.88
415.374	87.88
415.597	87.88
415.821	85.88
416.044	80.88
416.267	87.88
416.49	85.88
416.713	94.88
416.936	88.88
417.159	73.88
417.382	80.88
417.605	94.88
417.828	89.88
418.051	82.88
418.274	78.88
418.497	96.88
418.72	87.88
418.943	94.88
419.166	106.88
419.389	105.88
419.611	89.88
419.834	89.88
420.057	89.88
420.28	89.88
420.503	83.88
420.726	93.88
420.948	89.88
421.171	91.88
421.394	89.88
421.617	85.88
421.839	88.88
422.062	103.88
422.285	101.88
422.507	87.88
422.73	85.88
422.953	92.88
423.175	77.88
423.398	96.88
423.621	88.88
423.843	81.88
424.066	97.88
424.288	98.88
424.511	94.88
424.733	84.88
424.956	102.88
425.178	103.88
425.401	95.88
425.623	106.88
425.846	90.88
426.068	80.88
426.291	82.88
426.513	97.88
426.735	87.88
426.958	91.88
427.18	103.88
427.402	142.88
427.625	161.88
427.847	146.88
428.069	112.88
428.292	90.88
428.514	92.88
428.736	84.88
428.958	72.88
429.181	76.88
429.403	89.88
429.625	103.88
429.847	88.88
430.069	103.88
430.292	81.88
430.514	93.88
430.736	73.88
430.958	69.88
431.18	90.88
431.402	83.88
431.624	78.88
431.846	79.88
432.068	80.88
432.29	73.88
432.512	82.88
432.734	81.88
432.956	90.88
433.178	105.88
433.4	95.88
433.622	83.88
433.844	84.88
434.066	106.88
434.287	90.88
434.509	95.88
434.731	82.88
434.953	84.88
435.175	65.88
435.397	78.88
435.618	89.88
435.84	94.88
436.062	128.88
436.284	105.88
436.505	105.88
436.727	111.88
436.949	88.88
437.17	87.88
437.392	80.88
437.614	94.88
437.835	95.88
438.057	115.88
438.278	116.88
438.5	103.88
438.721	119.88
438.943	92.88
439.165	98.88
439.386	81.88
439.608	77.88
439.829	94.88
440.05	119.88
440.272	148.88
440.493	89.88
440.715	87.88
440.936	97.88
441.158	95.88
441.379	96.88
441.6	94.88
441.822	89.88
442.043	95.88
442.264	112.88
442.486	94.88
442.707	96.88
442.928	97.88
443.149	139.88
443.371	126.88
443.592	109.88
443.813	117.88
444.034	90.88
444.255	92.88
444.476	75.88
444.698	83.88
444.919	80.88
445.14	134.88
445.361	110.88
445.582	112.88
445.803	141.88
446.024	144.88
446.245	144.88
446.466	104.88
446.687	98.88
446.908	84.88
447.129	76.88
447.35	95.88
447.571	91.88
447.792	106.88
448.013	104.88
448.234	94.88
448.455	86.88
448.675	100.88
448.896	111.88
449.117	93.88
449.338	103.88
449.559	115.88
449.779	109.88
450	92.88
450.221	96.88
450.442	100.88
450.662	87.88
450.883	122.88
451.104	116.88
451.324	101.88
451.545	98.88
451.766	80.88
451.986	86.88
452.207	81.88
452.428	92.88
452.648	94.88
452.869	90.88
453.089	111.88
453.31	116.88
453.53	88.88
453.751	74.88
453.971	98.88
454.192	102.88
454.412	90.88
454.633	92.88
454.853	90.88
455.073	70.88
455.294	91.88
455.514	84.88
455.734	91.88
455.955	82.88
456.175	81.88
456.395	85.88
456.616	77.88
456.836	75.88
457.056	84.88
457.276	77.88
457.497	88.88
457.717	74.88
457.937	86.88
458.157	93.88
458.377	79.88
458.598	112.88
458.818	154.88
459.038	179.88
459.258	107.88
459.478	85.88
459.698	84.88
459.918	86.88
460.138	90.88
460.358	75.88
460.578	73.88
460.798	97.88
461.018	88.88
461.238	72.88
461.458	76.88
461.678	66.88
461.898	79.88
462.118	92.88
462.338	77.88
462.558	92.88
462.777	78.88
462.997	78.88
463.217	85.88
463.437	89.88
463.657	83.88
463.876	73.88
464.096	87.88
464.316	87.88
464.536	97.88
464.755	103.88
464.975	111.88
465.195	170.88
465.414	160.88
465.634	88.88
465.854	85.88
466.073	79.88
466.293	79.88
466.512	94.88
466.732	86.88
466.951	84.88
467.171	80.88
467.391	87.88
467.61	85.88
467.829	95.88
468.049	87.88
468.268	90.88
468.488	82.88
468.707	74.88
468.927	73.88
469.146	80.88
469.365	73.88
469.585	113.88
469.804	94.88
470.023	97.88
470.243	81.88
470.462	97.88
470.681	109.88
470.901	85.88
471.12	86.88
471.339	77.88
471.558	64.88
471.777	82.88
471.997	86.88
472.216	85.88
472.435	96.88
472.654	75.88
472.873	88.88
473.092	79.88
473.311	104.88
473.53	90.88
473.749	93.88
473.968	98.88
474.187	99.88
474.406	86.88
474.625	87.88
474.844	80.88
475.063	82.88
475.282	86.88
475.501	95.88
475.72	68.88
475.939	73.88
476.158	86.88
476.377	87.88
476.596	90.88
476.814	90.88
477.033	92.88
477.252	90.88
477.471	84.88
477.69	92.88
477.908	93.88
478.127	82.88
478.346	84.88
478.564	83.88
478.783	117.88
479.002	87.88
479.22	89.88
479.439	105.88
479.658	100.88
479.876	85.88
480.095	83.88
480.313	99.88
480.532	92.88
480.751	89.88
480.969	86.88
481.188	126.88
481.406	122.88
481.624	101.88
481.843	82.88
482.061	71.88
482.28	88.88
482.498	95.88
482.717	84.88
482.935	87.88
483.153	100.88
483.372	81.88
483.59	89.88
483.808	95.88
484.027	94.88
484.245	92.88
484.463	86.88
484.681	101.88
484.9	99.88
485.118	90.88
485.336	92.88
485.554	88.88
485.772	96.88
485.99	92.88
486.209	100.88
486.427	95.88
486.645	105.88
486.863	111.88
487.081	105.88
487.299	109.88
487.517	95.88
487.735	90.88
487.953	76.88
488.171	88.88
488.389	85.88
488.607	90.88
488.825	93.88
489.043	83.88
489.261	71.88
489.479	88.88
489.696	96.88
489.914	98.88
490.132	94.88
490.35	90.88
490.568	103.88
490.786	77.88
491.003	91.88
491.221	86.88
491.439	92.88
491.657	92.88
491.874	90.88
492.092	96.88
492.31	102.88
492.527	80.88
492.745	80.88
492.963	88.88
493.18	92.88
493.398	98.88
493.615	93.88
493.833	88.88
494.05	102.88
494.268	95.88
494.485	87.88
494.703	79.88
494.92	95.88
495.138	84.88
495.355	106.88
495.573	90.88
495.79	76.88
496.008	82.88
496.225	94.88
496.442	105.88
496.66	97.88
496.877	100.88
497.094	104.88
497.312	88.88
497.529	90.88
497.746	89.88
497.963	83.88
498.181	76.88
498.398	92.88
498.615	100.88
498.832	109.88
499.049	84.88
499.267	89.88
499.484	86.88
499.701	89.88
499.918	91.88
500.135	72.88
500.352	85.88
500.569	83.88
500.786	96.88
501.003	92.88
501.22	74.88
501.437	79.88
501.654	101.88
501.871	100.88
502.088	81.88
502.305	94.88
502.522	92.88
502.739	97.88
502.956	86.88
503.172	83.88
503.389	78.88
503.606	99.88
503.823	92.88
504.04	100.88
504.256	99.88
504.473	80.88
504.69	81.88
504.907	90.88
505.123	89.88
505.34	89.88
505.557	95.88
505.773	84.88
505.99	56.88
506.207	94.88
506.423	97.88
506.64	81.88
506.856	87.88
507.073	82.88
507.289	93.88
507.506	103.88
507.722	106.88
507.939	99.88
508.155	101.88
508.372	95.88
508.588	94.88
508.805	96.88
509.021	90.88
509.238	94.88
509.454	85.88
509.67	100.88
509.887	113.88
510.103	133.88
510.319	224.88
510.536	736.88
510.752	2487.88
510.968	692.88
511.184	165.88
511.401	115.88
511.617	91.88
511.833	106.88
512.049	106.88
512.265	92.88
512.481	84.88
512.698	87.88
512.914	89.88
513.13	92.88
513.346	91.88
513.562	88.88
513.778	96.88
513.994	93.88
514.21	118.88
514.426	112.88
514.642	148.88
514.858	134.88
515.074	167.88
515.29	487.88
515.506	1607.88
515.721	594.88
515.937	166.88
516.153	109.88
