Data from Circ_2002_H10_HRD10591_00052.txt Node
Date: Wed Jan 03 10:41:08 EST 2024
User: Yrep
Spectrometer: HR+D1059
Trigger mode: 1
Integration Time (sec): 1.000000E-1
Scans to average: 1
Electric dark correction enabled: true
Nonlinearity correction enabled: false
Boxcar width: 0
XAxis mode: Wavelengths
Number of Pixels in Spectrum: 2048
>>>>>Begin Spectral Data<<<<<
223.165	-15.38
223.4	-15.38
223.635	-15.38
223.869	-27.38
224.104	-14.38
224.338	-10.38
224.573	-13.38
224.808	-14.38
225.042	-22.38
225.277	-6.38
225.511	5.62
225.746	2.62
225.98	7.62
226.215	7.62
226.449	24.62
226.683	34.62
226.918	17.62
227.152	23.62
227.387	35.62
227.621	37.62
227.856	54.62
228.09	45.62
228.324	51.62
228.559	45.62
228.793	52.62
229.027	63.62
229.262	62.62
229.496	65.62
229.73	80.62
229.964	84.62
230.199	76.62
230.433	87.62
230.667	79.62
230.901	82.62
231.136	86.62
231.37	67.62
231.604	88.62
231.838	88.62
232.072	89.62
232.306	82.62
232.541	75.62
232.775	90.62
233.009	80.62
233.243	88.62
233.477	77.62
233.711	82.62
233.945	69.62
234.179	76.62
234.413	82.62
234.647	79.62
234.881	74.62
235.115	67.62
235.349	64.62
235.583	74.62
235.817	82.62
236.051	74.62
236.285	79.62
236.519	77.62
236.753	82.62
236.987	84.62
237.221	85.62
237.455	90.62
237.689	82.62
237.922	74.62
238.156	97.62
238.39	66.62
238.624	63.62
238.858	78.62
239.091	71.62
239.325	69.62
239.559	75.62
239.793	86.62
240.027	76.62
240.26	87.62
240.494	76.62
240.728	75.62
240.961	80.62
241.195	72.62
241.429	60.62
241.662	77.62
241.896	68.62
242.13	73.62
242.363	61.62
242.597	89.62
242.83	82.62
243.064	65.62
243.298	71.62
243.531	80.62
243.765	80.62
243.998	76.62
244.232	91.62
244.465	77.62
244.699	89.62
244.932	76.62
245.166	81.62
245.399	91.62
245.633	72.62
245.866	67.62
246.099	71.62
246.333	82.62
246.566	73.62
246.8	75.62
247.033	68.62
247.266	85.62
247.5	80.62
247.733	73.62
247.966	84.62
248.2	80.62
248.433	74.62
248.666	69.62
248.899	80.62
249.133	75.62
249.366	87.62
249.599	98.62
249.832	75.62
250.066	97.62
250.299	83.62
250.532	84.62
250.765	84.62
250.998	83.62
251.231	76.62
251.465	80.62
251.698	96.62
251.931	85.62
252.164	81.62
252.397	84.62
252.63	85.62
252.863	74.62
253.096	84.62
253.329	78.62
253.562	69.62
253.795	97.62
254.028	77.62
254.261	70.62
254.494	80.62
254.727	76.62
254.96	70.62
255.193	64.62
255.426	74.62
255.659	76.62
255.892	74.62
256.124	75.62
256.357	86.62
256.59	80.62
256.823	79.62
257.056	97.62
257.289	78.62
257.521	89.62
257.754	84.62
257.987	88.62
258.22	73.62
258.452	80.62
258.685	83.62
258.918	79.62
259.151	80.62
259.383	89.62
259.616	78.62
259.849	91.62
260.081	81.62
260.314	88.62
260.547	75.62
260.779	80.62
261.012	82.62
261.244	88.62
261.477	86.62
261.71	91.62
261.942	109.62
262.175	116.62
262.407	93.62
262.64	85.62
262.872	87.62
263.105	63.62
263.337	81.62
263.57	90.62
263.802	82.62
264.035	84.62
264.267	80.62
264.499	79.62
264.732	90.62
264.964	83.62
265.197	79.62
265.429	87.62
265.661	80.62
265.894	74.62
266.126	94.62
266.358	83.62
266.591	83.62
266.823	90.62
267.055	97.62
267.287	83.62
267.52	92.62
267.752	84.62
267.984	97.62
268.216	68.62
268.448	75.62
268.681	93.62
268.913	83.62
269.145	90.62
269.377	73.62
269.609	81.62
269.841	87.62
270.073	86.62
270.306	79.62
270.538	85.62
270.77	70.62
271.002	102.62
271.234	85.62
271.466	92.62
271.698	91.62
271.93	97.62
272.162	83.62
272.394	88.62
272.626	80.62
272.858	89.62
273.09	77.62
273.322	77.62
273.553	75.62
273.785	87.62
274.017	96.62
274.249	86.62
274.481	91.62
274.713	87.62
274.945	87.62
275.176	82.62
275.408	84.62
275.64	81.62
275.872	72.62
276.104	92.62
276.335	95.62
276.567	92.62
276.799	98.62
277.031	105.62
277.262	91.62
277.494	95.62
277.726	79.62
277.957	79.62
278.189	88.62
278.421	88.62
278.652	95.62
278.884	87.62
279.115	86.62
279.347	84.62
279.579	93.62
279.81	75.62
280.042	84.62
280.273	85.62
280.505	73.62
280.736	92.62
280.968	91.62
281.199	104.62
281.431	85.62
281.662	93.62
281.894	94.62
282.125	102.62
282.356	115.62
282.588	114.62
282.819	105.62
283.051	90.62
283.282	112.62
283.513	82.62
283.745	92.62
283.976	82.62
284.207	97.62
284.439	89.62
284.67	81.62
284.901	79.62
285.132	87.62
285.364	91.62
285.595	88.62
285.826	75.62
286.057	84.62
286.288	90.62
286.52	88.62
286.751	82.62
286.982	101.62
287.213	104.62
287.444	93.62
287.675	91.62
287.906	98.62
288.138	86.62
288.369	92.62
288.6	96.62
288.831	94.62
289.062	90.62
289.293	87.62
289.524	81.62
289.755	100.62
289.986	97.62
290.217	89.62
290.448	84.62
290.679	98.62
290.91	89.62
291.141	84.62
291.371	81.62
291.602	79.62
291.833	108.62
292.064	85.62
292.295	84.62
292.526	84.62
292.757	83.62
292.987	100.62
293.218	85.62
293.449	72.62
293.68	86.62
293.91	92.62
294.141	91.62
294.372	90.62
294.603	92.62
294.833	89.62
295.064	97.62
295.295	104.62
295.525	92.62
295.756	96.62
295.987	108.62
296.217	133.62
296.448	113.62
296.679	103.62
296.909	93.62
297.14	90.62
297.37	86.62
297.601	71.62
297.831	77.62
298.062	98.62
298.292	90.62
298.523	97.62
298.753	91.62
298.984	86.62
299.214	83.62
299.445	88.62
299.675	87.62
299.905	85.62
300.136	97.62
300.366	96.62
300.597	96.62
300.827	101.62
301.057	85.62
301.288	111.62
301.518	86.62
301.748	87.62
301.979	95.62
302.209	91.62
302.439	85.62
302.669	85.62
302.9	93.62
303.13	83.62
303.36	88.62
303.59	103.62
303.82	86.62
304.051	89.62
304.281	106.62
304.511	92.62
304.741	82.62
304.971	92.62
305.201	92.62
305.431	100.62
305.661	94.62
305.891	93.62
306.121	84.62
306.352	96.62
306.582	99.62
306.812	92.62
307.042	88.62
307.272	92.62
307.502	79.62
307.731	97.62
307.961	89.62
308.191	80.62
308.421	91.62
308.651	100.62
308.881	84.62
309.111	101.62
309.341	87.62
309.571	95.62
309.8	96.62
310.03	87.62
310.26	84.62
310.49	99.62
310.72	101.62
310.949	104.62
311.179	109.62
311.409	82.62
311.639	109.62
311.868	68.62
312.098	77.62
312.328	93.62
312.557	96.62
312.787	110.62
313.017	97.62
313.246	86.62
313.476	79.62
313.706	97.62
313.935	81.62
314.165	95.62
314.394	107.62
314.624	88.62
314.853	96.62
315.083	101.62
315.312	92.62
315.542	96.62
315.771	97.62
316.001	92.62
316.23	94.62
316.46	91.62
316.689	92.62
316.919	89.62
317.148	93.62
317.377	83.62
317.607	89.62
317.836	84.62
318.065	105.62
318.295	87.62
318.524	107.62
318.753	96.62
318.983	96.62
319.212	99.62
319.441	117.62
319.67	101.62
319.9	92.62
320.129	86.62
320.358	92.62
320.587	100.62
320.816	86.62
321.046	90.62
321.275	112.62
321.504	78.62
321.733	112.62
321.962	92.62
322.191	96.62
322.42	115.62
322.649	105.62
322.878	117.62
323.108	98.62
323.337	110.62
323.566	118.62
323.795	143.62
324.024	202.62
324.253	351.62
324.482	747.62
324.71	1540.62
324.939	1953.62
325.168	705.62
325.397	223.62
325.626	139.62
325.855	112.62
326.084	113.62
326.313	131.62
326.542	161.62
326.77	205.62
326.999	410.62
327.228	847.62
327.457	1553.62
327.686	1196.62
327.914	329.62
328.143	182.62
328.372	153.62
328.6	120.62
328.829	114.62
329.058	107.62
329.287	120.62
329.515	106.62
329.744	105.62
329.972	95.62
330.201	110.62
330.43	123.62
330.658	131.62
330.887	140.62
331.115	101.62
331.344	90.62
331.572	99.62
331.801	105.62
332.03	92.62
332.258	113.62
332.486	96.62
332.715	98.62
332.943	96.62
333.172	96.62
333.4	85.62
333.629	104.62
333.857	113.62
334.085	107.62
334.314	109.62
334.542	122.62
334.771	120.62
334.999	80.62
335.227	99.62
335.455	91.62
335.684	103.62
335.912	95.62
336.14	84.62
336.369	100.62
336.597	106.62
336.825	99.62
337.053	84.62
337.281	96.62
337.51	80.62
337.738	93.62
337.966	95.62
338.194	96.62
338.422	95.62
338.65	87.62
338.878	115.62
339.106	96.62
339.334	96.62
339.562	82.62
339.79	96.62
340.018	92.62
340.246	97.62
340.474	95.62
340.702	90.62
340.93	93.62
341.158	78.62
341.386	87.62
341.614	83.62
341.842	89.62
342.07	91.62
342.298	96.62
342.526	76.62
342.754	87.62
342.981	92.62
343.209	95.62
343.437	101.62
343.665	108.62
343.893	87.62
344.12	89.62
344.348	96.62
344.576	93.62
344.804	92.62
345.031	83.62
345.259	80.62
345.487	97.62
345.714	88.62
345.942	101.62
346.17	98.62
346.397	86.62
346.625	97.62
346.853	92.62
347.08	87.62
347.308	89.62
347.535	92.62
347.763	107.62
347.99	103.62
348.218	93.62
348.445	98.62
348.673	98.62
348.9	89.62
349.128	99.62
349.355	91.62
349.583	96.62
349.81	97.62
350.037	89.62
350.265	92.62
350.492	97.62
350.72	93.62
350.947	94.62
351.174	114.62
351.402	99.62
351.629	111.62
351.856	111.62
352.083	91.62
352.311	97.62
352.538	104.62
352.765	115.62
352.992	105.62
353.22	99.62
353.447	108.62
353.674	107.62
353.901	86.62
354.128	93.62
354.355	82.62
354.583	97.62
354.81	95.62
355.037	76.62
355.264	89.62
355.491	105.62
355.718	97.62
355.945	101.62
356.172	90.62
356.399	90.62
356.626	103.62
356.853	98.62
357.08	90.62
357.307	105.62
357.534	95.62
357.761	102.62
357.988	103.62
358.215	107.62
358.441	88.62
358.668	90.62
358.895	94.62
359.122	78.62
359.349	69.62
359.576	79.62
359.802	101.62
360.029	103.62
360.256	103.62
360.483	97.62
360.709	88.62
360.936	107.62
361.163	92.62
361.39	94.62
361.616	89.62
361.843	88.62
362.07	88.62
362.296	102.62
362.523	100.62
362.749	99.62
362.976	99.62
363.203	80.62
363.429	85.62
363.656	96.62
363.882	90.62
364.109	78.62
364.335	90.62
364.562	92.62
364.788	83.62
365.015	93.62
365.241	100.62
365.468	108.62
365.694	98.62
365.92	91.62
366.147	84.62
366.373	91.62
366.599	88.62
366.826	74.62
367.052	89.62
367.278	98.62
367.505	93.62
367.731	100.62
367.957	97.62
368.184	86.62
368.41	101.62
368.636	113.62
368.862	105.62
369.089	113.62
369.315	106.62
369.541	90.62
369.767	93.62
369.993	102.62
370.219	91.62
370.445	77.62
370.672	92.62
370.898	89.62
371.124	94.62
371.35	92.62
371.576	83.62
371.802	82.62
372.028	99.62
372.254	90.62
372.48	81.62
372.706	78.62
372.932	84.62
373.158	95.62
373.384	86.62
373.61	101.62
373.835	91.62
374.061	100.62
374.287	92.62
374.513	90.62
374.739	96.62
374.965	86.62
375.191	91.62
375.416	94.62
375.642	98.62
375.868	88.62
376.094	84.62
376.319	89.62
376.545	92.62
376.771	101.62
376.997	93.62
377.222	76.62
377.448	97.62
377.674	108.62
377.899	89.62
378.125	92.62
378.35	97.62
378.576	87.62
378.802	95.62
379.027	101.62
379.253	113.62
379.478	96.62
379.704	107.62
379.929	99.62
380.155	94.62
380.38	111.62
380.606	89.62
380.831	95.62
381.057	111.62
381.282	79.62
381.507	95.62
381.733	108.62
381.958	88.62
382.184	98.62
382.409	87.62
382.634	99.62
382.86	116.62
383.085	90.62
383.31	103.62
383.535	103.62
383.761	104.62
383.986	101.62
384.211	93.62
384.436	90.62
384.662	104.62
384.887	102.62
385.112	96.62
385.337	112.62
385.562	97.62
385.787	115.62
386.013	111.62
386.238	114.62
386.463	115.62
386.688	104.62
386.913	106.62
387.138	109.62
387.363	100.62
387.588	114.62
387.813	103.62
388.038	98.62
388.263	100.62
388.488	115.62
388.713	93.62
388.938	99.62
389.163	106.62
389.387	103.62
389.612	84.62
389.837	79.62
390.062	87.62
390.287	93.62
390.512	100.62
390.736	91.62
390.961	98.62
391.186	92.62
391.411	88.62
391.636	92.62
391.86	102.62
392.085	89.62
392.31	93.62
392.534	90.62
392.759	92.62
392.984	103.62
393.208	107.62
393.433	107.62
393.658	97.62
393.882	96.62
394.107	88.62
394.331	85.62
394.556	90.62
394.78	97.62
395.005	91.62
395.229	90.62
395.454	108.62
395.678	73.62
395.903	88.62
396.127	93.62
396.352	90.62
396.576	89.62
396.801	106.62
397.025	97.62
397.249	100.62
397.474	82.62
397.698	87.62
397.922	96.62
398.147	104.62
398.371	89.62
398.595	91.62
398.82	96.62
399.044	87.62
399.268	84.62
399.492	81.62
399.717	83.62
399.941	98.62
400.165	99.62
400.389	87.62
400.613	96.62
400.837	69.62
401.062	86.62
401.286	97.62
401.51	95.62
401.734	84.62
401.958	92.62
402.182	116.62
402.406	144.62
402.63	111.62
402.854	95.62
403.078	100.62
403.302	82.62
403.526	108.62
403.75	87.62
403.974	102.62
404.198	83.62
404.422	79.62
404.645	75.62
404.869	99.62
405.093	89.62
405.317	87.62
405.541	95.62
405.765	97.62
405.988	102.62
406.212	161.62
406.436	191.62
406.66	130.62
406.883	107.62
407.107	99.62
407.331	88.62
407.555	93.62
407.778	95.62
408.002	81.62
408.226	91.62
408.449	87.62
408.673	89.62
408.896	98.62
409.12	97.62
409.344	95.62
409.567	91.62
409.791	95.62
410.014	78.62
410.238	91.62
410.461	108.62
410.685	106.62
410.908	83.62
411.132	107.62
411.355	112.62
411.578	85.62
411.802	81.62
412.025	87.62
412.249	88.62
412.472	87.62
412.695	89.62
412.919	83.62
413.142	86.62
413.365	85.62
413.589	94.62
413.812	89.62
414.035	94.62
414.258	89.62
414.482	101.62
414.705	79.62
414.928	83.62
415.151	91.62
415.374	93.62
415.597	86.62
415.821	85.62
416.044	86.62
416.267	82.62
416.49	96.62
416.713	100.62
416.936	89.62
417.159	85.62
417.382	85.62
417.605	82.62
417.828	100.62
418.051	106.62
418.274	90.62
418.497	106.62
418.72	92.62
418.943	94.62
419.166	84.62
419.389	98.62
419.611	99.62
419.834	80.62
420.057	90.62
420.28	87.62
420.503	116.62
420.726	95.62
420.948	84.62
421.171	93.62
421.394	88.62
421.617	89.62
421.839	78.62
422.062	90.62
422.285	98.62
422.507	82.62
422.73	95.62
422.953	96.62
423.175	92.62
423.398	83.62
423.621	90.62
423.843	88.62
424.066	91.62
424.288	80.62
424.511	96.62
424.733	89.62
424.956	101.62
425.178	83.62
425.401	99.62
425.623	104.62
425.846	102.62
426.068	79.62
426.291	89.62
426.513	81.62
426.735	88.62
426.958	92.62
427.18	103.62
427.402	109.62
427.625	147.62
427.847	111.62
428.069	108.62
428.292	88.62
428.514	91.62
428.736	94.62
428.958	87.62
429.181	88.62
429.403	87.62
429.625	87.62
429.847	93.62
430.069	90.62
430.292	91.62
430.514	91.62
430.736	86.62
430.958	83.62
431.18	82.62
431.402	88.62
431.624	97.62
431.846	92.62
432.068	87.62
432.29	104.62
432.512	95.62
432.734	99.62
432.956	90.62
433.178	105.62
433.4	107.62
433.622	98.62
433.844	85.62
434.066	92.62
434.287	108.62
434.509	80.62
434.731	95.62
434.953	103.62
435.175	92.62
435.397	95.62
435.618	94.62
435.84	106.62
436.062	106.62
436.284	100.62
436.505	94.62
436.727	102.62
436.949	85.62
437.17	83.62
437.392	87.62
437.614	101.62
437.835	100.62
438.057	102.62
438.278	108.62
438.5	109.62
438.721	117.62
438.943	94.62
439.165	67.62
439.386	75.62
439.608	81.62
439.829	96.62
440.05	106.62
440.272	122.62
440.493	98.62
440.715	99.62
440.936	75.62
441.158	87.62
441.379	92.62
441.6	92.62
441.822	102.62
442.043	104.62
442.264	100.62
442.486	93.62
442.707	89.62
442.928	88.62
443.149	123.62
443.371	119.62
443.592	111.62
443.813	102.62
444.034	92.62
444.255	79.62
444.476	76.62
444.698	82.62
444.919	84.62
445.14	134.62
445.361	127.62
445.582	100.62
445.803	119.62
446.024	127.62
446.245	123.62
446.466	113.62
446.687	101.62
446.908	88.62
447.129	86.62
447.35	85.62
447.571	99.62
447.792	91.62
448.013	92.62
448.234	94.62
448.455	92.62
448.675	104.62
448.896	106.62
449.117	95.62
449.338	100.62
449.559	106.62
449.779	119.62
450	97.62
450.221	88.62
450.442	94.62
450.662	76.62
450.883	90.62
451.104	107.62
451.324	97.62
451.545	82.62
451.766	80.62
451.986	88.62
452.207	87.62
452.428	84.62
452.648	91.62
452.869	105.62
453.089	101.62
453.31	92.62
453.53	80.62
453.751	80.62
453.971	104.62
454.192	103.62
454.412	100.62
454.633	97.62
454.853	93.62
455.073	97.62
455.294	96.62
455.514	109.62
455.734	90.62
455.955	78.62
456.175	87.62
456.395	93.62
456.616	85.62
456.836	87.62
457.056	84.62
457.276	83.62
457.497	97.62
457.717	90.62
457.937	87.62
458.157	80.62
458.377	92.62
458.598	94.62
458.818	141.62
459.038	136.62
459.258	113.62
459.478	85.62
459.698	91.62
459.918	97.62
460.138	91.62
460.358	100.62
460.578	88.62
460.798	84.62
461.018	90.62
461.238	98.62
461.458	101.62
461.678	86.62
461.898	82.62
462.118	75.62
462.338	92.62
462.558	96.62
462.777	79.62
462.997	74.62
463.217	78.62
463.437	89.62
463.657	87.62
463.876	97.62
464.096	76.62
464.316	82.62
464.536	90.62
464.755	99.62
464.975	95.62
465.195	137.62
465.414	125.62
465.634	78.62
465.854	91.62
466.073	86.62
466.293	81.62
466.512	93.62
466.732	89.62
466.951	80.62
467.171	89.62
467.391	83.62
467.61	101.62
467.829	95.62
468.049	94.62
468.268	99.62
468.488	91.62
468.707	82.62
468.927	66.62
469.146	89.62
469.365	102.62
469.585	101.62
469.804	79.62
470.023	100.62
470.243	96.62
470.462	83.62
470.681	108.62
470.901	86.62
471.12	77.62
471.339	91.62
471.558	76.62
471.777	94.62
471.997	91.62
472.216	102.62
472.435	132.62
472.654	105.62
472.873	94.62
473.092	83.62
473.311	97.62
473.53	74.62
473.749	75.62
473.968	96.62
474.187	111.62
474.406	88.62
474.625	90.62
474.844	93.62
475.063	78.62
475.282	79.62
475.501	90.62
475.72	74.62
475.939	96.62
476.158	83.62
476.377	78.62
476.596	78.62
476.814	85.62
477.033	92.62
477.252	88.62
477.471	77.62
477.69	93.62
477.908	88.62
478.127	85.62
478.346	92.62
478.564	83.62
478.783	83.62
479.002	86.62
479.22	86.62
479.439	83.62
479.658	103.62
479.876	97.62
480.095	96.62
480.313	93.62
480.532	82.62
480.751	96.62
480.969	106.62
481.188	162.62
481.406	146.62
481.624	105.62
481.843	105.62
482.061	94.62
482.28	101.62
482.498	89.62
482.717	83.62
482.935	93.62
483.153	93.62
483.372	81.62
483.59	96.62
483.808	106.62
484.027	98.62
484.245	94.62
484.463	90.62
484.681	101.62
484.9	90.62
485.118	91.62
485.336	89.62
485.554	104.62
485.772	93.62
485.99	107.62
486.209	111.62
486.427	106.62
486.645	114.62
486.863	115.62
487.081	104.62
487.299	105.62
487.517	105.62
487.735	91.62
487.953	98.62
488.171	99.62
488.389	88.62
488.607	89.62
488.825	88.62
489.043	81.62
489.261	84.62
489.479	95.62
489.696	97.62
489.914	75.62
490.132	102.62
490.35	92.62
490.568	80.62
490.786	100.62
491.003	96.62
491.221	95.62
491.439	88.62
491.657	89.62
491.874	88.62
492.092	89.62
492.31	100.62
492.527	83.62
492.745	84.62
492.963	100.62
493.18	91.62
493.398	97.62
493.615	97.62
493.833	99.62
494.05	98.62
494.268	96.62
494.485	67.62
494.703	94.62
494.92	78.62
495.138	76.62
495.355	88.62
495.573	92.62
495.79	92.62
496.008	91.62
496.225	98.62
496.442	89.62
496.66	81.62
496.877	103.62
497.094	87.62
497.312	91.62
497.529	106.62
497.746	92.62
497.963	84.62
498.181	96.62
498.398	90.62
498.615	115.62
498.832	96.62
499.049	93.62
499.267	77.62
499.484	96.62
499.701	92.62
499.918	83.62
500.135	76.62
500.352	98.62
500.569	88.62
500.786	86.62
501.003	86.62
501.22	86.62
501.437	94.62
501.654	95.62
501.871	87.62
502.088	90.62
502.305	93.62
502.522	80.62
502.739	98.62
502.956	105.62
503.172	94.62
503.389	104.62
503.606	90.62
503.823	78.62
504.04	84.62
504.256	91.62
504.473	88.62
504.69	97.62
504.907	92.62
505.123	98.62
505.34	85.62
505.557	90.62
505.773	85.62
505.99	87.62
506.207	84.62
506.423	92.62
506.64	96.62
506.856	89.62
507.073	94.62
507.289	87.62
507.506	79.62
507.722	91.62
507.939	93.62
508.155	93.62
508.372	81.62
508.588	96.62
508.805	99.62
509.021	101.62
509.238	98.62
509.454	93.62
509.67	90.62
509.887	101.62
510.103	105.62
510.319	188.62
510.536	628.62
510.752	1886.62
510.968	547.62
511.184	145.62
511.401	99.62
511.617	103.62
511.833	108.62
512.049	93.62
512.265	98.62
512.481	97.62
512.698	95.62
512.914	95.62
513.13	98.62
513.346	99.62
513.562	91.62
513.778	95.62
513.994	98.62
514.21	112.62
514.426	109.62
514.642	114.62
514.858	114.62
515.074	142.62
515.29	341.62
515.506	1071.62
515.721	443.62
