Data from Circ_2002_H10_HRD10591_00014.txt Node
Date: Wed Jan 03 10:41:01 EST 2024
User: Yrep
Spectrometer: HR+D1059
Trigger mode: 1
Integration Time (sec): 1.000000E-1
Scans to average: 1
Electric dark correction enabled: true
Nonlinearity correction enabled: false
Boxcar width: 0
XAxis mode: Wavelengths
Number of Pixels in Spectrum: 2048
>>>>>Begin Spectral Data<<<<<
223.165	-36.56
223.4	-36.56
223.635	-36.56
223.869	-12.56
224.104	-1.56
224.338	-21.56
224.573	-20.56
224.808	-12.56
225.042	-6.56
225.277	-7.56
225.511	-9.56
225.746	12.44
225.98	19.44
226.215	2.44
226.449	14.44
226.683	31.44
226.918	27.44
227.152	21.44
227.387	48.44
227.621	38.44
227.856	33.44
228.09	31.44
228.324	59.44
228.559	64.44
228.793	59.44
229.027	62.44
229.262	70.44
229.496	79.44
229.73	78.44
229.964	80.44
230.199	72.44
230.433	78.44
230.667	58.44
230.901	72.44
231.136	82.44
231.37	74.44
231.604	73.44
231.838	89.44
232.072	75.44
232.306	83.44
232.541	83.44
232.775	86.44
233.009	70.44
233.243	84.44
233.477	73.44
233.711	83.44
233.945	76.44
234.179	66.44
234.413	70.44
234.647	83.44
234.881	80.44
235.115	90.44
235.349	72.44
235.583	83.44
235.817	73.44
236.051	81.44
236.285	75.44
236.519	77.44
236.753	88.44
236.987	70.44
237.221	85.44
237.455	71.44
237.689	72.44
237.922	81.44
238.156	86.44
238.39	89.44
238.624	87.44
238.858	79.44
239.091	78.44
239.325	76.44
239.559	85.44
239.793	82.44
240.027	84.44
240.26	89.44
240.494	81.44
240.728	74.44
240.961	85.44
241.195	68.44
241.429	79.44
241.662	66.44
241.896	67.44
242.13	84.44
242.363	67.44
242.597	58.44
242.83	78.44
243.064	84.44
243.298	80.44
243.531	66.44
243.765	84.44
243.998	81.44
244.232	87.44
244.465	81.44
244.699	89.44
244.932	79.44
245.166	62.44
245.399	80.44
245.633	84.44
245.866	85.44
246.099	63.44
246.333	82.44
246.566	76.44
246.8	75.44
247.033	84.44
247.266	67.44
247.5	83.44
247.733	84.44
247.966	85.44
248.2	76.44
248.433	76.44
248.666	70.44
248.899	86.44
249.133	84.44
249.366	83.44
249.599	92.44
249.832	71.44
250.066	76.44
250.299	87.44
250.532	78.44
250.765	81.44
250.998	74.44
251.231	72.44
251.465	65.44
251.698	74.44
251.931	80.44
252.164	74.44
252.397	88.44
252.63	89.44
252.863	79.44
253.096	74.44
253.329	86.44
253.562	74.44
253.795	88.44
254.028	92.44
254.261	79.44
254.494	86.44
254.727	76.44
254.96	85.44
255.193	72.44
255.426	80.44
255.659	76.44
255.892	95.44
256.124	84.44
256.357	87.44
256.59	92.44
256.823	82.44
257.056	82.44
257.289	82.44
257.521	75.44
257.754	86.44
257.987	82.44
258.22	87.44
258.452	88.44
258.685	91.44
258.918	98.44
259.151	68.44
259.383	78.44
259.616	80.44
259.849	87.44
260.081	88.44
260.314	71.44
260.547	71.44
260.779	71.44
261.012	67.44
261.244	80.44
261.477	92.44
261.71	91.44
261.942	101.44
262.175	95.44
262.407	83.44
262.64	76.44
262.872	85.44
263.105	88.44
263.337	73.44
263.57	85.44
263.802	74.44
264.035	87.44
264.267	81.44
264.499	92.44
264.732	76.44
264.964	81.44
265.197	88.44
265.429	74.44
265.661	63.44
265.894	84.44
266.126	72.44
266.358	86.44
266.591	77.44
266.823	91.44
267.055	73.44
267.287	79.44
267.52	90.44
267.752	85.44
267.984	85.44
268.216	74.44
268.448	84.44
268.681	87.44
268.913	79.44
269.145	70.44
269.377	78.44
269.609	70.44
269.841	83.44
270.073	82.44
270.306	82.44
270.538	75.44
270.77	83.44
271.002	92.44
271.234	85.44
271.466	84.44
271.698	80.44
271.93	77.44
272.162	69.44
272.394	79.44
272.626	80.44
272.858	79.44
273.09	79.44
273.322	91.44
273.553	72.44
273.785	70.44
274.017	82.44
274.249	72.44
274.481	99.44
274.713	89.44
274.945	86.44
275.176	78.44
275.408	95.44
275.64	83.44
275.872	98.44
276.104	99.44
276.335	78.44
276.567	96.44
276.799	98.44
277.031	93.44
277.262	90.44
277.494	96.44
277.726	87.44
277.957	91.44
278.189	79.44
278.421	81.44
278.652	86.44
278.884	85.44
279.115	77.44
279.347	86.44
279.579	88.44
279.81	82.44
280.042	86.44
280.273	77.44
280.505	77.44
280.736	90.44
280.968	98.44
281.199	80.44
281.431	82.44
281.662	100.44
281.894	83.44
282.125	96.44
282.356	112.44
282.588	116.44
282.819	111.44
283.051	84.44
283.282	75.44
283.513	90.44
283.745	89.44
283.976	90.44
284.207	87.44
284.439	77.44
284.67	81.44
284.901	95.44
285.132	89.44
285.364	87.44
285.595	91.44
285.826	89.44
286.057	90.44
286.288	78.44
286.52	89.44
286.751	85.44
286.982	80.44
287.213	88.44
287.444	78.44
287.675	78.44
287.906	90.44
288.138	89.44
288.369	79.44
288.6	87.44
288.831	85.44
289.062	83.44
289.293	83.44
289.524	97.44
289.755	88.44
289.986	81.44
290.217	95.44
290.448	99.44
290.679	90.44
290.91	82.44
291.141	93.44
291.371	72.44
291.602	76.44
291.833	83.44
292.064	97.44
292.295	75.44
292.526	76.44
292.757	84.44
292.987	94.44
293.218	73.44
293.449	78.44
293.68	73.44
293.91	96.44
294.141	100.44
294.372	90.44
294.603	75.44
294.833	98.44
295.064	100.44
295.295	87.44
295.525	83.44
295.756	105.44
295.987	104.44
296.217	108.44
296.448	103.44
296.679	97.44
296.909	84.44
297.14	92.44
297.37	88.44
297.601	84.44
297.831	93.44
298.062	82.44
298.292	81.44
298.523	90.44
298.753	87.44
298.984	88.44
299.214	84.44
299.445	98.44
299.675	76.44
299.905	100.44
300.136	93.44
300.366	83.44
300.597	92.44
300.827	100.44
301.057	95.44
301.288	105.44
301.518	96.44
301.748	90.44
301.979	107.44
302.209	105.44
302.439	83.44
302.669	93.44
302.9	89.44
303.13	91.44
303.36	91.44
303.59	95.44
303.82	110.44
304.051	96.44
304.281	86.44
304.511	100.44
304.741	68.44
304.971	98.44
305.201	86.44
305.431	82.44
305.661	84.44
305.891	88.44
306.121	106.44
306.352	104.44
306.582	106.44
306.812	106.44
307.042	88.44
307.272	91.44
307.502	83.44
307.731	89.44
307.961	100.44
308.191	100.44
308.421	105.44
308.651	91.44
308.881	86.44
309.111	101.44
309.341	86.44
309.571	106.44
309.8	100.44
310.03	84.44
310.26	94.44
310.49	90.44
310.72	114.44
310.949	94.44
311.179	99.44
311.409	95.44
311.639	97.44
311.868	88.44
312.098	78.44
312.328	98.44
312.557	105.44
312.787	92.44
313.017	86.44
313.246	85.44
313.476	81.44
313.706	94.44
313.935	92.44
314.165	95.44
314.394	97.44
314.624	100.44
314.853	106.44
315.083	88.44
315.312	89.44
315.542	91.44
315.771	88.44
316.001	87.44
316.23	85.44
316.46	83.44
316.689	97.44
316.919	85.44
317.148	86.44
317.377	82.44
317.607	98.44
317.836	92.44
318.065	89.44
318.295	91.44
318.524	74.44
318.753	82.44
318.983	99.44
319.212	91.44
319.441	105.44
319.67	106.44
319.9	87.44
320.129	97.44
320.358	80.44
320.587	96.44
320.816	103.44
321.046	100.44
321.275	86.44
321.504	78.44
321.733	87.44
321.962	95.44
322.191	100.44
322.42	96.44
322.649	99.44
322.878	111.44
323.108	116.44
323.337	111.44
323.566	114.44
323.795	137.44
324.024	170.44
324.253	305.44
324.482	662.44
324.71	1323.44
324.939	1768.44
325.168	647.44
325.397	214.44
325.626	122.44
325.855	120.44
326.084	110.44
326.313	126.44
326.542	135.44
326.77	206.44
326.999	382.44
327.228	810.44
327.457	1372.44
327.686	1114.44
327.914	288.44
328.143	155.44
328.372	122.44
328.6	110.44
328.829	109.44
329.058	117.44
329.287	105.44
329.515	107.44
329.744	88.44
329.972	96.44
330.201	100.44
330.43	102.44
330.658	112.44
330.887	126.44
331.115	102.44
331.344	94.44
331.572	95.44
331.801	100.44
332.03	96.44
332.258	111.44
332.486	75.44
332.715	104.44
332.943	106.44
333.172	91.44
333.4	109.44
333.629	100.44
333.857	96.44
334.085	89.44
334.314	103.44
334.542	95.44
334.771	102.44
334.999	91.44
335.227	88.44
335.455	77.44
335.684	100.44
335.912	80.44
336.14	88.44
336.369	100.44
336.597	97.44
336.825	81.44
337.053	87.44
337.281	86.44
337.51	83.44
337.738	105.44
337.966	91.44
338.194	82.44
338.422	87.44
338.65	81.44
338.878	90.44
339.106	90.44
339.334	104.44
339.562	90.44
339.79	95.44
340.018	94.44
340.246	100.44
340.474	93.44
340.702	86.44
340.93	84.44
341.158	97.44
341.386	96.44
341.614	97.44
341.842	90.44
342.07	77.44
342.298	89.44
342.526	90.44
342.754	94.44
342.981	92.44
343.209	82.44
343.437	97.44
343.665	98.44
343.893	84.44
344.12	99.44
344.348	83.44
344.576	89.44
344.804	84.44
345.031	79.44
345.259	104.44
345.487	83.44
345.714	94.44
345.942	94.44
346.17	92.44
346.397	96.44
346.625	93.44
346.853	99.44
347.08	92.44
347.308	104.44
347.535	96.44
347.763	91.44
347.99	74.44
348.218	96.44
348.445	92.44
348.673	101.44
348.9	84.44
349.128	83.44
349.355	96.44
349.583	96.44
349.81	90.44
350.037	100.44
350.265	95.44
350.492	96.44
350.72	109.44
350.947	98.44
351.174	103.44
351.402	96.44
351.629	99.44
351.856	106.44
352.083	102.44
352.311	89.44
352.538	92.44
352.765	109.44
352.992	114.44
353.22	103.44
353.447	109.44
353.674	98.44
353.901	102.44
354.128	98.44
354.355	101.44
354.583	105.44
354.81	92.44
355.037	87.44
355.264	99.44
355.491	87.44
355.718	92.44
355.945	111.44
356.172	98.44
356.399	97.44
356.626	107.44
356.853	101.44
357.08	101.44
357.307	96.44
357.534	86.44
357.761	95.44
357.988	96.44
358.215	103.44
358.441	91.44
358.668	95.44
358.895	74.44
359.122	90.44
359.349	94.44
359.576	95.44
359.802	86.44
360.029	104.44
360.256	99.44
360.483	92.44
360.709	84.44
360.936	97.44
361.163	83.44
361.39	95.44
361.616	95.44
361.843	91.44
362.07	102.44
362.296	96.44
362.523	92.44
362.749	86.44
362.976	96.44
363.203	89.44
363.429	90.44
363.656	92.44
363.882	95.44
364.109	91.44
364.335	81.44
364.562	94.44
364.788	95.44
365.015	77.44
365.241	98.44
365.468	98.44
365.694	99.44
365.92	83.44
366.147	91.44
366.373	96.44
366.599	84.44
366.826	84.44
367.052	85.44
367.278	101.44
367.505	90.44
367.731	108.44
367.957	103.44
368.184	89.44
368.41	106.44
368.636	91.44
368.862	110.44
369.089	102.44
369.315	80.44
369.541	95.44
369.767	100.44
369.993	105.44
370.219	94.44
370.445	85.44
370.672	94.44
370.898	96.44
371.124	80.44
371.35	79.44
371.576	86.44
371.802	102.44
372.028	110.44
372.254	97.44
372.48	94.44
372.706	87.44
372.932	106.44
373.158	81.44
373.384	94.44
373.61	82.44
373.835	102.44
374.061	101.44
374.287	102.44
374.513	71.44
374.739	100.44
374.965	96.44
375.191	96.44
375.416	84.44
375.642	89.44
375.868	94.44
376.094	101.44
376.319	86.44
376.545	82.44
376.771	86.44
376.997	88.44
377.222	70.44
377.448	91.44
377.674	89.44
377.899	100.44
378.125	102.44
378.35	87.44
378.576	102.44
378.802	81.44
379.027	95.44
379.253	91.44
379.478	66.44
379.704	96.44
379.929	110.44
380.155	86.44
380.38	106.44
380.606	105.44
380.831	115.44
381.057	107.44
381.282	110.44
381.507	106.44
381.733	107.44
381.958	106.44
382.184	107.44
382.409	98.44
382.634	101.44
382.86	90.44
383.085	99.44
383.31	103.44
383.535	109.44
383.761	98.44
383.986	105.44
384.211	99.44
384.436	102.44
384.662	103.44
384.887	102.44
385.112	115.44
385.337	124.44
385.562	120.44
385.787	116.44
386.013	103.44
386.238	119.44
386.463	124.44
386.688	112.44
386.913	118.44
387.138	108.44
387.363	126.44
387.588	107.44
387.813	104.44
388.038	124.44
388.263	127.44
388.488	126.44
388.713	103.44
388.938	86.44
389.163	100.44
389.387	94.44
389.612	106.44
389.837	92.44
390.062	90.44
390.287	86.44
390.512	81.44
390.736	94.44
390.961	95.44
391.186	90.44
391.411	95.44
391.636	94.44
391.86	97.44
392.085	86.44
392.31	81.44
392.534	85.44
392.759	83.44
392.984	88.44
393.208	99.44
393.433	106.44
393.658	102.44
393.882	86.44
394.107	95.44
394.331	88.44
394.556	96.44
394.78	88.44
395.005	90.44
395.229	88.44
395.454	74.44
395.678	76.44
395.903	76.44
396.127	79.44
396.352	83.44
396.576	82.44
396.801	84.44
397.025	83.44
397.249	97.44
397.474	77.44
397.698	85.44
397.922	86.44
398.147	87.44
398.371	88.44
398.595	87.44
398.82	69.44
399.044	90.44
399.268	84.44
399.492	92.44
399.717	81.44
399.941	93.44
400.165	95.44
400.389	99.44
400.613	91.44
400.837	88.44
401.062	91.44
401.286	91.44
401.51	92.44
401.734	78.44
401.958	100.44
402.182	85.44
402.406	138.44
402.63	92.44
402.854	103.44
403.078	91.44
403.302	97.44
403.526	91.44
403.75	101.44
403.974	100.44
404.198	78.44
404.422	90.44
404.645	92.44
404.869	73.44
405.093	88.44
405.317	81.44
405.541	85.44
405.765	107.44
405.988	111.44
406.212	148.44
406.436	190.44
406.66	132.44
406.883	103.44
407.107	91.44
407.331	94.44
407.555	98.44
407.778	105.44
408.002	88.44
408.226	89.44
408.449	80.44
408.673	88.44
408.896	89.44
409.12	105.44
409.344	85.44
409.567	90.44
409.791	72.44
410.014	90.44
410.238	71.44
410.461	87.44
410.685	93.44
410.908	100.44
411.132	108.44
411.355	109.44
411.578	84.44
411.802	82.44
412.025	91.44
412.249	82.44
412.472	84.44
412.695	94.44
412.919	81.44
413.142	70.44
413.365	70.44
413.589	88.44
413.812	94.44
414.035	95.44
414.258	83.44
414.482	94.44
414.705	82.44
414.928	94.44
415.151	86.44
415.374	88.44
415.597	91.44
415.821	84.44
416.044	81.44
416.267	81.44
416.49	108.44
416.713	90.44
416.936	82.44
417.159	91.44
417.382	82.44
417.605	90.44
417.828	94.44
418.051	96.44
418.274	89.44
418.497	89.44
418.72	84.44
418.943	104.44
419.166	82.44
419.389	84.44
419.611	87.44
419.834	87.44
420.057	91.44
420.28	92.44
420.503	90.44
420.726	88.44
420.948	107.44
421.171	98.44
421.394	100.44
421.617	97.44
421.839	94.44
422.062	90.44
422.285	94.44
422.507	100.44
422.73	96.44
422.953	83.44
423.175	80.44
423.398	78.44
423.621	97.44
423.843	92.44
424.066	78.44
424.288	97.44
424.511	96.44
424.733	99.44
424.956	86.44
425.178	86.44
425.401	95.44
425.623	87.44
425.846	91.44
426.068	85.44
426.291	83.44
426.513	91.44
426.735	81.44
426.958	90.44
427.18	105.44
427.402	110.44
427.625	135.44
427.847	120.44
428.069	101.44
428.292	84.44
428.514	75.44
428.736	81.44
428.958	66.44
429.181	95.44
429.403	73.44
429.625	90.44
429.847	95.44
430.069	100.44
430.292	84.44
430.514	86.44
430.736	75.44
430.958	88.44
431.18	77.44
431.402	92.44
431.624	95.44
431.846	95.44
432.068	86.44
432.29	78.44
432.512	88.44
432.734	69.44
432.956	69.44
433.178	97.44
433.4	72.44
433.622	84.44
433.844	81.44
434.066	96.44
434.287	86.44
434.509	84.44
434.731	95.44
434.953	87.44
435.175	86.44
435.397	64.44
435.618	92.44
435.84	97.44
436.062	123.44
436.284	116.44
436.505	102.44
436.727	89.44
436.949	85.44
437.17	82.44
437.392	99.44
437.614	101.44
437.835	87.44
438.057	106.44
438.278	100.44
438.5	79.44
438.721	113.44
438.943	87.44
439.165	88.44
439.386	75.44
439.608	104.44
439.829	94.44
440.05	111.44
440.272	128.44
440.493	91.44
440.715	92.44
440.936	90.44
441.158	84.44
441.379	92.44
441.6	96.44
441.822	83.44
442.043	84.44
442.264	88.44
442.486	91.44
442.707	88.44
442.928	103.44
443.149	113.44
443.371	107.44
443.592	94.44
443.813	101.44
444.034	106.44
444.255	98.44
444.476	85.44
444.698	73.44
444.919	89.44
445.14	129.44
445.361	103.44
445.582	111.44
445.803	120.44
446.024	113.44
446.245	133.44
446.466	96.44
446.687	82.44
446.908	88.44
447.129	94.44
447.35	97.44
447.571	88.44
447.792	83.44
448.013	95.44
448.234	99.44
448.455	90.44
448.675	108.44
448.896	106.44
449.117	82.44
449.338	102.44
449.559	124.44
449.779	134.44
450	86.44
450.221	82.44
450.442	85.44
450.662	100.44
450.883	108.44
451.104	108.44
451.324	85.44
451.545	89.44
451.766	99.44
451.986	85.44
452.207	86.44
452.428	89.44
452.648	82.44
452.869	93.44
453.089	119.44
453.31	98.44
453.53	90.44
453.751	94.44
453.971	103.44
454.192	80.44
454.412	100.44
454.633	94.44
454.853	82.44
455.073	80.44
455.294	91.44
455.514	83.44
455.734	82.44
455.955	95.44
456.175	76.44
456.395	79.44
456.616	81.44
456.836	82.44
457.056	90.44
457.276	77.44
457.497	75.44
457.717	89.44
457.937	89.44
458.157	76.44
458.377	84.44
458.598	106.44
458.818	129.44
459.038	115.44
459.258	102.44
459.478	83.44
459.698	92.44
459.918	86.44
460.138	78.44
460.358	87.44
460.578	84.44
460.798	98.44
461.018	91.44
461.238	88.44
461.458	80.44
461.678	95.44
461.898	82.44
462.118	85.44
462.338	83.44
462.558	86.44
462.777	68.44
462.997	89.44
463.217	84.44
463.437	89.44
463.657	94.44
463.876	100.44
464.096	95.44
464.316	95.44
464.536	97.44
464.755	82.44
464.975	88.44
465.195	126.44
465.414	118.44
465.634	104.44
465.854	78.44
466.073	85.44
466.293	75.44
466.512	85.44
466.732	78.44
466.951	80.44
467.171	100.44
467.391	102.44
467.61	105.44
467.829	103.44
468.049	83.44
468.268	66.44
468.488	86.44
468.707	87.44
468.927	96.44
469.146	86.44
469.365	65.44
469.585	86.44
469.804	90.44
470.023	112.44
470.243	89.44
470.462	88.44
470.681	106.44
470.901	72.44
471.12	90.44
471.339	84.44
471.558	91.44
471.777	78.44
471.997	88.44
472.216	90.44
472.435	99.44
472.654	99.44
472.873	85.44
473.092	78.44
473.311	91.44
473.53	91.44
473.749	92.44
473.968	94.44
474.187	106.44
474.406	95.44
474.625	94.44
474.844	81.44
475.063	89.44
475.282	85.44
475.501	90.44
475.72	84.44
475.939	90.44
476.158	91.44
476.377	86.44
476.596	68.44
476.814	86.44
477.033	76.44
477.252	83.44
477.471	71.44
477.69	94.44
477.908	98.44
478.127	92.44
478.346	77.44
478.564	85.44
478.783	81.44
479.002	98.44
479.22	90.44
479.439	98.44
479.658	97.44
479.876	83.44
480.095	87.44
480.313	99.44
480.532	96.44
480.751	82.44
480.969	84.44
481.188	86.44
481.406	100.44
481.624	78.44
481.843	92.44
482.061	90.44
482.28	85.44
482.498	87.44
482.717	100.44
482.935	93.44
483.153	87.44
483.372	86.44
483.59	105.44
483.808	91.44
484.027	80.44
484.245	89.44
484.463	79.44
484.681	86.44
484.9	99.44
485.118	105.44
485.336	89.44
485.554	98.44
485.772	104.44
485.99	91.44
486.209	99.44
486.427	112.44
486.645	117.44
486.863	106.44
487.081	90.44
487.299	86.44
487.517	97.44
487.735	99.44
487.953	87.44
488.171	82.44
488.389	88.44
488.607	90.44
488.825	86.44
489.043	93.44
489.261	92.44
489.479	92.44
489.696	85.44
489.914	87.44
490.132	97.44
490.35	93.44
490.568	101.44
490.786	81.44
491.003	76.44
491.221	96.44
491.439	89.44
491.657	94.44
491.874	92.44
492.092	70.44
492.31	80.44
492.527	91.44
492.745	74.44
492.963	80.44
493.18	93.44
493.398	78.44
493.615	98.44
493.833	99.44
494.05	91.44
494.268	79.44
494.485	86.44
494.703	92.44
494.92	79.44
495.138	96.44
495.355	91.44
495.573	100.44
495.79	92.44
496.008	82.44
496.225	81.44
496.442	85.44
496.66	97.44
496.877	96.44
497.094	82.44
497.312	87.44
497.529	87.44
497.746	106.44
497.963	83.44
498.181	93.44
498.398	104.44
498.615	101.44
498.832	103.44
499.049	98.44
499.267	98.44
499.484	77.44
499.701	87.44
499.918	80.44
500.135	85.44
500.352	101.44
500.569	90.44
500.786	92.44
501.003	83.44
501.22	95.44
501.437	86.44
501.654	98.44
501.871	88.44
502.088	94.44
502.305	88.44
502.522	74.44
502.739	87.44
502.956	96.44
503.172	90.44
503.389	92.44
503.606	95.44
503.823	94.44
504.04	74.44
504.256	97.44
504.473	98.44
504.69	83.44
504.907	100.44
505.123	89.44
505.34	86.44
505.557	98.44
505.773	74.44
505.99	94.44
506.207	89.44
506.423	107.44
506.64	94.44
506.856	84.44
507.073	76.44
507.289	87.44
507.506	101.44
507.722	106.44
507.939	96.44
508.155	93.44
508.372	98.44
508.588	102.44
508.805	88.44
509.021	90.44
509.238	92.44
509.454	106.44
509.67	101.44
509.887	109.44
510.103	127.44
510.319	175.44
510.536	530.44
510.752	1631.44
510.968	480.44
511.184	138.44
511.401	88.44
511.617	92.44
511.833	86.44
512.049	82.44
512.265	86.44
512.481	100.44
512.698	94.44
512.914	83.44
513.13	91.44
513.346	86.44
513.562	100.44
513.778	95.44
513.994	94.44
514.21	93.44
514.426	128.44
514.642	119.44
514.858	101.44
515.074	127.44
515.29	306.44
515.506	962.44
515.721	394.44
515.937	123.44
516.153	90.44
