Data from Circ_2002_H10_HRD10591_00061.txt Node
Date: Wed Jan 03 10:41:10 EST 2024
User: Yrep
Spectrometer: HR+D1059
Trigger mode: 1
Integration Time (sec): 1.000000E-1
Scans to average: 1
Electric dark correction enabled: true
Nonlinearity correction enabled: false
Boxcar width: 0
XAxis mode: Wavelengths
Number of Pixels in Spectrum: 2048
>>>>>Begin Spectral Data<<<<<
223.165	-14.94
223.4	-14.94
223.635	-14.94
223.869	-8.94
224.104	-27.94
224.338	-7.94
224.573	-21.94
224.808	2.06
225.042	-9.94
225.277	3.06
225.511	12.06
225.746	-0.94
225.98	8.06
226.215	0.06
226.449	10.06
226.683	28.06
226.918	13.06
227.152	16.06
227.387	35.06
227.621	22.06
227.856	35.06
228.09	53.06
228.324	38.06
228.559	58.06
228.793	57.06
229.027	67.06
229.262	82.06
229.496	82.06
229.73	85.06
229.964	96.06
230.199	66.06
230.433	77.06
230.667	64.06
230.901	82.06
231.136	70.06
231.37	81.06
231.604	82.06
231.838	73.06
232.072	89.06
232.306	88.06
232.541	94.06
232.775	91.06
233.009	77.06
233.243	75.06
233.477	80.06
233.711	87.06
233.945	70.06
234.179	92.06
234.413	79.06
234.647	85.06
234.881	73.06
235.115	77.06
235.349	79.06
235.583	72.06
235.817	79.06
236.051	61.06
236.285	68.06
236.519	78.06
236.753	84.06
236.987	83.06
237.221	79.06
237.455	86.06
237.689	71.06
237.922	73.06
238.156	73.06
238.39	75.06
238.624	85.06
238.858	78.06
239.091	73.06
239.325	81.06
239.559	81.06
239.793	77.06
240.027	82.06
240.26	78.06
240.494	86.06
240.728	83.06
240.961	65.06
241.195	79.06
241.429	74.06
241.662	68.06
241.896	68.06
242.13	63.06
242.363	69.06
242.597	74.06
242.83	73.06
243.064	85.06
243.298	83.06
243.531	89.06
243.765	81.06
243.998	81.06
244.232	86.06
244.465	87.06
244.699	76.06
244.932	79.06
245.166	91.06
245.399	77.06
245.633	70.06
245.866	62.06
246.099	73.06
246.333	68.06
246.566	81.06
246.8	66.06
247.033	78.06
247.266	73.06
247.5	65.06
247.733	74.06
247.966	80.06
248.2	77.06
248.433	79.06
248.666	89.06
248.899	74.06
249.133	81.06
249.366	97.06
249.599	99.06
249.832	83.06
250.066	85.06
250.299	76.06
250.532	71.06
250.765	78.06
250.998	74.06
251.231	71.06
251.465	86.06
251.698	71.06
251.931	77.06
252.164	79.06
252.397	72.06
252.63	76.06
252.863	74.06
253.096	83.06
253.329	83.06
253.562	78.06
253.795	69.06
254.028	89.06
254.261	89.06
254.494	82.06
254.727	101.06
254.96	81.06
255.193	76.06
255.426	74.06
255.659	70.06
255.892	81.06
256.124	73.06
256.357	87.06
256.59	82.06
256.823	90.06
257.056	70.06
257.289	80.06
257.521	75.06
257.754	72.06
257.987	95.06
258.22	74.06
258.452	95.06
258.685	94.06
258.918	92.06
259.151	85.06
259.383	79.06
259.616	71.06
259.849	86.06
260.081	83.06
260.314	96.06
260.547	86.06
260.779	79.06
261.012	79.06
261.244	101.06
261.477	76.06
261.71	100.06
261.942	97.06
262.175	103.06
262.407	82.06
262.64	75.06
262.872	72.06
263.105	71.06
263.337	84.06
263.57	90.06
263.802	70.06
264.035	86.06
264.267	80.06
264.499	85.06
264.732	88.06
264.964	79.06
265.197	88.06
265.429	80.06
265.661	66.06
265.894	77.06
266.126	68.06
266.358	78.06
266.591	81.06
266.823	97.06
267.055	71.06
267.287	94.06
267.52	90.06
267.752	81.06
267.984	82.06
268.216	63.06
268.448	89.06
268.681	73.06
268.913	87.06
269.145	97.06
269.377	87.06
269.609	80.06
269.841	98.06
270.073	76.06
270.306	87.06
270.538	83.06
270.77	82.06
271.002	76.06
271.234	81.06
271.466	75.06
271.698	81.06
271.93	95.06
272.162	88.06
272.394	88.06
272.626	82.06
272.858	89.06
273.09	88.06
273.322	94.06
273.553	90.06
273.785	71.06
274.017	73.06
274.249	99.06
274.481	78.06
274.713	75.06
274.945	87.06
275.176	82.06
275.408	69.06
275.64	87.06
275.872	77.06
276.104	85.06
276.335	97.06
276.567	85.06
276.799	106.06
277.031	91.06
277.262	87.06
277.494	98.06
277.726	88.06
277.957	80.06
278.189	86.06
278.421	96.06
278.652	83.06
278.884	72.06
279.115	84.06
279.347	78.06
279.579	78.06
279.81	66.06
280.042	80.06
280.273	83.06
280.505	94.06
280.736	86.06
280.968	83.06
281.199	82.06
281.431	86.06
281.662	82.06
281.894	85.06
282.125	96.06
282.356	114.06
282.588	110.06
282.819	109.06
283.051	66.06
283.282	94.06
283.513	87.06
283.745	90.06
283.976	75.06
284.207	80.06
284.439	77.06
284.67	81.06
284.901	81.06
285.132	75.06
285.364	88.06
285.595	79.06
285.826	81.06
286.057	88.06
286.288	78.06
286.52	82.06
286.751	82.06
286.982	72.06
287.213	90.06
287.444	80.06
287.675	94.06
287.906	83.06
288.138	79.06
288.369	98.06
288.6	83.06
288.831	80.06
289.062	90.06
289.293	90.06
289.524	94.06
289.755	87.06
289.986	85.06
290.217	78.06
290.448	99.06
290.679	83.06
290.91	79.06
291.141	93.06
291.371	83.06
291.602	95.06
291.833	84.06
292.064	97.06
292.295	85.06
292.526	83.06
292.757	98.06
292.987	64.06
293.218	78.06
293.449	75.06
293.68	90.06
293.91	90.06
294.141	88.06
294.372	88.06
294.603	83.06
294.833	73.06
295.064	79.06
295.295	84.06
295.525	81.06
295.756	90.06
295.987	109.06
296.217	126.06
296.448	120.06
296.679	90.06
296.909	82.06
297.14	67.06
297.37	67.06
297.601	79.06
297.831	95.06
298.062	83.06
298.292	92.06
298.523	95.06
298.753	90.06
298.984	87.06
299.214	85.06
299.445	85.06
299.675	100.06
299.905	95.06
300.136	93.06
300.366	94.06
300.597	83.06
300.827	94.06
301.057	91.06
301.288	110.06
301.518	98.06
301.748	98.06
301.979	98.06
302.209	88.06
302.439	82.06
302.669	79.06
302.9	80.06
303.13	93.06
303.36	88.06
303.59	72.06
303.82	106.06
304.051	91.06
304.281	83.06
304.511	78.06
304.741	88.06
304.971	83.06
305.201	93.06
305.431	71.06
305.661	73.06
305.891	88.06
306.121	89.06
306.352	97.06
306.582	100.06
306.812	88.06
307.042	89.06
307.272	105.06
307.502	97.06
307.731	86.06
307.961	99.06
308.191	90.06
308.421	74.06
308.651	85.06
308.881	91.06
309.111	91.06
309.341	87.06
309.571	90.06
309.8	82.06
310.03	98.06
310.26	77.06
310.49	99.06
310.72	87.06
310.949	96.06
311.179	101.06
311.409	88.06
311.639	86.06
311.868	91.06
312.098	78.06
312.328	100.06
312.557	91.06
312.787	105.06
313.017	100.06
313.246	90.06
313.476	79.06
313.706	98.06
313.935	101.06
314.165	77.06
314.394	87.06
314.624	105.06
314.853	80.06
315.083	83.06
315.312	85.06
315.542	90.06
315.771	86.06
316.001	85.06
316.23	90.06
316.46	99.06
316.689	91.06
316.919	85.06
317.148	86.06
317.377	86.06
317.607	96.06
317.836	91.06
318.065	88.06
318.295	80.06
318.524	103.06
318.753	89.06
318.983	82.06
319.212	106.06
319.441	112.06
319.67	90.06
319.9	97.06
320.129	88.06
320.358	89.06
320.587	95.06
320.816	86.06
321.046	88.06
321.275	93.06
321.504	85.06
321.733	103.06
321.962	103.06
322.191	105.06
322.42	102.06
322.649	107.06
322.878	108.06
323.108	109.06
323.337	117.06
323.566	115.06
323.795	146.06
324.024	180.06
324.253	385.06
324.482	803.06
324.71	1591.06
324.939	2057.06
325.168	745.06
325.397	232.06
325.626	142.06
325.855	132.06
326.084	121.06
326.313	106.06
326.542	153.06
326.77	219.06
326.999	438.06
327.228	909.06
327.457	1643.06
327.686	1305.06
327.914	349.06
328.143	181.06
328.372	141.06
328.6	126.06
328.829	118.06
329.058	129.06
329.287	115.06
329.515	96.06
329.744	99.06
329.972	106.06
330.201	105.06
330.43	130.06
330.658	115.06
330.887	116.06
331.115	116.06
331.344	92.06
331.572	96.06
331.801	82.06
332.03	112.06
332.258	91.06
332.486	91.06
332.715	93.06
332.943	97.06
333.172	91.06
333.4	99.06
333.629	109.06
333.857	99.06
334.085	117.06
334.314	119.06
334.542	119.06
334.771	135.06
334.999	112.06
335.227	93.06
335.455	90.06
335.684	90.06
335.912	91.06
336.14	88.06
336.369	88.06
336.597	98.06
336.825	90.06
337.053	96.06
337.281	94.06
337.51	77.06
337.738	88.06
337.966	97.06
338.194	89.06
338.422	90.06
338.65	102.06
338.878	99.06
339.106	91.06
339.334	77.06
339.562	75.06
339.79	92.06
340.018	93.06
340.246	93.06
340.474	92.06
340.702	80.06
340.93	102.06
341.158	81.06
341.386	93.06
341.614	77.06
341.842	94.06
342.07	85.06
342.298	97.06
342.526	87.06
342.754	80.06
342.981	94.06
343.209	85.06
343.437	94.06
343.665	89.06
343.893	96.06
344.12	91.06
344.348	99.06
344.576	79.06
344.804	96.06
345.031	96.06
345.259	84.06
345.487	98.06
345.714	93.06
345.942	88.06
346.17	90.06
346.397	108.06
346.625	85.06
346.853	96.06
347.08	102.06
347.308	90.06
347.535	83.06
347.763	94.06
347.99	106.06
348.218	95.06
348.445	114.06
348.673	100.06
348.9	89.06
349.128	74.06
349.355	94.06
349.583	87.06
349.81	95.06
350.037	101.06
350.265	89.06
350.492	91.06
350.72	106.06
350.947	82.06
351.174	109.06
351.402	90.06
351.629	101.06
351.856	82.06
352.083	115.06
352.311	93.06
352.538	93.06
352.765	104.06
352.992	115.06
353.22	92.06
353.447	99.06
353.674	85.06
353.901	102.06
354.128	97.06
354.355	94.06
354.583	90.06
354.81	102.06
355.037	93.06
355.264	90.06
355.491	85.06
355.718	84.06
355.945	91.06
356.172	96.06
356.399	103.06
356.626	84.06
356.853	99.06
357.08	82.06
357.307	95.06
357.534	87.06
357.761	95.06
357.988	99.06
358.215	113.06
358.441	95.06
358.668	89.06
358.895	97.06
359.122	88.06
359.349	85.06
359.576	96.06
359.802	94.06
360.029	102.06
360.256	118.06
360.483	88.06
360.709	94.06
360.936	93.06
361.163	105.06
361.39	92.06
361.616	94.06
361.843	94.06
362.07	89.06
362.296	98.06
362.523	90.06
362.749	99.06
362.976	81.06
363.203	89.06
363.429	70.06
363.656	89.06
363.882	89.06
364.109	97.06
364.335	78.06
364.562	81.06
364.788	81.06
365.015	99.06
365.241	95.06
365.468	91.06
365.694	94.06
365.92	92.06
366.147	95.06
366.373	81.06
366.599	82.06
366.826	95.06
367.052	104.06
367.278	98.06
367.505	83.06
367.731	102.06
367.957	101.06
368.184	103.06
368.41	83.06
368.636	107.06
368.862	101.06
369.089	111.06
369.315	87.06
369.541	91.06
369.767	78.06
369.993	75.06
370.219	89.06
370.445	80.06
370.672	90.06
370.898	99.06
371.124	86.06
371.35	101.06
371.576	106.06
371.802	102.06
372.028	81.06
372.254	82.06
372.48	76.06
372.706	106.06
372.932	93.06
373.158	81.06
373.384	90.06
373.61	99.06
373.835	90.06
374.061	98.06
374.287	83.06
374.513	85.06
374.739	99.06
374.965	82.06
375.191	86.06
375.416	100.06
375.642	98.06
375.868	97.06
376.094	92.06
376.319	82.06
376.545	88.06
376.771	80.06
376.997	72.06
377.222	96.06
377.448	107.06
377.674	94.06
377.899	83.06
378.125	84.06
378.35	89.06
378.576	81.06
378.802	83.06
379.027	81.06
379.253	90.06
379.478	91.06
379.704	106.06
379.929	86.06
380.155	85.06
380.38	96.06
380.606	93.06
380.831	92.06
381.057	85.06
381.282	86.06
381.507	100.06
381.733	101.06
381.958	95.06
382.184	91.06
382.409	105.06
382.634	83.06
382.86	97.06
383.085	87.06
383.31	87.06
383.535	103.06
383.761	91.06
383.986	90.06
384.211	101.06
384.436	87.06
384.662	90.06
384.887	90.06
385.112	104.06
385.337	102.06
385.562	98.06
385.787	104.06
386.013	104.06
386.238	99.06
386.463	114.06
386.688	99.06
386.913	114.06
387.138	109.06
387.363	110.06
387.588	92.06
387.813	94.06
388.038	104.06
388.263	97.06
388.488	110.06
388.713	86.06
388.938	94.06
389.163	100.06
389.387	83.06
389.612	97.06
389.837	98.06
390.062	89.06
390.287	89.06
390.512	78.06
390.736	91.06
390.961	106.06
391.186	102.06
391.411	110.06
391.636	81.06
391.86	71.06
392.085	73.06
392.31	74.06
392.534	81.06
392.759	91.06
392.984	75.06
393.208	89.06
393.433	88.06
393.658	89.06
393.882	84.06
394.107	78.06
394.331	78.06
394.556	76.06
394.78	87.06
395.005	88.06
395.229	82.06
395.454	87.06
395.678	83.06
395.903	82.06
396.127	102.06
396.352	86.06
396.576	79.06
396.801	94.06
397.025	76.06
397.249	88.06
397.474	92.06
397.698	101.06
397.922	71.06
398.147	87.06
398.371	96.06
398.595	92.06
398.82	81.06
399.044	83.06
399.268	77.06
399.492	73.06
399.717	91.06
399.941	90.06
400.165	97.06
400.389	94.06
400.613	88.06
400.837	73.06
401.062	89.06
401.286	87.06
401.51	90.06
401.734	94.06
401.958	95.06
402.182	104.06
402.406	141.06
402.63	118.06
402.854	75.06
403.078	94.06
403.302	82.06
403.526	94.06
403.75	92.06
403.974	89.06
404.198	95.06
404.422	81.06
404.645	75.06
404.869	98.06
405.093	106.06
405.317	106.06
405.541	88.06
405.765	94.06
405.988	101.06
406.212	141.06
406.436	197.06
406.66	132.06
406.883	95.06
407.107	96.06
407.331	86.06
407.555	90.06
407.778	110.06
408.002	86.06
408.226	71.06
408.449	94.06
408.673	97.06
408.896	95.06
409.12	99.06
409.344	96.06
409.567	73.06
409.791	83.06
410.014	102.06
410.238	101.06
410.461	96.06
410.685	101.06
410.908	96.06
411.132	98.06
411.355	89.06
411.578	85.06
411.802	82.06
412.025	97.06
412.249	84.06
412.472	98.06
412.695	95.06
412.919	88.06
413.142	81.06
413.365	82.06
413.589	84.06
413.812	95.06
414.035	92.06
414.258	90.06
414.482	84.06
414.705	85.06
414.928	81.06
415.151	93.06
415.374	85.06
415.597	95.06
415.821	83.06
416.044	85.06
416.267	81.06
416.49	105.06
416.713	80.06
416.936	94.06
417.159	90.06
417.382	91.06
417.605	87.06
417.828	82.06
418.051	91.06
418.274	80.06
418.497	92.06
418.72	90.06
418.943	92.06
419.166	78.06
419.389	98.06
419.611	88.06
419.834	85.06
420.057	82.06
420.28	86.06
420.503	90.06
420.726	89.06
420.948	81.06
421.171	86.06
421.394	86.06
421.617	87.06
421.839	85.06
422.062	101.06
422.285	99.06
422.507	93.06
422.73	101.06
422.953	96.06
423.175	88.06
423.398	92.06
423.621	91.06
423.843	90.06
424.066	85.06
424.288	96.06
424.511	88.06
424.733	85.06
424.956	113.06
425.178	101.06
425.401	90.06
425.623	102.06
425.846	95.06
426.068	86.06
426.291	88.06
426.513	105.06
426.735	82.06
426.958	90.06
427.18	94.06
427.402	119.06
427.625	163.06
427.847	121.06
428.069	106.06
428.292	87.06
428.514	89.06
428.736	88.06
428.958	74.06
429.181	78.06
429.403	85.06
429.625	88.06
429.847	81.06
430.069	94.06
430.292	84.06
430.514	92.06
430.736	102.06
430.958	94.06
431.18	88.06
431.402	72.06
431.624	74.06
431.846	85.06
432.068	64.06
432.29	89.06
432.512	82.06
432.734	93.06
432.956	88.06
433.178	80.06
433.4	111.06
433.622	89.06
433.844	102.06
434.066	83.06
434.287	83.06
434.509	94.06
434.731	89.06
434.953	90.06
435.175	100.06
435.397	72.06
435.618	89.06
435.84	109.06
436.062	126.06
436.284	126.06
436.505	93.06
436.727	97.06
436.949	89.06
437.17	98.06
437.392	77.06
437.614	82.06
437.835	106.06
438.057	97.06
438.278	109.06
438.5	109.06
438.721	111.06
438.943	98.06
439.165	83.06
439.386	89.06
439.608	96.06
439.829	93.06
440.05	113.06
440.272	128.06
440.493	88.06
440.715	78.06
440.936	80.06
441.158	84.06
441.379	83.06
441.6	92.06
441.822	105.06
442.043	98.06
442.264	80.06
442.486	89.06
442.707	87.06
442.928	78.06
443.149	111.06
443.371	112.06
443.592	108.06
443.813	97.06
444.034	102.06
444.255	93.06
444.476	83.06
444.698	83.06
444.919	75.06
445.14	132.06
445.361	106.06
445.582	117.06
445.803	127.06
446.024	119.06
446.245	111.06
446.466	109.06
446.687	82.06
446.908	88.06
447.129	85.06
447.35	87.06
447.571	90.06
447.792	88.06
448.013	94.06
448.234	112.06
448.455	90.06
448.675	99.06
448.896	117.06
449.117	93.06
449.338	90.06
449.559	119.06
449.779	129.06
450	88.06
450.221	85.06
450.442	93.06
450.662	97.06
450.883	102.06
451.104	99.06
451.324	101.06
451.545	93.06
451.766	72.06
451.986	93.06
452.207	95.06
452.428	78.06
452.648	99.06
452.869	115.06
453.089	102.06
453.31	101.06
453.53	97.06
453.751	94.06
453.971	104.06
454.192	97.06
454.412	96.06
454.633	87.06
454.853	89.06
455.073	79.06
455.294	77.06
455.514	90.06
455.734	83.06
455.955	93.06
456.175	82.06
456.395	69.06
456.616	88.06
456.836	88.06
457.056	83.06
457.276	91.06
457.497	68.06
457.717	72.06
457.937	80.06
458.157	82.06
458.377	81.06
458.598	100.06
458.818	123.06
459.038	137.06
459.258	95.06
459.478	89.06
459.698	73.06
459.918	84.06
460.138	89.06
460.358	91.06
460.578	89.06
460.798	96.06
461.018	82.06
461.238	96.06
461.458	98.06
461.678	85.06
461.898	99.06
462.118	86.06
462.338	92.06
462.558	81.06
462.777	82.06
462.997	79.06
463.217	76.06
463.437	83.06
463.657	91.06
463.876	96.06
464.096	89.06
464.316	97.06
464.536	102.06
464.755	96.06
464.975	90.06
465.195	131.06
465.414	155.06
465.634	95.06
465.854	73.06
466.073	98.06
466.293	100.06
466.512	86.06
466.732	83.06
466.951	88.06
467.171	89.06
467.391	100.06
467.61	88.06
467.829	102.06
468.049	88.06
468.268	97.06
468.488	81.06
468.707	94.06
468.927	97.06
469.146	79.06
469.365	80.06
469.585	103.06
469.804	93.06
470.023	101.06
470.243	85.06
470.462	89.06
470.681	94.06
470.901	89.06
471.12	71.06
471.339	84.06
471.558	71.06
471.777	75.06
471.997	86.06
472.216	111.06
472.435	142.06
472.654	104.06
472.873	95.06
473.092	88.06
473.311	90.06
473.53	86.06
473.749	81.06
473.968	93.06
474.187	96.06
474.406	92.06
474.625	95.06
474.844	95.06
475.063	85.06
475.282	82.06
475.501	75.06
475.72	99.06
475.939	99.06
476.158	89.06
476.377	91.06
476.596	77.06
476.814	91.06
477.033	94.06
477.252	88.06
477.471	90.06
477.69	91.06
477.908	87.06
478.127	86.06
478.346	97.06
478.564	84.06
478.783	86.06
479.002	86.06
479.22	78.06
479.439	98.06
479.658	94.06
479.876	84.06
480.095	94.06
480.313	86.06
480.532	82.06
480.751	90.06
480.969	123.06
481.188	219.06
481.406	134.06
481.624	104.06
481.843	113.06
482.061	86.06
482.28	79.06
482.498	86.06
482.717	90.06
482.935	87.06
483.153	88.06
483.372	94.06
483.59	87.06
483.808	85.06
484.027	86.06
484.245	86.06
484.463	96.06
484.681	91.06
484.9	97.06
485.118	96.06
485.336	87.06
485.554	95.06
485.772	96.06
485.99	95.06
486.209	91.06
486.427	116.06
486.645	99.06
486.863	113.06
487.081	112.06
487.299	98.06
487.517	85.06
487.735	95.06
487.953	87.06
488.171	103.06
488.389	91.06
488.607	91.06
488.825	94.06
489.043	101.06
489.261	86.06
489.479	92.06
489.696	98.06
489.914	61.06
490.132	89.06
490.35	88.06
490.568	111.06
490.786	114.06
491.003	83.06
491.221	91.06
491.439	93.06
491.657	89.06
491.874	90.06
492.092	87.06
492.31	94.06
492.527	84.06
492.745	93.06
492.963	89.06
493.18	88.06
493.398	83.06
493.615	102.06
493.833	85.06
494.05	86.06
494.268	92.06
494.485	74.06
494.703	71.06
494.92	74.06
495.138	87.06
495.355	84.06
495.573	80.06
495.79	96.06
496.008	102.06
496.225	92.06
496.442	85.06
496.66	97.06
496.877	86.06
497.094	90.06
497.312	85.06
497.529	95.06
497.746	89.06
497.963	90.06
498.181	106.06
498.398	91.06
498.615	98.06
498.832	98.06
499.049	94.06
499.267	89.06
499.484	77.06
499.701	81.06
499.918	85.06
500.135	87.06
500.352	94.06
500.569	105.06
500.786	102.06
501.003	82.06
501.22	98.06
501.437	78.06
501.654	101.06
501.871	86.06
502.088	103.06
502.305	89.06
502.522	90.06
502.739	100.06
502.956	92.06
503.172	88.06
503.389	107.06
503.606	89.06
503.823	93.06
504.04	85.06
504.256	114.06
504.473	89.06
504.69	78.06
504.907	76.06
505.123	71.06
505.34	80.06
505.557	83.06
505.773	90.06
505.99	80.06
506.207	92.06
506.423	89.06
506.64	79.06
506.856	79.06
507.073	87.06
507.289	98.06
507.506	89.06
507.722	106.06
507.939	98.06
508.155	98.06
508.372	102.06
508.588	74.06
508.805	92.06
509.021	96.06
509.238	105.06
509.454	86.06
509.67	107.06
509.887	109.06
510.103	119.06
510.319	184.06
510.536	609.06
510.752	1888.06
510.968	539.06
511.184	133.06
511.401	99.06
511.617	96.06
511.833	83.06
512.049	89.06
512.265	91.06
512.481	95.06
512.698	75.06
512.914	96.06
513.13	86.06
513.346	85.06
513.562	107.06
513.778	98.06
513.994	89.06
514.21	89.06
514.426	90.06
514.642	125.06
514.858	99.06
515.074	135.06
515.29	350.06
515.506	1122.06
515.721	445.06
515.937	136.06
516.153	102.06
516.369	86.06
516.585	91.06
516.801	104.06
