Data from Circ_2002_H10_HRD10591_00068.txt Node
Date: Wed Jan 03 10:41:11 EST 2024
User: Yrep
Spectrometer: HR+D1059
Trigger mode: 1
Integration Time (sec): 1.000000E-1
Scans to average: 1
Electric dark correction enabled: true
Nonlinearity correction enabled: false
Boxcar width: 0
XAxis mode: Wavelengths
Number of Pixels in Spectrum: 2048
>>>>>Begin Spectral Data<<<<<
223.165	-17.5
223.4	-17.5
223.635	-17.5
223.869	-28.5
224.104	-12.5
224.338	-11.5
224.573	-14.5
224.808	-3.5
225.042	2.5
225.277	-22.5
225.511	-8.5
225.746	8.5
225.98	7.5
226.215	19.5
226.449	9.5
226.683	13.5
226.918	29.5
227.152	28.5
227.387	38.5
227.621	41.5
227.856	59.5
228.09	55.5
228.324	61.5
228.559	66.5
228.793	69.5
229.027	49.5
229.262	60.5
229.496	68.5
229.73	78.5
229.964	81.5
230.199	81.5
230.433	82.5
230.667	83.5
230.901	72.5
231.136	80.5
231.37	72.5
231.604	72.5
231.838	73.5
232.072	67.5
232.306	83.5
232.541	97.5
232.775	89.5
233.009	78.5
233.243	75.5
233.477	76.5
233.711	75.5
233.945	90.5
234.179	78.5
234.413	93.5
234.647	78.5
234.881	82.5
235.115	93.5
235.349	81.5
235.583	82.5
235.817	98.5
236.051	80.5
236.285	91.5
236.519	83.5
236.753	72.5
236.987	78.5
237.221	83.5
237.455	84.5
237.689	77.5
237.922	84.5
238.156	73.5
238.39	71.5
238.624	61.5
238.858	89.5
239.091	60.5
239.325	79.5
239.559	84.5
239.793	77.5
240.027	85.5
240.26	89.5
240.494	71.5
240.728	87.5
240.961	77.5
241.195	80.5
241.429	72.5
241.662	86.5
241.896	90.5
242.13	78.5
242.363	75.5
242.597	75.5
242.83	83.5
243.064	73.5
243.298	90.5
243.531	79.5
243.765	92.5
243.998	77.5
244.232	74.5
244.465	79.5
244.699	99.5
244.932	84.5
245.166	91.5
245.399	77.5
245.633	75.5
245.866	79.5
246.099	74.5
246.333	80.5
246.566	80.5
246.8	76.5
247.033	68.5
247.266	65.5
247.5	69.5
247.733	82.5
247.966	68.5
248.2	74.5
248.433	79.5
248.666	72.5
248.899	78.5
249.133	80.5
249.366	101.5
249.599	96.5
249.832	69.5
250.066	83.5
250.299	84.5
250.532	88.5
250.765	98.5
250.998	86.5
251.231	80.5
251.465	74.5
251.698	75.5
251.931	75.5
252.164	76.5
252.397	95.5
252.63	76.5
252.863	73.5
253.096	81.5
253.329	72.5
253.562	80.5
253.795	87.5
254.028	76.5
254.261	79.5
254.494	75.5
254.727	73.5
254.96	97.5
255.193	81.5
255.426	75.5
255.659	77.5
255.892	90.5
256.124	83.5
256.357	76.5
256.59	76.5
256.823	94.5
257.056	77.5
257.289	83.5
257.521	79.5
257.754	82.5
257.987	96.5
258.22	84.5
258.452	93.5
258.685	87.5
258.918	97.5
259.151	83.5
259.383	96.5
259.616	87.5
259.849	73.5
260.081	82.5
260.314	67.5
260.547	82.5
260.779	86.5
261.012	82.5
261.244	85.5
261.477	87.5
261.71	91.5
261.942	101.5
262.175	108.5
262.407	94.5
262.64	88.5
262.872	78.5
263.105	90.5
263.337	93.5
263.57	88.5
263.802	72.5
264.035	86.5
264.267	93.5
264.499	89.5
264.732	79.5
264.964	69.5
265.197	69.5
265.429	86.5
265.661	84.5
265.894	87.5
266.126	94.5
266.358	87.5
266.591	99.5
266.823	83.5
267.055	89.5
267.287	85.5
267.52	80.5
267.752	76.5
267.984	82.5
268.216	79.5
268.448	87.5
268.681	81.5
268.913	73.5
269.145	92.5
269.377	89.5
269.609	92.5
269.841	84.5
270.073	87.5
270.306	91.5
270.538	91.5
270.77	73.5
271.002	94.5
271.234	91.5
271.466	95.5
271.698	79.5
271.93	87.5
272.162	81.5
272.394	88.5
272.626	90.5
272.858	91.5
273.09	68.5
273.322	97.5
273.553	94.5
273.785	77.5
274.017	71.5
274.249	76.5
274.481	88.5
274.713	78.5
274.945	86.5
275.176	97.5
275.408	83.5
275.64	80.5
275.872	96.5
276.104	80.5
276.335	86.5
276.567	93.5
276.799	92.5
277.031	91.5
277.262	77.5
277.494	97.5
277.726	88.5
277.957	72.5
278.189	88.5
278.421	71.5
278.652	85.5
278.884	97.5
279.115	98.5
279.347	88.5
279.579	84.5
279.81	94.5
280.042	97.5
280.273	87.5
280.505	83.5
280.736	84.5
280.968	87.5
281.199	75.5
281.431	84.5
281.662	85.5
281.894	89.5
282.125	106.5
282.356	118.5
282.588	136.5
282.819	108.5
283.051	97.5
283.282	77.5
283.513	92.5
283.745	89.5
283.976	88.5
284.207	87.5
284.439	82.5
284.67	93.5
284.901	96.5
285.132	79.5
285.364	90.5
285.595	101.5
285.826	82.5
286.057	89.5
286.288	87.5
286.52	78.5
286.751	90.5
286.982	87.5
287.213	77.5
287.444	96.5
287.675	98.5
287.906	91.5
288.138	91.5
288.369	88.5
288.6	96.5
288.831	80.5
289.062	106.5
289.293	81.5
289.524	83.5
289.755	93.5
289.986	84.5
290.217	87.5
290.448	80.5
290.679	90.5
290.91	90.5
291.141	93.5
291.371	88.5
291.602	76.5
291.833	91.5
292.064	91.5
292.295	99.5
292.526	87.5
292.757	90.5
292.987	89.5
293.218	86.5
293.449	100.5
293.68	91.5
293.91	76.5
294.141	88.5
294.372	89.5
294.603	83.5
294.833	92.5
295.064	79.5
295.295	77.5
295.525	96.5
295.756	99.5
295.987	115.5
296.217	144.5
296.448	135.5
296.679	91.5
296.909	107.5
297.14	90.5
297.37	84.5
297.601	82.5
297.831	91.5
298.062	87.5
298.292	90.5
298.523	84.5
298.753	92.5
298.984	92.5
299.214	103.5
299.445	92.5
299.675	97.5
299.905	101.5
300.136	82.5
300.366	98.5
300.597	101.5
300.827	90.5
301.057	84.5
301.288	98.5
301.518	98.5
301.748	95.5
301.979	115.5
302.209	91.5
302.439	96.5
302.669	93.5
302.9	88.5
303.13	98.5
303.36	88.5
303.59	98.5
303.82	102.5
304.051	93.5
304.281	92.5
304.511	100.5
304.741	92.5
304.971	91.5
305.201	81.5
305.431	90.5
305.661	93.5
305.891	81.5
306.121	91.5
306.352	95.5
306.582	85.5
306.812	107.5
307.042	99.5
307.272	101.5
307.502	102.5
307.731	95.5
307.961	88.5
308.191	79.5
308.421	95.5
308.651	98.5
308.881	100.5
309.111	100.5
309.341	101.5
309.571	113.5
309.8	80.5
310.03	91.5
310.26	105.5
310.49	89.5
310.72	95.5
310.949	93.5
311.179	97.5
311.409	103.5
311.639	102.5
311.868	92.5
312.098	102.5
312.328	86.5
312.557	89.5
312.787	111.5
313.017	103.5
313.246	93.5
313.476	84.5
313.706	80.5
313.935	92.5
314.165	101.5
314.394	108.5
314.624	79.5
314.853	100.5
315.083	99.5
315.312	100.5
315.542	98.5
315.771	88.5
316.001	86.5
316.23	80.5
316.46	81.5
316.689	80.5
316.919	81.5
317.148	84.5
317.377	92.5
317.607	88.5
317.836	81.5
318.065	107.5
318.295	85.5
318.524	100.5
318.753	95.5
318.983	92.5
319.212	97.5
319.441	100.5
319.67	104.5
319.9	111.5
320.129	91.5
320.358	84.5
320.587	95.5
320.816	106.5
321.046	91.5
321.275	95.5
321.504	100.5
321.733	92.5
321.962	91.5
322.191	101.5
322.42	92.5
322.649	112.5
322.878	102.5
323.108	125.5
323.337	118.5
323.566	120.5
323.795	154.5
324.024	199.5
324.253	359.5
324.482	784.5
324.71	1574.5
324.939	2105.5
325.168	766.5
325.397	229.5
325.626	152.5
325.855	133.5
326.084	141.5
326.313	154.5
326.542	167.5
326.77	226.5
326.999	469.5
327.228	931.5
327.457	1675.5
327.686	1274.5
327.914	359.5
328.143	179.5
328.372	153.5
328.6	133.5
328.829	116.5
329.058	112.5
329.287	114.5
329.515	112.5
329.744	113.5
329.972	108.5
330.201	112.5
330.43	135.5
330.658	124.5
330.887	130.5
331.115	117.5
331.344	104.5
331.572	105.5
331.801	103.5
332.03	105.5
332.258	93.5
332.486	83.5
332.715	96.5
332.943	88.5
333.172	92.5
333.4	99.5
333.629	113.5
333.857	118.5
334.085	109.5
334.314	128.5
334.542	146.5
334.771	156.5
334.999	100.5
335.227	99.5
335.455	74.5
335.684	89.5
335.912	89.5
336.14	100.5
336.369	105.5
336.597	97.5
336.825	96.5
337.053	76.5
337.281	78.5
337.51	81.5
337.738	93.5
337.966	87.5
338.194	87.5
338.422	93.5
338.65	87.5
338.878	88.5
339.106	96.5
339.334	82.5
339.562	88.5
339.79	86.5
340.018	98.5
340.246	92.5
340.474	98.5
340.702	92.5
340.93	98.5
341.158	102.5
341.386	97.5
341.614	80.5
341.842	96.5
342.07	92.5
342.298	98.5
342.526	96.5
342.754	91.5
342.981	82.5
343.209	78.5
343.437	87.5
343.665	81.5
343.893	83.5
344.12	83.5
344.348	93.5
344.576	88.5
344.804	104.5
345.031	104.5
345.259	103.5
345.487	101.5
345.714	97.5
345.942	106.5
346.17	99.5
346.397	93.5
346.625	93.5
346.853	76.5
347.08	88.5
347.308	97.5
347.535	115.5
347.763	97.5
347.99	83.5
348.218	97.5
348.445	98.5
348.673	104.5
348.9	100.5
349.128	105.5
349.355	91.5
349.583	103.5
349.81	87.5
350.037	100.5
350.265	82.5
350.492	90.5
350.72	102.5
350.947	112.5
351.174	100.5
351.402	106.5
351.629	102.5
351.856	96.5
352.083	94.5
352.311	88.5
352.538	103.5
352.765	103.5
352.992	115.5
353.22	112.5
353.447	111.5
353.674	101.5
353.901	95.5
354.128	91.5
354.355	84.5
354.583	100.5
354.81	105.5
355.037	93.5
355.264	90.5
355.491	102.5
355.718	100.5
355.945	89.5
356.172	107.5
356.399	84.5
356.626	99.5
356.853	96.5
357.08	100.5
357.307	99.5
357.534	87.5
357.761	85.5
357.988	99.5
358.215	98.5
358.441	93.5
358.668	84.5
358.895	91.5
359.122	95.5
359.349	96.5
359.576	100.5
359.802	88.5
360.029	112.5
360.256	111.5
360.483	91.5
360.709	90.5
360.936	84.5
361.163	87.5
361.39	94.5
361.616	105.5
361.843	95.5
362.07	100.5
362.296	92.5
362.523	81.5
362.749	90.5
362.976	84.5
363.203	86.5
363.429	84.5
363.656	92.5
363.882	89.5
364.109	77.5
364.335	92.5
364.562	92.5
364.788	90.5
365.015	84.5
365.241	88.5
365.468	116.5
365.694	108.5
365.92	99.5
366.147	89.5
366.373	93.5
366.599	84.5
366.826	87.5
367.052	101.5
367.278	82.5
367.505	95.5
367.731	98.5
367.957	98.5
368.184	92.5
368.41	97.5
368.636	113.5
368.862	115.5
369.089	102.5
369.315	80.5
369.541	89.5
369.767	101.5
369.993	79.5
370.219	87.5
370.445	83.5
370.672	89.5
370.898	88.5
371.124	98.5
371.35	88.5
371.576	81.5
371.802	108.5
372.028	87.5
372.254	85.5
372.48	84.5
372.706	88.5
372.932	86.5
373.158	92.5
373.384	95.5
373.61	95.5
373.835	87.5
374.061	104.5
374.287	89.5
374.513	87.5
374.739	72.5
374.965	90.5
375.191	87.5
375.416	85.5
375.642	97.5
375.868	87.5
376.094	83.5
376.319	91.5
376.545	99.5
376.771	93.5
376.997	93.5
377.222	99.5
377.448	84.5
377.674	86.5
377.899	91.5
378.125	96.5
378.35	85.5
378.576	76.5
378.802	96.5
379.027	89.5
379.253	91.5
379.478	84.5
379.704	87.5
379.929	97.5
380.155	106.5
380.38	81.5
380.606	93.5
380.831	95.5
381.057	99.5
381.282	100.5
381.507	107.5
381.733	96.5
381.958	105.5
382.184	97.5
382.409	108.5
382.634	99.5
382.86	88.5
383.085	108.5
383.31	97.5
383.535	104.5
383.761	96.5
383.986	101.5
384.211	95.5
384.436	93.5
384.662	91.5
384.887	102.5
385.112	92.5
385.337	102.5
385.562	89.5
385.787	107.5
386.013	105.5
386.238	121.5
386.463	105.5
386.688	114.5
386.913	103.5
387.138	93.5
387.363	95.5
387.588	108.5
387.813	94.5
388.038	113.5
388.263	113.5
388.488	113.5
388.713	85.5
388.938	100.5
389.163	87.5
389.387	95.5
389.612	91.5
389.837	93.5
390.062	90.5
390.287	99.5
390.512	99.5
390.736	86.5
390.961	95.5
391.186	88.5
391.411	89.5
391.636	92.5
391.86	98.5
392.085	90.5
392.31	88.5
392.534	83.5
392.759	83.5
392.984	91.5
393.208	83.5
393.433	97.5
393.658	81.5
393.882	97.5
394.107	87.5
394.331	81.5
394.556	87.5
394.78	100.5
395.005	95.5
395.229	74.5
395.454	86.5
395.678	89.5
395.903	76.5
396.127	86.5
396.352	91.5
396.576	99.5
396.801	82.5
397.025	80.5
397.249	93.5
397.474	89.5
397.698	90.5
397.922	89.5
398.147	83.5
398.371	91.5
398.595	87.5
398.82	98.5
399.044	96.5
399.268	100.5
399.492	84.5
399.717	84.5
399.941	105.5
400.165	89.5
400.389	77.5
400.613	79.5
400.837	85.5
401.062	91.5
401.286	71.5
401.51	91.5
401.734	73.5
401.958	78.5
402.182	130.5
402.406	158.5
402.63	101.5
402.854	80.5
403.078	94.5
403.302	88.5
403.526	92.5
403.75	88.5
403.974	84.5
404.198	79.5
404.422	97.5
404.645	84.5
404.869	83.5
405.093	86.5
405.317	96.5
405.541	104.5
405.765	98.5
405.988	118.5
406.212	168.5
406.436	184.5
406.66	127.5
406.883	104.5
407.107	90.5
407.331	95.5
407.555	97.5
407.778	70.5
408.002	84.5
408.226	79.5
408.449	75.5
408.673	99.5
408.896	89.5
409.12	106.5
409.344	93.5
409.567	88.5
409.791	93.5
410.014	88.5
410.238	100.5
410.461	94.5
410.685	89.5
410.908	97.5
411.132	99.5
411.355	90.5
411.578	97.5
411.802	86.5
412.025	91.5
412.249	80.5
412.472	96.5
412.695	91.5
412.919	94.5
413.142	76.5
413.365	96.5
413.589	95.5
413.812	82.5
414.035	87.5
414.258	94.5
414.482	92.5
414.705	95.5
414.928	103.5
415.151	85.5
415.374	90.5
415.597	92.5
415.821	87.5
416.044	84.5
416.267	92.5
416.49	79.5
416.713	68.5
416.936	87.5
417.159	87.5
417.382	88.5
417.605	104.5
417.828	92.5
418.051	102.5
418.274	104.5
418.497	84.5
418.72	74.5
418.943	87.5
419.166	67.5
419.389	95.5
419.611	94.5
419.834	87.5
420.057	92.5
420.28	88.5
420.503	99.5
420.726	94.5
420.948	92.5
421.171	91.5
421.394	80.5
421.617	105.5
421.839	82.5
422.062	78.5
422.285	97.5
422.507	92.5
422.73	92.5
422.953	98.5
423.175	102.5
423.398	85.5
423.621	96.5
423.843	86.5
424.066	84.5
424.288	89.5
424.511	98.5
424.733	110.5
424.956	92.5
425.178	82.5
425.401	101.5
425.623	87.5
425.846	83.5
426.068	77.5
426.291	92.5
426.513	96.5
426.735	89.5
426.958	87.5
427.18	98.5
427.402	132.5
427.625	133.5
427.847	108.5
428.069	104.5
428.292	83.5
428.514	91.5
428.736	99.5
428.958	87.5
429.181	93.5
429.403	89.5
429.625	93.5
429.847	89.5
430.069	96.5
430.292	85.5
430.514	103.5
430.736	87.5
430.958	84.5
431.18	97.5
431.402	80.5
431.624	89.5
431.846	83.5
432.068	78.5
432.29	80.5
432.512	90.5
432.734	98.5
432.956	94.5
433.178	84.5
433.4	100.5
433.622	83.5
433.844	85.5
434.066	93.5
434.287	89.5
434.509	82.5
434.731	98.5
434.953	93.5
435.175	89.5
435.397	93.5
435.618	88.5
435.84	111.5
436.062	120.5
436.284	113.5
436.505	85.5
436.727	91.5
436.949	73.5
437.17	89.5
437.392	91.5
437.614	96.5
437.835	96.5
438.057	107.5
438.278	108.5
438.5	101.5
438.721	119.5
438.943	94.5
439.165	75.5
439.386	74.5
439.608	91.5
439.829	104.5
440.05	126.5
440.272	143.5
440.493	91.5
440.715	95.5
440.936	80.5
441.158	90.5
441.379	88.5
441.6	95.5
441.822	76.5
442.043	88.5
442.264	120.5
442.486	91.5
442.707	89.5
442.928	106.5
443.149	133.5
443.371	110.5
443.592	94.5
443.813	118.5
444.034	104.5
444.255	87.5
444.476	82.5
444.698	90.5
444.919	93.5
445.14	144.5
445.361	131.5
445.582	116.5
445.803	143.5
446.024	134.5
446.245	131.5
446.466	114.5
446.687	95.5
446.908	88.5
447.129	84.5
447.35	90.5
447.571	109.5
447.792	71.5
448.013	100.5
448.234	115.5
448.455	103.5
448.675	100.5
448.896	128.5
449.117	95.5
449.338	106.5
449.559	148.5
449.779	129.5
450	90.5
450.221	101.5
450.442	90.5
450.662	95.5
450.883	95.5
451.104	105.5
451.324	101.5
451.545	85.5
451.766	79.5
451.986	82.5
452.207	98.5
452.428	92.5
452.648	101.5
452.869	110.5
453.089	116.5
453.31	96.5
453.53	93.5
453.751	90.5
453.971	104.5
454.192	116.5
454.412	95.5
454.633	84.5
454.853	85.5
455.073	84.5
455.294	99.5
455.514	87.5
455.734	83.5
455.955	76.5
456.175	78.5
456.395	93.5
456.616	76.5
456.836	91.5
457.056	82.5
457.276	79.5
457.497	85.5
457.717	98.5
457.937	90.5
458.157	70.5
458.377	83.5
458.598	106.5
458.818	125.5
459.038	147.5
459.258	103.5
459.478	88.5
459.698	88.5
459.918	93.5
460.138	94.5
460.358	77.5
460.578	69.5
460.798	82.5
461.018	86.5
461.238	88.5
461.458	83.5
461.678	93.5
461.898	82.5
462.118	77.5
462.338	94.5
462.558	76.5
462.777	83.5
462.997	69.5
463.217	78.5
463.437	85.5
463.657	88.5
463.876	89.5
464.096	84.5
464.316	93.5
464.536	84.5
464.755	102.5
464.975	105.5
465.195	151.5
465.414	132.5
465.634	87.5
465.854	91.5
466.073	85.5
466.293	86.5
466.512	90.5
466.732	96.5
466.951	86.5
467.171	96.5
467.391	92.5
467.61	104.5
467.829	109.5
468.049	102.5
468.268	106.5
468.488	98.5
468.707	86.5
468.927	86.5
469.146	81.5
469.365	100.5
469.585	84.5
469.804	92.5
470.023	82.5
470.243	84.5
470.462	87.5
470.681	105.5
470.901	103.5
471.12	87.5
471.339	71.5
471.558	101.5
471.777	85.5
471.997	91.5
472.216	107.5
472.435	169.5
472.654	97.5
472.873	93.5
473.092	79.5
473.311	97.5
473.53	83.5
473.749	92.5
473.968	95.5
474.187	106.5
474.406	91.5
474.625	93.5
474.844	106.5
475.063	102.5
475.282	88.5
475.501	79.5
475.72	101.5
475.939	88.5
476.158	87.5
476.377	89.5
476.596	102.5
476.814	85.5
477.033	76.5
477.252	85.5
477.471	74.5
477.69	88.5
477.908	98.5
478.127	84.5
478.346	93.5
478.564	88.5
478.783	98.5
479.002	89.5
479.22	101.5
479.439	79.5
479.658	103.5
479.876	97.5
480.095	91.5
480.313	105.5
480.532	91.5
480.751	96.5
480.969	108.5
481.188	229.5
481.406	158.5
481.624	84.5
481.843	98.5
482.061	91.5
482.28	91.5
482.498	81.5
482.717	90.5
482.935	98.5
483.153	80.5
483.372	81.5
483.59	74.5
483.808	87.5
484.027	99.5
484.245	95.5
484.463	94.5
484.681	99.5
484.9	95.5
485.118	91.5
485.336	92.5
485.554	93.5
485.772	116.5
485.99	96.5
486.209	99.5
486.427	102.5
486.645	109.5
486.863	104.5
487.081	90.5
487.299	107.5
487.517	103.5
487.735	89.5
487.953	101.5
488.171	82.5
488.389	95.5
488.607	95.5
488.825	86.5
489.043	90.5
489.261	71.5
489.479	92.5
489.696	74.5
489.914	97.5
490.132	99.5
490.35	83.5
490.568	92.5
490.786	100.5
491.003	97.5
491.221	86.5
491.439	86.5
491.657	82.5
491.874	80.5
492.092	87.5
492.31	86.5
492.527	87.5
492.745	87.5
492.963	93.5
493.18	78.5
493.398	100.5
493.615	94.5
493.833	98.5
494.05	87.5
494.268	105.5
494.485	95.5
494.703	86.5
494.92	98.5
495.138	100.5
495.355	88.5
495.573	85.5
495.79	77.5
496.008	90.5
496.225	83.5
496.442	96.5
496.66	92.5
496.877	92.5
497.094	86.5
497.312	83.5
497.529	95.5
497.746	86.5
497.963	101.5
498.181	88.5
498.398	90.5
498.615	96.5
498.832	97.5
499.049	103.5
499.267	98.5
499.484	82.5
499.701	92.5
499.918	84.5
500.135	89.5
500.352	100.5
500.569	79.5
500.786	90.5
501.003	93.5
501.22	79.5
501.437	72.5
501.654	93.5
501.871	103.5
502.088	75.5
502.305	81.5
502.522	90.5
502.739	99.5
502.956	105.5
503.172	86.5
503.389	77.5
503.606	108.5
503.823	106.5
504.04	112.5
504.256	104.5
504.473	102.5
504.69	101.5
504.907	79.5
505.123	99.5
505.34	91.5
505.557	96.5
505.773	90.5
505.99	102.5
506.207	92.5
506.423	90.5
506.64	85.5
506.856	91.5
507.073	92.5
507.289	89.5
507.506	89.5
507.722	111.5
507.939	111.5
508.155	92.5
508.372	84.5
508.588	90.5
508.805	88.5
509.021	107.5
509.238	100.5
509.454	91.5
509.67	99.5
509.887	90.5
510.103	124.5
510.319	194.5
510.536	640.5
510.752	1927.5
510.968	539.5
511.184	149.5
511.401	97.5
511.617	103.5
511.833	86.5
512.049	101.5
512.265	84.5
512.481	82.5
512.698	81.5
512.914	96.5
513.13	92.5
513.346	99.5
513.562	84.5
513.778	92.5
513.994	90.5
514.21	103.5
514.426	110.5
514.642	112.5
514.858	129.5
515.074	156.5
515.29	372.5
515.506	1222.5
515.721	458.5
515.937	145.5
516.153	105.5
516.369	100.5
516.585	102.5
516.801	99.5
517.016	108.5
517.232	76.5
517.448	89.5
517.664	96.5
517.879	88.5
518.095	83.5
518.311	87.5
518.527	114.5
518.742	96.5
518.958	101.5
519.173	89.5
519.389	86.5
519.605	96.5
519.82	105.5
520.036	100.5
520.251	120.5
520.467	95.5
520.682	97.5
520.898	106.5
521.113	107.5
521.329	112.5
521.544	171.5
521.76	465.5
521.975	1898.5
522.19	1223.5
522.406	277.5
522.621	122.5
522.836	98.5
523.052	92.5
523.267	87.5
523.482	84.5
523.698	95.5
523.913	121.5
524.128	107.5
524.343	92.5
524.559	92.5
524.774	94.5
524.989	83.5
525.204	96.5
525.419	88.5
525.634	87.5
525.849	81.5
526.064	104.5
526.28	93.5
526.495	86.5
526.71	95.5
526.925	88.5
527.14	99.5
527.355	83.5
527.57	90.5
527.785	95.5
527.999	100.5
528.214	100.5
528.429	103.5
528.644	91.5
528.859	93.5
529.074	110.5
529.289	110.5
529.503	162.5
529.718	118.5
529.933	88.5
530.148	82.5
530.363	76.5
530.577	86.5
530.792	99.5
531.007	81.5
531.221	95.5
531.436	104.5
531.651	84.5
531.865	99.5
532.08	91.5
532.295	97.5
532.509	78.5
532.724	92.5
532.938	100.5
533.153	111.5
533.367	92.5
533.582	94.5
533.796	89.5
534.011	95.5
534.225	92.5
534.44	88.5
534.654	91.5
534.868	87.5
535.083	89.5
535.297	105.5
