Data from Circ_2002_H10_HRD10591_00078.txt Node
Date: Wed Jan 03 10:41:13 EST 2024
User: Yrep
Spectrometer: HR+D1059
Trigger mode: 1
Integration Time (sec): 1.000000E-1
Scans to average: 1
Electric dark correction enabled: true
Nonlinearity correction enabled: false
Boxcar width: 0
XAxis mode: Wavelengths
Number of Pixels in Spectrum: 2048
>>>>>Begin Spectral Data<<<<<
223.165	-15.62
223.4	-15.62
223.635	-15.62
223.869	-14.62
224.104	-15.62
224.338	-14.62
224.573	-19.62
224.808	-9.62
225.042	-6.62
225.277	-6.62
225.511	-18.62
225.746	3.38
225.98	9.38
226.215	7.38
226.449	18.38
226.683	19.38
226.918	33.38
227.152	30.38
227.387	52.38
227.621	40.38
227.856	45.38
228.09	58.38
228.324	43.38
228.559	45.38
228.793	57.38
229.027	61.38
229.262	64.38
229.496	67.38
229.73	83.38
229.964	72.38
230.199	71.38
230.433	80.38
230.667	51.38
230.901	83.38
231.136	71.38
231.37	74.38
231.604	79.38
231.838	81.38
232.072	79.38
232.306	81.38
232.541	92.38
232.775	82.38
233.009	63.38
233.243	70.38
233.477	76.38
233.711	93.38
233.945	87.38
234.179	88.38
234.413	80.38
234.647	83.38
234.881	84.38
235.115	89.38
235.349	87.38
235.583	77.38
235.817	73.38
236.051	92.38
236.285	69.38
236.519	91.38
236.753	75.38
236.987	71.38
237.221	84.38
237.455	84.38
237.689	80.38
237.922	67.38
238.156	80.38
238.39	74.38
238.624	59.38
238.858	75.38
239.091	73.38
239.325	78.38
239.559	101.38
239.793	72.38
240.027	88.38
240.26	83.38
240.494	83.38
240.728	75.38
240.961	88.38
241.195	80.38
241.429	88.38
241.662	74.38
241.896	65.38
242.13	76.38
242.363	86.38
242.597	75.38
242.83	88.38
243.064	82.38
243.298	88.38
243.531	75.38
243.765	76.38
243.998	86.38
244.232	80.38
244.465	71.38
244.699	69.38
244.932	71.38
245.166	82.38
245.399	92.38
245.633	73.38
245.866	79.38
246.099	79.38
246.333	71.38
246.566	95.38
246.8	72.38
247.033	75.38
247.266	78.38
247.5	90.38
247.733	75.38
247.966	67.38
248.2	81.38
248.433	78.38
248.666	74.38
248.899	65.38
249.133	83.38
249.366	93.38
249.599	92.38
249.832	83.38
250.066	90.38
250.299	80.38
250.532	86.38
250.765	77.38
250.998	76.38
251.231	66.38
251.465	70.38
251.698	82.38
251.931	81.38
252.164	89.38
252.397	84.38
252.63	86.38
252.863	79.38
253.096	78.38
253.329	100.38
253.562	85.38
253.795	92.38
254.028	71.38
254.261	83.38
254.494	68.38
254.727	83.38
254.96	86.38
255.193	79.38
255.426	83.38
255.659	87.38
255.892	85.38
256.124	76.38
256.357	83.38
256.59	90.38
256.823	83.38
257.056	85.38
257.289	81.38
257.521	85.38
257.754	89.38
257.987	87.38
258.22	83.38
258.452	81.38
258.685	82.38
258.918	79.38
259.151	79.38
259.383	89.38
259.616	76.38
259.849	88.38
260.081	84.38
260.314	83.38
260.547	85.38
260.779	85.38
261.012	88.38
261.244	75.38
261.477	77.38
261.71	90.38
261.942	84.38
262.175	99.38
262.407	104.38
262.64	93.38
262.872	78.38
263.105	85.38
263.337	99.38
263.57	89.38
263.802	96.38
264.035	74.38
264.267	72.38
264.499	94.38
264.732	87.38
264.964	72.38
265.197	80.38
265.429	86.38
265.661	81.38
265.894	94.38
266.126	90.38
266.358	77.38
266.591	86.38
266.823	77.38
267.055	81.38
267.287	93.38
267.52	101.38
267.752	83.38
267.984	83.38
268.216	93.38
268.448	87.38
268.681	82.38
268.913	91.38
269.145	99.38
269.377	81.38
269.609	79.38
269.841	95.38
270.073	96.38
270.306	83.38
270.538	83.38
270.77	94.38
271.002	91.38
271.234	92.38
271.466	79.38
271.698	81.38
271.93	72.38
272.162	75.38
272.394	82.38
272.626	84.38
272.858	89.38
273.09	99.38
273.322	76.38
273.553	84.38
273.785	82.38
274.017	79.38
274.249	95.38
274.481	101.38
274.713	97.38
274.945	80.38
275.176	83.38
275.408	76.38
275.64	93.38
275.872	85.38
276.104	73.38
276.335	88.38
276.567	92.38
276.799	107.38
277.031	92.38
277.262	80.38
277.494	65.38
277.726	83.38
277.957	98.38
278.189	68.38
278.421	91.38
278.652	74.38
278.884	82.38
279.115	95.38
279.347	95.38
279.579	88.38
279.81	92.38
280.042	93.38
280.273	84.38
280.505	83.38
280.736	84.38
280.968	89.38
281.199	77.38
281.431	87.38
281.662	89.38
281.894	89.38
282.125	91.38
282.356	96.38
282.588	124.38
282.819	101.38
283.051	103.38
283.282	83.38
283.513	89.38
283.745	83.38
283.976	82.38
284.207	82.38
284.439	101.38
284.67	99.38
284.901	89.38
285.132	77.38
285.364	82.38
285.595	81.38
285.826	95.38
286.057	84.38
286.288	85.38
286.52	92.38
286.751	74.38
286.982	97.38
287.213	83.38
287.444	80.38
287.675	77.38
287.906	86.38
288.138	81.38
288.369	88.38
288.6	92.38
288.831	82.38
289.062	90.38
289.293	78.38
289.524	87.38
289.755	78.38
289.986	76.38
290.217	78.38
290.448	89.38
290.679	89.38
290.91	90.38
291.141	86.38
291.371	78.38
291.602	87.38
291.833	85.38
292.064	86.38
292.295	91.38
292.526	83.38
292.757	93.38
292.987	91.38
293.218	93.38
293.449	95.38
293.68	95.38
293.91	91.38
294.141	95.38
294.372	87.38
294.603	86.38
294.833	81.38
295.064	91.38
295.295	80.38
295.525	91.38
295.756	91.38
295.987	118.38
296.217	137.38
296.448	137.38
296.679	81.38
296.909	82.38
297.14	93.38
297.37	87.38
297.601	88.38
297.831	76.38
298.062	92.38
298.292	91.38
298.523	85.38
298.753	87.38
298.984	79.38
299.214	88.38
299.445	87.38
299.675	103.38
299.905	79.38
300.136	102.38
300.366	77.38
300.597	91.38
300.827	99.38
301.057	93.38
301.288	103.38
301.518	97.38
301.748	98.38
301.979	104.38
302.209	78.38
302.439	86.38
302.669	89.38
302.9	98.38
303.13	93.38
303.36	95.38
303.59	94.38
303.82	95.38
304.051	97.38
304.281	89.38
304.511	92.38
304.741	96.38
304.971	102.38
305.201	116.38
305.431	100.38
305.661	109.38
305.891	93.38
306.121	87.38
306.352	95.38
306.582	100.38
306.812	88.38
307.042	104.38
307.272	86.38
307.502	96.38
307.731	79.38
307.961	97.38
308.191	100.38
308.421	89.38
308.651	97.38
308.881	105.38
309.111	97.38
309.341	109.38
309.571	95.38
309.8	89.38
310.03	97.38
310.26	96.38
310.49	99.38
310.72	97.38
310.949	91.38
311.179	105.38
311.409	97.38
311.639	93.38
311.868	76.38
312.098	86.38
312.328	90.38
312.557	107.38
312.787	101.38
313.017	95.38
313.246	96.38
313.476	96.38
313.706	90.38
313.935	92.38
314.165	84.38
314.394	93.38
314.624	97.38
314.853	103.38
315.083	95.38
315.312	90.38
315.542	91.38
315.771	78.38
316.001	93.38
316.23	96.38
316.46	89.38
316.689	91.38
316.919	82.38
317.148	75.38
317.377	107.38
317.607	93.38
317.836	81.38
318.065	96.38
318.295	101.38
318.524	76.38
318.753	88.38
318.983	97.38
319.212	110.38
319.441	106.38
319.67	102.38
319.9	87.38
320.129	102.38
320.358	91.38
320.587	104.38
320.816	92.38
321.046	92.38
321.275	93.38
321.504	88.38
321.733	102.38
321.962	90.38
322.191	102.38
322.42	99.38
322.649	102.38
322.878	99.38
323.108	116.38
323.337	113.38
323.566	124.38
323.795	147.38
324.024	185.38
324.253	317.38
324.482	678.38
324.71	1372.38
324.939	1777.38
325.168	671.38
325.397	218.38
325.626	147.38
325.855	114.38
326.084	120.38
326.313	131.38
326.542	152.38
326.77	193.38
326.999	387.38
327.228	811.38
327.457	1388.38
327.686	1100.38
327.914	313.38
328.143	161.38
328.372	140.38
328.6	106.38
328.829	106.38
329.058	115.38
329.287	127.38
329.515	105.38
329.744	107.38
329.972	107.38
330.201	108.38
330.43	131.38
330.658	117.38
330.887	120.38
331.115	111.38
331.344	98.38
331.572	98.38
331.801	120.38
332.03	100.38
332.258	101.38
332.486	99.38
332.715	103.38
332.943	98.38
333.172	93.38
333.4	106.38
333.629	99.38
333.857	106.38
334.085	114.38
334.314	133.38
334.542	144.38
334.771	143.38
334.999	109.38
335.227	98.38
335.455	100.38
335.684	87.38
335.912	81.38
336.14	94.38
336.369	90.38
336.597	92.38
336.825	104.38
337.053	96.38
337.281	90.38
337.51	91.38
337.738	96.38
337.966	73.38
338.194	84.38
338.422	97.38
338.65	96.38
338.878	91.38
339.106	85.38
339.334	69.38
339.562	99.38
339.79	104.38
340.018	93.38
340.246	103.38
340.474	98.38
340.702	92.38
340.93	81.38
341.158	96.38
341.386	99.38
341.614	92.38
341.842	93.38
342.07	73.38
342.298	89.38
342.526	87.38
342.754	99.38
342.981	99.38
343.209	99.38
343.437	103.38
343.665	96.38
343.893	89.38
344.12	105.38
344.348	81.38
344.576	94.38
344.804	81.38
345.031	95.38
345.259	108.38
345.487	75.38
345.714	87.38
345.942	99.38
346.17	103.38
346.397	107.38
346.625	90.38
346.853	83.38
347.08	81.38
347.308	82.38
347.535	97.38
347.763	99.38
347.99	95.38
348.218	104.38
348.445	79.38
348.673	94.38
348.9	86.38
349.128	108.38
349.355	82.38
349.583	95.38
349.81	106.38
350.037	89.38
350.265	96.38
350.492	79.38
350.72	116.38
350.947	101.38
351.174	100.38
351.402	118.38
351.629	96.38
351.856	100.38
352.083	91.38
352.311	107.38
352.538	97.38
352.765	114.38
352.992	106.38
353.22	106.38
353.447	91.38
353.674	100.38
353.901	94.38
354.128	96.38
354.355	97.38
354.583	99.38
354.81	94.38
355.037	102.38
355.264	77.38
355.491	84.38
355.718	103.38
355.945	87.38
356.172	84.38
356.399	83.38
356.626	104.38
356.853	101.38
357.08	85.38
357.307	89.38
357.534	88.38
357.761	98.38
357.988	98.38
358.215	87.38
358.441	88.38
358.668	105.38
358.895	86.38
359.122	89.38
359.349	88.38
359.576	99.38
359.802	96.38
360.029	110.38
360.256	96.38
360.483	84.38
360.709	91.38
360.936	92.38
361.163	101.38
361.39	99.38
361.616	90.38
361.843	84.38
362.07	85.38
362.296	92.38
362.523	89.38
362.749	99.38
362.976	88.38
363.203	82.38
363.429	90.38
363.656	99.38
363.882	83.38
364.109	89.38
364.335	93.38
364.562	81.38
364.788	79.38
365.015	91.38
365.241	99.38
365.468	103.38
365.694	89.38
365.92	90.38
366.147	96.38
366.373	91.38
366.599	76.38
366.826	96.38
367.052	98.38
367.278	92.38
367.505	91.38
367.731	108.38
367.957	100.38
368.184	103.38
368.41	92.38
368.636	101.38
368.862	123.38
369.089	98.38
369.315	96.38
369.541	92.38
369.767	91.38
369.993	105.38
370.219	90.38
370.445	81.38
370.672	89.38
370.898	105.38
371.124	86.38
371.35	97.38
371.576	89.38
371.802	84.38
372.028	80.38
372.254	97.38
372.48	88.38
372.706	91.38
372.932	85.38
373.158	81.38
373.384	97.38
373.61	107.38
373.835	89.38
374.061	76.38
374.287	85.38
374.513	89.38
374.739	101.38
374.965	90.38
375.191	88.38
375.416	80.38
375.642	83.38
375.868	81.38
376.094	104.38
376.319	102.38
376.545	87.38
376.771	84.38
376.997	76.38
377.222	98.38
377.448	90.38
377.674	97.38
377.899	91.38
378.125	97.38
378.35	92.38
378.576	82.38
378.802	89.38
379.027	100.38
379.253	94.38
379.478	94.38
379.704	93.38
379.929	95.38
380.155	83.38
380.38	82.38
380.606	86.38
380.831	92.38
381.057	112.38
381.282	90.38
381.507	96.38
381.733	85.38
381.958	103.38
382.184	88.38
382.409	113.38
382.634	104.38
382.86	89.38
383.085	94.38
383.31	104.38
383.535	116.38
383.761	87.38
383.986	108.38
384.211	89.38
384.436	97.38
384.662	95.38
384.887	97.38
385.112	90.38
385.337	101.38
385.562	93.38
385.787	96.38
386.013	98.38
386.238	121.38
386.463	97.38
386.688	89.38
386.913	103.38
387.138	112.38
387.363	95.38
387.588	86.38
387.813	93.38
388.038	107.38
388.263	107.38
388.488	101.38
388.713	93.38
388.938	111.38
389.163	83.38
389.387	97.38
389.612	101.38
389.837	99.38
390.062	81.38
390.287	96.38
390.512	95.38
390.736	85.38
390.961	93.38
391.186	89.38
391.411	101.38
391.636	90.38
391.86	82.38
392.085	76.38
392.31	100.38
392.534	78.38
392.759	87.38
392.984	92.38
393.208	79.38
393.433	82.38
393.658	91.38
393.882	89.38
394.107	89.38
394.331	76.38
394.556	99.38
394.78	90.38
395.005	99.38
395.229	81.38
395.454	84.38
395.678	74.38
395.903	79.38
396.127	100.38
396.352	87.38
396.576	84.38
396.801	94.38
397.025	78.38
397.249	101.38
397.474	86.38
397.698	86.38
397.922	85.38
398.147	96.38
398.371	87.38
398.595	76.38
398.82	80.38
399.044	92.38
399.268	80.38
399.492	83.38
399.717	77.38
399.941	88.38
400.165	109.38
400.389	105.38
400.613	103.38
400.837	98.38
401.062	100.38
401.286	96.38
401.51	85.38
401.734	86.38
401.958	85.38
402.182	109.38
402.406	120.38
402.63	99.38
402.854	101.38
403.078	76.38
403.302	86.38
403.526	84.38
403.75	83.38
403.974	88.38
404.198	99.38
404.422	70.38
404.645	82.38
404.869	103.38
405.093	93.38
405.317	82.38
405.541	94.38
405.765	94.38
405.988	118.38
406.212	147.38
406.436	185.38
406.66	126.38
406.883	81.38
407.107	76.38
407.331	92.38
407.555	88.38
407.778	99.38
408.002	88.38
408.226	85.38
408.449	83.38
408.673	84.38
408.896	105.38
409.12	94.38
409.344	89.38
409.567	89.38
409.791	98.38
410.014	97.38
410.238	80.38
410.461	99.38
410.685	97.38
410.908	93.38
411.132	91.38
411.355	105.38
411.578	83.38
411.802	88.38
412.025	89.38
412.249	99.38
412.472	87.38
412.695	95.38
412.919	90.38
413.142	81.38
413.365	82.38
413.589	81.38
413.812	86.38
414.035	94.38
414.258	80.38
414.482	84.38
414.705	83.38
414.928	84.38
415.151	93.38
415.374	83.38
415.597	79.38
415.821	83.38
416.044	90.38
416.267	97.38
416.49	88.38
416.713	81.38
416.936	107.38
417.159	100.38
417.382	91.38
417.605	89.38
417.828	87.38
418.051	76.38
418.274	83.38
418.497	97.38
418.72	83.38
418.943	93.38
419.166	90.38
419.389	71.38
419.611	89.38
419.834	93.38
420.057	83.38
420.28	83.38
420.503	82.38
420.726	86.38
420.948	81.38
421.171	90.38
421.394	99.38
421.617	95.38
421.839	99.38
422.062	95.38
422.285	101.38
422.507	99.38
422.73	87.38
422.953	89.38
423.175	86.38
423.398	85.38
423.621	83.38
423.843	92.38
424.066	99.38
424.288	80.38
424.511	92.38
424.733	84.38
424.956	100.38
425.178	77.38
425.401	96.38
425.623	103.38
425.846	81.38
426.068	85.38
426.291	95.38
426.513	101.38
426.735	92.38
426.958	79.38
427.18	85.38
427.402	131.38
427.625	142.38
427.847	112.38
428.069	122.38
428.292	96.38
428.514	81.38
428.736	87.38
428.958	73.38
429.181	93.38
429.403	86.38
429.625	95.38
429.847	87.38
430.069	100.38
430.292	85.38
430.514	100.38
430.736	87.38
430.958	70.38
431.18	76.38
431.402	86.38
431.624	89.38
431.846	93.38
432.068	74.38
432.29	84.38
432.512	86.38
432.734	88.38
432.956	91.38
433.178	95.38
433.4	82.38
433.622	84.38
433.844	92.38
434.066	96.38
434.287	86.38
434.509	89.38
434.731	90.38
434.953	94.38
435.175	82.38
435.397	77.38
435.618	96.38
435.84	107.38
436.062	112.38
436.284	97.38
436.505	80.38
436.727	97.38
436.949	83.38
437.17	80.38
437.392	83.38
437.614	83.38
437.835	104.38
438.057	106.38
438.278	100.38
438.5	90.38
438.721	100.38
438.943	106.38
439.165	84.38
439.386	91.38
439.608	90.38
439.829	86.38
440.05	106.38
440.272	111.38
440.493	103.38
440.715	80.38
440.936	75.38
441.158	91.38
441.379	81.38
441.6	79.38
441.822	85.38
442.043	94.38
442.264	101.38
442.486	76.38
442.707	81.38
442.928	100.38
443.149	117.38
443.371	116.38
443.592	97.38
443.813	106.38
444.034	93.38
444.255	87.38
444.476	80.38
444.698	87.38
444.919	91.38
445.14	124.38
445.361	126.38
445.582	113.38
445.803	125.38
446.024	126.38
446.245	130.38
446.466	105.38
446.687	88.38
446.908	82.38
447.129	88.38
447.35	87.38
447.571	80.38
447.792	91.38
448.013	88.38
448.234	101.38
448.455	96.38
448.675	99.38
448.896	105.38
449.117	96.38
449.338	103.38
449.559	98.38
449.779	115.38
450	93.38
450.221	82.38
450.442	90.38
450.662	82.38
450.883	98.38
451.104	100.38
451.324	101.38
451.545	80.38
451.766	82.38
451.986	90.38
452.207	83.38
452.428	88.38
452.648	92.38
452.869	112.38
453.089	113.38
453.31	97.38
453.53	93.38
453.751	95.38
453.971	88.38
454.192	98.38
454.412	87.38
454.633	83.38
454.853	88.38
455.073	91.38
455.294	80.38
455.514	87.38
455.734	83.38
455.955	82.38
456.175	92.38
456.395	79.38
456.616	83.38
456.836	85.38
457.056	91.38
457.276	73.38
457.497	79.38
457.717	85.38
457.937	71.38
458.157	75.38
458.377	91.38
458.598	106.38
458.818	112.38
459.038	130.38
459.258	102.38
459.478	88.38
459.698	90.38
459.918	89.38
460.138	89.38
460.358	101.38
460.578	73.38
460.798	88.38
461.018	82.38
461.238	88.38
461.458	89.38
461.678	75.38
461.898	85.38
462.118	84.38
462.338	99.38
462.558	78.38
462.777	86.38
462.997	79.38
463.217	93.38
463.437	95.38
463.657	83.38
463.876	90.38
464.096	87.38
464.316	86.38
464.536	93.38
464.755	97.38
464.975	107.38
465.195	136.38
465.414	120.38
465.634	104.38
465.854	76.38
466.073	93.38
466.293	91.38
466.512	91.38
466.732	88.38
466.951	95.38
467.171	107.38
467.391	76.38
467.61	97.38
467.829	92.38
468.049	103.38
468.268	102.38
468.488	88.38
468.707	87.38
468.927	95.38
469.146	78.38
469.365	87.38
469.585	85.38
469.804	94.38
470.023	103.38
470.243	105.38
470.462	108.38
470.681	99.38
470.901	81.38
471.12	97.38
471.339	96.38
471.558	88.38
471.777	92.38
471.997	79.38
472.216	116.38
472.435	179.38
472.654	105.38
472.873	91.38
473.092	84.38
473.311	99.38
473.53	96.38
473.749	94.38
473.968	97.38
474.187	99.38
474.406	100.38
474.625	92.38
474.844	79.38
475.063	87.38
475.282	88.38
475.501	89.38
475.72	92.38
475.939	92.38
476.158	82.38
476.377	95.38
476.596	97.38
476.814	84.38
477.033	101.38
477.252	88.38
477.471	105.38
477.69	70.38
477.908	92.38
478.127	93.38
478.346	82.38
478.564	88.38
478.783	93.38
479.002	96.38
479.22	90.38
479.439	98.38
479.658	94.38
479.876	93.38
480.095	75.38
480.313	83.38
480.532	89.38
480.751	93.38
480.969	123.38
481.188	246.38
481.406	163.38
481.624	96.38
481.843	100.38
482.061	84.38
482.28	101.38
482.498	83.38
482.717	97.38
482.935	102.38
483.153	92.38
483.372	95.38
483.59	92.38
483.808	98.38
484.027	92.38
484.245	90.38
484.463	91.38
484.681	96.38
484.9	73.38
485.118	93.38
485.336	110.38
485.554	98.38
485.772	104.38
485.99	103.38
486.209	92.38
486.427	102.38
486.645	107.38
486.863	101.38
487.081	114.38
487.299	104.38
487.517	104.38
487.735	95.38
487.953	87.38
488.171	86.38
488.389	93.38
488.607	83.38
488.825	88.38
489.043	94.38
489.261	92.38
489.479	90.38
489.696	96.38
489.914	87.38
490.132	84.38
490.35	97.38
490.568	101.38
490.786	87.38
491.003	93.38
491.221	81.38
491.439	98.38
491.657	88.38
491.874	102.38
492.092	92.38
492.31	90.38
492.527	91.38
492.745	79.38
492.963	89.38
493.18	84.38
493.398	97.38
493.615	92.38
493.833	83.38
494.05	90.38
494.268	90.38
494.485	89.38
494.703	80.38
494.92	83.38
495.138	84.38
495.355	100.38
495.573	93.38
495.79	86.38
496.008	84.38
496.225	84.38
496.442	99.38
496.66	83.38
496.877	87.38
497.094	92.38
497.312	85.38
497.529	91.38
497.746	105.38
497.963	81.38
498.181	93.38
498.398	94.38
498.615	116.38
498.832	101.38
499.049	92.38
499.267	92.38
499.484	94.38
499.701	91.38
499.918	90.38
500.135	86.38
500.352	99.38
500.569	79.38
500.786	90.38
501.003	77.38
501.22	101.38
501.437	77.38
501.654	97.38
501.871	114.38
502.088	98.38
502.305	78.38
502.522	85.38
502.739	95.38
502.956	111.38
503.172	82.38
503.389	99.38
503.606	111.38
503.823	91.38
504.04	92.38
504.256	87.38
504.473	91.38
504.69	96.38
504.907	101.38
505.123	99.38
505.34	93.38
505.557	96.38
505.773	89.38
505.99	89.38
506.207	102.38
506.423	97.38
506.64	85.38
506.856	100.38
507.073	97.38
507.289	85.38
507.506	76.38
507.722	105.38
507.939	97.38
508.155	91.38
508.372	88.38
508.588	69.38
508.805	93.38
509.021	101.38
509.238	92.38
509.454	122.38
509.67	108.38
509.887	101.38
510.103	108.38
510.319	192.38
510.536	551.38
510.752	1665.38
510.968	499.38
511.184	121.38
511.401	100.38
511.617	90.38
511.833	81.38
512.049	97.38
512.265	101.38
512.481	112.38
512.698	77.38
512.914	89.38
513.13	89.38
513.346	88.38
513.562	95.38
513.778	89.38
513.994	96.38
514.21	103.38
514.426	102.38
514.642	119.38
514.858	110.38
515.074	141.38
515.29	331.38
515.506	1008.38
515.721	407.38
515.937	132.38
516.153	102.38
