Data from Circ_2002_H10_HRD10591_00011.txt Node
Date: Wed Jan 03 10:41:00 EST 2024
User: Yrep
Spectrometer: HR+D1059
Trigger mode: 1
Integration Time (sec): 1.000000E-1
Scans to average: 1
Electric dark correction enabled: true
Nonlinearity correction enabled: false
Boxcar width: 0
XAxis mode: Wavelengths
Number of Pixels in Spectrum: 2048
>>>>>Begin Spectral Data<<<<<
223.165	-21.75
223.4	-21.75
223.635	-21.75
223.869	-21.75
224.104	-24.75
224.338	-13.75
224.573	-21.75
224.808	-19.75
225.042	5.25
225.277	-3.75
225.511	-0.75
225.746	12.25
225.98	2.25
226.215	5.25
226.449	11.25
226.683	26.25
226.918	20.25
227.152	45.25
227.387	32.25
227.621	35.25
227.856	49.25
228.09	40.25
228.324	47.25
228.559	56.25
228.793	57.25
229.027	60.25
229.262	61.25
229.496	79.25
229.73	63.25
229.964	77.25
230.199	74.25
230.433	77.25
230.667	81.25
230.901	91.25
231.136	76.25
231.37	77.25
231.604	84.25
231.838	71.25
232.072	85.25
232.306	77.25
232.541	85.25
232.775	84.25
233.009	83.25
233.243	58.25
233.477	78.25
233.711	79.25
233.945	74.25
234.179	77.25
234.413	85.25
234.647	100.25
234.881	75.25
235.115	71.25
235.349	80.25
235.583	69.25
235.817	71.25
236.051	77.25
236.285	80.25
236.519	68.25
236.753	68.25
236.987	75.25
237.221	90.25
237.455	90.25
237.689	76.25
237.922	78.25
238.156	74.25
238.39	80.25
238.624	83.25
238.858	74.25
239.091	88.25
239.325	82.25
239.559	82.25
239.793	77.25
240.027	88.25
240.26	84.25
240.494	73.25
240.728	77.25
240.961	68.25
241.195	68.25
241.429	89.25
241.662	75.25
241.896	64.25
242.13	67.25
242.363	84.25
242.597	74.25
242.83	84.25
243.064	75.25
243.298	84.25
243.531	84.25
243.765	85.25
243.998	80.25
244.232	82.25
244.465	82.25
244.699	79.25
244.932	76.25
245.166	85.25
245.399	84.25
245.633	93.25
245.866	76.25
246.099	78.25
246.333	77.25
246.566	81.25
246.8	71.25
247.033	70.25
247.266	80.25
247.5	87.25
247.733	75.25
247.966	74.25
248.2	79.25
248.433	82.25
248.666	94.25
248.899	85.25
249.133	73.25
249.366	78.25
249.599	95.25
249.832	78.25
250.066	75.25
250.299	77.25
250.532	88.25
250.765	76.25
250.998	73.25
251.231	83.25
251.465	71.25
251.698	79.25
251.931	73.25
252.164	74.25
252.397	82.25
252.63	89.25
252.863	100.25
253.096	79.25
253.329	95.25
253.562	77.25
253.795	75.25
254.028	77.25
254.261	97.25
254.494	83.25
254.727	87.25
254.96	78.25
255.193	91.25
255.426	72.25
255.659	70.25
255.892	93.25
256.124	90.25
256.357	83.25
256.59	81.25
256.823	85.25
257.056	75.25
257.289	92.25
257.521	72.25
257.754	81.25
257.987	88.25
258.22	89.25
258.452	92.25
258.685	101.25
258.918	95.25
259.151	92.25
259.383	74.25
259.616	82.25
259.849	93.25
260.081	89.25
260.314	79.25
260.547	78.25
260.779	84.25
261.012	83.25
261.244	82.25
261.477	83.25
261.71	96.25
261.942	77.25
262.175	92.25
262.407	98.25
262.64	83.25
262.872	85.25
263.105	95.25
263.337	63.25
263.57	84.25
263.802	92.25
264.035	77.25
264.267	87.25
264.499	81.25
264.732	85.25
264.964	89.25
265.197	86.25
265.429	82.25
265.661	79.25
265.894	88.25
266.126	74.25
266.358	84.25
266.591	69.25
266.823	102.25
267.055	90.25
267.287	80.25
267.52	106.25
267.752	80.25
267.984	80.25
268.216	80.25
268.448	92.25
268.681	83.25
268.913	82.25
269.145	92.25
269.377	83.25
269.609	85.25
269.841	87.25
270.073	93.25
270.306	80.25
270.538	77.25
270.77	79.25
271.002	78.25
271.234	76.25
271.466	92.25
271.698	81.25
271.93	84.25
272.162	84.25
272.394	88.25
272.626	71.25
272.858	89.25
273.09	82.25
273.322	88.25
273.553	95.25
273.785	88.25
274.017	78.25
274.249	79.25
274.481	73.25
274.713	77.25
274.945	93.25
275.176	80.25
275.408	94.25
275.64	74.25
275.872	88.25
276.104	93.25
276.335	90.25
276.567	92.25
276.799	93.25
277.031	78.25
277.262	87.25
277.494	89.25
277.726	87.25
277.957	90.25
278.189	85.25
278.421	88.25
278.652	92.25
278.884	82.25
279.115	82.25
279.347	83.25
279.579	81.25
279.81	93.25
280.042	91.25
280.273	96.25
280.505	86.25
280.736	84.25
280.968	86.25
281.199	95.25
281.431	91.25
281.662	78.25
281.894	90.25
282.125	95.25
282.356	105.25
282.588	119.25
282.819	95.25
283.051	85.25
283.282	81.25
283.513	97.25
283.745	83.25
283.976	74.25
284.207	97.25
284.439	88.25
284.67	77.25
284.901	89.25
285.132	78.25
285.364	87.25
285.595	103.25
285.826	80.25
286.057	81.25
286.288	86.25
286.52	70.25
286.751	95.25
286.982	75.25
287.213	97.25
287.444	91.25
287.675	92.25
287.906	78.25
288.138	99.25
288.369	98.25
288.6	86.25
288.831	83.25
289.062	99.25
289.293	90.25
289.524	81.25
289.755	79.25
289.986	89.25
290.217	87.25
290.448	87.25
290.679	72.25
290.91	91.25
291.141	77.25
291.371	86.25
291.602	89.25
291.833	85.25
292.064	104.25
292.295	83.25
292.526	93.25
292.757	85.25
292.987	78.25
293.218	89.25
293.449	76.25
293.68	91.25
293.91	81.25
294.141	84.25
294.372	84.25
294.603	92.25
294.833	93.25
295.064	72.25
295.295	72.25
295.525	92.25
295.756	112.25
295.987	92.25
296.217	122.25
296.448	100.25
296.679	94.25
296.909	92.25
297.14	93.25
297.37	92.25
297.601	76.25
297.831	84.25
298.062	85.25
298.292	84.25
298.523	96.25
298.753	73.25
298.984	106.25
299.214	89.25
299.445	83.25
299.675	94.25
299.905	99.25
300.136	91.25
300.366	77.25
300.597	94.25
300.827	95.25
301.057	79.25
301.288	108.25
301.518	94.25
301.748	103.25
301.979	100.25
302.209	82.25
302.439	102.25
302.669	84.25
302.9	100.25
303.13	95.25
303.36	95.25
303.59	76.25
303.82	107.25
304.051	98.25
304.281	88.25
304.511	90.25
304.741	79.25
304.971	84.25
305.201	96.25
305.431	100.25
305.661	89.25
305.891	80.25
306.121	83.25
306.352	103.25
306.582	90.25
306.812	96.25
307.042	90.25
307.272	99.25
307.502	99.25
307.731	98.25
307.961	102.25
308.191	95.25
308.421	83.25
308.651	87.25
308.881	82.25
309.111	97.25
309.341	90.25
309.571	92.25
309.8	88.25
310.03	86.25
310.26	90.25
310.49	79.25
310.72	76.25
310.949	99.25
311.179	80.25
311.409	88.25
311.639	96.25
311.868	98.25
312.098	91.25
312.328	88.25
312.557	108.25
312.787	91.25
313.017	102.25
313.246	91.25
313.476	89.25
313.706	97.25
313.935	92.25
314.165	102.25
314.394	96.25
314.624	103.25
314.853	87.25
315.083	84.25
315.312	100.25
315.542	90.25
315.771	87.25
316.001	91.25
316.23	97.25
316.46	92.25
316.689	98.25
316.919	89.25
317.148	95.25
317.377	93.25
317.607	91.25
317.836	96.25
318.065	96.25
318.295	88.25
318.524	83.25
318.753	89.25
318.983	92.25
319.212	89.25
319.441	114.25
319.67	113.25
319.9	90.25
320.129	94.25
320.358	87.25
320.587	86.25
320.816	100.25
321.046	98.25
321.275	92.25
321.504	104.25
321.733	107.25
321.962	103.25
322.191	101.25
322.42	98.25
322.649	88.25
322.878	104.25
323.108	106.25
323.337	108.25
323.566	127.25
323.795	143.25
324.024	171.25
324.253	315.25
324.482	608.25
324.71	1230.25
324.939	1590.25
325.168	605.25
325.397	207.25
325.626	133.25
325.855	120.25
326.084	117.25
326.313	122.25
326.542	126.25
326.77	183.25
326.999	373.25
327.228	732.25
327.457	1320.25
327.686	1031.25
327.914	296.25
328.143	159.25
328.372	112.25
328.6	99.25
328.829	93.25
329.058	122.25
329.287	95.25
329.515	100.25
329.744	96.25
329.972	97.25
330.201	98.25
330.43	103.25
330.658	114.25
330.887	117.25
331.115	96.25
331.344	88.25
331.572	79.25
331.801	100.25
332.03	88.25
332.258	95.25
332.486	85.25
332.715	75.25
332.943	95.25
333.172	77.25
333.4	85.25
333.629	111.25
333.857	106.25
334.085	91.25
334.314	90.25
334.542	90.25
334.771	92.25
334.999	99.25
335.227	97.25
335.455	93.25
335.684	87.25
335.912	88.25
336.14	102.25
336.369	97.25
336.597	97.25
336.825	83.25
337.053	92.25
337.281	102.25
337.51	102.25
337.738	88.25
337.966	87.25
338.194	90.25
338.422	93.25
338.65	106.25
338.878	87.25
339.106	87.25
339.334	100.25
339.562	107.25
339.79	77.25
340.018	93.25
340.246	92.25
340.474	90.25
340.702	91.25
340.93	80.25
341.158	107.25
341.386	97.25
341.614	91.25
341.842	97.25
342.07	90.25
342.298	74.25
342.526	82.25
342.754	100.25
342.981	97.25
343.209	97.25
343.437	102.25
343.665	77.25
343.893	89.25
344.12	86.25
344.348	87.25
344.576	87.25
344.804	91.25
345.031	86.25
345.259	92.25
345.487	93.25
345.714	87.25
345.942	86.25
346.17	84.25
346.397	90.25
346.625	92.25
346.853	92.25
347.08	84.25
347.308	101.25
347.535	95.25
347.763	113.25
347.99	95.25
348.218	92.25
348.445	85.25
348.673	98.25
348.9	92.25
349.128	94.25
349.355	80.25
349.583	91.25
349.81	95.25
350.037	90.25
350.265	91.25
350.492	102.25
350.72	102.25
350.947	81.25
351.174	113.25
351.402	105.25
351.629	99.25
351.856	100.25
352.083	103.25
352.311	99.25
352.538	111.25
352.765	108.25
352.992	111.25
353.22	106.25
353.447	86.25
353.674	103.25
353.901	90.25
354.128	103.25
354.355	97.25
354.583	84.25
354.81	95.25
355.037	91.25
355.264	94.25
355.491	95.25
355.718	76.25
355.945	93.25
356.172	88.25
356.399	75.25
356.626	93.25
356.853	88.25
357.08	105.25
357.307	93.25
357.534	96.25
357.761	81.25
357.988	98.25
358.215	99.25
358.441	99.25
358.668	89.25
358.895	91.25
359.122	97.25
359.349	93.25
359.576	88.25
359.802	88.25
360.029	98.25
360.256	97.25
360.483	96.25
360.709	95.25
360.936	93.25
361.163	92.25
361.39	103.25
361.616	90.25
361.843	98.25
362.07	92.25
362.296	86.25
362.523	87.25
362.749	91.25
362.976	104.25
363.203	91.25
363.429	85.25
363.656	87.25
363.882	89.25
364.109	91.25
364.335	110.25
364.562	76.25
364.788	90.25
365.015	96.25
365.241	103.25
365.468	110.25
365.694	98.25
365.92	91.25
366.147	92.25
366.373	89.25
366.599	90.25
366.826	93.25
367.052	89.25
367.278	89.25
367.505	91.25
367.731	96.25
367.957	93.25
368.184	91.25
368.41	93.25
368.636	91.25
368.862	122.25
369.089	96.25
369.315	86.25
369.541	93.25
369.767	89.25
369.993	86.25
370.219	78.25
370.445	83.25
370.672	103.25
370.898	89.25
371.124	84.25
371.35	92.25
371.576	85.25
371.802	88.25
372.028	83.25
372.254	92.25
372.48	88.25
372.706	96.25
372.932	82.25
373.158	99.25
373.384	71.25
373.61	99.25
373.835	98.25
374.061	89.25
374.287	86.25
374.513	100.25
374.739	102.25
374.965	86.25
375.191	88.25
375.416	98.25
375.642	98.25
375.868	85.25
376.094	83.25
376.319	91.25
376.545	104.25
376.771	94.25
376.997	92.25
377.222	107.25
377.448	93.25
377.674	109.25
377.899	87.25
378.125	86.25
378.35	92.25
378.576	91.25
378.802	112.25
379.027	114.25
379.253	97.25
379.478	102.25
379.704	94.25
379.929	98.25
380.155	97.25
380.38	105.25
380.606	103.25
380.831	107.25
381.057	97.25
381.282	95.25
381.507	104.25
381.733	98.25
381.958	117.25
382.184	107.25
382.409	106.25
382.634	121.25
382.86	99.25
383.085	111.25
383.31	106.25
383.535	101.25
383.761	90.25
383.986	98.25
384.211	116.25
384.436	116.25
384.662	114.25
384.887	124.25
385.112	119.25
385.337	119.25
385.562	129.25
385.787	113.25
386.013	108.25
386.238	123.25
386.463	119.25
386.688	117.25
386.913	123.25
387.138	122.25
387.363	116.25
387.588	107.25
387.813	100.25
388.038	111.25
388.263	115.25
388.488	112.25
388.713	92.25
388.938	100.25
389.163	95.25
389.387	106.25
389.612	104.25
389.837	101.25
390.062	87.25
390.287	90.25
390.512	86.25
390.736	81.25
390.961	85.25
391.186	103.25
391.411	99.25
391.636	101.25
391.86	87.25
392.085	97.25
392.31	93.25
392.534	97.25
392.759	97.25
392.984	97.25
393.208	91.25
393.433	100.25
393.658	91.25
393.882	82.25
394.107	70.25
394.331	86.25
394.556	88.25
394.78	84.25
395.005	93.25
395.229	78.25
395.454	91.25
395.678	83.25
395.903	91.25
396.127	92.25
396.352	80.25
396.576	83.25
396.801	85.25
397.025	105.25
397.249	88.25
397.474	89.25
397.698	96.25
397.922	87.25
398.147	91.25
398.371	88.25
398.595	91.25
398.82	97.25
399.044	83.25
399.268	95.25
399.492	92.25
399.717	85.25
399.941	91.25
400.165	93.25
400.389	72.25
400.613	90.25
400.837	74.25
401.062	84.25
401.286	75.25
401.51	77.25
401.734	87.25
401.958	110.25
402.182	104.25
402.406	139.25
402.63	106.25
402.854	75.25
403.078	77.25
403.302	78.25
403.526	90.25
403.75	84.25
403.974	93.25
404.198	85.25
404.422	98.25
404.645	86.25
404.869	99.25
405.093	92.25
405.317	81.25
405.541	103.25
405.765	92.25
405.988	97.25
406.212	135.25
406.436	153.25
406.66	115.25
406.883	99.25
407.107	86.25
407.331	79.25
407.555	103.25
407.778	83.25
408.002	101.25
408.226	86.25
408.449	85.25
408.673	92.25
408.896	90.25
409.12	82.25
409.344	103.25
409.567	94.25
409.791	89.25
410.014	88.25
410.238	90.25
410.461	105.25
410.685	87.25
410.908	101.25
411.132	94.25
411.355	92.25
411.578	84.25
411.802	85.25
412.025	90.25
412.249	107.25
412.472	89.25
412.695	91.25
412.919	89.25
413.142	93.25
413.365	102.25
413.589	90.25
413.812	103.25
414.035	80.25
414.258	84.25
414.482	101.25
414.705	93.25
414.928	108.25
415.151	95.25
415.374	93.25
415.597	88.25
415.821	96.25
416.044	89.25
416.267	87.25
416.49	98.25
416.713	88.25
416.936	72.25
417.159	87.25
417.382	88.25
417.605	81.25
417.828	84.25
418.051	86.25
418.274	92.25
418.497	101.25
418.72	87.25
418.943	75.25
419.166	92.25
419.389	92.25
419.611	74.25
419.834	74.25
420.057	82.25
420.28	92.25
420.503	75.25
420.726	83.25
420.948	92.25
421.171	91.25
421.394	73.25
421.617	88.25
421.839	92.25
422.062	82.25
422.285	92.25
422.507	99.25
422.73	91.25
422.953	92.25
423.175	90.25
423.398	81.25
423.621	85.25
423.843	90.25
424.066	92.25
424.288	79.25
424.511	106.25
424.733	86.25
424.956	93.25
425.178	90.25
425.401	99.25
425.623	92.25
425.846	82.25
426.068	97.25
426.291	96.25
426.513	88.25
426.735	87.25
426.958	88.25
427.18	88.25
427.402	114.25
427.625	130.25
427.847	107.25
428.069	97.25
428.292	88.25
428.514	82.25
428.736	77.25
428.958	83.25
429.181	75.25
429.403	75.25
429.625	82.25
429.847	92.25
430.069	83.25
430.292	88.25
430.514	88.25
430.736	91.25
430.958	74.25
431.18	89.25
431.402	88.25
431.624	80.25
431.846	87.25
432.068	75.25
432.29	86.25
432.512	83.25
432.734	72.25
432.956	103.25
433.178	77.25
433.4	96.25
433.622	95.25
433.844	91.25
434.066	88.25
434.287	83.25
434.509	99.25
434.731	81.25
434.953	80.25
435.175	82.25
435.397	84.25
435.618	98.25
435.84	87.25
436.062	106.25
436.284	103.25
436.505	83.25
436.727	83.25
436.949	104.25
437.17	98.25
437.392	88.25
437.614	91.25
437.835	91.25
438.057	90.25
438.278	121.25
438.5	96.25
438.721	105.25
438.943	99.25
439.165	101.25
439.386	94.25
439.608	98.25
439.829	91.25
440.05	103.25
440.272	123.25
440.493	102.25
440.715	90.25
440.936	85.25
441.158	83.25
441.379	83.25
441.6	79.25
441.822	99.25
442.043	86.25
442.264	96.25
442.486	104.25
442.707	91.25
442.928	99.25
443.149	112.25
443.371	108.25
443.592	97.25
443.813	89.25
444.034	96.25
444.255	97.25
444.476	76.25
444.698	79.25
444.919	74.25
445.14	122.25
445.361	127.25
445.582	104.25
445.803	108.25
446.024	112.25
446.245	114.25
446.466	86.25
446.687	98.25
446.908	83.25
447.129	79.25
447.35	95.25
447.571	90.25
447.792	79.25
448.013	90.25
448.234	100.25
448.455	84.25
448.675	94.25
448.896	110.25
449.117	100.25
449.338	104.25
449.559	101.25
449.779	107.25
450	105.25
450.221	89.25
450.442	97.25
450.662	79.25
450.883	92.25
451.104	97.25
451.324	92.25
451.545	84.25
451.766	75.25
451.986	82.25
452.207	94.25
452.428	100.25
452.648	82.25
452.869	105.25
453.089	97.25
453.31	116.25
453.53	94.25
453.751	81.25
453.971	95.25
454.192	89.25
454.412	85.25
454.633	90.25
454.853	99.25
455.073	85.25
455.294	83.25
455.514	100.25
455.734	95.25
455.955	77.25
456.175	99.25
456.395	91.25
456.616	84.25
456.836	68.25
457.056	71.25
457.276	72.25
457.497	88.25
457.717	90.25
457.937	96.25
458.157	79.25
458.377	96.25
458.598	84.25
458.818	129.25
459.038	122.25
459.258	86.25
459.478	92.25
459.698	88.25
459.918	77.25
460.138	90.25
460.358	76.25
460.578	79.25
460.798	83.25
461.018	88.25
461.238	83.25
461.458	92.25
461.678	80.25
461.898	88.25
462.118	86.25
462.338	85.25
462.558	95.25
462.777	76.25
462.997	84.25
463.217	65.25
463.437	80.25
463.657	87.25
463.876	82.25
464.096	81.25
464.316	91.25
464.536	91.25
464.755	80.25
464.975	96.25
465.195	114.25
465.414	105.25
465.634	96.25
465.854	93.25
466.073	87.25
466.293	92.25
466.512	93.25
466.732	81.25
466.951	81.25
467.171	83.25
467.391	89.25
467.61	97.25
467.829	68.25
468.049	80.25
468.268	86.25
468.488	75.25
468.707	80.25
468.927	68.25
469.146	95.25
469.365	61.25
469.585	87.25
469.804	100.25
470.023	87.25
470.243	87.25
470.462	82.25
470.681	97.25
470.901	79.25
471.12	82.25
471.339	84.25
471.558	86.25
471.777	92.25
471.997	77.25
472.216	95.25
472.435	98.25
472.654	87.25
472.873	66.25
473.092	86.25
473.311	81.25
473.53	76.25
473.749	82.25
473.968	81.25
474.187	97.25
474.406	96.25
474.625	86.25
474.844	93.25
475.063	93.25
475.282	91.25
475.501	82.25
475.72	82.25
475.939	84.25
476.158	89.25
476.377	98.25
476.596	84.25
476.814	75.25
477.033	101.25
477.252	80.25
477.471	76.25
477.69	84.25
477.908	75.25
478.127	75.25
478.346	77.25
478.564	81.25
478.783	100.25
479.002	97.25
479.22	80.25
479.439	96.25
479.658	92.25
479.876	89.25
480.095	84.25
480.313	89.25
480.532	87.25
480.751	88.25
480.969	98.25
481.188	105.25
481.406	92.25
481.624	82.25
481.843	95.25
482.061	89.25
482.28	95.25
482.498	90.25
482.717	98.25
482.935	85.25
483.153	87.25
483.372	86.25
483.59	82.25
483.808	88.25
484.027	86.25
484.245	90.25
484.463	89.25
484.681	95.25
484.9	80.25
485.118	90.25
485.336	86.25
485.554	96.25
485.772	112.25
485.99	115.25
486.209	96.25
486.427	89.25
486.645	108.25
486.863	111.25
487.081	100.25
487.299	108.25
487.517	86.25
487.735	88.25
487.953	87.25
488.171	74.25
488.389	95.25
488.607	92.25
488.825	91.25
489.043	85.25
489.261	88.25
489.479	85.25
489.696	99.25
489.914	80.25
490.132	95.25
490.35	92.25
490.568	84.25
490.786	79.25
491.003	90.25
491.221	73.25
491.439	82.25
491.657	88.25
491.874	91.25
492.092	79.25
492.31	89.25
492.527	94.25
492.745	84.25
492.963	81.25
493.18	81.25
493.398	91.25
493.615	85.25
493.833	95.25
494.05	100.25
494.268	105.25
494.485	75.25
494.703	94.25
494.92	80.25
495.138	87.25
495.355	93.25
495.573	95.25
495.79	91.25
496.008	98.25
496.225	92.25
496.442	87.25
496.66	114.25
496.877	91.25
497.094	95.25
497.312	81.25
497.529	66.25
497.746	88.25
497.963	96.25
498.181	90.25
498.398	90.25
498.615	98.25
498.832	93.25
499.049	99.25
499.267	95.25
499.484	82.25
499.701	99.25
499.918	86.25
500.135	93.25
500.352	86.25
500.569	96.25
500.786	76.25
501.003	89.25
501.22	95.25
501.437	90.25
501.654	95.25
501.871	89.25
502.088	92.25
502.305	96.25
502.522	85.25
502.739	72.25
502.956	84.25
503.172	89.25
503.389	90.25
503.606	97.25
503.823	97.25
504.04	84.25
504.256	94.25
504.473	89.25
504.69	83.25
504.907	81.25
505.123	93.25
505.34	81.25
505.557	70.25
505.773	96.25
505.99	88.25
506.207	81.25
506.423	83.25
506.64	109.25
506.856	95.25
507.073	93.25
507.289	97.25
507.506	94.25
507.722	98.25
507.939	107.25
508.155	89.25
508.372	87.25
508.588	87.25
508.805	86.25
509.021	83.25
509.238	91.25
509.454	93.25
509.67	107.25
509.887	106.25
510.103	118.25
510.319	183.25
510.536	492.25
510.752	1369.25
510.968	419.25
511.184	131.25
511.401	113.25
511.617	90.25
511.833	102.25
512.049	79.25
512.265	70.25
512.481	108.25
512.698	97.25
512.914	81.25
513.13	92.25
513.346	91.25
513.562	94.25
513.778	96.25
513.994	103.25
514.21	105.25
514.426	105.25
514.642	112.25
514.858	101.25
515.074	122.25
515.29	271.25
515.506	801.25
515.721	335.25
515.937	123.25
516.153	95.25
516.369	79.25
516.585	82.25
516.801	97.25
