Data from Circ_2002_H10_HRD10591_00043.txt Node
Date: Wed Jan 03 10:41:06 EST 2024
User: Yrep
Spectrometer: HR+D1059
Trigger mode: 1
Integration Time (sec): 1.000000E-1
Scans to average: 1
Electric dark correction enabled: true
Nonlinearity correction enabled: false
Boxcar width: 0
XAxis mode: Wavelengths
Number of Pixels in Spectrum: 2048
>>>>>Begin Spectral Data<<<<<
223.165	-13.19
223.4	-13.19
223.635	-13.19
223.869	-22.19
224.104	-24.19
224.338	-9.19
224.573	-7.19
224.808	-8.19
225.042	-5.19
225.277	3.81
225.511	-8.19
225.746	1.81
225.98	1.81
226.215	1.81
226.449	19.81
226.683	21.81
226.918	24.81
227.152	21.81
227.387	46.81
227.621	39.81
227.856	43.81
228.09	55.81
228.324	35.81
228.559	73.81
228.793	42.81
229.027	62.81
229.262	67.81
229.496	70.81
229.73	79.81
229.964	82.81
230.199	74.81
230.433	80.81
230.667	61.81
230.901	82.81
231.136	76.81
231.37	85.81
231.604	80.81
231.838	79.81
232.072	75.81
232.306	80.81
232.541	72.81
232.775	77.81
233.009	86.81
233.243	69.81
233.477	76.81
233.711	88.81
233.945	65.81
234.179	86.81
234.413	81.81
234.647	71.81
234.881	63.81
235.115	91.81
235.349	75.81
235.583	87.81
235.817	69.81
236.051	82.81
236.285	86.81
236.519	85.81
236.753	76.81
236.987	84.81
237.221	85.81
237.455	74.81
237.689	71.81
237.922	79.81
238.156	75.81
238.39	67.81
238.624	83.81
238.858	69.81
239.091	75.81
239.325	67.81
239.559	76.81
239.793	85.81
240.027	87.81
240.26	92.81
240.494	68.81
240.728	84.81
240.961	73.81
241.195	82.81
241.429	80.81
241.662	60.81
241.896	70.81
242.13	88.81
242.363	83.81
242.597	79.81
242.83	74.81
243.064	70.81
243.298	80.81
243.531	75.81
243.765	83.81
243.998	83.81
244.232	79.81
244.465	81.81
244.699	70.81
244.932	82.81
245.166	77.81
245.399	81.81
245.633	78.81
245.866	60.81
246.099	68.81
246.333	74.81
246.566	92.81
246.8	84.81
247.033	78.81
247.266	87.81
247.5	79.81
247.733	84.81
247.966	74.81
248.2	86.81
248.433	66.81
248.666	81.81
248.899	78.81
249.133	83.81
249.366	93.81
249.599	101.81
249.832	84.81
250.066	88.81
250.299	81.81
250.532	86.81
250.765	84.81
250.998	78.81
251.231	90.81
251.465	89.81
251.698	78.81
251.931	90.81
252.164	89.81
252.397	86.81
252.63	96.81
252.863	72.81
253.096	80.81
253.329	81.81
253.562	71.81
253.795	73.81
254.028	71.81
254.261	84.81
254.494	78.81
254.727	80.81
254.96	75.81
255.193	76.81
255.426	68.81
255.659	74.81
255.892	75.81
256.124	78.81
256.357	82.81
256.59	71.81
256.823	67.81
257.056	75.81
257.289	86.81
257.521	82.81
257.754	79.81
257.987	76.81
258.22	87.81
258.452	75.81
258.685	88.81
258.918	71.81
259.151	76.81
259.383	79.81
259.616	86.81
259.849	79.81
260.081	91.81
260.314	83.81
260.547	84.81
260.779	80.81
261.012	77.81
261.244	79.81
261.477	83.81
261.71	96.81
261.942	99.81
262.175	108.81
262.407	86.81
262.64	83.81
262.872	81.81
263.105	99.81
263.337	80.81
263.57	90.81
263.802	88.81
264.035	89.81
264.267	95.81
264.499	91.81
264.732	83.81
264.964	95.81
265.197	82.81
265.429	78.81
265.661	78.81
265.894	93.81
266.126	94.81
266.358	80.81
266.591	79.81
266.823	82.81
267.055	71.81
267.287	87.81
267.52	90.81
267.752	79.81
267.984	81.81
268.216	88.81
268.448	92.81
268.681	79.81
268.913	62.81
269.145	77.81
269.377	84.81
269.609	76.81
269.841	82.81
270.073	91.81
270.306	78.81
270.538	89.81
270.77	87.81
271.002	91.81
271.234	96.81
271.466	93.81
271.698	86.81
271.93	82.81
272.162	88.81
272.394	81.81
272.626	85.81
272.858	72.81
273.09	82.81
273.322	80.81
273.553	78.81
273.785	85.81
274.017	95.81
274.249	77.81
274.481	76.81
274.713	83.81
274.945	86.81
275.176	87.81
275.408	84.81
275.64	69.81
275.872	79.81
276.104	79.81
276.335	90.81
276.567	99.81
276.799	94.81
277.031	96.81
277.262	92.81
277.494	95.81
277.726	93.81
277.957	78.81
278.189	90.81
278.421	82.81
278.652	80.81
278.884	102.81
279.115	76.81
279.347	89.81
279.579	87.81
279.81	81.81
280.042	98.81
280.273	92.81
280.505	89.81
280.736	100.81
280.968	86.81
281.199	90.81
281.431	89.81
281.662	87.81
281.894	91.81
282.125	104.81
282.356	109.81
282.588	119.81
282.819	119.81
283.051	81.81
283.282	88.81
283.513	87.81
283.745	105.81
283.976	97.81
284.207	92.81
284.439	89.81
284.67	100.81
284.901	80.81
285.132	72.81
285.364	83.81
285.595	87.81
285.826	78.81
286.057	91.81
286.288	83.81
286.52	101.81
286.751	75.81
286.982	94.81
287.213	90.81
287.444	76.81
287.675	97.81
287.906	101.81
288.138	93.81
288.369	110.81
288.6	90.81
288.831	73.81
289.062	85.81
289.293	90.81
289.524	85.81
289.755	82.81
289.986	92.81
290.217	87.81
290.448	92.81
290.679	91.81
290.91	100.81
291.141	82.81
291.371	86.81
291.602	98.81
291.833	86.81
292.064	78.81
292.295	92.81
292.526	90.81
292.757	94.81
292.987	93.81
293.218	76.81
293.449	93.81
293.68	88.81
293.91	90.81
294.141	76.81
294.372	85.81
294.603	91.81
294.833	87.81
295.064	86.81
295.295	88.81
295.525	80.81
295.756	102.81
295.987	98.81
296.217	127.81
296.448	129.81
296.679	90.81
296.909	83.81
297.14	82.81
297.37	103.81
297.601	91.81
297.831	90.81
298.062	84.81
298.292	93.81
298.523	77.81
298.753	70.81
298.984	84.81
299.214	88.81
299.445	89.81
299.675	96.81
299.905	92.81
300.136	91.81
300.366	85.81
300.597	82.81
300.827	85.81
301.057	105.81
301.288	91.81
301.518	88.81
301.748	87.81
301.979	99.81
302.209	94.81
302.439	87.81
302.669	97.81
302.9	88.81
303.13	90.81
303.36	92.81
303.59	89.81
303.82	99.81
304.051	91.81
304.281	89.81
304.511	91.81
304.741	88.81
304.971	92.81
305.201	118.81
305.431	93.81
305.661	94.81
305.891	99.81
306.121	113.81
306.352	92.81
306.582	95.81
306.812	99.81
307.042	100.81
307.272	99.81
307.502	107.81
307.731	93.81
307.961	95.81
308.191	88.81
308.421	79.81
308.651	101.81
308.881	84.81
309.111	88.81
309.341	89.81
309.571	91.81
309.8	83.81
310.03	98.81
310.26	92.81
310.49	95.81
310.72	102.81
310.949	95.81
311.179	78.81
311.409	86.81
311.639	96.81
311.868	94.81
312.098	95.81
312.328	90.81
312.557	95.81
312.787	88.81
313.017	88.81
313.246	98.81
313.476	87.81
313.706	86.81
313.935	87.81
314.165	83.81
314.394	91.81
314.624	81.81
314.853	96.81
315.083	86.81
315.312	94.81
315.542	92.81
315.771	84.81
316.001	87.81
316.23	92.81
316.46	93.81
316.689	92.81
316.919	95.81
317.148	90.81
317.377	91.81
317.607	73.81
317.836	97.81
318.065	88.81
318.295	90.81
318.524	96.81
318.753	98.81
318.983	85.81
319.212	98.81
319.441	117.81
319.67	92.81
319.9	90.81
320.129	75.81
320.358	91.81
320.587	91.81
320.816	102.81
321.046	79.81
321.275	92.81
321.504	89.81
321.733	104.81
321.962	106.81
322.191	93.81
322.42	100.81
322.649	113.81
322.878	103.81
323.108	117.81
323.337	116.81
323.566	130.81
323.795	145.81
324.024	185.81
324.253	371.81
324.482	710.81
324.71	1404.81
324.939	1838.81
325.168	672.81
325.397	208.81
325.626	145.81
325.855	115.81
326.084	124.81
326.313	116.81
326.542	131.81
326.77	200.81
326.999	399.81
327.228	808.81
327.457	1453.81
327.686	1156.81
327.914	318.81
328.143	174.81
328.372	146.81
328.6	130.81
328.829	118.81
329.058	124.81
329.287	116.81
329.515	109.81
329.744	105.81
329.972	103.81
330.201	106.81
330.43	114.81
330.658	123.81
330.887	128.81
331.115	108.81
331.344	95.81
331.572	98.81
331.801	99.81
332.03	93.81
332.258	89.81
332.486	92.81
332.715	84.81
332.943	91.81
333.172	90.81
333.4	95.81
333.629	107.81
333.857	96.81
334.085	99.81
334.314	94.81
334.542	123.81
334.771	120.81
334.999	89.81
335.227	92.81
335.455	80.81
335.684	97.81
335.912	89.81
336.14	94.81
336.369	87.81
336.597	110.81
336.825	93.81
337.053	83.81
337.281	104.81
337.51	106.81
337.738	91.81
337.966	93.81
338.194	92.81
338.422	92.81
338.65	100.81
338.878	94.81
339.106	91.81
339.334	96.81
339.562	104.81
339.79	91.81
340.018	93.81
340.246	103.81
340.474	80.81
340.702	94.81
340.93	102.81
341.158	98.81
341.386	88.81
341.614	87.81
341.842	100.81
342.07	81.81
342.298	92.81
342.526	87.81
342.754	70.81
342.981	81.81
343.209	96.81
343.437	90.81
343.665	84.81
343.893	99.81
344.12	100.81
344.348	91.81
344.576	93.81
344.804	90.81
345.031	87.81
345.259	96.81
345.487	107.81
345.714	97.81
345.942	83.81
346.17	78.81
346.397	82.81
346.625	106.81
346.853	89.81
347.08	94.81
347.308	100.81
347.535	90.81
347.763	110.81
347.99	87.81
348.218	98.81
348.445	103.81
348.673	90.81
348.9	92.81
349.128	89.81
349.355	91.81
349.583	89.81
349.81	96.81
350.037	102.81
350.265	103.81
350.492	90.81
350.72	93.81
350.947	83.81
351.174	103.81
351.402	130.81
351.629	100.81
351.856	96.81
352.083	102.81
352.311	99.81
352.538	104.81
352.765	103.81
352.992	105.81
353.22	95.81
353.447	112.81
353.674	105.81
353.901	102.81
354.128	119.81
354.355	105.81
354.583	104.81
354.81	96.81
355.037	84.81
355.264	92.81
355.491	105.81
355.718	73.81
355.945	96.81
356.172	92.81
356.399	90.81
356.626	88.81
356.853	98.81
357.08	94.81
357.307	84.81
357.534	87.81
357.761	98.81
357.988	86.81
358.215	86.81
358.441	104.81
358.668	75.81
358.895	98.81
359.122	89.81
359.349	95.81
359.576	105.81
359.802	99.81
360.029	107.81
360.256	112.81
360.483	98.81
360.709	95.81
360.936	105.81
361.163	96.81
361.39	106.81
361.616	100.81
361.843	87.81
362.07	84.81
362.296	96.81
362.523	73.81
362.749	84.81
362.976	82.81
363.203	92.81
363.429	83.81
363.656	87.81
363.882	101.81
364.109	91.81
364.335	93.81
364.562	92.81
364.788	96.81
365.015	93.81
365.241	87.81
365.468	96.81
365.694	103.81
365.92	99.81
366.147	104.81
366.373	98.81
366.599	100.81
366.826	96.81
367.052	78.81
367.278	106.81
367.505	95.81
367.731	85.81
367.957	101.81
368.184	92.81
368.41	90.81
368.636	109.81
368.862	111.81
369.089	102.81
369.315	106.81
369.541	92.81
369.767	94.81
369.993	82.81
370.219	88.81
370.445	85.81
370.672	88.81
370.898	95.81
371.124	87.81
371.35	90.81
371.576	89.81
371.802	87.81
372.028	90.81
372.254	95.81
372.48	81.81
372.706	73.81
372.932	87.81
373.158	93.81
373.384	92.81
373.61	91.81
373.835	90.81
374.061	89.81
374.287	87.81
374.513	76.81
374.739	97.81
374.965	92.81
375.191	92.81
375.416	90.81
375.642	113.81
375.868	97.81
376.094	82.81
376.319	86.81
376.545	81.81
376.771	83.81
376.997	79.81
377.222	72.81
377.448	99.81
377.674	89.81
377.899	83.81
378.125	80.81
378.35	91.81
378.576	79.81
378.802	84.81
379.027	99.81
379.253	101.81
379.478	92.81
379.704	99.81
379.929	87.81
380.155	104.81
380.38	91.81
380.606	78.81
380.831	72.81
381.057	102.81
381.282	94.81
381.507	95.81
381.733	103.81
381.958	87.81
382.184	95.81
382.409	106.81
382.634	112.81
382.86	99.81
383.085	101.81
383.31	99.81
383.535	95.81
383.761	103.81
383.986	100.81
384.211	95.81
384.436	106.81
384.662	114.81
384.887	102.81
385.112	114.81
385.337	114.81
385.562	103.81
385.787	113.81
386.013	96.81
386.238	94.81
386.463	104.81
386.688	102.81
386.913	105.81
387.138	98.81
387.363	107.81
387.588	111.81
387.813	90.81
388.038	98.81
388.263	123.81
388.488	99.81
388.713	102.81
388.938	98.81
389.163	100.81
389.387	100.81
389.612	82.81
389.837	85.81
390.062	89.81
390.287	88.81
390.512	97.81
390.736	81.81
390.961	84.81
391.186	94.81
391.411	103.81
391.636	89.81
391.86	82.81
392.085	77.81
392.31	97.81
392.534	87.81
392.759	80.81
392.984	89.81
393.208	88.81
393.433	92.81
393.658	99.81
393.882	79.81
394.107	87.81
394.331	81.81
394.556	76.81
394.78	89.81
395.005	93.81
395.229	86.81
395.454	89.81
395.678	86.81
395.903	86.81
396.127	100.81
396.352	83.81
396.576	78.81
396.801	97.81
397.025	88.81
397.249	82.81
397.474	85.81
397.698	80.81
397.922	90.81
398.147	86.81
398.371	86.81
398.595	83.81
398.82	78.81
399.044	89.81
399.268	90.81
399.492	95.81
399.717	99.81
399.941	84.81
400.165	78.81
400.389	82.81
400.613	102.81
400.837	92.81
401.062	81.81
401.286	92.81
401.51	99.81
401.734	80.81
401.958	90.81
402.182	115.81
402.406	139.81
402.63	109.81
402.854	84.81
403.078	84.81
403.302	72.81
403.526	74.81
403.75	95.81
403.974	82.81
404.198	73.81
404.422	86.81
404.645	90.81
404.869	87.81
405.093	88.81
405.317	95.81
405.541	86.81
405.765	102.81
405.988	114.81
406.212	160.81
406.436	199.81
406.66	146.81
406.883	100.81
407.107	91.81
407.331	96.81
407.555	98.81
407.778	90.81
408.002	92.81
408.226	87.81
408.449	75.81
408.673	97.81
408.896	105.81
409.12	95.81
409.344	100.81
409.567	81.81
409.791	81.81
410.014	91.81
410.238	104.81
410.461	91.81
410.685	99.81
410.908	88.81
411.132	90.81
411.355	94.81
411.578	80.81
411.802	107.81
412.025	88.81
412.249	84.81
412.472	102.81
412.695	95.81
412.919	87.81
413.142	87.81
413.365	80.81
413.589	79.81
413.812	93.81
414.035	102.81
414.258	91.81
414.482	85.81
414.705	95.81
414.928	83.81
415.151	85.81
415.374	75.81
415.597	91.81
415.821	90.81
416.044	100.81
416.267	86.81
416.49	74.81
416.713	91.81
416.936	93.81
417.159	83.81
417.382	85.81
417.605	86.81
417.828	93.81
418.051	96.81
418.274	87.81
418.497	96.81
418.72	96.81
418.943	87.81
419.166	81.81
419.389	78.81
419.611	84.81
419.834	94.81
420.057	91.81
420.28	90.81
420.503	87.81
420.726	90.81
420.948	81.81
421.171	89.81
421.394	86.81
421.617	98.81
421.839	85.81
422.062	94.81
422.285	83.81
422.507	93.81
422.73	94.81
422.953	88.81
423.175	91.81
423.398	87.81
423.621	76.81
423.843	78.81
424.066	96.81
424.288	96.81
424.511	105.81
424.733	91.81
424.956	88.81
425.178	90.81
425.401	91.81
425.623	105.81
425.846	100.81
426.068	82.81
426.291	95.81
426.513	94.81
426.735	92.81
426.958	91.81
427.18	99.81
427.402	127.81
427.625	145.81
427.847	106.81
428.069	107.81
428.292	90.81
428.514	81.81
428.736	77.81
428.958	85.81
429.181	80.81
429.403	71.81
429.625	81.81
429.847	84.81
430.069	89.81
430.292	112.81
430.514	75.81
430.736	98.81
430.958	95.81
431.18	88.81
431.402	89.81
431.624	89.81
431.846	90.81
432.068	97.81
432.29	94.81
432.512	91.81
432.734	84.81
432.956	108.81
433.178	106.81
433.4	100.81
433.622	86.81
433.844	90.81
434.066	80.81
434.287	92.81
434.509	84.81
434.731	83.81
434.953	92.81
435.175	84.81
435.397	91.81
435.618	82.81
435.84	91.81
436.062	111.81
436.284	104.81
436.505	102.81
436.727	80.81
436.949	101.81
437.17	87.81
437.392	93.81
437.614	96.81
437.835	98.81
438.057	92.81
438.278	97.81
438.5	90.81
438.721	106.81
438.943	95.81
439.165	96.81
439.386	92.81
439.608	74.81
439.829	91.81
440.05	111.81
440.272	133.81
440.493	87.81
440.715	86.81
440.936	80.81
441.158	109.81
441.379	86.81
441.6	91.81
441.822	102.81
442.043	91.81
442.264	87.81
442.486	99.81
442.707	90.81
442.928	94.81
443.149	106.81
443.371	115.81
443.592	101.81
443.813	90.81
444.034	99.81
444.255	82.81
444.476	90.81
444.698	85.81
444.919	88.81
445.14	136.81
445.361	107.81
445.582	120.81
445.803	135.81
446.024	126.81
446.245	112.81
446.466	111.81
446.687	101.81
446.908	83.81
447.129	82.81
447.35	88.81
447.571	80.81
447.792	103.81
448.013	97.81
448.234	90.81
448.455	109.81
448.675	104.81
448.896	118.81
449.117	99.81
449.338	102.81
449.559	123.81
449.779	123.81
450	94.81
450.221	91.81
450.442	99.81
450.662	98.81
450.883	108.81
451.104	99.81
451.324	104.81
451.545	74.81
451.766	85.81
451.986	96.81
452.207	85.81
452.428	92.81
452.648	94.81
452.869	120.81
453.089	89.81
453.31	113.81
453.53	83.81
453.751	84.81
453.971	104.81
454.192	113.81
454.412	99.81
454.633	90.81
454.853	105.81
455.073	87.81
455.294	98.81
455.514	90.81
455.734	87.81
455.955	84.81
456.175	82.81
456.395	83.81
456.616	87.81
456.836	94.81
457.056	91.81
457.276	78.81
457.497	81.81
457.717	86.81
457.937	92.81
458.157	92.81
458.377	81.81
458.598	94.81
458.818	131.81
459.038	142.81
459.258	113.81
459.478	98.81
459.698	80.81
459.918	75.81
460.138	84.81
460.358	89.81
460.578	79.81
460.798	89.81
461.018	92.81
461.238	89.81
461.458	92.81
461.678	82.81
461.898	81.81
462.118	74.81
462.338	82.81
462.558	91.81
462.777	83.81
462.997	83.81
463.217	85.81
463.437	88.81
463.657	87.81
463.876	95.81
464.096	69.81
464.316	84.81
464.536	92.81
464.755	99.81
464.975	96.81
465.195	138.81
465.414	129.81
465.634	92.81
465.854	78.81
466.073	87.81
466.293	87.81
466.512	90.81
466.732	86.81
466.951	90.81
467.171	101.81
467.391	81.81
467.61	104.81
467.829	91.81
468.049	97.81
468.268	90.81
468.488	82.81
468.707	76.81
468.927	85.81
469.146	73.81
469.365	85.81
469.585	84.81
469.804	94.81
470.023	81.81
470.243	95.81
470.462	91.81
470.681	97.81
470.901	70.81
471.12	91.81
471.339	81.81
471.558	85.81
471.777	94.81
471.997	74.81
472.216	79.81
472.435	124.81
472.654	94.81
472.873	89.81
473.092	79.81
473.311	78.81
473.53	84.81
473.749	79.81
473.968	105.81
474.187	111.81
474.406	94.81
474.625	89.81
474.844	85.81
475.063	88.81
475.282	92.81
475.501	81.81
475.72	99.81
475.939	84.81
476.158	89.81
476.377	91.81
476.596	70.81
476.814	96.81
477.033	96.81
477.252	78.81
477.471	79.81
477.69	80.81
477.908	92.81
478.127	79.81
478.346	84.81
478.564	99.81
478.783	100.81
479.002	85.81
479.22	87.81
479.439	94.81
479.658	104.81
479.876	95.81
480.095	79.81
480.313	107.81
480.532	96.81
480.751	97.81
480.969	92.81
481.188	149.81
481.406	133.81
481.624	97.81
481.843	96.81
482.061	80.81
482.28	111.81
482.498	93.81
482.717	89.81
482.935	87.81
483.153	87.81
483.372	72.81
483.59	87.81
483.808	95.81
484.027	92.81
484.245	104.81
484.463	92.81
484.681	87.81
484.9	98.81
485.118	87.81
485.336	102.81
485.554	101.81
485.772	111.81
485.99	105.81
486.209	104.81
486.427	99.81
486.645	113.81
486.863	106.81
487.081	101.81
487.299	91.81
487.517	84.81
487.735	86.81
487.953	104.81
488.171	100.81
488.389	83.81
488.607	94.81
488.825	92.81
489.043	96.81
489.261	102.81
489.479	76.81
489.696	82.81
489.914	91.81
490.132	84.81
490.35	92.81
490.568	97.81
490.786	95.81
491.003	106.81
491.221	92.81
491.439	82.81
491.657	88.81
491.874	87.81
492.092	95.81
492.31	82.81
492.527	91.81
492.745	97.81
492.963	103.81
493.18	84.81
493.398	78.81
493.615	87.81
493.833	94.81
494.05	96.81
494.268	82.81
494.485	97.81
494.703	86.81
494.92	90.81
495.138	96.81
495.355	83.81
495.573	98.81
495.79	95.81
496.008	95.81
496.225	85.81
496.442	82.81
496.66	94.81
496.877	96.81
497.094	80.81
497.312	91.81
497.529	98.81
497.746	87.81
497.963	87.81
498.181	94.81
498.398	102.81
498.615	103.81
498.832	101.81
499.049	91.81
499.267	88.81
499.484	94.81
499.701	82.81
499.918	95.81
500.135	88.81
500.352	95.81
500.569	86.81
500.786	98.81
501.003	89.81
501.22	92.81
501.437	94.81
501.654	96.81
501.871	110.81
502.088	92.81
502.305	96.81
502.522	99.81
502.739	94.81
502.956	87.81
503.172	104.81
503.389	76.81
503.606	101.81
503.823	97.81
504.04	91.81
504.256	86.81
504.473	84.81
504.69	74.81
504.907	89.81
505.123	92.81
505.34	90.81
505.557	80.81
505.773	86.81
505.99	77.81
506.207	81.81
506.423	84.81
506.64	97.81
506.856	90.81
507.073	91.81
507.289	83.81
507.506	91.81
507.722	119.81
507.939	99.81
508.155	96.81
508.372	73.81
508.588	94.81
508.805	94.81
509.021	92.81
509.238	89.81
509.454	84.81
509.67	93.81
509.887	108.81
510.103	109.81
510.319	179.81
510.536	590.81
510.752	1817.81
510.968	542.81
511.184	136.81
511.401	100.81
511.617	95.81
511.833	105.81
512.049	92.81
512.265	83.81
512.481	85.81
512.698	85.81
512.914	83.81
513.13	96.81
513.346	93.81
513.562	89.81
513.778	92.81
513.994	105.81
514.21	90.81
514.426	87.81
514.642	109.81
514.858	110.81
515.074	132.81
515.29	343.81
515.506	1132.81
515.721	425.81
515.937	146.81
516.153	104.81
516.369	92.81
