Data from Circ_2002_H10_HRD10591_00097.txt Node
Date: Wed Jan 03 10:41:17 EST 2024
User: Yrep
Spectrometer: HR+D1059
Trigger mode: 1
Integration Time (sec): 1.000000E-1
Scans to average: 1
Electric dark correction enabled: true
Nonlinearity correction enabled: false
Boxcar width: 0
XAxis mode: Wavelengths
Number of Pixels in Spectrum: 2048
>>>>>Begin Spectral Data<<<<<
223.165	-18.19
223.4	-18.19
223.635	-18.19
223.869	-11.19
224.104	-23.19
224.338	-19.19
224.573	-11.19
224.808	-0.19
225.042	-11.19
225.277	-3.19
225.511	-8.19
225.746	13.81
225.98	-9.19
226.215	2.81
226.449	9.81
226.683	14.81
226.918	39.81
227.152	33.81
227.387	28.81
227.621	32.81
227.856	41.81
228.09	44.81
228.324	39.81
228.559	62.81
228.793	63.81
229.027	64.81
229.262	62.81
229.496	65.81
229.73	69.81
229.964	80.81
230.199	82.81
230.433	76.81
230.667	66.81
230.901	74.81
231.136	70.81
231.37	85.81
231.604	66.81
231.838	65.81
232.072	78.81
232.306	80.81
232.541	76.81
232.775	69.81
233.009	96.81
233.243	78.81
233.477	90.81
233.711	85.81
233.945	70.81
234.179	87.81
234.413	75.81
234.647	94.81
234.881	87.81
235.115	61.81
235.349	84.81
235.583	79.81
235.817	78.81
236.051	76.81
236.285	69.81
236.519	86.81
236.753	72.81
236.987	78.81
237.221	75.81
237.455	89.81
237.689	75.81
237.922	78.81
238.156	69.81
238.39	66.81
238.624	81.81
238.858	75.81
239.091	85.81
239.325	74.81
239.559	82.81
239.793	75.81
240.027	78.81
240.26	73.81
240.494	84.81
240.728	80.81
240.961	63.81
241.195	75.81
241.429	79.81
241.662	71.81
241.896	70.81
242.13	64.81
242.363	81.81
242.597	67.81
242.83	81.81
243.064	76.81
243.298	69.81
243.531	78.81
243.765	74.81
243.998	77.81
244.232	85.81
244.465	79.81
244.699	72.81
244.932	79.81
245.166	66.81
245.399	73.81
245.633	77.81
245.866	69.81
246.099	66.81
246.333	73.81
246.566	82.81
246.8	71.81
247.033	80.81
247.266	81.81
247.5	61.81
247.733	75.81
247.966	79.81
248.2	77.81
248.433	70.81
248.666	73.81
248.899	79.81
249.133	87.81
249.366	90.81
249.599	90.81
249.832	76.81
250.066	86.81
250.299	79.81
250.532	67.81
250.765	87.81
250.998	86.81
251.231	73.81
251.465	72.81
251.698	76.81
251.931	61.81
252.164	69.81
252.397	75.81
252.63	72.81
252.863	68.81
253.096	84.81
253.329	73.81
253.562	83.81
253.795	77.81
254.028	74.81
254.261	90.81
254.494	73.81
254.727	76.81
254.96	74.81
255.193	78.81
255.426	83.81
255.659	92.81
255.892	74.81
256.124	94.81
256.357	83.81
256.59	76.81
256.823	76.81
257.056	88.81
257.289	78.81
257.521	67.81
257.754	86.81
257.987	85.81
258.22	92.81
258.452	76.81
258.685	87.81
258.918	84.81
259.151	72.81
259.383	80.81
259.616	69.81
259.849	72.81
260.081	90.81
260.314	65.81
260.547	91.81
260.779	80.81
261.012	77.81
261.244	80.81
261.477	79.81
261.71	99.81
261.942	114.81
262.175	106.81
262.407	106.81
262.64	92.81
262.872	85.81
263.105	101.81
263.337	78.81
263.57	95.81
263.802	83.81
264.035	81.81
264.267	79.81
264.499	80.81
264.732	89.81
264.964	76.81
265.197	74.81
265.429	78.81
265.661	89.81
265.894	97.81
266.126	82.81
266.358	84.81
266.591	80.81
266.823	81.81
267.055	75.81
267.287	66.81
267.52	82.81
267.752	74.81
267.984	88.81
268.216	68.81
268.448	87.81
268.681	75.81
268.913	77.81
269.145	84.81
269.377	86.81
269.609	88.81
269.841	77.81
270.073	86.81
270.306	73.81
270.538	86.81
270.77	82.81
271.002	86.81
271.234	85.81
271.466	88.81
271.698	90.81
271.93	80.81
272.162	80.81
272.394	82.81
272.626	94.81
272.858	91.81
273.09	84.81
273.322	76.81
273.553	78.81
273.785	76.81
274.017	73.81
274.249	77.81
274.481	78.81
274.713	81.81
274.945	98.81
275.176	83.81
275.408	92.81
275.64	96.81
275.872	78.81
276.104	78.81
276.335	96.81
276.567	99.81
276.799	114.81
277.031	104.81
277.262	96.81
277.494	82.81
277.726	92.81
277.957	90.81
278.189	88.81
278.421	77.81
278.652	65.81
278.884	82.81
279.115	74.81
279.347	95.81
279.579	90.81
279.81	89.81
280.042	86.81
280.273	89.81
280.505	84.81
280.736	79.81
280.968	84.81
281.199	85.81
281.431	67.81
281.662	77.81
281.894	86.81
282.125	90.81
282.356	118.81
282.588	136.81
282.819	108.81
283.051	85.81
283.282	88.81
283.513	86.81
283.745	95.81
283.976	76.81
284.207	76.81
284.439	85.81
284.67	85.81
284.901	87.81
285.132	95.81
285.364	100.81
285.595	84.81
285.826	69.81
286.057	74.81
286.288	84.81
286.52	96.81
286.751	69.81
286.982	88.81
287.213	72.81
287.444	83.81
287.675	88.81
287.906	75.81
288.138	84.81
288.369	86.81
288.6	97.81
288.831	85.81
289.062	83.81
289.293	90.81
289.524	82.81
289.755	82.81
289.986	84.81
290.217	88.81
290.448	90.81
290.679	77.81
290.91	84.81
291.141	90.81
291.371	84.81
291.602	85.81
291.833	84.81
292.064	90.81
292.295	70.81
292.526	93.81
292.757	84.81
292.987	88.81
293.218	93.81
293.449	78.81
293.68	89.81
293.91	79.81
294.141	76.81
294.372	87.81
294.603	86.81
294.833	89.81
295.064	86.81
295.295	91.81
295.525	81.81
295.756	94.81
295.987	119.81
296.217	132.81
296.448	124.81
296.679	100.81
296.909	84.81
297.14	70.81
297.37	77.81
297.601	91.81
297.831	87.81
298.062	86.81
298.292	87.81
298.523	88.81
298.753	87.81
298.984	99.81
299.214	79.81
299.445	73.81
299.675	105.81
299.905	82.81
300.136	86.81
300.366	85.81
300.597	84.81
300.827	89.81
301.057	92.81
301.288	101.81
301.518	84.81
301.748	88.81
301.979	98.81
302.209	89.81
302.439	101.81
302.669	93.81
302.9	93.81
303.13	76.81
303.36	96.81
303.59	106.81
303.82	108.81
304.051	94.81
304.281	91.81
304.511	99.81
304.741	78.81
304.971	84.81
305.201	84.81
305.431	79.81
305.661	80.81
305.891	85.81
306.121	89.81
306.352	110.81
306.582	97.81
306.812	91.81
307.042	95.81
307.272	96.81
307.502	96.81
307.731	95.81
307.961	89.81
308.191	83.81
308.421	77.81
308.651	86.81
308.881	98.81
309.111	83.81
309.341	87.81
309.571	97.81
309.8	91.81
310.03	93.81
310.26	97.81
310.49	102.81
310.72	86.81
310.949	94.81
311.179	90.81
311.409	81.81
311.639	96.81
311.868	90.81
312.098	97.81
312.328	95.81
312.557	100.81
312.787	94.81
313.017	97.81
313.246	87.81
313.476	86.81
313.706	105.81
313.935	103.81
314.165	105.81
314.394	99.81
314.624	91.81
314.853	81.81
315.083	83.81
315.312	89.81
315.542	88.81
315.771	105.81
316.001	77.81
316.23	81.81
316.46	88.81
316.689	79.81
316.919	96.81
317.148	90.81
317.377	97.81
317.607	111.81
317.836	81.81
318.065	92.81
318.295	96.81
318.524	95.81
318.753	88.81
318.983	97.81
319.212	94.81
319.441	103.81
319.67	108.81
319.9	98.81
320.129	87.81
320.358	87.81
320.587	103.81
320.816	93.81
321.046	95.81
321.275	103.81
321.504	92.81
321.733	101.81
321.962	90.81
322.191	97.81
322.42	85.81
322.649	102.81
322.878	114.81
323.108	102.81
323.337	115.81
323.566	119.81
323.795	152.81
324.024	185.81
324.253	380.81
324.482	790.81
324.71	1586.81
324.939	2126.81
325.168	782.81
325.397	241.81
325.626	153.81
325.855	115.81
326.084	113.81
326.313	132.81
326.542	145.81
326.77	222.81
326.999	455.81
327.228	917.81
327.457	1623.81
327.686	1304.81
327.914	365.81
328.143	182.81
328.372	158.81
328.6	111.81
328.829	111.81
329.058	126.81
329.287	120.81
329.515	113.81
329.744	101.81
329.972	95.81
330.201	130.81
330.43	175.81
330.658	142.81
330.887	138.81
331.115	127.81
331.344	114.81
331.572	116.81
331.801	96.81
332.03	83.81
332.258	85.81
332.486	86.81
332.715	98.81
332.943	97.81
333.172	96.81
333.4	102.81
333.629	100.81
333.857	112.81
334.085	120.81
334.314	142.81
334.542	211.81
334.771	177.81
334.999	115.81
335.227	79.81
335.455	83.81
335.684	101.81
335.912	85.81
336.14	101.81
336.369	103.81
336.597	96.81
336.825	96.81
337.053	93.81
337.281	92.81
337.51	96.81
337.738	94.81
337.966	88.81
338.194	81.81
338.422	91.81
338.65	94.81
338.878	93.81
339.106	79.81
339.334	84.81
339.562	92.81
339.79	102.81
340.018	85.81
340.246	95.81
340.474	89.81
340.702	101.81
340.93	89.81
341.158	95.81
341.386	95.81
341.614	101.81
341.842	94.81
342.07	88.81
342.298	85.81
342.526	97.81
342.754	79.81
342.981	103.81
343.209	91.81
343.437	93.81
343.665	86.81
343.893	91.81
344.12	83.81
344.348	91.81
344.576	77.81
344.804	79.81
345.031	86.81
345.259	96.81
345.487	104.81
345.714	83.81
345.942	78.81
346.17	84.81
346.397	97.81
346.625	80.81
346.853	84.81
347.08	105.81
347.308	98.81
347.535	97.81
347.763	103.81
347.99	95.81
348.218	81.81
348.445	102.81
348.673	90.81
348.9	80.81
349.128	89.81
349.355	82.81
349.583	90.81
349.81	96.81
350.037	93.81
350.265	92.81
350.492	97.81
350.72	110.81
350.947	100.81
351.174	106.81
351.402	96.81
351.629	95.81
351.856	87.81
352.083	104.81
352.311	86.81
352.538	98.81
352.765	126.81
352.992	110.81
353.22	106.81
353.447	96.81
353.674	104.81
353.901	104.81
354.128	93.81
354.355	72.81
354.583	90.81
354.81	97.81
355.037	89.81
355.264	79.81
355.491	98.81
355.718	87.81
355.945	84.81
356.172	90.81
356.399	77.81
356.626	97.81
356.853	97.81
357.08	82.81
357.307	89.81
357.534	96.81
357.761	88.81
357.988	95.81
358.215	93.81
358.441	80.81
358.668	93.81
358.895	80.81
359.122	75.81
359.349	77.81
359.576	89.81
359.802	88.81
360.029	101.81
360.256	99.81
360.483	94.81
360.709	92.81
360.936	96.81
361.163	98.81
361.39	108.81
361.616	88.81
361.843	92.81
362.07	87.81
362.296	95.81
362.523	92.81
362.749	86.81
362.976	92.81
363.203	98.81
363.429	79.81
363.656	94.81
363.882	88.81
364.109	82.81
364.335	88.81
364.562	94.81
364.788	97.81
365.015	102.81
365.241	98.81
365.468	105.81
365.694	102.81
365.92	88.81
366.147	84.81
366.373	77.81
366.599	77.81
366.826	81.81
367.052	80.81
367.278	90.81
367.505	102.81
367.731	80.81
367.957	90.81
368.184	97.81
368.41	110.81
368.636	105.81
368.862	117.81
369.089	101.81
369.315	80.81
369.541	86.81
369.767	92.81
369.993	94.81
370.219	94.81
370.445	87.81
370.672	90.81
370.898	89.81
371.124	85.81
371.35	80.81
371.576	85.81
371.802	85.81
372.028	90.81
372.254	85.81
372.48	89.81
372.706	91.81
372.932	83.81
373.158	83.81
373.384	83.81
373.61	86.81
373.835	94.81
374.061	95.81
374.287	74.81
374.513	87.81
374.739	88.81
374.965	92.81
375.191	90.81
375.416	88.81
375.642	97.81
375.868	87.81
376.094	93.81
376.319	84.81
376.545	87.81
376.771	76.81
376.997	86.81
377.222	84.81
377.448	84.81
377.674	84.81
377.899	76.81
378.125	99.81
378.35	81.81
378.576	90.81
378.802	85.81
379.027	105.81
379.253	93.81
379.478	80.81
379.704	86.81
379.929	84.81
380.155	83.81
380.38	82.81
380.606	91.81
380.831	99.81
381.057	102.81
381.282	102.81
381.507	96.81
381.733	91.81
381.958	98.81
382.184	101.81
382.409	82.81
382.634	82.81
382.86	85.81
383.085	96.81
383.31	84.81
383.535	73.81
383.761	88.81
383.986	102.81
384.211	104.81
384.436	93.81
384.662	100.81
384.887	93.81
385.112	105.81
385.337	115.81
385.562	86.81
385.787	105.81
386.013	99.81
386.238	94.81
386.463	96.81
386.688	105.81
386.913	96.81
387.138	78.81
387.363	98.81
387.588	87.81
387.813	105.81
388.038	93.81
388.263	112.81
388.488	101.81
388.713	92.81
388.938	91.81
389.163	89.81
389.387	79.81
389.612	101.81
389.837	85.81
390.062	85.81
390.287	94.81
390.512	79.81
390.736	80.81
390.961	95.81
391.186	89.81
391.411	87.81
391.636	87.81
391.86	87.81
392.085	80.81
392.31	87.81
392.534	87.81
392.759	73.81
392.984	75.81
393.208	91.81
393.433	86.81
393.658	87.81
393.882	85.81
394.107	99.81
394.331	73.81
394.556	65.81
394.78	82.81
395.005	95.81
395.229	90.81
395.454	81.81
395.678	93.81
395.903	86.81
396.127	90.81
396.352	100.81
396.576	71.81
396.801	79.81
397.025	86.81
397.249	84.81
397.474	64.81
397.698	70.81
397.922	83.81
398.147	78.81
398.371	85.81
398.595	74.81
398.82	82.81
399.044	83.81
399.268	85.81
399.492	93.81
399.717	92.81
399.941	75.81
400.165	100.81
400.389	87.81
400.613	96.81
400.837	70.81
401.062	88.81
401.286	90.81
401.51	87.81
401.734	85.81
401.958	86.81
402.182	128.81
402.406	157.81
402.63	102.81
402.854	87.81
403.078	86.81
403.302	83.81
403.526	88.81
403.75	77.81
403.974	82.81
404.198	80.81
404.422	73.81
404.645	84.81
404.869	80.81
405.093	79.81
405.317	86.81
405.541	93.81
405.765	108.81
405.988	126.81
406.212	172.81
406.436	196.81
406.66	125.81
406.883	79.81
407.107	94.81
407.331	103.81
407.555	97.81
407.778	89.81
408.002	86.81
408.226	86.81
408.449	73.81
408.673	97.81
408.896	90.81
409.12	98.81
409.344	97.81
409.567	82.81
409.791	79.81
410.014	94.81
410.238	88.81
410.461	84.81
410.685	92.81
410.908	104.81
411.132	93.81
411.355	85.81
411.578	82.81
411.802	94.81
412.025	87.81
412.249	82.81
412.472	83.81
412.695	93.81
412.919	73.81
413.142	82.81
413.365	89.81
413.589	78.81
413.812	87.81
414.035	96.81
414.258	74.81
414.482	103.81
414.705	92.81
414.928	94.81
415.151	84.81
415.374	90.81
415.597	90.81
415.821	81.81
416.044	94.81
416.267	82.81
416.49	75.81
416.713	88.81
416.936	96.81
417.159	80.81
417.382	87.81
417.605	89.81
417.828	89.81
418.051	80.81
418.274	79.81
418.497	78.81
418.72	80.81
418.943	80.81
419.166	85.81
419.389	81.81
419.611	82.81
419.834	96.81
420.057	103.81
420.28	91.81
420.503	89.81
420.726	90.81
420.948	93.81
421.171	96.81
421.394	92.81
421.617	90.81
421.839	87.81
422.062	89.81
422.285	89.81
422.507	89.81
422.73	102.81
422.953	97.81
423.175	88.81
423.398	96.81
423.621	98.81
423.843	78.81
424.066	96.81
424.288	77.81
424.511	78.81
424.733	104.81
424.956	103.81
425.178	90.81
425.401	90.81
425.623	73.81
425.846	82.81
426.068	74.81
426.291	84.81
426.513	73.81
426.735	88.81
426.958	97.81
427.18	89.81
427.402	128.81
427.625	152.81
427.847	141.81
428.069	126.81
428.292	86.81
428.514	81.81
428.736	88.81
428.958	80.81
429.181	83.81
429.403	90.81
429.625	85.81
429.847	87.81
430.069	111.81
430.292	89.81
430.514	76.81
430.736	89.81
430.958	79.81
431.18	70.81
431.402	88.81
431.624	100.81
431.846	80.81
432.068	93.81
432.29	89.81
432.512	92.81
432.734	86.81
432.956	83.81
433.178	106.81
433.4	91.81
433.622	92.81
433.844	94.81
434.066	102.81
434.287	91.81
434.509	100.81
434.731	90.81
434.953	81.81
435.175	88.81
435.397	79.81
435.618	81.81
435.84	110.81
436.062	114.81
436.284	99.81
436.505	97.81
436.727	106.81
436.949	85.81
437.17	75.81
437.392	101.81
437.614	97.81
437.835	96.81
438.057	130.81
438.278	111.81
438.5	86.81
438.721	119.81
438.943	84.81
439.165	97.81
439.386	86.81
439.608	80.81
439.829	88.81
440.05	119.81
440.272	116.81
440.493	90.81
440.715	70.81
440.936	82.81
441.158	83.81
441.379	91.81
441.6	96.81
441.822	94.81
442.043	89.81
442.264	106.81
442.486	92.81
442.707	71.81
442.928	98.81
443.149	119.81
443.371	129.81
443.592	101.81
443.813	94.81
444.034	104.81
444.255	77.81
444.476	80.81
444.698	92.81
444.919	80.81
445.14	135.81
445.361	115.81
445.582	109.81
445.803	128.81
446.024	116.81
446.245	111.81
446.466	96.81
446.687	84.81
446.908	93.81
447.129	77.81
447.35	80.81
447.571	94.81
447.792	90.81
448.013	90.81
448.234	89.81
448.455	91.81
448.675	108.81
448.896	102.81
449.117	101.81
449.338	100.81
449.559	110.81
449.779	124.81
450	100.81
450.221	88.81
450.442	93.81
450.662	97.81
450.883	103.81
451.104	93.81
451.324	88.81
451.545	76.81
451.766	74.81
451.986	89.81
452.207	83.81
452.428	97.81
452.648	89.81
452.869	95.81
453.089	114.81
453.31	108.81
453.53	89.81
453.751	100.81
453.971	113.81
454.192	117.81
454.412	105.81
454.633	101.81
454.853	86.81
455.073	84.81
455.294	83.81
455.514	81.81
455.734	90.81
455.955	99.81
456.175	90.81
456.395	89.81
456.616	75.81
456.836	89.81
457.056	81.81
457.276	74.81
457.497	83.81
457.717	88.81
457.937	94.81
458.157	83.81
458.377	79.81
458.598	108.81
458.818	141.81
459.038	151.81
459.258	109.81
459.478	83.81
459.698	69.81
459.918	91.81
460.138	87.81
460.358	81.81
460.578	65.81
460.798	88.81
461.018	84.81
461.238	87.81
461.458	97.81
461.678	81.81
461.898	92.81
462.118	82.81
462.338	77.81
462.558	69.81
462.777	82.81
462.997	84.81
463.217	81.81
463.437	88.81
463.657	88.81
463.876	87.81
464.096	77.81
464.316	86.81
464.536	94.81
464.755	94.81
464.975	96.81
465.195	151.81
465.414	138.81
465.634	83.81
465.854	88.81
466.073	88.81
466.293	83.81
466.512	81.81
466.732	83.81
466.951	85.81
467.171	85.81
467.391	75.81
467.61	99.81
467.829	106.81
468.049	111.81
468.268	126.81
468.488	97.81
468.707	85.81
468.927	80.81
469.146	66.81
469.365	74.81
469.585	79.81
469.804	90.81
470.023	95.81
470.243	98.81
470.462	82.81
470.681	99.81
470.901	97.81
471.12	90.81
471.339	70.81
471.558	89.81
471.777	89.81
471.997	90.81
472.216	153.81
472.435	239.81
472.654	110.81
472.873	93.81
473.092	89.81
473.311	85.81
473.53	88.81
473.749	80.81
473.968	90.81
474.187	89.81
474.406	82.81
474.625	81.81
474.844	83.81
475.063	76.81
475.282	79.81
475.501	95.81
475.72	91.81
475.939	78.81
476.158	84.81
476.377	82.81
476.596	89.81
476.814	83.81
477.033	88.81
477.252	82.81
477.471	88.81
477.69	84.81
477.908	87.81
478.127	78.81
478.346	89.81
478.564	93.81
478.783	90.81
479.002	89.81
479.22	87.81
479.439	83.81
479.658	95.81
479.876	98.81
480.095	77.81
480.313	90.81
480.532	88.81
480.751	94.81
480.969	164.81
481.188	374.81
481.406	231.81
481.624	99.81
481.843	85.81
482.061	80.81
482.28	86.81
482.498	91.81
482.717	93.81
482.935	92.81
483.153	80.81
483.372	75.81
483.59	72.81
483.808	80.81
484.027	92.81
484.245	85.81
484.463	110.81
484.681	86.81
484.9	95.81
485.118	98.81
485.336	74.81
485.554	96.81
485.772	79.81
485.99	97.81
486.209	107.81
486.427	93.81
486.645	110.81
486.863	93.81
487.081	110.81
487.299	83.81
487.517	84.81
487.735	79.81
487.953	97.81
488.171	77.81
488.389	90.81
488.607	101.81
488.825	80.81
489.043	74.81
489.261	95.81
489.479	102.81
489.696	75.81
489.914	75.81
490.132	85.81
490.35	69.81
490.568	84.81
490.786	72.81
491.003	87.81
491.221	92.81
491.439	89.81
491.657	76.81
491.874	77.81
492.092	87.81
492.31	94.81
492.527	97.81
492.745	90.81
492.963	96.81
493.18	77.81
493.398	90.81
493.615	86.81
493.833	103.81
494.05	78.81
494.268	82.81
494.485	74.81
494.703	79.81
494.92	94.81
495.138	85.81
495.355	77.81
495.573	89.81
495.79	86.81
496.008	96.81
496.225	90.81
496.442	84.81
496.66	94.81
496.877	89.81
497.094	89.81
497.312	82.81
497.529	74.81
497.746	94.81
497.963	89.81
498.181	96.81
498.398	86.81
498.615	103.81
498.832	110.81
499.049	101.81
499.267	95.81
499.484	76.81
499.701	96.81
499.918	86.81
500.135	85.81
500.352	94.81
500.569	85.81
500.786	90.81
501.003	90.81
501.22	89.81
501.437	92.81
501.654	87.81
501.871	112.81
502.088	87.81
502.305	98.81
502.522	90.81
502.739	83.81
502.956	84.81
503.172	85.81
503.389	108.81
503.606	91.81
503.823	119.81
504.04	104.81
504.256	103.81
504.473	90.81
504.69	82.81
504.907	110.81
505.123	95.81
505.34	100.81
505.557	97.81
505.773	90.81
505.99	81.81
506.207	85.81
506.423	68.81
506.64	91.81
506.856	84.81
507.073	85.81
507.289	102.81
507.506	92.81
507.722	91.81
507.939	98.81
508.155	83.81
508.372	91.81
508.588	92.81
508.805	102.81
509.021	96.81
509.238	73.81
509.454	86.81
509.67	107.81
509.887	107.81
510.103	130.81
510.319	205.81
510.536	706.81
510.752	2280.81
510.968	638.81
511.184	152.81
511.401	111.81
511.617	75.81
511.833	96.81
512.049	85.81
512.265	78.81
512.481	92.81
512.698	87.81
512.914	89.81
513.13	89.81
513.346	83.81
513.562	86.81
513.778	97.81
513.994	84.81
514.21	86.81
514.426	103.81
514.642	116.81
514.858	114.81
515.074	149.81
515.29	411.81
515.506	1366.81
515.721	524.81
515.937	155.81
516.153	115.81
516.369	95.81
516.585	95.81
516.801	89.81
