Data from Circ_2002_H10_HRD10591_00009.txt Node
Date: Wed Jan 03 10:41:00 EST 2024
User: Yrep
Spectrometer: HR+D1059
Trigger mode: 1
Integration Time (sec): 1.000000E-1
Scans to average: 1
Electric dark correction enabled: true
Nonlinearity correction enabled: false
Boxcar width: 0
XAxis mode: Wavelengths
Number of Pixels in Spectrum: 2048
>>>>>Begin Spectral Data<<<<<
223.165	-26
223.4	-26
223.635	-26
223.869	-9
224.104	-25
224.338	-15
224.573	-17
224.808	-1
225.042	-19
225.277	-8
225.511	3
225.746	6
225.98	-1
226.215	21
226.449	10
226.683	27
226.918	24
227.152	30
227.387	47
227.621	42
227.856	38
228.09	48
228.324	53
228.559	61
228.793	61
229.027	62
229.262	72
229.496	86
229.73	89
229.964	75
230.199	60
230.433	73
230.667	72
230.901	73
231.136	75
231.37	85
231.604	82
231.838	78
232.072	70
232.306	79
232.541	70
232.775	91
233.009	95
233.243	77
233.477	75
233.711	76
233.945	88
234.179	81
234.413	78
234.647	83
234.881	83
235.115	96
235.349	88
235.583	80
235.817	72
236.051	70
236.285	65
236.519	82
236.753	71
236.987	90
237.221	90
237.455	90
237.689	74
237.922	74
238.156	69
238.39	80
238.624	68
238.858	75
239.091	73
239.325	79
239.559	91
239.793	89
240.027	83
240.26	58
240.494	74
240.728	73
240.961	71
241.195	78
241.429	67
241.662	83
241.896	88
242.13	72
242.363	71
242.597	95
242.83	79
243.064	85
243.298	89
243.531	57
243.765	72
243.998	74
244.232	81
244.465	78
244.699	66
244.932	70
245.166	74
245.399	78
245.633	97
245.866	71
246.099	79
246.333	81
246.566	84
246.8	65
247.033	91
247.266	72
247.5	76
247.733	70
247.966	91
248.2	85
248.433	87
248.666	66
248.899	75
249.133	98
249.366	96
249.599	74
249.832	88
250.066	85
250.299	82
250.532	82
250.765	70
250.998	81
251.231	77
251.465	79
251.698	71
251.931	79
252.164	78
252.397	78
252.63	84
252.863	88
253.096	89
253.329	80
253.562	77
253.795	85
254.028	89
254.261	98
254.494	75
254.727	67
254.96	72
255.193	80
255.426	83
255.659	72
255.892	69
256.124	79
256.357	72
256.59	94
256.823	76
257.056	87
257.289	83
257.521	72
257.754	89
257.987	86
258.22	84
258.452	77
258.685	73
258.918	76
259.151	78
259.383	77
259.616	74
259.849	68
260.081	85
260.314	78
260.547	64
260.779	77
261.012	79
261.244	82
261.477	88
261.71	75
261.942	84
262.175	96
262.407	77
262.64	91
262.872	68
263.105	71
263.337	80
263.57	87
263.802	89
264.035	92
264.267	91
264.499	73
264.732	90
264.964	84
265.197	74
265.429	86
265.661	84
265.894	79
266.126	86
266.358	81
266.591	74
266.823	88
267.055	85
267.287	86
267.52	73
267.752	75
267.984	74
268.216	73
268.448	82
268.681	76
268.913	85
269.145	84
269.377	86
269.609	85
269.841	86
270.073	82
270.306	82
270.538	71
270.77	80
271.002	82
271.234	91
271.466	78
271.698	66
271.93	92
272.162	74
272.394	94
272.626	90
272.858	79
273.09	69
273.322	80
273.553	79
273.785	86
274.017	91
274.249	77
274.481	76
274.713	85
274.945	80
275.176	91
275.408	99
275.64	98
275.872	97
276.104	89
276.335	74
276.567	88
276.799	91
277.031	79
277.262	81
277.494	89
277.726	87
277.957	87
278.189	77
278.421	77
278.652	88
278.884	85
279.115	86
279.347	93
279.579	93
279.81	78
280.042	76
280.273	99
280.505	79
280.736	89
280.968	75
281.199	95
281.431	78
281.662	82
281.894	93
282.125	79
282.356	90
282.588	109
282.819	91
283.051	85
283.282	78
283.513	75
283.745	83
283.976	92
284.207	87
284.439	69
284.67	78
284.901	102
285.132	84
285.364	90
285.595	90
285.826	78
286.057	90
286.288	68
286.52	68
286.751	87
286.982	83
287.213	76
287.444	86
287.675	100
287.906	83
288.138	96
288.369	89
288.6	77
288.831	80
289.062	104
289.293	95
289.524	94
289.755	80
289.986	89
290.217	96
290.448	93
290.679	89
290.91	79
291.141	93
291.371	98
291.602	82
291.833	87
292.064	77
292.295	106
292.526	81
292.757	82
292.987	98
293.218	86
293.449	83
293.68	112
293.91	88
294.141	87
294.372	86
294.603	97
294.833	85
295.064	80
295.295	87
295.525	88
295.756	89
295.987	95
296.217	104
296.448	113
296.679	93
296.909	96
297.14	87
297.37	84
297.601	83
297.831	87
298.062	79
298.292	94
298.523	91
298.753	89
298.984	66
299.214	89
299.445	79
299.675	77
299.905	93
300.136	94
300.366	82
300.597	92
300.827	88
301.057	92
301.288	93
301.518	98
301.748	89
301.979	102
302.209	87
302.439	82
302.669	86
302.9	94
303.13	94
303.36	80
303.59	103
303.82	84
304.051	77
304.281	88
304.511	98
304.741	75
304.971	82
305.201	91
305.431	84
305.661	84
305.891	84
306.121	99
306.352	86
306.582	102
306.812	90
307.042	101
307.272	96
307.502	96
307.731	91
307.961	86
308.191	95
308.421	96
308.651	90
308.881	85
309.111	86
309.341	81
309.571	81
309.8	87
310.03	90
310.26	106
310.49	78
310.72	93
310.949	77
311.179	95
311.409	87
311.639	99
311.868	84
312.098	95
312.328	91
312.557	99
312.787	107
313.017	90
313.246	94
313.476	86
313.706	65
313.935	88
314.165	90
314.394	108
314.624	89
314.853	101
315.083	83
315.312	92
315.542	98
315.771	89
316.001	96
316.23	81
316.46	79
316.689	86
316.919	89
317.148	79
317.377	90
317.607	94
317.836	98
318.065	91
318.295	89
318.524	100
318.753	101
318.983	100
319.212	95
319.441	102
319.67	103
319.9	106
320.129	95
320.358	95
320.587	88
320.816	93
321.046	96
321.275	104
321.504	90
321.733	94
321.962	94
322.191	99
322.42	104
322.649	104
322.878	98
323.108	113
323.337	108
323.566	105
323.795	137
324.024	178
324.253	294
324.482	613
324.71	1254
324.939	1605
325.168	598
325.397	197
325.626	116
325.855	122
326.084	124
326.313	114
326.542	127
326.77	194
326.999	366
327.228	736
327.457	1355
327.686	1037
327.914	289
328.143	157
328.372	112
328.6	113
328.829	95
329.058	102
329.287	110
329.515	106
329.744	102
329.972	92
330.201	82
330.43	89
330.658	86
330.887	116
331.115	93
331.344	108
331.572	81
331.801	102
332.03	91
332.258	91
332.486	89
332.715	77
332.943	84
333.172	91
333.4	102
333.629	87
333.857	110
334.085	81
334.314	93
334.542	98
334.771	87
334.999	73
335.227	88
335.455	94
335.684	102
335.912	98
336.14	82
336.369	101
336.597	97
336.825	97
337.053	86
337.281	92
337.51	85
337.738	82
337.966	85
338.194	86
338.422	91
338.65	86
338.878	100
339.106	92
339.334	88
339.562	81
339.79	85
340.018	77
340.246	85
340.474	64
340.702	95
340.93	98
341.158	103
341.386	91
341.614	97
341.842	88
342.07	93
342.298	87
342.526	99
342.754	85
342.981	88
343.209	87
343.437	93
343.665	89
343.893	90
344.12	90
344.348	81
344.576	89
344.804	86
345.031	95
345.259	93
345.487	71
345.714	98
345.942	94
346.17	77
346.397	103
346.625	94
346.853	84
347.08	81
347.308	92
347.535	91
347.763	106
347.99	109
348.218	99
348.445	109
348.673	107
348.9	90
349.128	97
349.355	91
349.583	89
349.81	98
350.037	93
350.265	77
350.492	82
350.72	89
350.947	99
351.174	95
351.402	98
351.629	93
351.856	95
352.083	88
352.311	118
352.538	104
352.765	97
352.992	96
353.22	97
353.447	107
353.674	99
353.901	91
354.128	91
354.355	98
354.583	96
354.81	100
355.037	110
355.264	91
355.491	98
355.718	100
355.945	94
356.172	99
356.399	92
356.626	98
356.853	87
357.08	93
357.307	98
357.534	87
357.761	101
357.988	90
358.215	107
358.441	96
358.668	100
358.895	87
359.122	97
359.349	98
359.576	99
359.802	87
360.029	101
360.256	94
360.483	101
360.709	86
360.936	109
361.163	93
361.39	102
361.616	92
361.843	69
362.07	81
362.296	80
362.523	90
362.749	78
362.976	85
363.203	89
363.429	78
363.656	95
363.882	89
364.109	66
364.335	101
364.562	98
364.788	79
365.015	97
365.241	97
365.468	98
365.694	100
365.92	91
366.147	88
366.373	81
366.599	76
366.826	94
367.052	75
367.278	93
367.505	84
367.731	104
367.957	79
368.184	75
368.41	96
368.636	95
368.862	118
369.089	95
369.315	90
369.541	81
369.767	91
369.993	78
370.219	82
370.445	66
370.672	82
370.898	86
371.124	85
371.35	84
371.576	81
371.802	84
372.028	84
372.254	87
372.48	103
372.706	76
372.932	84
373.158	79
373.384	97
373.61	72
373.835	82
374.061	91
374.287	85
374.513	106
374.739	98
374.965	96
375.191	94
375.416	92
375.642	81
375.868	79
376.094	94
376.319	83
376.545	83
376.771	90
376.997	91
377.222	82
377.448	85
377.674	80
377.899	74
378.125	94
378.35	83
378.576	104
378.802	84
379.027	90
379.253	75
379.478	96
379.704	84
379.929	102
380.155	99
380.38	92
380.606	111
380.831	96
381.057	128
381.282	91
381.507	109
381.733	105
381.958	89
382.184	97
382.409	93
382.634	119
382.86	103
383.085	109
383.31	113
383.535	99
383.761	113
383.986	100
384.211	101
384.436	101
384.662	115
384.887	109
385.112	111
385.337	117
385.562	117
385.787	125
386.013	126
386.238	117
386.463	119
386.688	125
386.913	114
387.138	136
387.363	117
387.588	98
387.813	104
388.038	119
388.263	128
388.488	135
388.713	104
388.938	86
389.163	95
389.387	97
389.612	87
389.837	88
390.062	69
390.287	86
390.512	94
390.736	104
390.961	94
391.186	90
391.411	106
391.636	81
391.86	87
392.085	88
392.31	79
392.534	88
392.759	91
392.984	90
393.208	96
393.433	102
393.658	89
393.882	92
394.107	77
394.331	96
394.556	89
394.78	94
395.005	94
395.229	74
395.454	81
395.678	94
395.903	93
396.127	86
396.352	98
396.576	91
396.801	103
397.025	95
397.249	86
397.474	98
397.698	90
397.922	78
398.147	77
398.371	100
398.595	83
398.82	90
399.044	94
399.268	77
399.492	93
399.717	93
399.941	82
400.165	79
400.389	78
400.613	85
400.837	85
401.062	94
401.286	77
401.51	89
401.734	85
401.958	96
402.182	109
402.406	123
402.63	104
402.854	101
403.078	90
403.302	77
403.526	91
403.75	92
403.974	75
404.198	77
404.422	82
404.645	82
404.869	79
405.093	81
405.317	89
405.541	97
405.765	88
405.988	91
406.212	142
406.436	149
406.66	114
406.883	94
407.107	95
407.331	93
407.555	86
407.778	88
408.002	99
408.226	88
408.449	82
408.673	88
408.896	87
409.12	92
409.344	91
409.567	84
409.791	97
410.014	85
410.238	86
410.461	79
410.685	96
410.908	89
411.132	94
411.355	104
411.578	88
411.802	82
412.025	90
412.249	91
412.472	88
412.695	92
412.919	90
413.142	86
413.365	88
413.589	95
413.812	85
414.035	86
414.258	97
414.482	83
414.705	97
414.928	88
415.151	92
415.374	88
415.597	83
415.821	95
416.044	86
416.267	86
416.49	83
416.713	94
416.936	94
417.159	78
417.382	87
417.605	89
417.828	84
418.051	84
418.274	79
418.497	94
418.72	95
418.943	91
419.166	93
419.389	80
419.611	99
419.834	104
420.057	84
420.28	85
420.503	71
420.726	80
420.948	96
421.171	83
421.394	81
421.617	85
421.839	78
422.062	91
422.285	91
422.507	95
422.73	91
422.953	87
423.175	90
423.398	90
423.621	96
423.843	103
424.066	98
424.288	78
424.511	87
424.733	101
424.956	96
425.178	96
425.401	98
425.623	85
425.846	80
426.068	85
426.291	88
426.513	81
426.735	90
426.958	75
427.18	100
427.402	99
427.625	126
427.847	106
428.069	87
428.292	81
428.514	90
428.736	82
428.958	100
429.181	86
429.403	83
429.625	86
429.847	85
430.069	84
430.292	100
430.514	72
430.736	87
430.958	65
431.18	80
431.402	72
431.624	81
431.846	86
432.068	77
432.29	84
432.512	67
432.734	78
432.956	97
433.178	109
433.4	90
433.622	85
433.844	90
434.066	81
434.287	74
434.509	73
434.731	74
434.953	87
435.175	87
435.397	90
435.618	95
435.84	97
436.062	116
436.284	100
436.505	87
436.727	105
436.949	81
437.17	79
437.392	88
437.614	84
437.835	96
438.057	101
438.278	90
438.5	100
438.721	121
438.943	84
439.165	99
439.386	71
439.608	80
439.829	99
440.05	111
440.272	120
440.493	87
440.715	77
440.936	76
441.158	94
441.379	85
441.6	79
441.822	86
442.043	95
442.264	94
442.486	93
442.707	80
442.928	86
443.149	112
443.371	100
443.592	97
443.813	98
444.034	94
444.255	81
444.476	73
444.698	83
444.919	79
445.14	146
445.361	121
445.582	93
445.803	105
446.024	95
446.245	91
446.466	117
446.687	95
446.908	96
447.129	63
447.35	88
447.571	82
447.792	86
448.013	90
448.234	84
448.455	99
448.675	102
448.896	93
449.117	84
449.338	91
449.559	107
449.779	115
450	82
450.221	82
450.442	88
450.662	86
450.883	90
451.104	106
451.324	90
451.545	89
451.766	91
451.986	90
452.207	90
452.428	93
452.648	93
452.869	103
453.089	97
453.31	100
453.53	80
453.751	109
453.971	80
454.192	88
454.412	76
454.633	82
454.853	77
455.073	80
455.294	78
455.514	91
455.734	85
455.955	80
456.175	72
456.395	80
456.616	79
456.836	85
457.056	81
457.276	79
457.497	83
457.717	78
457.937	76
458.157	87
458.377	86
458.598	86
458.818	129
459.038	125
459.258	103
459.478	74
459.698	82
459.918	97
460.138	80
460.358	87
460.578	87
460.798	81
461.018	80
461.238	70
461.458	89
461.678	79
461.898	79
462.118	89
462.338	75
462.558	77
462.777	75
462.997	85
463.217	96
463.437	86
463.657	84
463.876	83
464.096	72
464.316	80
464.536	99
464.755	90
464.975	85
465.195	114
465.414	103
465.634	80
465.854	89
466.073	91
466.293	94
466.512	79
466.732	96
466.951	80
467.171	85
467.391	85
467.61	78
467.829	79
468.049	86
468.268	83
468.488	83
468.707	95
468.927	76
469.146	80
469.365	79
469.585	101
469.804	93
470.023	94
470.243	66
470.462	90
470.681	107
470.901	82
471.12	93
471.339	85
471.558	88
471.777	73
471.997	80
472.216	89
472.435	90
472.654	96
472.873	91
473.092	87
473.311	74
473.53	89
473.749	89
473.968	91
474.187	92
474.406	90
474.625	83
474.844	83
475.063	78
475.282	75
475.501	105
475.72	109
475.939	91
476.158	86
476.377	84
476.596	89
476.814	79
477.033	85
477.252	81
477.471	95
477.69	78
477.908	81
478.127	98
478.346	81
478.564	71
478.783	89
479.002	91
479.22	90
479.439	87
479.658	86
479.876	77
480.095	95
480.313	92
480.532	71
480.751	79
480.969	77
481.188	94
481.406	91
481.624	100
481.843	85
482.061	80
482.28	94
482.498	80
482.717	91
482.935	99
483.153	80
483.372	86
483.59	89
483.808	93
484.027	93
484.245	92
484.463	78
484.681	80
484.9	86
485.118	106
485.336	90
485.554	102
485.772	98
485.99	94
486.209	113
486.427	109
486.645	107
486.863	115
487.081	101
487.299	103
487.517	103
487.735	112
487.953	93
488.171	106
488.389	90
488.607	99
488.825	91
489.043	74
489.261	81
489.479	83
489.696	86
489.914	82
490.132	104
490.35	87
490.568	85
490.786	86
491.003	91
491.221	88
491.439	99
491.657	101
491.874	83
492.092	102
492.31	88
492.527	94
492.745	87
492.963	94
493.18	77
493.398	84
493.615	92
493.833	84
494.05	91
494.268	96
494.485	94
494.703	95
494.92	95
495.138	75
495.355	100
495.573	95
495.79	90
496.008	97
496.225	94
496.442	107
496.66	89
496.877	73
497.094	75
497.312	97
497.529	92
497.746	86
497.963	85
498.181	74
498.398	91
498.615	105
498.832	100
499.049	86
499.267	95
499.484	87
499.701	88
499.918	103
500.135	101
500.352	100
500.569	81
500.786	78
501.003	75
501.22	95
501.437	95
501.654	94
501.871	94
502.088	79
502.305	72
502.522	87
502.739	88
502.956	93
503.172	81
503.389	82
503.606	94
503.823	86
504.04	94
504.256	97
504.473	82
504.69	95
504.907	102
505.123	90
505.34	94
505.557	91
505.773	97
505.99	97
506.207	91
506.423	80
506.64	89
506.856	70
507.073	97
507.289	89
507.506	85
507.722	88
507.939	106
508.155	103
508.372	88
508.588	98
508.805	91
509.021	94
509.238	87
509.454	99
509.67	97
509.887	96
510.103	116
510.319	158
510.536	480
510.752	1386
510.968	428
511.184	138
511.401	110
511.617	92
511.833	91
512.049	97
512.265	84
512.481	93
512.698	77
512.914	86
513.13	102
513.346	85
513.562	77
513.778	95
513.994	99
514.21	97
514.426	97
514.642	111
514.858	108
515.074	136
515.29	277
515.506	816
515.721	343
515.937	122
516.153	99
516.369	96
516.585	96
516.801	96
517.016	83
517.232	94
517.448	99
517.664	99
517.879	105
518.095	95
518.311	92
518.527	83
518.742	99
518.958	84
519.173	105
519.389	82
519.605	69
519.82	98
520.036	96
520.251	91
520.467	102
520.682	96
520.898	91
521.113	104
521.329	89
521.544	141
521.76	319
521.975	1328
522.19	832
522.406	206
522.621	100
522.836	92
523.052	91
523.267	92
523.482	95
523.698	75
523.913	95
524.128	95
524.343	88
524.559	101
524.774	78
524.989	93
525.204	94
525.419	84
525.634	95
525.849	93
526.064	83
526.28	95
526.495	97
526.71	75
526.925	78
527.14	93
527.355	85
527.57	88
527.785	82
527.999	85
528.214	96
528.429	88
528.644	105
528.859	81
529.074	75
529.289	103
529.503	123
529.718	86
529.933	101
530.148	89
530.363	85
530.577	92
530.792	90
531.007	94
531.221	94
531.436	94
531.651	89
531.865	85
532.08	78
532.295	90
532.509	78
532.724	80
532.938	94
533.153	96
533.367	104
533.582	100
533.796	90
534.011	91
534.225	96
534.44	106
534.654	90
534.868	82
535.083	81
535.297	91
535.511	108
535.726	88
535.94	106
536.154	100
536.369	95
536.583	105
536.797	97
537.011	88
537.225	103
537.44	95
537.654	98
537.868	91
538.082	89
538.296	83
538.51	88
538.724	85
538.938	87
539.153	90
539.367	98
539.581	102
539.795	94
540.009	89
540.222	100
540.436	97
540.65	88
540.864	110
541.078	98
541.292	90
541.506	86
541.72	94
541.934	74
542.147	87
542.361	87
542.575	80
542.789	74
543.002	89
543.216	80
543.43	90
543.644	87
543.857	94
544.071	87
544.285	106
544.498	96
544.712	74
544.925	89
545.139	82
545.352	88
545.566	95
545.779	86
545.993	88
546.206	85
546.42	91
546.633	88
546.847	98
547.06	91
547.274	96
547.487	98
547.7	84
547.914	83
548.127	80
548.34	83
548.554	79
548.767	89
548.98	82
549.193	92
549.407	86
549.62	96
549.833	82
550.046	80
550.259	86
550.473	83
550.686	86
550.899	88
551.112	100
551.325	85
551.538	88
551.751	99
551.964	98
552.177	85
552.39	81
552.603	78
552.816	94
553.029	89
553.242	94
553.455	95
553.667	94
553.88	94
554.093	89
554.306	99
554.519	90
554.732	90
554.944	80
555.157	95
555.37	93
555.583	88
555.795	95
556.008	91
556.221	83
556.433	84
556.646	96
556.859	90
557.071	86
557.284	100
557.496	93
557.709	92
557.921	99
558.134	88
558.346	81
558.559	88
558.771	75
558.984	79
559.196	83
559.409	90
559.621	105
559.833	88
560.046	90
560.258	81
560.47	88
560.683	91
560.895	91
561.107	85
561.32	80
561.532	84
561.744	90
561.956	101
562.168	87
562.381	95
562.593	94
562.805	89
563.017	84
563.229	93
563.441	80
563.653	86
563.865	85
564.077	86
564.289	79
564.501	82
564.713	86
564.925	86
565.137	104
565.349	100
565.561	88
565.773	82
565.985	81
566.197	86
566.408	92
566.62	83
566.832	80
567.044	99
567.255	94
567.467	77
567.679	83
567.891	79
568.102	91
568.314	82
568.526	88
568.737	83
568.949	90
569.161	86
569.372	87
569.584	102
569.795	92
570.007	96
570.218	171
570.43	106
570.641	91
570.853	98
571.064	107
571.276	83
571.487	82
571.698	79
571.91	86
572.121	75
572.333	86
572.544	94
572.755	87
572.966	83
573.178	80
573.389	90
573.6	76
573.811	85
574.023	79
574.234	93
574.445	76
574.656	88
574.867	96
575.078	98
575.289	93
575.501	89
575.712	89
575.923	87
576.134	87
576.345	88
576.556	82
576.767	92
576.978	83
577.188	81
577.399	86
577.61	90
577.821	93
578.032	108
578.243	174
578.454	465
578.665	147
578.875	99
579.086	90
579.297	85
579.508	73
579.718	76
579.929	110
580.14	91
580.35	70
580.561	81
580.772	82
580.982	82
581.193	76
581.403	89
581.614	101
581.825	94
582.035	102
582.246	96
582.456	90
582.667	94
582.877	96
583.087	71
583.298	82
583.508	72
583.719	96
583.929	87
584.139	75
584.35	83
584.56	75
584.77	82
584.981	96
585.191	93
585.401	88
585.611	96
585.821	100
586.032	90
586.242	96
586.452	89
