Data from Circ_2002_H10_HRD10591_00005.txt Node
Date: Wed Jan 03 10:40:59 EST 2024
User: Yrep
Spectrometer: HR+D1059
Trigger mode: 1
Integration Time (sec): 1.000000E-1
Scans to average: 1
Electric dark correction enabled: true
Nonlinearity correction enabled: false
Boxcar width: 0
XAxis mode: Wavelengths
Number of Pixels in Spectrum: 2048
>>>>>Begin Spectral Data<<<<<
223.165	-16.94
223.4	-16.94
223.635	-16.94
223.869	-12.94
224.104	-25.94
224.338	-26.94
224.573	-1.94
224.808	-17.94
225.042	-11.94
225.277	-7.94
225.511	-6.94
225.746	9.06
225.98	10.06
226.215	12.06
226.449	14.06
226.683	28.06
226.918	29.06
227.152	27.06
227.387	34.06
227.621	54.06
227.856	31.06
228.09	39.06
228.324	37.06
228.559	64.06
228.793	57.06
229.027	59.06
229.262	65.06
229.496	73.06
229.73	70.06
229.964	72.06
230.199	70.06
230.433	68.06
230.667	85.06
230.901	87.06
231.136	86.06
231.37	73.06
231.604	66.06
231.838	69.06
232.072	80.06
232.306	75.06
232.541	74.06
232.775	67.06
233.009	97.06
233.243	84.06
233.477	100.06
233.711	78.06
233.945	81.06
234.179	86.06
234.413	73.06
234.647	82.06
234.881	75.06
235.115	79.06
235.349	75.06
235.583	79.06
235.817	72.06
236.051	73.06
236.285	73.06
236.519	87.06
236.753	58.06
236.987	68.06
237.221	85.06
237.455	87.06
237.689	76.06
237.922	77.06
238.156	100.06
238.39	76.06
238.624	62.06
238.858	81.06
239.091	70.06
239.325	75.06
239.559	73.06
239.793	75.06
240.027	84.06
240.26	72.06
240.494	74.06
240.728	71.06
240.961	80.06
241.195	72.06
241.429	73.06
241.662	72.06
241.896	61.06
242.13	76.06
242.363	70.06
242.597	68.06
242.83	63.06
243.064	79.06
243.298	78.06
243.531	74.06
243.765	74.06
243.998	81.06
244.232	72.06
244.465	79.06
244.699	77.06
244.932	75.06
245.166	75.06
245.399	77.06
245.633	68.06
245.866	70.06
246.099	76.06
246.333	63.06
246.566	87.06
246.8	76.06
247.033	78.06
247.266	78.06
247.5	89.06
247.733	69.06
247.966	90.06
248.2	71.06
248.433	79.06
248.666	78.06
248.899	83.06
249.133	80.06
249.366	101.06
249.599	100.06
249.832	78.06
250.066	76.06
250.299	82.06
250.532	88.06
250.765	83.06
250.998	85.06
251.231	82.06
251.465	73.06
251.698	84.06
251.931	78.06
252.164	70.06
252.397	84.06
252.63	77.06
252.863	67.06
253.096	74.06
253.329	72.06
253.562	76.06
253.795	63.06
254.028	69.06
254.261	77.06
254.494	94.06
254.727	80.06
254.96	83.06
255.193	87.06
255.426	76.06
255.659	55.06
255.892	74.06
256.124	83.06
256.357	76.06
256.59	85.06
256.823	75.06
257.056	84.06
257.289	81.06
257.521	66.06
257.754	78.06
257.987	67.06
258.22	70.06
258.452	80.06
258.685	91.06
258.918	92.06
259.151	85.06
259.383	74.06
259.616	74.06
259.849	73.06
260.081	64.06
260.314	83.06
260.547	76.06
260.779	82.06
261.012	81.06
261.244	71.06
261.477	97.06
261.71	86.06
261.942	98.06
262.175	100.06
262.407	99.06
262.64	77.06
262.872	82.06
263.105	57.06
263.337	81.06
263.57	78.06
263.802	86.06
264.035	63.06
264.267	71.06
264.499	87.06
264.732	79.06
264.964	92.06
265.197	83.06
265.429	86.06
265.661	77.06
265.894	63.06
266.126	91.06
266.358	85.06
266.591	78.06
266.823	75.06
267.055	86.06
267.287	86.06
267.52	84.06
267.752	89.06
267.984	87.06
268.216	80.06
268.448	85.06
268.681	79.06
268.913	83.06
269.145	85.06
269.377	82.06
269.609	88.06
269.841	81.06
270.073	91.06
270.306	82.06
270.538	81.06
270.77	87.06
271.002	78.06
271.234	72.06
271.466	79.06
271.698	95.06
271.93	83.06
272.162	73.06
272.394	86.06
272.626	91.06
272.858	82.06
273.09	94.06
273.322	94.06
273.553	78.06
273.785	78.06
274.017	76.06
274.249	94.06
274.481	92.06
274.713	82.06
274.945	86.06
275.176	97.06
275.408	76.06
275.64	75.06
275.872	98.06
276.104	88.06
276.335	96.06
276.567	81.06
276.799	89.06
277.031	91.06
277.262	86.06
277.494	79.06
277.726	88.06
277.957	84.06
278.189	86.06
278.421	96.06
278.652	94.06
278.884	89.06
279.115	84.06
279.347	76.06
279.579	99.06
279.81	83.06
280.042	78.06
280.273	84.06
280.505	94.06
280.736	91.06
280.968	81.06
281.199	92.06
281.431	82.06
281.662	89.06
281.894	83.06
282.125	99.06
282.356	102.06
282.588	116.06
282.819	112.06
283.051	90.06
283.282	88.06
283.513	79.06
283.745	90.06
283.976	82.06
284.207	87.06
284.439	84.06
284.67	77.06
284.901	73.06
285.132	84.06
285.364	91.06
285.595	83.06
285.826	96.06
286.057	77.06
286.288	76.06
286.52	84.06
286.751	101.06
286.982	87.06
287.213	73.06
287.444	79.06
287.675	87.06
287.906	96.06
288.138	82.06
288.369	80.06
288.6	75.06
288.831	98.06
289.062	88.06
289.293	81.06
289.524	72.06
289.755	92.06
289.986	89.06
290.217	87.06
290.448	86.06
290.679	83.06
290.91	80.06
291.141	73.06
291.371	96.06
291.602	82.06
291.833	90.06
292.064	98.06
292.295	80.06
292.526	82.06
292.757	79.06
292.987	86.06
293.218	86.06
293.449	90.06
293.68	75.06
293.91	72.06
294.141	89.06
294.372	92.06
294.603	94.06
294.833	78.06
295.064	92.06
295.295	100.06
295.525	96.06
295.756	85.06
295.987	102.06
296.217	122.06
296.448	96.06
296.679	88.06
296.909	78.06
297.14	89.06
297.37	84.06
297.601	79.06
297.831	87.06
298.062	79.06
298.292	79.06
298.523	81.06
298.753	83.06
298.984	84.06
299.214	75.06
299.445	90.06
299.675	80.06
299.905	87.06
300.136	91.06
300.366	79.06
300.597	90.06
300.827	80.06
301.057	85.06
301.288	89.06
301.518	87.06
301.748	94.06
301.979	86.06
302.209	95.06
302.439	74.06
302.669	71.06
302.9	71.06
303.13	80.06
303.36	89.06
303.59	89.06
303.82	102.06
304.051	89.06
304.281	95.06
304.511	86.06
304.741	95.06
304.971	76.06
305.201	82.06
305.431	111.06
305.661	83.06
305.891	84.06
306.121	96.06
306.352	100.06
306.582	92.06
306.812	92.06
307.042	82.06
307.272	86.06
307.502	87.06
307.731	81.06
307.961	68.06
308.191	86.06
308.421	95.06
308.651	83.06
308.881	97.06
309.111	78.06
309.341	79.06
309.571	97.06
309.8	86.06
310.03	85.06
310.26	87.06
310.49	99.06
310.72	100.06
310.949	99.06
311.179	83.06
311.409	83.06
311.639	82.06
311.868	94.06
312.098	100.06
312.328	96.06
312.557	99.06
312.787	94.06
313.017	98.06
313.246	88.06
313.476	74.06
313.706	90.06
313.935	106.06
314.165	103.06
314.394	84.06
314.624	87.06
314.853	82.06
315.083	93.06
315.312	87.06
315.542	91.06
315.771	107.06
316.001	95.06
316.23	91.06
316.46	80.06
316.689	79.06
316.919	94.06
317.148	102.06
317.377	85.06
317.607	90.06
317.836	81.06
318.065	98.06
318.295	82.06
318.524	86.06
318.753	99.06
318.983	94.06
319.212	103.06
319.441	84.06
319.67	102.06
319.9	98.06
320.129	94.06
320.358	71.06
320.587	93.06
320.816	86.06
321.046	102.06
321.275	89.06
321.504	102.06
321.733	103.06
321.962	92.06
322.191	90.06
322.42	90.06
322.649	107.06
322.878	101.06
323.108	96.06
323.337	115.06
323.566	113.06
323.795	122.06
324.024	154.06
324.253	292.06
324.482	593.06
324.71	1145.06
324.939	1557.06
325.168	593.06
325.397	187.06
325.626	138.06
325.855	107.06
326.084	115.06
326.313	123.06
326.542	142.06
326.77	200.06
326.999	329.06
327.228	704.06
327.457	1266.06
327.686	997.06
327.914	278.06
328.143	134.06
328.372	90.06
328.6	104.06
328.829	108.06
329.058	103.06
329.287	126.06
329.515	91.06
329.744	88.06
329.972	101.06
330.201	92.06
330.43	106.06
330.658	100.06
330.887	105.06
331.115	118.06
331.344	106.06
331.572	105.06
331.801	97.06
332.03	90.06
332.258	73.06
332.486	81.06
332.715	101.06
332.943	91.06
333.172	86.06
333.4	86.06
333.629	91.06
333.857	94.06
334.085	91.06
334.314	103.06
334.542	91.06
334.771	82.06
334.999	96.06
335.227	92.06
335.455	92.06
335.684	90.06
335.912	82.06
336.14	94.06
336.369	93.06
336.597	98.06
336.825	89.06
337.053	101.06
337.281	80.06
337.51	91.06
337.738	95.06
337.966	101.06
338.194	95.06
338.422	96.06
338.65	97.06
338.878	87.06
339.106	85.06
339.334	95.06
339.562	98.06
339.79	99.06
340.018	94.06
340.246	100.06
340.474	86.06
340.702	88.06
340.93	95.06
341.158	94.06
341.386	91.06
341.614	88.06
341.842	84.06
342.07	90.06
342.298	94.06
342.526	86.06
342.754	83.06
342.981	86.06
343.209	93.06
343.437	95.06
343.665	83.06
343.893	89.06
344.12	93.06
344.348	79.06
344.576	101.06
344.804	92.06
345.031	94.06
345.259	95.06
345.487	91.06
345.714	97.06
345.942	99.06
346.17	80.06
346.397	83.06
346.625	90.06
346.853	95.06
347.08	95.06
347.308	90.06
347.535	88.06
347.763	95.06
347.99	87.06
348.218	92.06
348.445	85.06
348.673	94.06
348.9	90.06
349.128	99.06
349.355	96.06
349.583	76.06
349.81	92.06
350.037	89.06
350.265	81.06
350.492	107.06
350.72	99.06
350.947	110.06
351.174	102.06
351.402	89.06
351.629	91.06
351.856	108.06
352.083	91.06
352.311	104.06
352.538	117.06
352.765	99.06
352.992	95.06
353.22	106.06
353.447	95.06
353.674	108.06
353.901	95.06
354.128	102.06
354.355	94.06
354.583	94.06
354.81	89.06
355.037	109.06
355.264	100.06
355.491	80.06
355.718	92.06
355.945	101.06
356.172	99.06
356.399	106.06
356.626	91.06
356.853	79.06
357.08	96.06
357.307	96.06
357.534	90.06
357.761	103.06
357.988	100.06
358.215	108.06
358.441	112.06
358.668	100.06
358.895	93.06
359.122	97.06
359.349	85.06
359.576	82.06
359.802	93.06
360.029	107.06
360.256	82.06
360.483	106.06
360.709	82.06
360.936	95.06
361.163	100.06
361.39	90.06
361.616	88.06
361.843	89.06
362.07	96.06
362.296	94.06
362.523	71.06
362.749	100.06
362.976	89.06
363.203	97.06
363.429	78.06
363.656	75.06
363.882	98.06
364.109	96.06
364.335	91.06
364.562	100.06
364.788	99.06
365.015	90.06
365.241	74.06
365.468	82.06
365.694	80.06
365.92	96.06
366.147	90.06
366.373	87.06
366.599	84.06
366.826	85.06
367.052	82.06
367.278	106.06
367.505	81.06
367.731	78.06
367.957	82.06
368.184	86.06
368.41	92.06
368.636	106.06
368.862	111.06
369.089	96.06
369.315	72.06
369.541	83.06
369.767	87.06
369.993	86.06
370.219	99.06
370.445	99.06
370.672	84.06
370.898	80.06
371.124	88.06
371.35	96.06
371.576	67.06
371.802	78.06
372.028	90.06
372.254	101.06
372.48	96.06
372.706	85.06
372.932	94.06
373.158	80.06
373.384	92.06
373.61	100.06
373.835	76.06
374.061	83.06
374.287	94.06
374.513	88.06
374.739	82.06
374.965	99.06
375.191	86.06
375.416	84.06
375.642	89.06
375.868	109.06
376.094	89.06
376.319	99.06
376.545	93.06
376.771	101.06
376.997	96.06
377.222	97.06
377.448	91.06
377.674	103.06
377.899	98.06
378.125	97.06
378.35	98.06
378.576	91.06
378.802	92.06
379.027	91.06
379.253	97.06
379.478	89.06
379.704	98.06
379.929	97.06
380.155	102.06
380.38	98.06
380.606	103.06
380.831	118.06
381.057	102.06
381.282	98.06
381.507	100.06
381.733	107.06
381.958	109.06
382.184	96.06
382.409	95.06
382.634	114.06
382.86	111.06
383.085	103.06
383.31	120.06
383.535	117.06
383.761	116.06
383.986	121.06
384.211	110.06
384.436	108.06
384.662	130.06
384.887	116.06
385.112	129.06
385.337	141.06
385.562	125.06
385.787	140.06
386.013	126.06
386.238	145.06
386.463	111.06
386.688	132.06
386.913	133.06
387.138	126.06
387.363	116.06
387.588	121.06
387.813	112.06
388.038	118.06
388.263	143.06
388.488	132.06
388.713	110.06
388.938	96.06
389.163	93.06
389.387	92.06
389.612	93.06
389.837	102.06
390.062	95.06
390.287	95.06
390.512	91.06
390.736	79.06
390.961	98.06
391.186	95.06
391.411	100.06
391.636	91.06
391.86	87.06
392.085	83.06
392.31	88.06
392.534	75.06
392.759	84.06
392.984	107.06
393.208	87.06
393.433	95.06
393.658	98.06
393.882	81.06
394.107	75.06
394.331	91.06
394.556	88.06
394.78	92.06
395.005	94.06
395.229	89.06
395.454	97.06
395.678	92.06
395.903	89.06
396.127	92.06
396.352	75.06
396.576	90.06
396.801	87.06
397.025	95.06
397.249	104.06
397.474	98.06
397.698	83.06
397.922	71.06
398.147	93.06
398.371	85.06
398.595	79.06
398.82	79.06
399.044	83.06
399.268	92.06
399.492	80.06
399.717	96.06
399.941	86.06
400.165	90.06
400.389	93.06
400.613	94.06
400.837	74.06
401.062	92.06
401.286	91.06
401.51	81.06
401.734	111.06
401.958	89.06
402.182	98.06
402.406	109.06
402.63	109.06
402.854	83.06
403.078	82.06
403.302	86.06
403.526	81.06
403.75	74.06
403.974	90.06
404.198	91.06
404.422	88.06
404.645	82.06
404.869	90.06
405.093	94.06
405.317	91.06
405.541	87.06
405.765	80.06
405.988	102.06
406.212	129.06
406.436	150.06
406.66	114.06
406.883	92.06
407.107	91.06
407.331	103.06
407.555	100.06
407.778	78.06
408.002	102.06
408.226	98.06
408.449	96.06
408.673	77.06
408.896	74.06
409.12	97.06
409.344	83.06
409.567	95.06
409.791	82.06
410.014	107.06
410.238	104.06
410.461	88.06
410.685	84.06
410.908	90.06
411.132	102.06
411.355	108.06
411.578	86.06
411.802	78.06
412.025	77.06
412.249	86.06
412.472	96.06
412.695	99.06
412.919	79.06
413.142	86.06
413.365	97.06
413.589	93.06
413.812	91.06
414.035	94.06
414.258	89.06
414.482	74.06
414.705	98.06
414.928	96.06
415.151	94.06
415.374	91.06
415.597	92.06
415.821	79.06
416.044	79.06
416.267	87.06
416.49	87.06
416.713	101.06
416.936	99.06
417.159	93.06
417.382	87.06
417.605	86.06
417.828	104.06
418.051	101.06
418.274	100.06
418.497	92.06
418.72	93.06
418.943	95.06
419.166	86.06
419.389	92.06
419.611	90.06
419.834	100.06
420.057	85.06
420.28	83.06
420.503	86.06
420.726	99.06
420.948	88.06
421.171	95.06
421.394	86.06
421.617	86.06
421.839	92.06
422.062	83.06
422.285	83.06
422.507	98.06
422.73	111.06
422.953	90.06
423.175	76.06
423.398	98.06
423.621	80.06
423.843	71.06
424.066	79.06
424.288	80.06
424.511	75.06
424.733	83.06
424.956	99.06
425.178	93.06
425.401	91.06
425.623	100.06
425.846	99.06
426.068	83.06
426.291	90.06
426.513	96.06
426.735	115.06
426.958	78.06
427.18	105.06
427.402	115.06
427.625	144.06
427.847	100.06
428.069	110.06
428.292	95.06
428.514	91.06
428.736	100.06
428.958	97.06
429.181	87.06
429.403	80.06
429.625	99.06
429.847	75.06
430.069	80.06
430.292	98.06
430.514	76.06
430.736	88.06
430.958	79.06
431.18	86.06
431.402	93.06
431.624	73.06
431.846	106.06
432.068	81.06
432.29	87.06
432.512	90.06
432.734	88.06
432.956	91.06
433.178	102.06
433.4	97.06
433.622	91.06
433.844	93.06
434.066	90.06
434.287	93.06
434.509	73.06
434.731	87.06
434.953	100.06
435.175	80.06
435.397	100.06
435.618	85.06
435.84	97.06
436.062	112.06
436.284	108.06
436.505	98.06
436.727	98.06
436.949	100.06
437.17	87.06
437.392	86.06
437.614	95.06
437.835	85.06
438.057	94.06
438.278	108.06
438.5	99.06
438.721	116.06
438.943	87.06
439.165	90.06
439.386	77.06
439.608	90.06
439.829	100.06
440.05	110.06
440.272	126.06
440.493	91.06
440.715	86.06
440.936	84.06
441.158	111.06
441.379	84.06
441.6	82.06
441.822	81.06
442.043	89.06
442.264	107.06
442.486	105.06
442.707	90.06
442.928	97.06
443.149	101.06
443.371	104.06
443.592	104.06
443.813	98.06
444.034	110.06
444.255	92.06
444.476	86.06
444.698	93.06
444.919	87.06
445.14	147.06
445.361	120.06
445.582	88.06
445.803	101.06
446.024	94.06
446.245	119.06
446.466	98.06
446.687	86.06
446.908	80.06
447.129	87.06
447.35	81.06
447.571	77.06
447.792	79.06
448.013	105.06
448.234	102.06
448.455	107.06
448.675	102.06
448.896	105.06
449.117	98.06
449.338	102.06
449.559	107.06
449.779	112.06
450	91.06
450.221	95.06
450.442	87.06
450.662	92.06
450.883	108.06
451.104	90.06
451.324	90.06
451.545	102.06
451.766	86.06
451.986	82.06
452.207	88.06
452.428	95.06
452.648	91.06
452.869	101.06
453.089	88.06
453.31	104.06
453.53	83.06
453.751	106.06
453.971	81.06
454.192	88.06
454.412	90.06
454.633	93.06
454.853	78.06
455.073	89.06
455.294	89.06
455.514	99.06
455.734	84.06
455.955	81.06
456.175	95.06
456.395	84.06
456.616	83.06
456.836	91.06
457.056	76.06
457.276	88.06
457.497	79.06
457.717	83.06
457.937	79.06
458.157	86.06
458.377	88.06
458.598	97.06
458.818	128.06
459.038	131.06
459.258	99.06
459.478	92.06
459.698	91.06
459.918	70.06
460.138	83.06
460.358	99.06
460.578	86.06
460.798	84.06
461.018	91.06
461.238	86.06
461.458	78.06
461.678	93.06
461.898	64.06
462.118	70.06
462.338	77.06
462.558	75.06
462.777	81.06
462.997	94.06
463.217	86.06
463.437	81.06
463.657	87.06
463.876	85.06
464.096	90.06
464.316	73.06
464.536	93.06
464.755	88.06
464.975	95.06
465.195	124.06
465.414	119.06
465.634	106.06
465.854	88.06
466.073	81.06
466.293	76.06
466.512	87.06
466.732	90.06
466.951	96.06
467.171	93.06
467.391	107.06
467.61	92.06
467.829	81.06
468.049	86.06
468.268	93.06
468.488	88.06
468.707	87.06
468.927	84.06
469.146	82.06
469.365	86.06
469.585	78.06
469.804	91.06
470.023	73.06
470.243	83.06
470.462	91.06
470.681	95.06
470.901	93.06
471.12	88.06
471.339	86.06
471.558	81.06
471.777	87.06
471.997	103.06
472.216	87.06
472.435	87.06
472.654	76.06
472.873	73.06
473.092	88.06
473.311	98.06
473.53	95.06
473.749	84.06
473.968	78.06
474.187	104.06
474.406	108.06
474.625	80.06
474.844	79.06
475.063	103.06
475.282	75.06
475.501	92.06
475.72	111.06
475.939	82.06
476.158	73.06
476.377	85.06
476.596	96.06
476.814	92.06
477.033	82.06
477.252	87.06
477.471	99.06
477.69	75.06
477.908	92.06
478.127	84.06
478.346	90.06
478.564	87.06
478.783	92.06
479.002	85.06
479.22	81.06
479.439	101.06
479.658	80.06
479.876	83.06
480.095	87.06
480.313	91.06
480.532	82.06
480.751	95.06
480.969	85.06
481.188	90.06
481.406	103.06
481.624	93.06
481.843	93.06
482.061	86.06
482.28	81.06
482.498	96.06
482.717	91.06
482.935	91.06
483.153	82.06
483.372	90.06
483.59	89.06
483.808	95.06
484.027	86.06
484.245	82.06
484.463	84.06
484.681	94.06
484.9	87.06
485.118	83.06
485.336	103.06
485.554	94.06
485.772	102.06
485.99	113.06
486.209	110.06
486.427	99.06
486.645	107.06
486.863	90.06
487.081	113.06
487.299	91.06
487.517	98.06
487.735	103.06
487.953	89.06
488.171	90.06
488.389	85.06
488.607	91.06
488.825	86.06
489.043	85.06
489.261	91.06
489.479	73.06
489.696	91.06
489.914	84.06
490.132	84.06
490.35	97.06
490.568	97.06
490.786	82.06
491.003	73.06
491.221	74.06
491.439	91.06
491.657	102.06
491.874	101.06
492.092	82.06
492.31	94.06
492.527	99.06
492.745	85.06
492.963	83.06
493.18	86.06
493.398	95.06
493.615	106.06
493.833	92.06
494.05	82.06
494.268	94.06
494.485	96.06
494.703	91.06
494.92	90.06
495.138	85.06
495.355	102.06
495.573	84.06
495.79	98.06
496.008	85.06
496.225	90.06
496.442	102.06
496.66	92.06
496.877	91.06
497.094	91.06
497.312	87.06
497.529	81.06
497.746	93.06
497.963	78.06
498.181	74.06
498.398	94.06
498.615	97.06
498.832	105.06
499.049	89.06
499.267	97.06
499.484	90.06
499.701	97.06
499.918	83.06
500.135	82.06
500.352	81.06
500.569	88.06
500.786	94.06
501.003	99.06
501.22	90.06
501.437	89.06
501.654	93.06
501.871	94.06
502.088	91.06
502.305	96.06
502.522	83.06
502.739	101.06
502.956	92.06
503.172	91.06
503.389	106.06
503.606	91.06
503.823	98.06
504.04	90.06
504.256	89.06
504.473	92.06
504.69	88.06
504.907	83.06
505.123	92.06
505.34	84.06
505.557	90.06
505.773	87.06
505.99	83.06
506.207	90.06
506.423	77.06
506.64	89.06
506.856	90.06
507.073	76.06
507.289	90.06
507.506	106.06
507.722	93.06
507.939	89.06
508.155	91.06
508.372	80.06
508.588	92.06
508.805	85.06
509.021	98.06
509.238	82.06
509.454	94.06
509.67	87.06
509.887	106.06
510.103	109.06
510.319	149.06
510.536	420.06
510.752	1256.06
510.968	382.06
511.184	111.06
511.401	110.06
511.617	84.06
511.833	91.06
512.049	81.06
512.265	85.06
512.481	83.06
512.698	87.06
512.914	92.06
513.13	92.06
513.346	92.06
513.562	99.06
513.778	79.06
513.994	99.06
514.21	99.06
514.426	95.06
514.642	93.06
514.858	99.06
515.074	127.06
515.29	246.06
515.506	727.06
515.721	291.06
515.937	117.06
516.153	103.06
516.369	90.06
516.585	88.06
