Data from Circ_2002_H10_HRD10591_00007.txt Node
Date: Wed Jan 03 10:40:59 EST 2024
User: Yrep
Spectrometer: HR+D1059
Trigger mode: 1
Integration Time (sec): 1.000000E-1
Scans to average: 1
Electric dark correction enabled: true
Nonlinearity correction enabled: false
Boxcar width: 0
XAxis mode: Wavelengths
Number of Pixels in Spectrum: 2048
>>>>>Begin Spectral Data<<<<<
223.165	-20.19
223.4	-20.19
223.635	-20.19
223.869	-19.19
224.104	-25.19
224.338	-28.19
224.573	-13.19
224.808	-16.19
225.042	-1.19
225.277	-8.19
225.511	-2.19
225.746	-1.19
225.98	0.81
226.215	10.81
226.449	11.81
226.683	25.81
226.918	43.81
227.152	41.81
227.387	38.81
227.621	41.81
227.856	39.81
228.09	39.81
228.324	52.81
228.559	64.81
228.793	40.81
229.027	48.81
229.262	63.81
229.496	64.81
229.73	60.81
229.964	79.81
230.199	77.81
230.433	71.81
230.667	81.81
230.901	80.81
231.136	72.81
231.37	87.81
231.604	68.81
231.838	93.81
232.072	80.81
232.306	80.81
232.541	86.81
232.775	83.81
233.009	84.81
233.243	87.81
233.477	84.81
233.711	74.81
233.945	81.81
234.179	75.81
234.413	77.81
234.647	74.81
234.881	79.81
235.115	76.81
235.349	88.81
235.583	79.81
235.817	65.81
236.051	74.81
236.285	67.81
236.519	76.81
236.753	79.81
236.987	82.81
237.221	78.81
237.455	68.81
237.689	75.81
237.922	75.81
238.156	70.81
238.39	82.81
238.624	60.81
238.858	64.81
239.091	68.81
239.325	70.81
239.559	85.81
239.793	77.81
240.027	62.81
240.26	75.81
240.494	76.81
240.728	77.81
240.961	80.81
241.195	83.81
241.429	65.81
241.662	56.81
241.896	68.81
242.13	77.81
242.363	62.81
242.597	82.81
242.83	83.81
243.064	76.81
243.298	76.81
243.531	72.81
243.765	62.81
243.998	70.81
244.232	80.81
244.465	79.81
244.699	57.81
244.932	67.81
245.166	72.81
245.399	77.81
245.633	96.81
245.866	83.81
246.099	65.81
246.333	81.81
246.566	91.81
246.8	83.81
247.033	75.81
247.266	73.81
247.5	71.81
247.733	86.81
247.966	81.81
248.2	76.81
248.433	72.81
248.666	78.81
248.899	83.81
249.133	89.81
249.366	83.81
249.599	99.81
249.832	78.81
250.066	70.81
250.299	70.81
250.532	69.81
250.765	80.81
250.998	76.81
251.231	75.81
251.465	70.81
251.698	92.81
251.931	87.81
252.164	79.81
252.397	80.81
252.63	77.81
252.863	79.81
253.096	63.81
253.329	71.81
253.562	78.81
253.795	82.81
254.028	94.81
254.261	78.81
254.494	75.81
254.727	77.81
254.96	75.81
255.193	72.81
255.426	72.81
255.659	77.81
255.892	77.81
256.124	68.81
256.357	85.81
256.59	77.81
256.823	76.81
257.056	86.81
257.289	88.81
257.521	74.81
257.754	67.81
257.987	77.81
258.22	79.81
258.452	76.81
258.685	82.81
258.918	73.81
259.151	80.81
259.383	81.81
259.616	85.81
259.849	83.81
260.081	65.81
260.314	72.81
260.547	83.81
260.779	84.81
261.012	87.81
261.244	78.81
261.477	80.81
261.71	84.81
261.942	95.81
262.175	105.81
262.407	82.81
262.64	81.81
262.872	89.81
263.105	83.81
263.337	80.81
263.57	89.81
263.802	72.81
264.035	86.81
264.267	86.81
264.499	79.81
264.732	85.81
264.964	89.81
265.197	81.81
265.429	87.81
265.661	76.81
265.894	81.81
266.126	80.81
266.358	75.81
266.591	73.81
266.823	75.81
267.055	107.81
267.287	85.81
267.52	84.81
267.752	81.81
267.984	62.81
268.216	78.81
268.448	75.81
268.681	83.81
268.913	94.81
269.145	85.81
269.377	82.81
269.609	88.81
269.841	84.81
270.073	80.81
270.306	73.81
270.538	75.81
270.77	64.81
271.002	93.81
271.234	84.81
271.466	85.81
271.698	69.81
271.93	82.81
272.162	84.81
272.394	88.81
272.626	69.81
272.858	96.81
273.09	92.81
273.322	105.81
273.553	71.81
273.785	75.81
274.017	85.81
274.249	90.81
274.481	98.81
274.713	89.81
274.945	74.81
275.176	85.81
275.408	85.81
275.64	82.81
275.872	83.81
276.104	87.81
276.335	102.81
276.567	85.81
276.799	87.81
277.031	94.81
277.262	92.81
277.494	84.81
277.726	82.81
277.957	96.81
278.189	92.81
278.421	81.81
278.652	78.81
278.884	84.81
279.115	79.81
279.347	88.81
279.579	96.81
279.81	78.81
280.042	80.81
280.273	86.81
280.505	76.81
280.736	75.81
280.968	69.81
281.199	82.81
281.431	78.81
281.662	79.81
281.894	85.81
282.125	91.81
282.356	116.81
282.588	114.81
282.819	87.81
283.051	84.81
283.282	98.81
283.513	91.81
283.745	85.81
283.976	102.81
284.207	80.81
284.439	86.81
284.67	87.81
284.901	73.81
285.132	74.81
285.364	79.81
285.595	67.81
285.826	76.81
286.057	90.81
286.288	85.81
286.52	78.81
286.751	78.81
286.982	81.81
287.213	71.81
287.444	85.81
287.675	80.81
287.906	83.81
288.138	78.81
288.369	89.81
288.6	90.81
288.831	81.81
289.062	90.81
289.293	73.81
289.524	82.81
289.755	89.81
289.986	83.81
290.217	81.81
290.448	75.81
290.679	97.81
290.91	86.81
291.141	70.81
291.371	93.81
291.602	94.81
291.833	91.81
292.064	84.81
292.295	86.81
292.526	96.81
292.757	72.81
292.987	98.81
293.218	97.81
293.449	75.81
293.68	80.81
293.91	94.81
294.141	82.81
294.372	71.81
294.603	89.81
294.833	91.81
295.064	82.81
295.295	79.81
295.525	78.81
295.756	87.81
295.987	92.81
296.217	95.81
296.448	110.81
296.679	94.81
296.909	83.81
297.14	92.81
297.37	85.81
297.601	83.81
297.831	84.81
298.062	72.81
298.292	83.81
298.523	81.81
298.753	84.81
298.984	83.81
299.214	88.81
299.445	84.81
299.675	91.81
299.905	94.81
300.136	84.81
300.366	79.81
300.597	96.81
300.827	81.81
301.057	79.81
301.288	100.81
301.518	86.81
301.748	95.81
301.979	96.81
302.209	85.81
302.439	86.81
302.669	81.81
302.9	67.81
303.13	86.81
303.36	111.81
303.59	96.81
303.82	99.81
304.051	84.81
304.281	95.81
304.511	87.81
304.741	72.81
304.971	91.81
305.201	94.81
305.431	84.81
305.661	85.81
305.891	84.81
306.121	91.81
306.352	99.81
306.582	88.81
306.812	91.81
307.042	83.81
307.272	94.81
307.502	98.81
307.731	84.81
307.961	82.81
308.191	81.81
308.421	90.81
308.651	81.81
308.881	77.81
309.111	81.81
309.341	89.81
309.571	78.81
309.8	86.81
310.03	95.81
310.26	79.81
310.49	94.81
310.72	95.81
310.949	99.81
311.179	94.81
311.409	94.81
311.639	80.81
311.868	93.81
312.098	84.81
312.328	95.81
312.557	96.81
312.787	91.81
313.017	84.81
313.246	91.81
313.476	94.81
313.706	105.81
313.935	92.81
314.165	93.81
314.394	95.81
314.624	91.81
314.853	73.81
315.083	84.81
315.312	83.81
315.542	71.81
315.771	100.81
316.001	67.81
316.23	88.81
316.46	92.81
316.689	68.81
316.919	91.81
317.148	86.81
317.377	85.81
317.607	87.81
317.836	83.81
318.065	88.81
318.295	85.81
318.524	94.81
318.753	88.81
318.983	73.81
319.212	89.81
319.441	95.81
319.67	109.81
319.9	95.81
320.129	84.81
320.358	88.81
320.587	97.81
320.816	100.81
321.046	84.81
321.275	88.81
321.504	100.81
321.733	93.81
321.962	105.81
322.191	99.81
322.42	101.81
322.649	108.81
322.878	90.81
323.108	106.81
323.337	107.81
323.566	120.81
323.795	127.81
324.024	162.81
324.253	284.81
324.482	575.81
324.71	1167.81
324.939	1481.81
325.168	591.81
325.397	190.81
325.626	140.81
325.855	112.81
326.084	108.81
326.313	99.81
326.542	123.81
326.77	183.81
326.999	328.81
327.228	672.81
327.457	1176.81
327.686	936.81
327.914	268.81
328.143	148.81
328.372	127.81
328.6	106.81
328.829	107.81
329.058	109.81
329.287	107.81
329.515	88.81
329.744	104.81
329.972	92.81
330.201	77.81
330.43	91.81
330.658	101.81
330.887	107.81
331.115	126.81
331.344	104.81
331.572	92.81
331.801	92.81
332.03	93.81
332.258	84.81
332.486	92.81
332.715	95.81
332.943	89.81
333.172	81.81
333.4	86.81
333.629	86.81
333.857	96.81
334.085	97.81
334.314	84.81
334.542	91.81
334.771	80.81
334.999	97.81
335.227	78.81
335.455	99.81
335.684	81.81
335.912	85.81
336.14	96.81
336.369	88.81
336.597	88.81
336.825	103.81
337.053	95.81
337.281	96.81
337.51	97.81
337.738	89.81
337.966	93.81
338.194	86.81
338.422	98.81
338.65	87.81
338.878	93.81
339.106	76.81
339.334	105.81
339.562	81.81
339.79	87.81
340.018	76.81
340.246	79.81
340.474	83.81
340.702	73.81
340.93	97.81
341.158	93.81
341.386	88.81
341.614	93.81
341.842	92.81
342.07	102.81
342.298	84.81
342.526	104.81
342.754	89.81
342.981	78.81
343.209	83.81
343.437	88.81
343.665	110.81
343.893	88.81
344.12	92.81
344.348	87.81
344.576	75.81
344.804	81.81
345.031	84.81
345.259	96.81
345.487	93.81
345.714	99.81
345.942	103.81
346.17	85.81
346.397	100.81
346.625	82.81
346.853	79.81
347.08	75.81
347.308	92.81
347.535	93.81
347.763	89.81
347.99	91.81
348.218	94.81
348.445	95.81
348.673	104.81
348.9	93.81
349.128	88.81
349.355	88.81
349.583	81.81
349.81	87.81
350.037	82.81
350.265	79.81
350.492	83.81
350.72	96.81
350.947	80.81
351.174	90.81
351.402	91.81
351.629	89.81
351.856	105.81
352.083	111.81
352.311	95.81
352.538	110.81
352.765	105.81
352.992	96.81
353.22	104.81
353.447	95.81
353.674	96.81
353.901	107.81
354.128	105.81
354.355	102.81
354.583	107.81
354.81	99.81
355.037	93.81
355.264	92.81
355.491	94.81
355.718	95.81
355.945	86.81
356.172	88.81
356.399	93.81
356.626	77.81
356.853	76.81
357.08	95.81
357.307	88.81
357.534	100.81
357.761	94.81
357.988	99.81
358.215	94.81
358.441	91.81
358.668	100.81
358.895	101.81
359.122	85.81
359.349	91.81
359.576	91.81
359.802	104.81
360.029	89.81
360.256	83.81
360.483	77.81
360.709	80.81
360.936	84.81
361.163	90.81
361.39	84.81
361.616	81.81
361.843	88.81
362.07	91.81
362.296	63.81
362.523	75.81
362.749	78.81
362.976	74.81
363.203	90.81
363.429	92.81
363.656	93.81
363.882	68.81
364.109	81.81
364.335	85.81
364.562	78.81
364.788	96.81
365.015	79.81
365.241	94.81
365.468	100.81
365.694	92.81
365.92	102.81
366.147	79.81
366.373	97.81
366.599	73.81
366.826	83.81
367.052	95.81
367.278	89.81
367.505	94.81
367.731	85.81
367.957	82.81
368.184	77.81
368.41	100.81
368.636	95.81
368.862	97.81
369.089	94.81
369.315	98.81
369.541	97.81
369.767	101.81
369.993	101.81
370.219	62.81
370.445	81.81
370.672	95.81
370.898	83.81
371.124	82.81
371.35	90.81
371.576	92.81
371.802	94.81
372.028	92.81
372.254	86.81
372.48	83.81
372.706	85.81
372.932	83.81
373.158	83.81
373.384	76.81
373.61	88.81
373.835	88.81
374.061	75.81
374.287	91.81
374.513	86.81
374.739	93.81
374.965	73.81
375.191	88.81
375.416	95.81
375.642	98.81
375.868	97.81
376.094	102.81
376.319	103.81
376.545	83.81
376.771	80.81
376.997	93.81
377.222	99.81
377.448	98.81
377.674	86.81
377.899	87.81
378.125	101.81
378.35	91.81
378.576	87.81
378.802	97.81
379.027	97.81
379.253	96.81
379.478	108.81
379.704	97.81
379.929	90.81
380.155	78.81
380.38	93.81
380.606	112.81
380.831	89.81
381.057	98.81
381.282	92.81
381.507	94.81
381.733	103.81
381.958	102.81
382.184	108.81
382.409	101.81
382.634	107.81
382.86	103.81
383.085	108.81
383.31	107.81
383.535	107.81
383.761	108.81
383.986	101.81
384.211	102.81
384.436	115.81
384.662	115.81
384.887	115.81
385.112	134.81
385.337	127.81
385.562	125.81
385.787	124.81
386.013	140.81
386.238	121.81
386.463	133.81
386.688	133.81
386.913	140.81
387.138	119.81
387.363	116.81
387.588	112.81
387.813	122.81
388.038	125.81
388.263	127.81
388.488	133.81
388.713	102.81
388.938	85.81
389.163	97.81
389.387	92.81
389.612	83.81
389.837	86.81
390.062	97.81
390.287	96.81
390.512	107.81
390.736	97.81
390.961	88.81
391.186	99.81
391.411	95.81
391.636	89.81
391.86	91.81
392.085	78.81
392.31	77.81
392.534	88.81
392.759	93.81
392.984	89.81
393.208	97.81
393.433	109.81
393.658	89.81
393.882	84.81
394.107	87.81
394.331	89.81
394.556	91.81
394.78	101.81
395.005	96.81
395.229	76.81
395.454	86.81
395.678	90.81
395.903	87.81
396.127	65.81
396.352	87.81
396.576	94.81
396.801	91.81
397.025	95.81
397.249	95.81
397.474	86.81
397.698	84.81
397.922	93.81
398.147	95.81
398.371	79.81
398.595	78.81
398.82	84.81
399.044	103.81
399.268	82.81
399.492	91.81
399.717	88.81
399.941	76.81
400.165	88.81
400.389	83.81
400.613	81.81
400.837	83.81
401.062	82.81
401.286	97.81
401.51	82.81
401.734	77.81
401.958	83.81
402.182	98.81
402.406	130.81
402.63	98.81
402.854	76.81
403.078	86.81
403.302	64.81
403.526	89.81
403.75	95.81
403.974	92.81
404.198	83.81
404.422	89.81
404.645	82.81
404.869	80.81
405.093	78.81
405.317	73.81
405.541	84.81
405.765	90.81
405.988	117.81
406.212	131.81
406.436	157.81
406.66	103.81
406.883	97.81
407.107	91.81
407.331	98.81
407.555	102.81
407.778	88.81
408.002	99.81
408.226	79.81
408.449	87.81
408.673	96.81
408.896	100.81
409.12	88.81
409.344	79.81
409.567	85.81
409.791	87.81
410.014	85.81
410.238	94.81
410.461	99.81
410.685	94.81
410.908	97.81
411.132	105.81
411.355	85.81
411.578	86.81
411.802	91.81
412.025	72.81
412.249	94.81
412.472	85.81
412.695	96.81
412.919	94.81
413.142	88.81
413.365	72.81
413.589	91.81
413.812	98.81
414.035	85.81
414.258	90.81
414.482	87.81
414.705	92.81
414.928	83.81
415.151	99.81
415.374	88.81
415.597	105.81
415.821	100.81
416.044	105.81
416.267	97.81
416.49	95.81
416.713	80.81
416.936	83.81
417.159	82.81
417.382	84.81
417.605	85.81
417.828	90.81
418.051	103.81
418.274	88.81
418.497	82.81
418.72	94.81
418.943	83.81
419.166	89.81
419.389	83.81
419.611	96.81
419.834	74.81
420.057	81.81
420.28	100.81
420.503	73.81
420.726	85.81
420.948	89.81
421.171	84.81
421.394	105.81
421.617	97.81
421.839	96.81
422.062	98.81
422.285	95.81
422.507	92.81
422.73	106.81
422.953	102.81
423.175	95.81
423.398	75.81
423.621	94.81
423.843	85.81
424.066	80.81
424.288	86.81
424.511	91.81
424.733	77.81
424.956	80.81
425.178	78.81
425.401	89.81
425.623	93.81
425.846	68.81
426.068	102.81
426.291	95.81
426.513	80.81
426.735	91.81
426.958	84.81
427.18	78.81
427.402	117.81
427.625	109.81
427.847	111.81
428.069	93.81
428.292	84.81
428.514	69.81
428.736	84.81
428.958	75.81
429.181	78.81
429.403	88.81
429.625	98.81
429.847	81.81
430.069	80.81
430.292	76.81
430.514	81.81
430.736	79.81
430.958	73.81
431.18	71.81
431.402	80.81
431.624	80.81
431.846	83.81
432.068	87.81
432.29	82.81
432.512	85.81
432.734	97.81
432.956	89.81
433.178	96.81
433.4	88.81
433.622	85.81
433.844	76.81
434.066	89.81
434.287	79.81
434.509	89.81
434.731	89.81
434.953	90.81
435.175	77.81
435.397	83.81
435.618	100.81
435.84	94.81
436.062	103.81
436.284	95.81
436.505	84.81
436.727	81.81
436.949	101.81
437.17	79.81
437.392	85.81
437.614	91.81
437.835	103.81
438.057	86.81
438.278	101.81
438.5	92.81
438.721	107.81
438.943	98.81
439.165	95.81
439.386	77.81
439.608	90.81
439.829	79.81
440.05	102.81
440.272	125.81
440.493	87.81
440.715	71.81
440.936	81.81
441.158	95.81
441.379	76.81
441.6	77.81
441.822	92.81
442.043	84.81
442.264	83.81
442.486	93.81
442.707	99.81
442.928	92.81
443.149	110.81
443.371	114.81
443.592	107.81
443.813	89.81
444.034	89.81
444.255	92.81
444.476	89.81
444.698	89.81
444.919	83.81
445.14	126.81
445.361	110.81
445.582	101.81
445.803	112.81
446.024	100.81
446.245	102.81
446.466	93.81
446.687	100.81
446.908	86.81
447.129	80.81
447.35	80.81
447.571	92.81
447.792	85.81
448.013	83.81
448.234	112.81
448.455	94.81
448.675	99.81
448.896	97.81
449.117	99.81
449.338	96.81
449.559	103.81
449.779	105.81
450	90.81
450.221	73.81
450.442	79.81
450.662	93.81
450.883	92.81
451.104	99.81
451.324	90.81
451.545	80.81
451.766	81.81
451.986	80.81
452.207	84.81
452.428	94.81
452.648	91.81
452.869	84.81
453.089	100.81
453.31	97.81
453.53	83.81
453.751	80.81
453.971	79.81
454.192	94.81
454.412	91.81
454.633	88.81
454.853	81.81
455.073	89.81
455.294	86.81
455.514	82.81
455.734	89.81
455.955	78.81
456.175	78.81
456.395	88.81
456.616	83.81
456.836	95.81
457.056	84.81
457.276	73.81
457.497	85.81
457.717	98.81
457.937	77.81
458.157	76.81
458.377	79.81
458.598	90.81
458.818	125.81
459.038	127.81
459.258	94.81
459.478	89.81
459.698	80.81
459.918	84.81
460.138	74.81
460.358	74.81
460.578	88.81
460.798	83.81
461.018	88.81
461.238	84.81
461.458	76.81
461.678	97.81
461.898	80.81
462.118	77.81
462.338	76.81
462.558	80.81
462.777	83.81
462.997	86.81
463.217	77.81
463.437	103.81
463.657	89.81
463.876	77.81
464.096	86.81
464.316	81.81
464.536	91.81
464.755	95.81
464.975	89.81
465.195	110.81
465.414	127.81
465.634	89.81
465.854	84.81
466.073	88.81
466.293	70.81
466.512	73.81
466.732	75.81
466.951	91.81
467.171	92.81
467.391	92.81
467.61	88.81
467.829	81.81
468.049	73.81
468.268	74.81
468.488	86.81
468.707	87.81
468.927	69.81
469.146	84.81
469.365	86.81
469.585	71.81
469.804	88.81
470.023	94.81
470.243	96.81
470.462	94.81
470.681	90.81
470.901	76.81
471.12	84.81
471.339	86.81
471.558	85.81
471.777	80.81
471.997	83.81
472.216	72.81
472.435	96.81
472.654	69.81
472.873	77.81
473.092	89.81
473.311	87.81
473.53	90.81
473.749	87.81
473.968	97.81
474.187	86.81
474.406	74.81
474.625	83.81
474.844	92.81
475.063	67.81
475.282	84.81
475.501	77.81
475.72	88.81
475.939	73.81
476.158	92.81
476.377	82.81
476.596	85.81
476.814	98.81
477.033	100.81
477.252	87.81
477.471	91.81
477.69	88.81
477.908	95.81
478.127	81.81
478.346	77.81
478.564	81.81
478.783	81.81
479.002	89.81
479.22	86.81
479.439	82.81
479.658	80.81
479.876	78.81
480.095	79.81
480.313	85.81
480.532	96.81
480.751	79.81
480.969	80.81
481.188	93.81
481.406	93.81
481.624	84.81
481.843	93.81
482.061	81.81
482.28	87.81
482.498	85.81
482.717	84.81
482.935	81.81
483.153	98.81
483.372	88.81
483.59	84.81
483.808	75.81
484.027	104.81
484.245	89.81
484.463	81.81
484.681	98.81
484.9	93.81
485.118	85.81
485.336	107.81
485.554	97.81
485.772	98.81
485.99	110.81
486.209	100.81
486.427	110.81
486.645	102.81
486.863	110.81
487.081	92.81
487.299	79.81
487.517	84.81
487.735	82.81
487.953	83.81
488.171	88.81
488.389	79.81
488.607	94.81
488.825	84.81
489.043	81.81
489.261	91.81
489.479	81.81
489.696	71.81
489.914	86.81
490.132	88.81
490.35	97.81
490.568	99.81
490.786	82.81
491.003	96.81
491.221	81.81
491.439	82.81
491.657	89.81
491.874	79.81
492.092	91.81
492.31	82.81
492.527	87.81
492.745	69.81
492.963	85.81
493.18	78.81
493.398	81.81
493.615	99.81
493.833	97.81
494.05	84.81
494.268	95.81
494.485	83.81
494.703	76.81
494.92	88.81
495.138	76.81
495.355	90.81
495.573	84.81
495.79	78.81
496.008	94.81
496.225	92.81
496.442	79.81
496.66	94.81
496.877	68.81
497.094	80.81
497.312	84.81
497.529	73.81
497.746	89.81
497.963	79.81
498.181	84.81
498.398	93.81
498.615	81.81
498.832	83.81
499.049	85.81
499.267	98.81
499.484	92.81
499.701	80.81
499.918	96.81
500.135	87.81
500.352	80.81
500.569	80.81
500.786	88.81
501.003	86.81
501.22	82.81
501.437	81.81
501.654	99.81
501.871	75.81
502.088	85.81
502.305	93.81
502.522	84.81
502.739	87.81
502.956	91.81
503.172	85.81
503.389	102.81
503.606	86.81
503.823	81.81
504.04	85.81
504.256	79.81
504.473	88.81
504.69	97.81
504.907	83.81
505.123	77.81
505.34	81.81
505.557	91.81
505.773	82.81
505.99	83.81
506.207	85.81
506.423	83.81
506.64	94.81
506.856	73.81
507.073	89.81
507.289	92.81
507.506	83.81
507.722	87.81
507.939	92.81
508.155	93.81
508.372	98.81
508.588	78.81
508.805	80.81
509.021	92.81
509.238	79.81
509.454	106.81
509.67	96.81
509.887	111.81
510.103	118.81
510.319	150.81
510.536	473.81
510.752	1404.81
510.968	421.81
511.184	116.81
511.401	89.81
511.617	80.81
511.833	86.81
512.049	101.81
512.265	74.81
512.481	91.81
512.698	100.81
512.914	92.81
513.13	87.81
513.346	96.81
513.562	98.81
513.778	103.81
513.994	83.81
514.21	90.81
514.426	95.81
514.642	96.81
514.858	79.81
515.074	133.81
515.29	290.81
515.506	821.81
515.721	324.81
515.937	130.81
516.153	105.81
516.369	97.81
516.585	91.81
516.801	84.81
517.016	100.81
517.232	89.81
517.448	98.81
