Data from Circ_2002_H10_HRD10591_00089.txt Node
Date: Wed Jan 03 10:41:16 EST 2024
User: Yrep
Spectrometer: HR+D1059
Trigger mode: 1
Integration Time (sec): 1.000000E-1
Scans to average: 1
Electric dark correction enabled: true
Nonlinearity correction enabled: false
Boxcar width: 0
XAxis mode: Wavelengths
Number of Pixels in Spectrum: 2048
>>>>>Begin Spectral Data<<<<<
223.165	-27.69
223.4	-27.69
223.635	-27.69
223.869	-7.69
224.104	-8.69
224.338	-5.69
224.573	-12.69
224.808	-10.69
225.042	-7.69
225.277	-12.69
225.511	-13.69
225.746	0.31
225.98	-1.69
226.215	12.31
226.449	23.31
226.683	15.31
226.918	27.31
227.152	30.31
227.387	46.31
227.621	34.31
227.856	36.31
228.09	43.31
228.324	57.31
228.559	60.31
228.793	45.31
229.027	68.31
229.262	78.31
229.496	97.31
229.73	83.31
229.964	85.31
230.199	68.31
230.433	69.31
230.667	73.31
230.901	76.31
231.136	78.31
231.37	94.31
231.604	84.31
231.838	87.31
232.072	74.31
232.306	84.31
232.541	81.31
232.775	86.31
233.009	84.31
233.243	79.31
233.477	77.31
233.711	76.31
233.945	71.31
234.179	78.31
234.413	82.31
234.647	78.31
234.881	86.31
235.115	86.31
235.349	87.31
235.583	84.31
235.817	87.31
236.051	88.31
236.285	80.31
236.519	84.31
236.753	75.31
236.987	76.31
237.221	80.31
237.455	92.31
237.689	79.31
237.922	85.31
238.156	90.31
238.39	81.31
238.624	73.31
238.858	81.31
239.091	68.31
239.325	72.31
239.559	87.31
239.793	74.31
240.027	75.31
240.26	79.31
240.494	82.31
240.728	69.31
240.961	85.31
241.195	81.31
241.429	81.31
241.662	80.31
241.896	77.31
242.13	85.31
242.363	70.31
242.597	67.31
242.83	81.31
243.064	74.31
243.298	98.31
243.531	74.31
243.765	82.31
243.998	84.31
244.232	88.31
244.465	89.31
244.699	87.31
244.932	68.31
245.166	77.31
245.399	77.31
245.633	67.31
245.866	74.31
246.099	79.31
246.333	98.31
246.566	71.31
246.8	76.31
247.033	87.31
247.266	78.31
247.5	75.31
247.733	76.31
247.966	82.31
248.2	80.31
248.433	71.31
248.666	90.31
248.899	83.31
249.133	94.31
249.366	106.31
249.599	97.31
249.832	89.31
250.066	96.31
250.299	83.31
250.532	86.31
250.765	89.31
250.998	83.31
251.231	92.31
251.465	70.31
251.698	79.31
251.931	83.31
252.164	90.31
252.397	82.31
252.63	92.31
252.863	81.31
253.096	81.31
253.329	109.31
253.562	85.31
253.795	90.31
254.028	83.31
254.261	76.31
254.494	95.31
254.727	89.31
254.96	89.31
255.193	88.31
255.426	84.31
255.659	79.31
255.892	78.31
256.124	79.31
256.357	75.31
256.59	78.31
256.823	86.31
257.056	102.31
257.289	77.31
257.521	77.31
257.754	89.31
257.987	78.31
258.22	73.31
258.452	89.31
258.685	77.31
258.918	91.31
259.151	81.31
259.383	76.31
259.616	66.31
259.849	88.31
260.081	71.31
260.314	83.31
260.547	79.31
260.779	81.31
261.012	69.31
261.244	87.31
261.477	85.31
261.71	94.31
261.942	107.31
262.175	118.31
262.407	91.31
262.64	82.31
262.872	83.31
263.105	89.31
263.337	97.31
263.57	78.31
263.802	93.31
264.035	100.31
264.267	80.31
264.499	89.31
264.732	74.31
264.964	79.31
265.197	92.31
265.429	89.31
265.661	84.31
265.894	91.31
266.126	95.31
266.358	89.31
266.591	89.31
266.823	92.31
267.055	92.31
267.287	85.31
267.52	83.31
267.752	91.31
267.984	101.31
268.216	72.31
268.448	79.31
268.681	86.31
268.913	93.31
269.145	100.31
269.377	86.31
269.609	77.31
269.841	89.31
270.073	88.31
270.306	95.31
270.538	74.31
270.77	91.31
271.002	95.31
271.234	98.31
271.466	87.31
271.698	78.31
271.93	74.31
272.162	92.31
272.394	80.31
272.626	96.31
272.858	91.31
273.09	90.31
273.322	89.31
273.553	106.31
273.785	81.31
274.017	86.31
274.249	71.31
274.481	82.31
274.713	87.31
274.945	93.31
275.176	86.31
275.408	82.31
275.64	94.31
275.872	115.31
276.104	100.31
276.335	93.31
276.567	96.31
276.799	115.31
277.031	101.31
277.262	100.31
277.494	82.31
277.726	87.31
277.957	91.31
278.189	92.31
278.421	87.31
278.652	81.31
278.884	91.31
279.115	97.31
279.347	85.31
279.579	88.31
279.81	90.31
280.042	104.31
280.273	98.31
280.505	87.31
280.736	99.31
280.968	97.31
281.199	104.31
281.431	98.31
281.662	91.31
281.894	84.31
282.125	91.31
282.356	113.31
282.588	129.31
282.819	114.31
283.051	96.31
283.282	80.31
283.513	82.31
283.745	92.31
283.976	91.31
284.207	101.31
284.439	86.31
284.67	89.31
284.901	89.31
285.132	82.31
285.364	87.31
285.595	91.31
285.826	93.31
286.057	99.31
286.288	90.31
286.52	89.31
286.751	99.31
286.982	108.31
287.213	86.31
287.444	92.31
287.675	87.31
287.906	93.31
288.138	78.31
288.369	100.31
288.6	101.31
288.831	95.31
289.062	89.31
289.293	101.31
289.524	79.31
289.755	89.31
289.986	99.31
290.217	92.31
290.448	88.31
290.679	87.31
290.91	93.31
291.141	89.31
291.371	77.31
291.602	83.31
291.833	94.31
292.064	89.31
292.295	93.31
292.526	94.31
292.757	96.31
292.987	89.31
293.218	75.31
293.449	88.31
293.68	97.31
293.91	89.31
294.141	93.31
294.372	90.31
294.603	80.31
294.833	88.31
295.064	87.31
295.295	84.31
295.525	103.31
295.756	91.31
295.987	104.31
296.217	126.31
296.448	116.31
296.679	94.31
296.909	102.31
297.14	93.31
297.37	82.31
297.601	88.31
297.831	103.31
298.062	102.31
298.292	90.31
298.523	94.31
298.753	94.31
298.984	93.31
299.214	94.31
299.445	94.31
299.675	107.31
299.905	109.31
300.136	93.31
300.366	71.31
300.597	92.31
300.827	87.31
301.057	83.31
301.288	103.31
301.518	98.31
301.748	92.31
301.979	107.31
302.209	90.31
302.439	88.31
302.669	108.31
302.9	93.31
303.13	96.31
303.36	89.31
303.59	105.31
303.82	98.31
304.051	94.31
304.281	92.31
304.511	108.31
304.741	94.31
304.971	85.31
305.201	102.31
305.431	96.31
305.661	89.31
305.891	102.31
306.121	104.31
306.352	104.31
306.582	120.31
306.812	99.31
307.042	100.31
307.272	85.31
307.502	99.31
307.731	95.31
307.961	95.31
308.191	106.31
308.421	97.31
308.651	78.31
308.881	91.31
309.111	95.31
309.341	95.31
309.571	98.31
309.8	102.31
310.03	103.31
310.26	93.31
310.49	98.31
310.72	104.31
310.949	115.31
311.179	93.31
311.409	90.31
311.639	95.31
311.868	88.31
312.098	93.31
312.328	98.31
312.557	101.31
312.787	86.31
313.017	93.31
313.246	91.31
313.476	101.31
313.706	97.31
313.935	89.31
314.165	97.31
314.394	95.31
314.624	95.31
314.853	97.31
315.083	115.31
315.312	94.31
315.542	101.31
315.771	92.31
316.001	94.31
316.23	86.31
316.46	92.31
316.689	92.31
316.919	92.31
317.148	99.31
317.377	94.31
317.607	83.31
317.836	87.31
318.065	85.31
318.295	106.31
318.524	94.31
318.753	108.31
318.983	101.31
319.212	96.31
319.441	103.31
319.67	107.31
319.9	100.31
320.129	92.31
320.358	101.31
320.587	100.31
320.816	93.31
321.046	113.31
321.275	87.31
321.504	99.31
321.733	93.31
321.962	90.31
322.191	109.31
322.42	102.31
322.649	103.31
322.878	111.31
323.108	117.31
323.337	124.31
323.566	132.31
323.795	148.31
324.024	210.31
324.253	393.31
324.482	805.31
324.71	1661.31
324.939	2199.31
325.168	782.31
325.397	243.31
325.626	160.31
325.855	138.31
326.084	139.31
326.313	131.31
326.542	163.31
326.77	229.31
326.999	461.31
327.228	973.31
327.457	1726.31
327.686	1358.31
327.914	359.31
328.143	200.31
328.372	153.31
328.6	126.31
328.829	120.31
329.058	131.31
329.287	125.31
329.515	102.31
329.744	106.31
329.972	116.31
330.201	134.31
330.43	169.31
330.658	123.31
330.887	130.31
331.115	95.31
331.344	99.31
331.572	106.31
331.801	98.31
332.03	107.31
332.258	93.31
332.486	99.31
332.715	99.31
332.943	101.31
333.172	97.31
333.4	99.31
333.629	106.31
333.857	121.31
334.085	122.31
334.314	137.31
334.542	172.31
334.771	160.31
334.999	105.31
335.227	88.31
335.455	101.31
335.684	81.31
335.912	99.31
336.14	95.31
336.369	105.31
336.597	103.31
336.825	93.31
337.053	102.31
337.281	99.31
337.51	90.31
337.738	100.31
337.966	84.31
338.194	96.31
338.422	91.31
338.65	79.31
338.878	99.31
339.106	95.31
339.334	106.31
339.562	85.31
339.79	91.31
340.018	96.31
340.246	83.31
340.474	101.31
340.702	99.31
340.93	86.31
341.158	87.31
341.386	106.31
341.614	86.31
341.842	101.31
342.07	96.31
342.298	95.31
342.526	99.31
342.754	81.31
342.981	72.31
343.209	92.31
343.437	123.31
343.665	89.31
343.893	90.31
344.12	82.31
344.348	106.31
344.576	102.31
344.804	90.31
345.031	81.31
345.259	93.31
345.487	90.31
345.714	85.31
345.942	86.31
346.17	106.31
346.397	97.31
346.625	90.31
346.853	103.31
347.08	90.31
347.308	108.31
347.535	101.31
347.763	98.31
347.99	97.31
348.218	98.31
348.445	99.31
348.673	97.31
348.9	95.31
349.128	98.31
349.355	93.31
349.583	89.31
349.81	88.31
350.037	105.31
350.265	106.31
350.492	99.31
350.72	94.31
350.947	105.31
351.174	93.31
351.402	115.31
351.629	99.31
351.856	101.31
352.083	85.31
352.311	116.31
352.538	104.31
352.765	105.31
352.992	105.31
353.22	109.31
353.447	99.31
353.674	108.31
353.901	105.31
354.128	91.31
354.355	90.31
354.583	94.31
354.81	96.31
355.037	100.31
355.264	102.31
355.491	96.31
355.718	94.31
355.945	103.31
356.172	113.31
356.399	97.31
356.626	95.31
356.853	92.31
357.08	94.31
357.307	103.31
357.534	105.31
357.761	94.31
357.988	101.31
358.215	80.31
358.441	101.31
358.668	83.31
358.895	94.31
359.122	63.31
359.349	86.31
359.576	92.31
359.802	103.31
360.029	100.31
360.256	95.31
360.483	105.31
360.709	92.31
360.936	93.31
361.163	94.31
361.39	105.31
361.616	93.31
361.843	98.31
362.07	113.31
362.296	88.31
362.523	78.31
362.749	93.31
362.976	95.31
363.203	107.31
363.429	94.31
363.656	95.31
363.882	106.31
364.109	103.31
364.335	90.31
364.562	91.31
364.788	88.31
365.015	95.31
365.241	92.31
365.468	123.31
365.694	99.31
365.92	95.31
366.147	104.31
366.373	102.31
366.599	86.31
366.826	94.31
367.052	95.31
367.278	102.31
367.505	87.31
367.731	97.31
367.957	106.31
368.184	99.31
368.41	89.31
368.636	90.31
368.862	112.31
369.089	112.31
369.315	98.31
369.541	96.31
369.767	86.31
369.993	91.31
370.219	85.31
370.445	73.31
370.672	92.31
370.898	98.31
371.124	102.31
371.35	91.31
371.576	89.31
371.802	88.31
372.028	77.31
372.254	87.31
372.48	97.31
372.706	92.31
372.932	92.31
373.158	99.31
373.384	105.31
373.61	89.31
373.835	90.31
374.061	99.31
374.287	86.31
374.513	102.31
374.739	90.31
374.965	92.31
375.191	93.31
375.416	99.31
375.642	92.31
375.868	83.31
376.094	98.31
376.319	89.31
376.545	86.31
376.771	80.31
376.997	90.31
377.222	109.31
377.448	85.31
377.674	105.31
377.899	95.31
378.125	92.31
378.35	103.31
378.576	93.31
378.802	97.31
379.027	106.31
379.253	104.31
379.478	94.31
379.704	89.31
379.929	114.31
380.155	86.31
380.38	92.31
380.606	100.31
380.831	97.31
381.057	100.31
381.282	93.31
381.507	102.31
381.733	107.31
381.958	116.31
382.184	88.31
382.409	99.31
382.634	98.31
382.86	102.31
383.085	106.31
383.31	92.31
383.535	108.31
383.761	91.31
383.986	94.31
384.211	97.31
384.436	101.31
384.662	101.31
384.887	104.31
385.112	105.31
385.337	100.31
385.562	111.31
385.787	107.31
386.013	115.31
386.238	114.31
386.463	92.31
386.688	111.31
386.913	107.31
387.138	106.31
387.363	99.31
387.588	94.31
387.813	99.31
388.038	99.31
388.263	92.31
388.488	105.31
388.713	101.31
388.938	98.31
389.163	104.31
389.387	107.31
389.612	99.31
389.837	113.31
390.062	101.31
390.287	91.31
390.512	87.31
390.736	90.31
390.961	101.31
391.186	97.31
391.411	105.31
391.636	86.31
391.86	91.31
392.085	92.31
392.31	91.31
392.534	81.31
392.759	87.31
392.984	95.31
393.208	95.31
393.433	85.31
393.658	106.31
393.882	98.31
394.107	94.31
394.331	87.31
394.556	98.31
394.78	78.31
395.005	90.31
395.229	91.31
395.454	93.31
395.678	85.31
395.903	93.31
396.127	90.31
396.352	89.31
396.576	87.31
396.801	82.31
397.025	89.31
397.249	84.31
397.474	98.31
397.698	92.31
397.922	93.31
398.147	86.31
398.371	97.31
398.595	94.31
398.82	70.31
399.044	92.31
399.268	93.31
399.492	83.31
399.717	89.31
399.941	77.31
400.165	89.31
400.389	94.31
400.613	91.31
400.837	83.31
401.062	103.31
401.286	71.31
401.51	108.31
401.734	88.31
401.958	107.31
402.182	130.31
402.406	145.31
402.63	120.31
402.854	97.31
403.078	102.31
403.302	87.31
403.526	102.31
403.75	87.31
403.974	83.31
404.198	105.31
404.422	102.31
404.645	94.31
404.869	80.31
405.093	89.31
405.317	110.31
405.541	99.31
405.765	89.31
405.988	131.31
406.212	152.31
406.436	184.31
406.66	145.31
406.883	107.31
407.107	91.31
407.331	89.31
407.555	85.31
407.778	92.31
408.002	86.31
408.226	98.31
408.449	100.31
408.673	91.31
408.896	101.31
409.12	106.31
409.344	97.31
409.567	103.31
409.791	101.31
410.014	98.31
410.238	88.31
410.461	92.31
410.685	91.31
410.908	112.31
411.132	102.31
411.355	85.31
411.578	92.31
411.802	96.31
412.025	94.31
412.249	87.31
412.472	97.31
412.695	90.31
412.919	97.31
413.142	108.31
413.365	96.31
413.589	105.31
413.812	96.31
414.035	100.31
414.258	89.31
414.482	91.31
414.705	82.31
414.928	76.31
415.151	94.31
415.374	91.31
415.597	107.31
415.821	90.31
416.044	88.31
416.267	90.31
416.49	89.31
416.713	91.31
416.936	92.31
417.159	87.31
417.382	101.31
417.605	83.31
417.828	107.31
418.051	84.31
418.274	91.31
418.497	95.31
418.72	90.31
418.943	91.31
419.166	86.31
419.389	81.31
419.611	87.31
419.834	85.31
420.057	97.31
420.28	100.31
420.503	94.31
420.726	91.31
420.948	81.31
421.171	106.31
421.394	95.31
421.617	93.31
421.839	79.31
422.062	92.31
422.285	96.31
422.507	95.31
422.73	108.31
422.953	86.31
423.175	86.31
423.398	103.31
423.621	94.31
423.843	97.31
424.066	94.31
424.288	93.31
424.511	98.31
424.733	98.31
424.956	94.31
425.178	99.31
425.401	93.31
425.623	97.31
425.846	88.31
426.068	104.31
426.291	91.31
426.513	91.31
426.735	102.31
426.958	90.31
427.18	108.31
427.402	123.31
427.625	142.31
427.847	135.31
428.069	134.31
428.292	102.31
428.514	82.31
428.736	81.31
428.958	79.31
429.181	87.31
429.403	94.31
429.625	104.31
429.847	86.31
430.069	98.31
430.292	96.31
430.514	86.31
430.736	83.31
430.958	96.31
431.18	91.31
431.402	80.31
431.624	86.31
431.846	95.31
432.068	92.31
432.29	82.31
432.512	85.31
432.734	82.31
432.956	77.31
433.178	92.31
433.4	101.31
433.622	95.31
433.844	89.31
434.066	81.31
434.287	92.31
434.509	94.31
434.731	92.31
434.953	97.31
435.175	94.31
435.397	97.31
435.618	98.31
435.84	102.31
436.062	117.31
436.284	124.31
436.505	103.31
436.727	86.31
436.949	99.31
437.17	79.31
437.392	91.31
437.614	104.31
437.835	90.31
438.057	113.31
438.278	103.31
438.5	89.31
438.721	117.31
438.943	95.31
439.165	92.31
439.386	85.31
439.608	98.31
439.829	88.31
440.05	109.31
440.272	132.31
440.493	92.31
440.715	86.31
440.936	86.31
441.158	82.31
441.379	90.31
441.6	84.31
441.822	101.31
442.043	107.31
442.264	101.31
442.486	87.31
442.707	90.31
442.928	84.31
443.149	126.31
443.371	130.31
443.592	99.31
443.813	113.31
444.034	94.31
444.255	93.31
444.476	94.31
444.698	84.31
444.919	102.31
445.14	149.31
445.361	128.31
445.582	121.31
445.803	115.31
446.024	124.31
446.245	119.31
446.466	107.31
446.687	84.31
446.908	93.31
447.129	78.31
447.35	85.31
447.571	100.31
447.792	95.31
448.013	104.31
448.234	117.31
448.455	91.31
448.675	98.31
448.896	114.31
449.117	87.31
449.338	91.31
449.559	131.31
449.779	124.31
450	90.31
450.221	92.31
450.442	93.31
450.662	104.31
450.883	102.31
451.104	95.31
451.324	91.31
451.545	107.31
451.766	90.31
451.986	86.31
452.207	93.31
452.428	91.31
452.648	93.31
452.869	120.31
453.089	116.31
453.31	116.31
453.53	103.31
453.751	105.31
453.971	92.31
454.192	95.31
454.412	90.31
454.633	75.31
454.853	85.31
455.073	89.31
455.294	99.31
455.514	84.31
455.734	88.31
455.955	91.31
456.175	86.31
456.395	83.31
456.616	89.31
456.836	87.31
457.056	98.31
457.276	88.31
457.497	90.31
457.717	96.31
457.937	87.31
458.157	79.31
458.377	95.31
458.598	107.31
458.818	129.31
459.038	143.31
459.258	115.31
459.478	95.31
459.698	85.31
459.918	88.31
460.138	90.31
460.358	82.31
460.578	83.31
460.798	98.31
461.018	81.31
461.238	76.31
461.458	82.31
461.678	90.31
461.898	83.31
462.118	82.31
462.338	102.31
462.558	79.31
462.777	81.31
462.997	83.31
463.217	82.31
463.437	89.31
463.657	99.31
463.876	94.31
464.096	90.31
464.316	110.31
464.536	100.31
464.755	98.31
464.975	102.31
465.195	143.31
465.414	130.31
465.634	98.31
465.854	93.31
466.073	81.31
466.293	84.31
466.512	84.31
466.732	85.31
466.951	88.31
467.171	105.31
467.391	96.31
467.61	95.31
467.829	91.31
468.049	94.31
468.268	125.31
468.488	85.31
468.707	77.31
468.927	95.31
469.146	83.31
469.365	86.31
469.585	92.31
469.804	97.31
470.023	93.31
470.243	97.31
470.462	94.31
470.681	93.31
470.901	104.31
471.12	83.31
471.339	88.31
471.558	95.31
471.777	109.31
471.997	105.31
472.216	137.31
472.435	213.31
472.654	116.31
472.873	95.31
473.092	87.31
473.311	80.31
473.53	92.31
473.749	103.31
473.968	94.31
474.187	112.31
474.406	92.31
474.625	78.31
474.844	83.31
475.063	101.31
475.282	93.31
475.501	78.31
475.72	96.31
475.939	85.31
476.158	70.31
476.377	91.31
476.596	100.31
476.814	101.31
477.033	75.31
477.252	91.31
477.471	84.31
477.69	98.31
477.908	103.31
478.127	103.31
478.346	87.31
478.564	89.31
478.783	90.31
479.002	103.31
479.22	98.31
479.439	104.31
479.658	88.31
479.876	76.31
480.095	67.31
480.313	84.31
480.532	87.31
480.751	95.31
480.969	136.31
481.188	296.31
481.406	210.31
481.624	106.31
481.843	87.31
482.061	92.31
482.28	94.31
482.498	92.31
482.717	87.31
482.935	85.31
483.153	93.31
483.372	94.31
483.59	97.31
483.808	93.31
484.027	93.31
484.245	87.31
484.463	84.31
484.681	91.31
484.9	98.31
485.118	91.31
485.336	101.31
485.554	97.31
485.772	114.31
485.99	110.31
486.209	105.31
486.427	113.31
486.645	115.31
486.863	103.31
487.081	105.31
487.299	91.31
487.517	104.31
487.735	103.31
487.953	101.31
488.171	106.31
488.389	97.31
488.607	92.31
488.825	95.31
489.043	101.31
489.261	85.31
489.479	90.31
489.696	95.31
489.914	82.31
490.132	92.31
490.35	101.31
490.568	90.31
490.786	79.31
491.003	88.31
491.221	89.31
491.439	99.31
491.657	100.31
491.874	95.31
492.092	67.31
492.31	96.31
492.527	92.31
492.745	82.31
492.963	97.31
493.18	99.31
493.398	84.31
493.615	78.31
493.833	93.31
494.05	94.31
494.268	90.31
494.485	86.31
494.703	96.31
494.92	91.31
495.138	84.31
495.355	82.31
495.573	81.31
495.79	84.31
496.008	103.31
496.225	110.31
496.442	94.31
496.66	101.31
496.877	98.31
497.094	90.31
497.312	97.31
497.529	79.31
497.746	88.31
497.963	91.31
498.181	97.31
498.398	101.31
498.615	101.31
498.832	98.31
499.049	96.31
499.267	94.31
499.484	94.31
499.701	85.31
499.918	90.31
500.135	101.31
500.352	101.31
500.569	92.31
500.786	92.31
501.003	94.31
501.22	100.31
501.437	94.31
501.654	91.31
501.871	113.31
502.088	101.31
502.305	101.31
502.522	95.31
502.739	92.31
502.956	87.31
503.172	86.31
503.389	112.31
503.606	106.31
503.823	101.31
504.04	85.31
504.256	92.31
504.473	105.31
504.69	97.31
504.907	97.31
505.123	87.31
505.34	82.31
505.557	98.31
505.773	101.31
505.99	94.31
506.207	92.31
506.423	101.31
506.64	85.31
506.856	86.31
507.073	94.31
507.289	98.31
507.506	95.31
507.722	99.31
507.939	89.31
508.155	100.31
508.372	94.31
508.588	105.31
508.805	107.31
509.021	111.31
509.238	90.31
509.454	80.31
509.67	109.31
509.887	109.31
510.103	120.31
510.319	196.31
510.536	641.31
510.752	1977.31
510.968	573.31
511.184	151.31
511.401	105.31
511.617	98.31
511.833	100.31
512.049	83.31
512.265	93.31
512.481	81.31
512.698	77.31
512.914	89.31
513.13	96.31
513.346	98.31
513.562	99.31
513.778	91.31
513.994	95.31
514.21	92.31
514.426	108.31
514.642	114.31
514.858	108.31
