Data from Circ_2002_H10_HRD10591_00020.txt Node
Date: Wed Jan 03 10:41:02 EST 2024
User: Yrep
Spectrometer: HR+D1059
Trigger mode: 1
Integration Time (sec): 1.000000E-1
Scans to average: 1
Electric dark correction enabled: true
Nonlinearity correction enabled: false
Boxcar width: 0
XAxis mode: Wavelengths
Number of Pixels in Spectrum: 2048
>>>>>Begin Spectral Data<<<<<
223.165	-10.62
223.4	-10.62
223.635	-10.62
223.869	-28.62
224.104	-5.62
224.338	-7.62
224.573	-19.62
224.808	-8.62
225.042	-4.62
225.277	-9.62
225.511	-9.62
225.746	-1.62
225.98	9.38
226.215	28.38
226.449	18.38
226.683	15.38
226.918	7.38
227.152	27.38
227.387	36.38
227.621	32.38
227.856	43.38
228.09	50.38
228.324	40.38
228.559	53.38
228.793	46.38
229.027	61.38
229.262	62.38
229.496	45.38
229.73	60.38
229.964	70.38
230.199	80.38
230.433	76.38
230.667	95.38
230.901	59.38
231.136	89.38
231.37	70.38
231.604	76.38
231.838	69.38
232.072	75.38
232.306	95.38
232.541	72.38
232.775	64.38
233.009	94.38
233.243	76.38
233.477	74.38
233.711	77.38
233.945	75.38
234.179	74.38
234.413	69.38
234.647	73.38
234.881	79.38
235.115	76.38
235.349	67.38
235.583	76.38
235.817	65.38
236.051	78.38
236.285	74.38
236.519	63.38
236.753	75.38
236.987	73.38
237.221	97.38
237.455	77.38
237.689	84.38
237.922	75.38
238.156	65.38
238.39	71.38
238.624	85.38
238.858	76.38
239.091	65.38
239.325	62.38
239.559	74.38
239.793	65.38
240.027	67.38
240.26	59.38
240.494	75.38
240.728	71.38
240.961	76.38
241.195	66.38
241.429	83.38
241.662	62.38
241.896	72.38
242.13	76.38
242.363	71.38
242.597	78.38
242.83	79.38
243.064	89.38
243.298	70.38
243.531	75.38
243.765	71.38
243.998	65.38
244.232	85.38
244.465	81.38
244.699	94.38
244.932	70.38
245.166	87.38
245.399	76.38
245.633	80.38
245.866	71.38
246.099	75.38
246.333	71.38
246.566	69.38
246.8	65.38
247.033	75.38
247.266	91.38
247.5	85.38
247.733	67.38
247.966	67.38
248.2	79.38
248.433	80.38
248.666	62.38
248.899	86.38
249.133	73.38
249.366	108.38
249.599	80.38
249.832	69.38
250.066	79.38
250.299	63.38
250.532	79.38
250.765	92.38
250.998	63.38
251.231	80.38
251.465	74.38
251.698	71.38
251.931	86.38
252.164	79.38
252.397	71.38
252.63	84.38
252.863	70.38
253.096	80.38
253.329	79.38
253.562	77.38
253.795	63.38
254.028	83.38
254.261	77.38
254.494	64.38
254.727	76.38
254.96	79.38
255.193	70.38
255.426	68.38
255.659	81.38
255.892	73.38
256.124	73.38
256.357	69.38
256.59	76.38
256.823	92.38
257.056	63.38
257.289	77.38
257.521	79.38
257.754	72.38
257.987	64.38
258.22	85.38
258.452	76.38
258.685	72.38
258.918	93.38
259.151	81.38
259.383	77.38
259.616	70.38
259.849	88.38
260.081	79.38
260.314	77.38
260.547	75.38
260.779	74.38
261.012	80.38
261.244	90.38
261.477	82.38
261.71	81.38
261.942	100.38
262.175	101.38
262.407	90.38
262.64	83.38
262.872	91.38
263.105	80.38
263.337	82.38
263.57	87.38
263.802	73.38
264.035	79.38
264.267	65.38
264.499	87.38
264.732	86.38
264.964	77.38
265.197	90.38
265.429	82.38
265.661	85.38
265.894	77.38
266.126	62.38
266.358	77.38
266.591	83.38
266.823	67.38
267.055	72.38
267.287	76.38
267.52	76.38
267.752	78.38
267.984	83.38
268.216	86.38
268.448	86.38
268.681	95.38
268.913	93.38
269.145	62.38
269.377	82.38
269.609	81.38
269.841	91.38
270.073	89.38
270.306	91.38
270.538	82.38
270.77	76.38
271.002	73.38
271.234	66.38
271.466	77.38
271.698	85.38
271.93	76.38
272.162	71.38
272.394	88.38
272.626	71.38
272.858	87.38
273.09	85.38
273.322	87.38
273.553	82.38
273.785	84.38
274.017	82.38
274.249	83.38
274.481	86.38
274.713	75.38
274.945	86.38
275.176	79.38
275.408	90.38
275.64	77.38
275.872	87.38
276.104	75.38
276.335	93.38
276.567	96.38
276.799	99.38
277.031	96.38
277.262	82.38
277.494	93.38
277.726	72.38
277.957	61.38
278.189	86.38
278.421	71.38
278.652	78.38
278.884	84.38
279.115	81.38
279.347	91.38
279.579	80.38
279.81	89.38
280.042	82.38
280.273	82.38
280.505	80.38
280.736	87.38
280.968	85.38
281.199	92.38
281.431	97.38
281.662	81.38
281.894	86.38
282.125	104.38
282.356	119.38
282.588	125.38
282.819	111.38
283.051	78.38
283.282	87.38
283.513	96.38
283.745	83.38
283.976	102.38
284.207	85.38
284.439	82.38
284.67	77.38
284.901	84.38
285.132	87.38
285.364	80.38
285.595	79.38
285.826	90.38
286.057	76.38
286.288	86.38
286.52	80.38
286.751	83.38
286.982	72.38
287.213	84.38
287.444	87.38
287.675	87.38
287.906	71.38
288.138	89.38
288.369	77.38
288.6	92.38
288.831	84.38
289.062	79.38
289.293	78.38
289.524	80.38
289.755	96.38
289.986	75.38
290.217	68.38
290.448	92.38
290.679	97.38
290.91	92.38
291.141	81.38
291.371	75.38
291.602	86.38
291.833	75.38
292.064	67.38
292.295	85.38
292.526	89.38
292.757	76.38
292.987	79.38
293.218	81.38
293.449	84.38
293.68	75.38
293.91	85.38
294.141	86.38
294.372	93.38
294.603	95.38
294.833	101.38
295.064	82.38
295.295	77.38
295.525	93.38
295.756	92.38
295.987	110.38
296.217	129.38
296.448	125.38
296.679	89.38
296.909	74.38
297.14	75.38
297.37	84.38
297.601	76.38
297.831	94.38
298.062	81.38
298.292	76.38
298.523	82.38
298.753	88.38
298.984	89.38
299.214	86.38
299.445	85.38
299.675	92.38
299.905	85.38
300.136	92.38
300.366	92.38
300.597	88.38
300.827	96.38
301.057	94.38
301.288	101.38
301.518	81.38
301.748	86.38
301.979	94.38
302.209	78.38
302.439	85.38
302.669	88.38
302.9	77.38
303.13	86.38
303.36	85.38
303.59	106.38
303.82	111.38
304.051	95.38
304.281	93.38
304.511	105.38
304.741	84.38
304.971	103.38
305.201	82.38
305.431	80.38
305.661	89.38
305.891	93.38
306.121	77.38
306.352	93.38
306.582	92.38
306.812	92.38
307.042	76.38
307.272	89.38
307.502	84.38
307.731	87.38
307.961	83.38
308.191	70.38
308.421	96.38
308.651	94.38
308.881	98.38
309.111	80.38
309.341	97.38
309.571	82.38
309.8	89.38
310.03	83.38
310.26	87.38
310.49	82.38
310.72	98.38
310.949	102.38
311.179	101.38
311.409	96.38
311.639	81.38
311.868	92.38
312.098	93.38
312.328	90.38
312.557	96.38
312.787	109.38
313.017	87.38
313.246	82.38
313.476	86.38
313.706	84.38
313.935	86.38
314.165	108.38
314.394	103.38
314.624	98.38
314.853	81.38
315.083	93.38
315.312	100.38
315.542	78.38
315.771	78.38
316.001	78.38
316.23	92.38
316.46	81.38
316.689	77.38
316.919	89.38
317.148	96.38
317.377	79.38
317.607	83.38
317.836	91.38
318.065	78.38
318.295	92.38
318.524	79.38
318.753	84.38
318.983	97.38
319.212	93.38
319.441	106.38
319.67	109.38
319.9	91.38
320.129	87.38
320.358	79.38
320.587	97.38
320.816	93.38
321.046	92.38
321.275	93.38
321.504	93.38
321.733	100.38
321.962	87.38
322.191	85.38
322.42	96.38
322.649	114.38
322.878	116.38
323.108	114.38
323.337	99.38
323.566	144.38
323.795	150.38
324.024	203.38
324.253	404.38
324.482	880.38
324.71	1788.38
324.939	2417.38
325.168	887.38
325.397	244.38
325.626	158.38
325.855	142.38
326.084	127.38
326.313	124.38
326.542	146.38
326.77	238.38
326.999	484.38
327.228	976.38
327.457	1838.38
327.686	1437.38
327.914	388.38
328.143	176.38
328.372	129.38
328.6	116.38
328.829	119.38
329.058	121.38
329.287	125.38
329.515	107.38
329.744	99.38
329.972	86.38
330.201	107.38
330.43	102.38
330.658	112.38
330.887	129.38
331.115	116.38
331.344	99.38
331.572	103.38
331.801	102.38
332.03	104.38
332.258	96.38
332.486	92.38
332.715	88.38
332.943	92.38
333.172	93.38
333.4	88.38
333.629	87.38
333.857	102.38
334.085	106.38
334.314	100.38
334.542	103.38
334.771	95.38
334.999	92.38
335.227	102.38
335.455	74.38
335.684	85.38
335.912	100.38
336.14	94.38
336.369	89.38
336.597	105.38
336.825	88.38
337.053	86.38
337.281	84.38
337.51	79.38
337.738	93.38
337.966	80.38
338.194	90.38
338.422	84.38
338.65	88.38
338.878	95.38
339.106	82.38
339.334	83.38
339.562	80.38
339.79	87.38
340.018	86.38
340.246	90.38
340.474	80.38
340.702	102.38
340.93	96.38
341.158	96.38
341.386	85.38
341.614	104.38
341.842	97.38
342.07	90.38
342.298	87.38
342.526	91.38
342.754	84.38
342.981	79.38
343.209	84.38
343.437	100.38
343.665	66.38
343.893	92.38
344.12	89.38
344.348	81.38
344.576	94.38
344.804	89.38
345.031	101.38
345.259	80.38
345.487	86.38
345.714	86.38
345.942	93.38
346.17	96.38
346.397	83.38
346.625	100.38
346.853	99.38
347.08	93.38
347.308	105.38
347.535	94.38
347.763	95.38
347.99	96.38
348.218	97.38
348.445	88.38
348.673	93.38
348.9	96.38
349.128	82.38
349.355	89.38
349.583	79.38
349.81	83.38
350.037	93.38
350.265	99.38
350.492	109.38
350.72	96.38
350.947	95.38
351.174	109.38
351.402	104.38
351.629	108.38
351.856	92.38
352.083	102.38
352.311	100.38
352.538	104.38
352.765	112.38
352.992	105.38
353.22	108.38
353.447	99.38
353.674	74.38
353.901	100.38
354.128	82.38
354.355	99.38
354.583	96.38
354.81	88.38
355.037	87.38
355.264	88.38
355.491	87.38
355.718	90.38
355.945	104.38
356.172	80.38
356.399	96.38
356.626	87.38
356.853	81.38
357.08	89.38
357.307	83.38
357.534	93.38
357.761	80.38
357.988	91.38
358.215	109.38
358.441	89.38
358.668	96.38
358.895	93.38
359.122	90.38
359.349	103.38
359.576	89.38
359.802	115.38
360.029	121.38
360.256	112.38
360.483	108.38
360.709	86.38
360.936	89.38
361.163	80.38
361.39	89.38
361.616	80.38
361.843	87.38
362.07	87.38
362.296	105.38
362.523	96.38
362.749	100.38
362.976	75.38
363.203	95.38
363.429	89.38
363.656	97.38
363.882	84.38
364.109	99.38
364.335	96.38
364.562	83.38
364.788	83.38
365.015	99.38
365.241	103.38
365.468	99.38
365.694	94.38
365.92	101.38
366.147	87.38
366.373	75.38
366.599	83.38
366.826	106.38
367.052	93.38
367.278	91.38
367.505	76.38
367.731	94.38
367.957	87.38
368.184	101.38
368.41	95.38
368.636	119.38
368.862	113.38
369.089	107.38
369.315	99.38
369.541	85.38
369.767	79.38
369.993	84.38
370.219	93.38
370.445	90.38
370.672	85.38
370.898	97.38
371.124	71.38
371.35	78.38
371.576	80.38
371.802	78.38
372.028	87.38
372.254	101.38
372.48	89.38
372.706	84.38
372.932	77.38
373.158	84.38
373.384	89.38
373.61	92.38
373.835	83.38
374.061	88.38
374.287	93.38
374.513	71.38
374.739	84.38
374.965	95.38
375.191	81.38
375.416	96.38
375.642	94.38
375.868	83.38
376.094	95.38
376.319	84.38
376.545	80.38
376.771	92.38
376.997	88.38
377.222	84.38
377.448	83.38
377.674	96.38
377.899	81.38
378.125	79.38
378.35	89.38
378.576	83.38
378.802	84.38
379.027	81.38
379.253	94.38
379.478	96.38
379.704	92.38
379.929	86.38
380.155	90.38
380.38	87.38
380.606	89.38
380.831	92.38
381.057	101.38
381.282	82.38
381.507	89.38
381.733	103.38
381.958	103.38
382.184	104.38
382.409	108.38
382.634	104.38
382.86	88.38
383.085	111.38
383.31	98.38
383.535	95.38
383.761	100.38
383.986	107.38
384.211	88.38
384.436	100.38
384.662	97.38
384.887	115.38
385.112	104.38
385.337	92.38
385.562	113.38
385.787	109.38
386.013	127.38
386.238	127.38
386.463	111.38
386.688	91.38
386.913	89.38
387.138	104.38
387.363	99.38
387.588	92.38
387.813	109.38
388.038	100.38
388.263	118.38
388.488	105.38
388.713	84.38
388.938	108.38
389.163	96.38
389.387	88.38
389.612	94.38
389.837	87.38
390.062	95.38
390.287	86.38
390.512	83.38
390.736	90.38
390.961	86.38
391.186	86.38
391.411	83.38
391.636	90.38
391.86	95.38
392.085	96.38
392.31	72.38
392.534	81.38
392.759	86.38
392.984	81.38
393.208	84.38
393.433	96.38
393.658	92.38
393.882	81.38
394.107	96.38
394.331	85.38
394.556	73.38
394.78	88.38
395.005	75.38
395.229	81.38
395.454	83.38
395.678	80.38
395.903	90.38
396.127	96.38
396.352	99.38
396.576	92.38
396.801	97.38
397.025	89.38
397.249	68.38
397.474	75.38
397.698	79.38
397.922	79.38
398.147	88.38
398.371	73.38
398.595	91.38
398.82	83.38
399.044	68.38
399.268	83.38
399.492	84.38
399.717	92.38
399.941	89.38
400.165	94.38
400.389	84.38
400.613	94.38
400.837	80.38
401.062	103.38
401.286	84.38
401.51	78.38
401.734	82.38
401.958	104.38
402.182	129.38
402.406	150.38
402.63	120.38
402.854	93.38
403.078	94.38
403.302	79.38
403.526	86.38
403.75	92.38
403.974	80.38
404.198	76.38
404.422	86.38
404.645	84.38
404.869	74.38
405.093	96.38
405.317	88.38
405.541	93.38
405.765	90.38
405.988	117.38
406.212	150.38
406.436	221.38
406.66	148.38
406.883	88.38
407.107	99.38
407.331	76.38
407.555	95.38
407.778	81.38
408.002	84.38
408.226	89.38
408.449	98.38
408.673	89.38
408.896	97.38
409.12	87.38
409.344	83.38
409.567	69.38
409.791	89.38
410.014	92.38
410.238	95.38
410.461	68.38
410.685	70.38
410.908	86.38
411.132	108.38
411.355	84.38
411.578	82.38
411.802	104.38
412.025	91.38
412.249	76.38
412.472	93.38
412.695	93.38
412.919	92.38
413.142	92.38
413.365	81.38
413.589	92.38
413.812	79.38
414.035	95.38
414.258	81.38
414.482	93.38
414.705	95.38
414.928	92.38
415.151	93.38
415.374	88.38
415.597	82.38
415.821	101.38
416.044	73.38
416.267	83.38
416.49	76.38
416.713	88.38
416.936	79.38
417.159	84.38
417.382	94.38
417.605	72.38
417.828	86.38
418.051	99.38
418.274	93.38
418.497	81.38
418.72	75.38
418.943	79.38
419.166	78.38
419.389	88.38
419.611	91.38
419.834	83.38
420.057	93.38
420.28	93.38
420.503	89.38
420.726	87.38
420.948	86.38
421.171	94.38
421.394	82.38
421.617	81.38
421.839	83.38
422.062	97.38
422.285	84.38
422.507	109.38
422.73	97.38
422.953	97.38
423.175	95.38
423.398	100.38
423.621	102.38
423.843	81.38
424.066	76.38
424.288	73.38
424.511	93.38
424.733	80.38
424.956	107.38
425.178	87.38
425.401	95.38
425.623	91.38
425.846	87.38
426.068	100.38
426.291	93.38
426.513	85.38
426.735	86.38
426.958	94.38
427.18	88.38
427.402	130.38
427.625	171.38
427.847	128.38
428.069	103.38
428.292	85.38
428.514	74.38
428.736	89.38
428.958	89.38
429.181	85.38
429.403	85.38
429.625	89.38
429.847	85.38
430.069	88.38
430.292	80.38
430.514	82.38
430.736	86.38
430.958	84.38
431.18	76.38
431.402	88.38
431.624	91.38
431.846	88.38
432.068	93.38
432.29	77.38
432.512	77.38
432.734	100.38
432.956	84.38
433.178	86.38
433.4	99.38
433.622	91.38
433.844	94.38
434.066	107.38
434.287	93.38
434.509	83.38
434.731	91.38
434.953	87.38
435.175	86.38
435.397	84.38
435.618	98.38
435.84	88.38
436.062	110.38
436.284	110.38
436.505	99.38
436.727	107.38
436.949	90.38
437.17	84.38
437.392	73.38
437.614	86.38
437.835	90.38
438.057	123.38
438.278	105.38
438.5	108.38
438.721	111.38
438.943	99.38
439.165	88.38
439.386	79.38
439.608	84.38
439.829	116.38
440.05	127.38
440.272	145.38
440.493	96.38
440.715	77.38
440.936	88.38
441.158	101.38
441.379	84.38
441.6	92.38
441.822	93.38
442.043	95.38
442.264	102.38
442.486	97.38
442.707	95.38
442.928	107.38
443.149	131.38
443.371	115.38
443.592	98.38
443.813	97.38
444.034	108.38
444.255	94.38
444.476	97.38
444.698	87.38
444.919	75.38
445.14	125.38
445.361	109.38
445.582	110.38
445.803	125.38
446.024	128.38
446.245	147.38
446.466	113.38
446.687	85.38
446.908	93.38
447.129	75.38
447.35	99.38
447.571	93.38
447.792	90.38
448.013	99.38
448.234	101.38
448.455	91.38
448.675	102.38
448.896	116.38
449.117	111.38
449.338	95.38
449.559	124.38
449.779	123.38
450	103.38
450.221	84.38
450.442	82.38
450.662	88.38
450.883	96.38
451.104	109.38
451.324	93.38
451.545	73.38
451.766	88.38
451.986	72.38
452.207	82.38
452.428	109.38
452.648	105.38
452.869	100.38
453.089	104.38
453.31	112.38
453.53	84.38
453.751	96.38
453.971	88.38
454.192	100.38
454.412	82.38
454.633	80.38
454.853	89.38
455.073	75.38
455.294	93.38
455.514	87.38
455.734	81.38
455.955	96.38
456.175	95.38
456.395	72.38
456.616	98.38
456.836	83.38
457.056	78.38
457.276	82.38
457.497	81.38
457.717	79.38
457.937	85.38
458.157	81.38
458.377	99.38
458.598	101.38
458.818	139.38
459.038	141.38
459.258	123.38
459.478	75.38
459.698	100.38
459.918	79.38
460.138	93.38
460.358	79.38
460.578	79.38
460.798	89.38
461.018	90.38
461.238	79.38
461.458	89.38
461.678	83.38
461.898	75.38
462.118	84.38
462.338	97.38
462.558	94.38
462.777	75.38
462.997	75.38
463.217	86.38
463.437	98.38
463.657	71.38
463.876	99.38
464.096	83.38
464.316	88.38
464.536	101.38
464.755	98.38
464.975	108.38
465.195	174.38
465.414	158.38
465.634	98.38
465.854	93.38
466.073	89.38
466.293	77.38
466.512	87.38
466.732	85.38
466.951	92.38
467.171	95.38
467.391	84.38
467.61	99.38
467.829	104.38
468.049	88.38
468.268	79.38
468.488	87.38
468.707	80.38
468.927	84.38
469.146	90.38
469.365	83.38
469.585	81.38
469.804	86.38
470.023	86.38
470.243	96.38
470.462	102.38
470.681	103.38
470.901	82.38
471.12	91.38
471.339	91.38
471.558	88.38
471.777	86.38
471.997	82.38
472.216	84.38
472.435	88.38
472.654	90.38
472.873	95.38
473.092	88.38
473.311	90.38
473.53	81.38
473.749	81.38
473.968	99.38
474.187	111.38
474.406	98.38
474.625	88.38
474.844	97.38
475.063	78.38
475.282	87.38
475.501	82.38
475.72	73.38
475.939	88.38
476.158	81.38
476.377	85.38
476.596	83.38
476.814	100.38
477.033	99.38
477.252	90.38
477.471	87.38
477.69	85.38
477.908	84.38
478.127	96.38
478.346	91.38
478.564	102.38
478.783	98.38
479.002	85.38
479.22	72.38
479.439	100.38
479.658	98.38
479.876	92.38
480.095	82.38
480.313	85.38
480.532	83.38
480.751	87.38
480.969	99.38
481.188	86.38
481.406	106.38
481.624	95.38
481.843	71.38
482.061	85.38
482.28	75.38
482.498	91.38
482.717	90.38
482.935	82.38
483.153	87.38
483.372	94.38
483.59	88.38
483.808	74.38
484.027	84.38
484.245	107.38
484.463	86.38
484.681	107.38
484.9	102.38
485.118	95.38
485.336	88.38
485.554	93.38
485.772	89.38
485.99	103.38
486.209	104.38
486.427	101.38
486.645	104.38
486.863	116.38
487.081	87.38
487.299	91.38
487.517	98.38
487.735	102.38
487.953	86.38
488.171	96.38
488.389	79.38
488.607	94.38
488.825	87.38
489.043	84.38
489.261	87.38
489.479	92.38
489.696	88.38
489.914	87.38
490.132	87.38
490.35	88.38
490.568	86.38
490.786	81.38
491.003	83.38
491.221	69.38
491.439	73.38
491.657	93.38
491.874	97.38
492.092	103.38
492.31	90.38
492.527	88.38
492.745	104.38
492.963	76.38
493.18	84.38
493.398	106.38
493.615	104.38
493.833	78.38
494.05	89.38
494.268	85.38
494.485	80.38
494.703	80.38
494.92	83.38
495.138	79.38
495.355	92.38
495.573	82.38
495.79	107.38
496.008	83.38
496.225	89.38
496.442	82.38
496.66	87.38
496.877	94.38
497.094	102.38
497.312	99.38
497.529	97.38
497.746	92.38
497.963	95.38
498.181	88.38
498.398	93.38
498.615	98.38
498.832	110.38
499.049	85.38
499.267	91.38
499.484	84.38
499.701	83.38
499.918	83.38
500.135	93.38
500.352	79.38
500.569	93.38
500.786	80.38
501.003	82.38
501.22	86.38
501.437	93.38
501.654	109.38
501.871	101.38
502.088	83.38
502.305	75.38
502.522	99.38
502.739	89.38
502.956	97.38
503.172	74.38
503.389	94.38
503.606	105.38
503.823	96.38
504.04	77.38
504.256	92.38
504.473	78.38
504.69	92.38
504.907	81.38
505.123	98.38
505.34	93.38
505.557	85.38
505.773	81.38
505.99	86.38
506.207	80.38
506.423	88.38
506.64	79.38
506.856	89.38
507.073	71.38
507.289	91.38
507.506	83.38
507.722	99.38
507.939	101.38
508.155	94.38
508.372	79.38
508.588	107.38
508.805	96.38
509.021	103.38
509.238	108.38
509.454	94.38
509.67	87.38
509.887	97.38
510.103	128.38
510.319	211.38
510.536	714.38
510.752	2373.38
510.968	662.38
511.184	161.38
511.401	108.38
511.617	98.38
511.833	84.38
512.049	85.38
512.265	74.38
512.481	99.38
512.698	77.38
512.914	86.38
513.13	85.38
513.346	82.38
513.562	81.38
513.778	89.38
513.994	100.38
514.21	89.38
514.426	97.38
514.642	121.38
514.858	114.38
515.074	167.38
515.29	437.38
515.506	1461.38
515.721	551.38
515.937	151.38
516.153	109.38
516.369	107.38
516.585	100.38
