Data from Circ_2002_H10_HRD10591_00002.txt Node
Date: Wed Jan 03 10:40:58 EST 2024
User: Yrep
Spectrometer: HR+D1059
Trigger mode: 1
Integration Time (sec): 1.000000E-1
Scans to average: 1
Electric dark correction enabled: true
Nonlinearity correction enabled: false
Boxcar width: 0
XAxis mode: Wavelengths
Number of Pixels in Spectrum: 2048
>>>>>Begin Spectral Data<<<<<
223.165	-18.75
223.4	-18.75
223.635	-18.75
223.869	-2.75
224.104	-14.75
224.338	-20.75
224.573	-10.75
224.808	-13.75
225.042	3.25
225.277	-8.75
225.511	9.25
225.746	3.25
225.98	0.25
226.215	3.25
226.449	7.25
226.683	17.25
226.918	5.25
227.152	41.25
227.387	36.25
227.621	29.25
227.856	43.25
228.09	43.25
228.324	53.25
228.559	43.25
228.793	58.25
229.027	73.25
229.262	73.25
229.496	68.25
229.73	66.25
229.964	67.25
230.199	91.25
230.433	70.25
230.667	90.25
230.901	68.25
231.136	67.25
231.37	74.25
231.604	69.25
231.838	76.25
232.072	71.25
232.306	75.25
232.541	88.25
232.775	78.25
233.009	75.25
233.243	86.25
233.477	81.25
233.711	80.25
233.945	55.25
234.179	75.25
234.413	67.25
234.647	77.25
234.881	72.25
235.115	87.25
235.349	81.25
235.583	84.25
235.817	76.25
236.051	65.25
236.285	69.25
236.519	73.25
236.753	76.25
236.987	77.25
237.221	80.25
237.455	77.25
237.689	66.25
237.922	71.25
238.156	77.25
238.39	85.25
238.624	87.25
238.858	78.25
239.091	78.25
239.325	82.25
239.559	82.25
239.793	70.25
240.027	79.25
240.26	90.25
240.494	87.25
240.728	76.25
240.961	74.25
241.195	83.25
241.429	71.25
241.662	70.25
241.896	75.25
242.13	65.25
242.363	74.25
242.597	78.25
242.83	77.25
243.064	75.25
243.298	73.25
243.531	64.25
243.765	73.25
243.998	74.25
244.232	86.25
244.465	75.25
244.699	79.25
244.932	63.25
245.166	74.25
245.399	70.25
245.633	64.25
245.866	84.25
246.099	76.25
246.333	69.25
246.566	81.25
246.8	86.25
247.033	86.25
247.266	77.25
247.5	76.25
247.733	66.25
247.966	70.25
248.2	74.25
248.433	79.25
248.666	79.25
248.899	83.25
249.133	87.25
249.366	80.25
249.599	88.25
249.832	79.25
250.066	84.25
250.299	65.25
250.532	69.25
250.765	84.25
250.998	79.25
251.231	73.25
251.465	67.25
251.698	72.25
251.931	84.25
252.164	71.25
252.397	79.25
252.63	89.25
252.863	90.25
253.096	80.25
253.329	89.25
253.562	86.25
253.795	81.25
254.028	84.25
254.261	85.25
254.494	72.25
254.727	79.25
254.96	67.25
255.193	69.25
255.426	82.25
255.659	66.25
255.892	81.25
256.124	79.25
256.357	75.25
256.59	94.25
256.823	84.25
257.056	73.25
257.289	87.25
257.521	91.25
257.754	73.25
257.987	76.25
258.22	89.25
258.452	87.25
258.685	70.25
258.918	81.25
259.151	72.25
259.383	101.25
259.616	88.25
259.849	74.25
260.081	88.25
260.314	86.25
260.547	78.25
260.779	61.25
261.012	82.25
261.244	85.25
261.477	73.25
261.71	81.25
261.942	89.25
262.175	84.25
262.407	89.25
262.64	83.25
262.872	83.25
263.105	71.25
263.337	81.25
263.57	81.25
263.802	84.25
264.035	67.25
264.267	76.25
264.499	78.25
264.732	75.25
264.964	80.25
265.197	77.25
265.429	88.25
265.661	89.25
265.894	95.25
266.126	86.25
266.358	77.25
266.591	79.25
266.823	76.25
267.055	95.25
267.287	82.25
267.52	74.25
267.752	88.25
267.984	78.25
268.216	72.25
268.448	81.25
268.681	82.25
268.913	83.25
269.145	84.25
269.377	74.25
269.609	66.25
269.841	80.25
270.073	78.25
270.306	101.25
270.538	91.25
270.77	85.25
271.002	80.25
271.234	78.25
271.466	78.25
271.698	86.25
271.93	82.25
272.162	87.25
272.394	88.25
272.626	89.25
272.858	81.25
273.09	85.25
273.322	88.25
273.553	77.25
273.785	94.25
274.017	77.25
274.249	79.25
274.481	86.25
274.713	74.25
274.945	74.25
275.176	90.25
275.408	81.25
275.64	92.25
275.872	86.25
276.104	90.25
276.335	91.25
276.567	92.25
276.799	78.25
277.031	97.25
277.262	77.25
277.494	71.25
277.726	85.25
277.957	96.25
278.189	92.25
278.421	88.25
278.652	84.25
278.884	71.25
279.115	93.25
279.347	78.25
279.579	77.25
279.81	76.25
280.042	83.25
280.273	87.25
280.505	95.25
280.736	101.25
280.968	87.25
281.199	93.25
281.431	91.25
281.662	93.25
281.894	89.25
282.125	90.25
282.356	101.25
282.588	112.25
282.819	97.25
283.051	80.25
283.282	82.25
283.513	82.25
283.745	90.25
283.976	80.25
284.207	70.25
284.439	87.25
284.67	81.25
284.901	76.25
285.132	88.25
285.364	61.25
285.595	79.25
285.826	83.25
286.057	90.25
286.288	83.25
286.52	93.25
286.751	88.25
286.982	85.25
287.213	81.25
287.444	78.25
287.675	77.25
287.906	88.25
288.138	82.25
288.369	89.25
288.6	87.25
288.831	80.25
289.062	89.25
289.293	80.25
289.524	79.25
289.755	80.25
289.986	82.25
290.217	81.25
290.448	77.25
290.679	78.25
290.91	85.25
291.141	93.25
291.371	88.25
291.602	69.25
291.833	80.25
292.064	86.25
292.295	74.25
292.526	81.25
292.757	88.25
292.987	91.25
293.218	73.25
293.449	88.25
293.68	89.25
293.91	90.25
294.141	94.25
294.372	92.25
294.603	78.25
294.833	71.25
295.064	75.25
295.295	90.25
295.525	81.25
295.756	94.25
295.987	106.25
296.217	119.25
296.448	75.25
296.679	96.25
296.909	93.25
297.14	84.25
297.37	76.25
297.601	75.25
297.831	92.25
298.062	96.25
298.292	88.25
298.523	88.25
298.753	74.25
298.984	84.25
299.214	79.25
299.445	88.25
299.675	91.25
299.905	75.25
300.136	90.25
300.366	91.25
300.597	67.25
300.827	85.25
301.057	85.25
301.288	88.25
301.518	83.25
301.748	67.25
301.979	111.25
302.209	81.25
302.439	87.25
302.669	85.25
302.9	86.25
303.13	95.25
303.36	105.25
303.59	99.25
303.82	106.25
304.051	82.25
304.281	100.25
304.511	92.25
304.741	98.25
304.971	87.25
305.201	79.25
305.431	67.25
305.661	79.25
305.891	84.25
306.121	90.25
306.352	95.25
306.582	107.25
306.812	76.25
307.042	87.25
307.272	85.25
307.502	98.25
307.731	79.25
307.961	85.25
308.191	84.25
308.421	85.25
308.651	82.25
308.881	79.25
309.111	92.25
309.341	94.25
309.571	84.25
309.8	91.25
310.03	81.25
310.26	90.25
310.49	95.25
310.72	89.25
310.949	88.25
311.179	93.25
311.409	85.25
311.639	102.25
311.868	92.25
312.098	98.25
312.328	79.25
312.557	100.25
312.787	92.25
313.017	92.25
313.246	89.25
313.476	93.25
313.706	99.25
313.935	91.25
314.165	89.25
314.394	92.25
314.624	85.25
314.853	85.25
315.083	83.25
315.312	95.25
315.542	90.25
315.771	96.25
316.001	90.25
316.23	91.25
316.46	82.25
316.689	80.25
316.919	94.25
317.148	98.25
317.377	99.25
317.607	107.25
317.836	83.25
318.065	84.25
318.295	82.25
318.524	86.25
318.753	85.25
318.983	89.25
319.212	72.25
319.441	98.25
319.67	91.25
319.9	81.25
320.129	85.25
320.358	88.25
320.587	88.25
320.816	91.25
321.046	87.25
321.275	94.25
321.504	98.25
321.733	96.25
321.962	104.25
322.191	90.25
322.42	82.25
322.649	97.25
322.878	115.25
323.108	109.25
323.337	105.25
323.566	116.25
323.795	131.25
324.024	163.25
324.253	298.25
324.482	584.25
324.71	1158.25
324.939	1550.25
325.168	590.25
325.397	201.25
325.626	121.25
325.855	114.25
326.084	101.25
326.313	129.25
326.542	137.25
326.77	187.25
326.999	364.25
327.228	693.25
327.457	1231.25
327.686	983.25
327.914	270.25
328.143	138.25
328.372	122.25
328.6	98.25
328.829	113.25
329.058	106.25
329.287	108.25
329.515	101.25
329.744	94.25
329.972	94.25
330.201	89.25
330.43	113.25
330.658	106.25
330.887	114.25
331.115	98.25
331.344	79.25
331.572	96.25
331.801	94.25
332.03	91.25
332.258	87.25
332.486	80.25
332.715	85.25
332.943	94.25
333.172	96.25
333.4	102.25
333.629	98.25
333.857	107.25
334.085	104.25
334.314	102.25
334.542	95.25
334.771	89.25
334.999	91.25
335.227	78.25
335.455	91.25
335.684	95.25
335.912	89.25
336.14	86.25
336.369	96.25
336.597	92.25
336.825	86.25
337.053	94.25
337.281	98.25
337.51	78.25
337.738	90.25
337.966	96.25
338.194	86.25
338.422	94.25
338.65	97.25
338.878	90.25
339.106	96.25
339.334	91.25
339.562	96.25
339.79	87.25
340.018	82.25
340.246	89.25
340.474	79.25
340.702	98.25
340.93	89.25
341.158	101.25
341.386	93.25
341.614	78.25
341.842	95.25
342.07	86.25
342.298	85.25
342.526	91.25
342.754	104.25
342.981	89.25
343.209	87.25
343.437	85.25
343.665	77.25
343.893	92.25
344.12	94.25
344.348	86.25
344.576	73.25
344.804	102.25
345.031	80.25
345.259	87.25
345.487	89.25
345.714	76.25
345.942	99.25
346.17	87.25
346.397	90.25
346.625	78.25
346.853	78.25
347.08	87.25
347.308	91.25
347.535	102.25
347.763	84.25
347.99	96.25
348.218	90.25
348.445	89.25
348.673	87.25
348.9	86.25
349.128	100.25
349.355	87.25
349.583	91.25
349.81	92.25
350.037	91.25
350.265	91.25
350.492	91.25
350.72	99.25
350.947	94.25
351.174	104.25
351.402	89.25
351.629	101.25
351.856	90.25
352.083	100.25
352.311	88.25
352.538	97.25
352.765	102.25
352.992	104.25
353.22	103.25
353.447	109.25
353.674	101.25
353.901	101.25
354.128	93.25
354.355	103.25
354.583	91.25
354.81	109.25
355.037	103.25
355.264	110.25
355.491	90.25
355.718	116.25
355.945	105.25
356.172	86.25
356.399	96.25
356.626	93.25
356.853	83.25
357.08	82.25
357.307	104.25
357.534	90.25
357.761	114.25
357.988	97.25
358.215	100.25
358.441	102.25
358.668	107.25
358.895	104.25
359.122	94.25
359.349	106.25
359.576	94.25
359.802	104.25
360.029	99.25
360.256	105.25
360.483	83.25
360.709	84.25
360.936	87.25
361.163	99.25
361.39	77.25
361.616	79.25
361.843	87.25
362.07	94.25
362.296	72.25
362.523	71.25
362.749	84.25
362.976	91.25
363.203	95.25
363.429	92.25
363.656	83.25
363.882	93.25
364.109	91.25
364.335	90.25
364.562	86.25
364.788	86.25
365.015	98.25
365.241	90.25
365.468	91.25
365.694	91.25
365.92	90.25
366.147	86.25
366.373	77.25
366.599	89.25
366.826	89.25
367.052	95.25
367.278	87.25
367.505	78.25
367.731	92.25
367.957	89.25
368.184	93.25
368.41	90.25
368.636	88.25
368.862	102.25
369.089	109.25
369.315	94.25
369.541	84.25
369.767	91.25
369.993	94.25
370.219	83.25
370.445	97.25
370.672	91.25
370.898	79.25
371.124	75.25
371.35	71.25
371.576	96.25
371.802	87.25
372.028	96.25
372.254	101.25
372.48	82.25
372.706	95.25
372.932	90.25
373.158	87.25
373.384	81.25
373.61	97.25
373.835	94.25
374.061	90.25
374.287	92.25
374.513	88.25
374.739	89.25
374.965	97.25
375.191	99.25
375.416	87.25
375.642	77.25
375.868	84.25
376.094	89.25
376.319	94.25
376.545	99.25
376.771	95.25
376.997	90.25
377.222	95.25
377.448	97.25
377.674	97.25
377.899	112.25
378.125	90.25
378.35	84.25
378.576	94.25
378.802	96.25
379.027	102.25
379.253	111.25
379.478	95.25
379.704	91.25
379.929	106.25
380.155	93.25
380.38	104.25
380.606	99.25
380.831	101.25
381.057	115.25
381.282	107.25
381.507	101.25
381.733	105.25
381.958	100.25
382.184	142.25
382.409	125.25
382.634	120.25
382.86	104.25
383.085	112.25
383.31	103.25
383.535	122.25
383.761	115.25
383.986	115.25
384.211	115.25
384.436	123.25
384.662	110.25
384.887	136.25
385.112	127.25
385.337	139.25
385.562	131.25
385.787	143.25
386.013	154.25
386.238	155.25
386.463	140.25
386.688	141.25
386.913	145.25
387.138	130.25
387.363	137.25
387.588	127.25
387.813	136.25
388.038	147.25
388.263	158.25
388.488	153.25
388.713	98.25
388.938	101.25
389.163	86.25
389.387	85.25
389.612	111.25
389.837	102.25
390.062	82.25
390.287	101.25
390.512	100.25
390.736	95.25
390.961	92.25
391.186	84.25
391.411	107.25
391.636	88.25
391.86	85.25
392.085	87.25
392.31	92.25
392.534	85.25
392.759	95.25
392.984	87.25
393.208	103.25
393.433	117.25
393.658	112.25
393.882	85.25
394.107	88.25
394.331	87.25
394.556	99.25
394.78	85.25
395.005	90.25
395.229	99.25
395.454	95.25
395.678	82.25
395.903	83.25
396.127	100.25
396.352	87.25
396.576	101.25
396.801	100.25
397.025	110.25
397.249	96.25
397.474	93.25
397.698	99.25
397.922	106.25
398.147	87.25
398.371	94.25
398.595	84.25
398.82	84.25
399.044	73.25
399.268	86.25
399.492	103.25
399.717	95.25
399.941	90.25
400.165	96.25
400.389	96.25
400.613	82.25
400.837	84.25
401.062	89.25
401.286	89.25
401.51	81.25
401.734	96.25
401.958	90.25
402.182	113.25
402.406	110.25
402.63	88.25
402.854	80.25
403.078	88.25
403.302	91.25
403.526	71.25
403.75	85.25
403.974	90.25
404.198	80.25
404.422	95.25
404.645	74.25
404.869	83.25
405.093	90.25
405.317	101.25
405.541	89.25
405.765	89.25
405.988	106.25
406.212	131.25
406.436	164.25
406.66	116.25
406.883	82.25
407.107	84.25
407.331	87.25
407.555	89.25
407.778	90.25
408.002	84.25
408.226	85.25
408.449	77.25
408.673	93.25
408.896	97.25
409.12	102.25
409.344	84.25
409.567	95.25
409.791	88.25
410.014	103.25
410.238	97.25
410.461	80.25
410.685	103.25
410.908	101.25
411.132	98.25
411.355	86.25
411.578	89.25
411.802	79.25
412.025	75.25
412.249	81.25
412.472	100.25
412.695	87.25
412.919	91.25
413.142	81.25
413.365	97.25
413.589	102.25
413.812	95.25
414.035	94.25
414.258	91.25
414.482	91.25
414.705	90.25
414.928	89.25
415.151	97.25
415.374	102.25
415.597	90.25
415.821	102.25
416.044	89.25
416.267	88.25
416.49	82.25
416.713	109.25
416.936	99.25
417.159	87.25
417.382	82.25
417.605	86.25
417.828	95.25
418.051	76.25
418.274	87.25
418.497	91.25
418.72	94.25
418.943	81.25
419.166	79.25
419.389	94.25
419.611	98.25
419.834	84.25
420.057	90.25
420.28	87.25
420.503	88.25
420.726	96.25
420.948	79.25
421.171	77.25
421.394	101.25
421.617	92.25
421.839	85.25
422.062	81.25
422.285	80.25
422.507	90.25
422.73	91.25
422.953	94.25
423.175	91.25
423.398	77.25
423.621	85.25
423.843	96.25
424.066	82.25
424.288	86.25
424.511	87.25
424.733	96.25
424.956	87.25
425.178	81.25
425.401	100.25
425.623	95.25
425.846	82.25
426.068	68.25
426.291	81.25
426.513	89.25
426.735	86.25
426.958	92.25
427.18	110.25
427.402	103.25
427.625	112.25
427.847	115.25
428.069	98.25
428.292	86.25
428.514	88.25
428.736	109.25
428.958	81.25
429.181	88.25
429.403	88.25
429.625	82.25
429.847	99.25
430.069	84.25
430.292	93.25
430.514	105.25
430.736	82.25
430.958	89.25
431.18	86.25
431.402	93.25
431.624	88.25
431.846	75.25
432.068	87.25
432.29	88.25
432.512	87.25
432.734	82.25
432.956	83.25
433.178	91.25
433.4	96.25
433.622	84.25
433.844	103.25
434.066	90.25
434.287	91.25
434.509	75.25
434.731	88.25
434.953	93.25
435.175	74.25
435.397	87.25
435.618	91.25
435.84	94.25
436.062	105.25
436.284	122.25
436.505	87.25
436.727	98.25
436.949	92.25
437.17	94.25
437.392	86.25
437.614	83.25
437.835	80.25
438.057	97.25
438.278	96.25
438.5	90.25
438.721	105.25
438.943	88.25
439.165	84.25
439.386	85.25
439.608	95.25
439.829	103.25
440.05	111.25
440.272	139.25
440.493	93.25
440.715	91.25
440.936	79.25
441.158	84.25
441.379	75.25
441.6	93.25
441.822	88.25
442.043	80.25
442.264	89.25
442.486	98.25
442.707	102.25
442.928	90.25
443.149	96.25
443.371	114.25
443.592	99.25
443.813	109.25
444.034	79.25
444.255	95.25
444.476	101.25
444.698	88.25
444.919	83.25
445.14	122.25
445.361	120.25
445.582	91.25
445.803	118.25
446.024	120.25
446.245	110.25
446.466	101.25
446.687	74.25
446.908	107.25
447.129	88.25
447.35	88.25
447.571	91.25
447.792	89.25
448.013	93.25
448.234	88.25
448.455	75.25
448.675	100.25
448.896	103.25
449.117	103.25
449.338	91.25
449.559	114.25
449.779	116.25
450	86.25
450.221	73.25
450.442	87.25
450.662	86.25
450.883	86.25
451.104	89.25
451.324	87.25
451.545	77.25
451.766	85.25
451.986	80.25
452.207	89.25
452.428	83.25
452.648	87.25
452.869	99.25
453.089	100.25
453.31	76.25
453.53	91.25
453.751	99.25
453.971	90.25
454.192	86.25
454.412	80.25
454.633	72.25
454.853	84.25
455.073	107.25
455.294	85.25
455.514	88.25
455.734	96.25
455.955	77.25
456.175	89.25
456.395	84.25
456.616	85.25
456.836	70.25
457.056	100.25
457.276	93.25
457.497	82.25
457.717	89.25
457.937	89.25
458.157	93.25
458.377	88.25
458.598	91.25
458.818	109.25
459.038	113.25
459.258	106.25
459.478	94.25
459.698	86.25
459.918	94.25
460.138	95.25
460.358	82.25
460.578	74.25
460.798	81.25
461.018	83.25
461.238	83.25
461.458	82.25
461.678	89.25
461.898	85.25
462.118	81.25
462.338	78.25
462.558	82.25
462.777	83.25
462.997	93.25
463.217	77.25
463.437	73.25
463.657	91.25
463.876	85.25
464.096	95.25
464.316	85.25
464.536	79.25
464.755	96.25
464.975	107.25
465.195	129.25
465.414	118.25
465.634	92.25
465.854	97.25
466.073	91.25
466.293	89.25
466.512	91.25
466.732	83.25
466.951	81.25
467.171	86.25
467.391	93.25
467.61	95.25
467.829	88.25
468.049	88.25
468.268	78.25
468.488	84.25
468.707	83.25
468.927	80.25
469.146	87.25
469.365	83.25
469.585	81.25
469.804	81.25
470.023	81.25
470.243	79.25
470.462	78.25
470.681	85.25
470.901	96.25
471.12	85.25
471.339	82.25
471.558	84.25
471.777	87.25
471.997	84.25
472.216	81.25
472.435	91.25
472.654	82.25
472.873	83.25
473.092	86.25
473.311	76.25
473.53	75.25
473.749	84.25
473.968	96.25
474.187	95.25
474.406	98.25
474.625	82.25
474.844	80.25
475.063	77.25
475.282	92.25
475.501	93.25
475.72	93.25
475.939	102.25
476.158	81.25
476.377	86.25
476.596	83.25
476.814	87.25
477.033	96.25
477.252	85.25
477.471	83.25
477.69	78.25
477.908	86.25
478.127	88.25
478.346	75.25
478.564	88.25
478.783	91.25
479.002	102.25
479.22	81.25
479.439	82.25
479.658	86.25
479.876	87.25
480.095	72.25
480.313	90.25
480.532	98.25
480.751	90.25
480.969	91.25
481.188	95.25
481.406	85.25
481.624	90.25
481.843	92.25
482.061	75.25
482.28	94.25
482.498	85.25
482.717	86.25
482.935	98.25
483.153	96.25
483.372	87.25
483.59	79.25
483.808	83.25
484.027	90.25
484.245	92.25
484.463	101.25
484.681	96.25
484.9	86.25
485.118	82.25
485.336	95.25
485.554	102.25
485.772	100.25
485.99	112.25
486.209	107.25
486.427	100.25
486.645	115.25
486.863	104.25
487.081	102.25
487.299	105.25
487.517	98.25
487.735	87.25
487.953	95.25
488.171	80.25
488.389	107.25
488.607	83.25
488.825	94.25
489.043	91.25
489.261	90.25
489.479	91.25
489.696	74.25
489.914	97.25
490.132	90.25
490.35	77.25
490.568	87.25
490.786	87.25
491.003	78.25
491.221	95.25
491.439	106.25
491.657	99.25
491.874	91.25
492.092	98.25
492.31	99.25
492.527	88.25
492.745	93.25
492.963	90.25
493.18	91.25
493.398	112.25
493.615	92.25
493.833	109.25
494.05	108.25
494.268	85.25
494.485	91.25
494.703	73.25
494.92	76.25
495.138	83.25
495.355	87.25
495.573	91.25
495.79	88.25
496.008	90.25
496.225	84.25
496.442	86.25
496.66	85.25
496.877	84.25
497.094	97.25
497.312	95.25
497.529	95.25
497.746	97.25
497.963	95.25
498.181	90.25
498.398	84.25
498.615	95.25
498.832	98.25
499.049	103.25
499.267	97.25
499.484	84.25
499.701	93.25
499.918	75.25
500.135	68.25
500.352	105.25
500.569	82.25
500.786	102.25
501.003	82.25
501.22	94.25
501.437	86.25
501.654	98.25
501.871	77.25
502.088	99.25
502.305	88.25
502.522	95.25
502.739	83.25
502.956	83.25
503.172	90.25
503.389	87.25
503.606	84.25
503.823	101.25
504.04	97.25
504.256	85.25
504.473	87.25
504.69	86.25
504.907	89.25
505.123	86.25
505.34	82.25
505.557	83.25
505.773	88.25
505.99	82.25
506.207	77.25
506.423	95.25
506.64	92.25
506.856	94.25
507.073	97.25
507.289	70.25
507.506	92.25
507.722	106.25
507.939	99.25
508.155	89.25
508.372	88.25
508.588	96.25
508.805	99.25
509.021	85.25
509.238	89.25
509.454	90.25
509.67	93.25
509.887	95.25
510.103	103.25
510.319	138.25
510.536	449.25
510.752	1273.25
510.968	392.25
511.184	122.25
511.401	99.25
511.617	96.25
511.833	80.25
512.049	97.25
512.265	80.25
512.481	99.25
512.698	89.25
512.914	93.25
513.13	98.25
513.346	90.25
513.562	82.25
513.778	105.25
513.994	91.25
514.21	73.25
514.426	110.25
514.642	105.25
514.858	102.25
515.074	125.25
515.29	253.25
515.506	759.25
515.721	306.25
515.937	112.25
516.153	98.25
516.369	85.25
516.585	99.25
516.801	85.25
