Data from Circ_2002_H10_HRD10591_00001.txt Node
Date: Wed Jan 03 10:40:58 EST 2024
User: Yrep
Spectrometer: HR+D1059
Trigger mode: 1
Integration Time (sec): 1.000000E-1
Scans to average: 1
Electric dark correction enabled: true
Nonlinearity correction enabled: false
Boxcar width: 0
XAxis mode: Wavelengths
Number of Pixels in Spectrum: 2048
>>>>>Begin Spectral Data<<<<<
223.165	-7.62
223.4	-7.62
223.635	-7.62
223.869	-22.62
224.104	-8.62
224.338	-19.62
224.573	-10.62
224.808	-17.62
225.042	-2.62
225.277	-24.62
225.511	7.38
225.746	4.38
225.98	0.38
226.215	25.38
226.449	26.38
226.683	6.38
226.918	14.38
227.152	29.38
227.387	33.38
227.621	37.38
227.856	43.38
228.09	57.38
228.324	67.38
228.559	54.38
228.793	67.38
229.027	68.38
229.262	67.38
229.496	54.38
229.73	85.38
229.964	73.38
230.199	69.38
230.433	82.38
230.667	85.38
230.901	80.38
231.136	80.38
231.37	84.38
231.604	83.38
231.838	89.38
232.072	88.38
232.306	77.38
232.541	98.38
232.775	91.38
233.009	87.38
233.243	67.38
233.477	88.38
233.711	81.38
233.945	76.38
234.179	85.38
234.413	86.38
234.647	81.38
234.881	89.38
235.115	69.38
235.349	77.38
235.583	80.38
235.817	89.38
236.051	85.38
236.285	77.38
236.519	75.38
236.753	80.38
236.987	93.38
237.221	89.38
237.455	76.38
237.689	84.38
237.922	79.38
238.156	70.38
238.39	95.38
238.624	67.38
238.858	83.38
239.091	83.38
239.325	77.38
239.559	82.38
239.793	90.38
240.027	79.38
240.26	68.38
240.494	77.38
240.728	73.38
240.961	75.38
241.195	75.38
241.429	60.38
241.662	68.38
241.896	79.38
242.13	74.38
242.363	85.38
242.597	76.38
242.83	76.38
243.064	84.38
243.298	86.38
243.531	90.38
243.765	80.38
243.998	74.38
244.232	80.38
244.465	85.38
244.699	67.38
244.932	74.38
245.166	76.38
245.399	71.38
245.633	93.38
245.866	71.38
246.099	83.38
246.333	76.38
246.566	97.38
246.8	80.38
247.033	88.38
247.266	72.38
247.5	70.38
247.733	88.38
247.966	89.38
248.2	69.38
248.433	92.38
248.666	73.38
248.899	94.38
249.133	67.38
249.366	94.38
249.599	91.38
249.832	75.38
250.066	80.38
250.299	81.38
250.532	77.38
250.765	94.38
250.998	74.38
251.231	95.38
251.465	87.38
251.698	79.38
251.931	79.38
252.164	99.38
252.397	75.38
252.63	83.38
252.863	73.38
253.096	88.38
253.329	83.38
253.562	80.38
253.795	72.38
254.028	72.38
254.261	79.38
254.494	94.38
254.727	70.38
254.96	86.38
255.193	71.38
255.426	81.38
255.659	98.38
255.892	84.38
256.124	82.38
256.357	69.38
256.59	80.38
256.823	83.38
257.056	91.38
257.289	75.38
257.521	94.38
257.754	84.38
257.987	90.38
258.22	84.38
258.452	80.38
258.685	77.38
258.918	81.38
259.151	93.38
259.383	92.38
259.616	89.38
259.849	91.38
260.081	84.38
260.314	79.38
260.547	81.38
260.779	80.38
261.012	86.38
261.244	89.38
261.477	82.38
261.71	96.38
261.942	109.38
262.175	91.38
262.407	86.38
262.64	95.38
262.872	92.38
263.105	88.38
263.337	94.38
263.57	83.38
263.802	86.38
264.035	83.38
264.267	82.38
264.499	92.38
264.732	83.38
264.964	98.38
265.197	85.38
265.429	83.38
265.661	78.38
265.894	90.38
266.126	90.38
266.358	92.38
266.591	95.38
266.823	72.38
267.055	87.38
267.287	100.38
267.52	80.38
267.752	84.38
267.984	89.38
268.216	86.38
268.448	83.38
268.681	90.38
268.913	80.38
269.145	78.38
269.377	82.38
269.609	84.38
269.841	85.38
270.073	91.38
270.306	85.38
270.538	82.38
270.77	77.38
271.002	76.38
271.234	91.38
271.466	91.38
271.698	93.38
271.93	102.38
272.162	90.38
272.394	88.38
272.626	74.38
272.858	68.38
273.09	78.38
273.322	78.38
273.553	97.38
273.785	83.38
274.017	84.38
274.249	91.38
274.481	85.38
274.713	92.38
274.945	97.38
275.176	95.38
275.408	91.38
275.64	93.38
275.872	80.38
276.104	93.38
276.335	104.38
276.567	88.38
276.799	99.38
277.031	101.38
277.262	80.38
277.494	95.38
277.726	89.38
277.957	80.38
278.189	91.38
278.421	89.38
278.652	89.38
278.884	88.38
279.115	91.38
279.347	86.38
279.579	92.38
279.81	83.38
280.042	83.38
280.273	104.38
280.505	96.38
280.736	82.38
280.968	94.38
281.199	103.38
281.431	84.38
281.662	85.38
281.894	103.38
282.125	87.38
282.356	93.38
282.588	108.38
282.819	106.38
283.051	97.38
283.282	80.38
283.513	89.38
283.745	101.38
283.976	83.38
284.207	76.38
284.439	88.38
284.67	100.38
284.901	98.38
285.132	73.38
285.364	95.38
285.595	96.38
285.826	94.38
286.057	90.38
286.288	84.38
286.52	81.38
286.751	76.38
286.982	94.38
287.213	95.38
287.444	85.38
287.675	89.38
287.906	88.38
288.138	87.38
288.369	93.38
288.6	83.38
288.831	100.38
289.062	88.38
289.293	88.38
289.524	74.38
289.755	94.38
289.986	82.38
290.217	85.38
290.448	94.38
290.679	87.38
290.91	85.38
291.141	91.38
291.371	90.38
291.602	90.38
291.833	99.38
292.064	89.38
292.295	82.38
292.526	77.38
292.757	99.38
292.987	83.38
293.218	95.38
293.449	86.38
293.68	86.38
293.91	104.38
294.141	98.38
294.372	96.38
294.603	86.38
294.833	100.38
295.064	84.38
295.295	92.38
295.525	98.38
295.756	104.38
295.987	97.38
296.217	109.38
296.448	107.38
296.679	91.38
296.909	95.38
297.14	103.38
297.37	98.38
297.601	85.38
297.831	79.38
298.062	84.38
298.292	82.38
298.523	86.38
298.753	87.38
298.984	90.38
299.214	94.38
299.445	88.38
299.675	74.38
299.905	83.38
300.136	93.38
300.366	97.38
300.597	104.38
300.827	99.38
301.057	83.38
301.288	99.38
301.518	94.38
301.748	93.38
301.979	114.38
302.209	99.38
302.439	97.38
302.669	88.38
302.9	94.38
303.13	97.38
303.36	90.38
303.59	87.38
303.82	104.38
304.051	79.38
304.281	87.38
304.511	100.38
304.741	91.38
304.971	96.38
305.201	95.38
305.431	92.38
305.661	89.38
305.891	80.38
306.121	73.38
306.352	85.38
306.582	98.38
306.812	99.38
307.042	97.38
307.272	93.38
307.502	94.38
307.731	92.38
307.961	97.38
308.191	104.38
308.421	105.38
308.651	88.38
308.881	89.38
309.111	90.38
309.341	108.38
309.571	98.38
309.8	104.38
310.03	102.38
310.26	90.38
310.49	99.38
310.72	93.38
310.949	100.38
311.179	113.38
311.409	108.38
311.639	88.38
311.868	83.38
312.098	90.38
312.328	89.38
312.557	96.38
312.787	102.38
313.017	99.38
313.246	85.38
313.476	85.38
313.706	97.38
313.935	82.38
314.165	104.38
314.394	93.38
314.624	106.38
314.853	104.38
315.083	104.38
315.312	105.38
315.542	106.38
315.771	76.38
316.001	94.38
316.23	101.38
316.46	95.38
316.689	92.38
316.919	90.38
317.148	105.38
317.377	98.38
317.607	88.38
317.836	96.38
318.065	88.38
318.295	105.38
318.524	99.38
318.753	82.38
318.983	82.38
319.212	93.38
319.441	98.38
319.67	100.38
319.9	85.38
320.129	86.38
320.358	95.38
320.587	104.38
320.816	97.38
321.046	92.38
321.275	105.38
321.504	105.38
321.733	100.38
321.962	83.38
322.191	82.38
322.42	94.38
322.649	108.38
322.878	106.38
323.108	99.38
323.337	110.38
323.566	121.38
323.795	143.38
324.024	155.38
324.253	305.38
324.482	605.38
324.71	1196.38
324.939	1557.38
325.168	586.38
325.397	173.38
325.626	120.38
325.855	112.38
326.084	118.38
326.313	119.38
326.542	130.38
326.77	194.38
326.999	360.38
327.228	713.38
327.457	1265.38
327.686	1044.38
327.914	280.38
328.143	139.38
328.372	121.38
328.6	107.38
328.829	122.38
329.058	121.38
329.287	117.38
329.515	104.38
329.744	103.38
329.972	79.38
330.201	108.38
330.43	99.38
330.658	101.38
330.887	117.38
331.115	89.38
331.344	93.38
331.572	101.38
331.801	102.38
332.03	101.38
332.258	96.38
332.486	96.38
332.715	86.38
332.943	89.38
333.172	100.38
333.4	98.38
333.629	84.38
333.857	109.38
334.085	110.38
334.314	99.38
334.542	100.38
334.771	89.38
334.999	88.38
335.227	95.38
335.455	99.38
335.684	101.38
335.912	99.38
336.14	101.38
336.369	90.38
336.597	87.38
336.825	92.38
337.053	91.38
337.281	100.38
337.51	86.38
337.738	90.38
337.966	94.38
338.194	99.38
338.422	93.38
338.65	107.38
338.878	107.38
339.106	106.38
339.334	93.38
339.562	101.38
339.79	103.38
340.018	93.38
340.246	87.38
340.474	96.38
340.702	102.38
340.93	101.38
341.158	85.38
341.386	97.38
341.614	101.38
341.842	90.38
342.07	68.38
342.298	91.38
342.526	92.38
342.754	99.38
342.981	96.38
343.209	97.38
343.437	90.38
343.665	85.38
343.893	86.38
344.12	83.38
344.348	97.38
344.576	94.38
344.804	94.38
345.031	110.38
345.259	82.38
345.487	92.38
345.714	84.38
345.942	82.38
346.17	77.38
346.397	99.38
346.625	88.38
346.853	101.38
347.08	100.38
347.308	98.38
347.535	82.38
347.763	101.38
347.99	103.38
348.218	94.38
348.445	108.38
348.673	100.38
348.9	94.38
349.128	100.38
349.355	100.38
349.583	95.38
349.81	108.38
350.037	91.38
350.265	91.38
350.492	96.38
350.72	94.38
350.947	98.38
351.174	107.38
351.402	115.38
351.629	97.38
351.856	116.38
352.083	102.38
352.311	114.38
352.538	106.38
352.765	108.38
352.992	99.38
353.22	100.38
353.447	113.38
353.674	102.38
353.901	106.38
354.128	102.38
354.355	106.38
354.583	111.38
354.81	91.38
355.037	90.38
355.264	114.38
355.491	87.38
355.718	102.38
355.945	94.38
356.172	93.38
356.399	90.38
356.626	105.38
356.853	96.38
357.08	92.38
357.307	90.38
357.534	98.38
357.761	100.38
357.988	90.38
358.215	98.38
358.441	112.38
358.668	106.38
358.895	112.38
359.122	97.38
359.349	86.38
359.576	88.38
359.802	98.38
360.029	89.38
360.256	104.38
360.483	114.38
360.709	90.38
360.936	93.38
361.163	119.38
361.39	87.38
361.616	98.38
361.843	89.38
362.07	82.38
362.296	90.38
362.523	98.38
362.749	91.38
362.976	87.38
363.203	102.38
363.429	76.38
363.656	102.38
363.882	93.38
364.109	91.38
364.335	98.38
364.562	91.38
364.788	80.38
365.015	101.38
365.241	107.38
365.468	102.38
365.694	113.38
365.92	89.38
366.147	86.38
366.373	88.38
366.599	97.38
366.826	93.38
367.052	78.38
367.278	87.38
367.505	73.38
367.731	91.38
367.957	86.38
368.184	104.38
368.41	104.38
368.636	110.38
368.862	94.38
369.089	99.38
369.315	94.38
369.541	96.38
369.767	92.38
369.993	84.38
370.219	85.38
370.445	87.38
370.672	86.38
370.898	96.38
371.124	87.38
371.35	96.38
371.576	88.38
371.802	91.38
372.028	94.38
372.254	86.38
372.48	92.38
372.706	81.38
372.932	92.38
373.158	109.38
373.384	94.38
373.61	100.38
373.835	96.38
374.061	95.38
374.287	94.38
374.513	98.38
374.739	97.38
374.965	91.38
375.191	103.38
375.416	91.38
375.642	83.38
375.868	102.38
376.094	101.38
376.319	97.38
376.545	95.38
376.771	93.38
376.997	94.38
377.222	82.38
377.448	88.38
377.674	94.38
377.899	86.38
378.125	109.38
378.35	99.38
378.576	93.38
378.802	93.38
379.027	107.38
379.253	100.38
379.478	110.38
379.704	109.38
379.929	113.38
380.155	99.38
380.38	112.38
380.606	114.38
380.831	101.38
381.057	109.38
381.282	102.38
381.507	117.38
381.733	107.38
381.958	103.38
382.184	114.38
382.409	115.38
382.634	117.38
382.86	111.38
383.085	119.38
383.31	116.38
383.535	126.38
383.761	112.38
383.986	119.38
384.211	114.38
384.436	132.38
384.662	111.38
384.887	125.38
385.112	141.38
385.337	143.38
385.562	138.38
385.787	144.38
386.013	150.38
386.238	141.38
386.463	139.38
386.688	134.38
386.913	134.38
387.138	153.38
387.363	128.38
387.588	116.38
387.813	126.38
388.038	150.38
388.263	175.38
388.488	158.38
388.713	110.38
388.938	94.38
389.163	100.38
389.387	98.38
389.612	93.38
389.837	101.38
390.062	109.38
390.287	90.38
390.512	100.38
390.736	102.38
390.961	96.38
391.186	100.38
391.411	92.38
391.636	91.38
391.86	98.38
392.085	84.38
392.31	92.38
392.534	94.38
392.759	92.38
392.984	97.38
393.208	113.38
393.433	125.38
393.658	97.38
393.882	98.38
394.107	88.38
394.331	78.38
394.556	86.38
394.78	94.38
395.005	82.38
395.229	74.38
395.454	97.38
395.678	98.38
395.903	105.38
396.127	98.38
396.352	88.38
396.576	86.38
396.801	93.38
397.025	101.38
397.249	81.38
397.474	86.38
397.698	76.38
397.922	86.38
398.147	96.38
398.371	93.38
398.595	98.38
398.82	80.38
399.044	84.38
399.268	90.38
399.492	91.38
399.717	90.38
399.941	87.38
400.165	92.38
400.389	89.38
400.613	79.38
400.837	97.38
401.062	81.38
401.286	95.38
401.51	90.38
401.734	92.38
401.958	99.38
402.182	106.38
402.406	132.38
402.63	110.38
402.854	89.38
403.078	80.38
403.302	91.38
403.526	92.38
403.75	82.38
403.974	98.38
404.198	93.38
404.422	87.38
404.645	84.38
404.869	88.38
405.093	93.38
405.317	81.38
405.541	97.38
405.765	102.38
405.988	84.38
406.212	140.38
406.436	160.38
406.66	118.38
406.883	76.38
407.107	100.38
407.331	100.38
407.555	91.38
407.778	92.38
408.002	86.38
408.226	83.38
408.449	86.38
408.673	108.38
408.896	94.38
409.12	98.38
409.344	84.38
409.567	91.38
409.791	84.38
410.014	96.38
410.238	94.38
410.461	96.38
410.685	101.38
410.908	114.38
411.132	121.38
411.355	96.38
411.578	93.38
411.802	83.38
412.025	84.38
412.249	92.38
412.472	102.38
412.695	93.38
412.919	85.38
413.142	92.38
413.365	78.38
413.589	103.38
413.812	109.38
414.035	102.38
414.258	88.38
414.482	103.38
414.705	95.38
414.928	94.38
415.151	84.38
415.374	91.38
415.597	93.38
415.821	105.38
416.044	100.38
416.267	97.38
416.49	98.38
416.713	97.38
416.936	93.38
417.159	93.38
417.382	98.38
417.605	88.38
417.828	91.38
418.051	85.38
418.274	88.38
418.497	93.38
418.72	91.38
418.943	102.38
419.166	83.38
419.389	88.38
419.611	94.38
419.834	93.38
420.057	90.38
420.28	77.38
420.503	97.38
420.726	99.38
420.948	93.38
421.171	93.38
421.394	93.38
421.617	88.38
421.839	86.38
422.062	102.38
422.285	85.38
422.507	91.38
422.73	108.38
422.953	94.38
423.175	106.38
423.398	98.38
423.621	99.38
423.843	90.38
424.066	71.38
424.288	82.38
424.511	94.38
424.733	94.38
424.956	94.38
425.178	90.38
425.401	90.38
425.623	105.38
425.846	97.38
426.068	103.38
426.291	91.38
426.513	89.38
426.735	89.38
426.958	92.38
427.18	88.38
427.402	103.38
427.625	126.38
427.847	92.38
428.069	102.38
428.292	91.38
428.514	85.38
428.736	85.38
428.958	82.38
429.181	87.38
429.403	90.38
429.625	96.38
429.847	92.38
430.069	96.38
430.292	78.38
430.514	98.38
430.736	97.38
430.958	98.38
431.18	92.38
431.402	87.38
431.624	93.38
431.846	90.38
432.068	89.38
432.29	87.38
432.512	104.38
432.734	97.38
432.956	85.38
433.178	90.38
433.4	98.38
433.622	93.38
433.844	85.38
434.066	100.38
434.287	89.38
434.509	78.38
434.731	96.38
434.953	86.38
435.175	96.38
435.397	96.38
435.618	89.38
435.84	106.38
436.062	102.38
436.284	99.38
436.505	102.38
436.727	98.38
436.949	105.38
437.17	78.38
437.392	100.38
437.614	91.38
437.835	98.38
438.057	85.38
438.278	102.38
438.5	105.38
438.721	99.38
438.943	81.38
439.165	90.38
439.386	91.38
439.608	83.38
439.829	86.38
440.05	108.38
440.272	114.38
440.493	104.38
440.715	103.38
440.936	74.38
441.158	84.38
441.379	89.38
441.6	90.38
441.822	82.38
442.043	101.38
442.264	98.38
442.486	83.38
442.707	93.38
442.928	100.38
443.149	115.38
443.371	103.38
443.592	94.38
443.813	106.38
444.034	99.38
444.255	100.38
444.476	86.38
444.698	85.38
444.919	100.38
445.14	145.38
445.361	98.38
445.582	115.38
445.803	117.38
446.024	99.38
446.245	104.38
446.466	95.38
446.687	82.38
446.908	90.38
447.129	78.38
447.35	93.38
447.571	86.38
447.792	80.38
448.013	99.38
448.234	83.38
448.455	108.38
448.675	86.38
448.896	104.38
449.117	102.38
449.338	98.38
449.559	118.38
449.779	125.38
450	74.38
450.221	82.38
450.442	84.38
450.662	90.38
450.883	78.38
451.104	97.38
451.324	103.38
451.545	80.38
451.766	93.38
451.986	88.38
452.207	80.38
452.428	87.38
452.648	84.38
452.869	90.38
453.089	97.38
453.31	84.38
453.53	88.38
453.751	94.38
453.971	85.38
454.192	110.38
454.412	97.38
454.633	82.38
454.853	90.38
455.073	86.38
455.294	103.38
455.514	93.38
455.734	83.38
455.955	81.38
456.175	92.38
456.395	85.38
456.616	85.38
456.836	98.38
457.056	82.38
457.276	82.38
457.497	73.38
457.717	82.38
457.937	81.38
458.157	80.38
458.377	91.38
458.598	104.38
458.818	110.38
459.038	109.38
459.258	105.38
459.478	83.38
459.698	93.38
459.918	84.38
460.138	94.38
460.358	72.38
460.578	83.38
460.798	86.38
461.018	90.38
461.238	83.38
461.458	80.38
461.678	76.38
461.898	81.38
462.118	92.38
462.338	88.38
462.558	98.38
462.777	83.38
462.997	84.38
463.217	90.38
463.437	88.38
463.657	77.38
463.876	83.38
464.096	89.38
464.316	72.38
464.536	87.38
464.755	99.38
464.975	92.38
465.195	123.38
465.414	111.38
465.634	85.38
465.854	85.38
466.073	93.38
466.293	91.38
466.512	91.38
466.732	93.38
466.951	86.38
467.171	87.38
467.391	96.38
467.61	81.38
467.829	96.38
468.049	80.38
468.268	86.38
468.488	83.38
468.707	80.38
468.927	84.38
469.146	85.38
469.365	85.38
469.585	91.38
469.804	76.38
470.023	97.38
470.243	77.38
470.462	100.38
470.681	92.38
470.901	78.38
471.12	91.38
471.339	92.38
471.558	101.38
471.777	81.38
471.997	91.38
472.216	97.38
472.435	81.38
472.654	94.38
472.873	80.38
473.092	87.38
473.311	95.38
473.53	94.38
473.749	74.38
473.968	100.38
474.187	99.38
474.406	102.38
474.625	92.38
474.844	77.38
475.063	86.38
475.282	82.38
475.501	90.38
475.72	83.38
475.939	94.38
476.158	87.38
476.377	80.38
476.596	89.38
476.814	87.38
477.033	103.38
477.252	85.38
477.471	74.38
477.69	86.38
477.908	87.38
478.127	89.38
478.346	98.38
478.564	96.38
478.783	91.38
479.002	98.38
479.22	86.38
479.439	101.38
479.658	90.38
479.876	90.38
480.095	98.38
480.313	87.38
480.532	95.38
480.751	72.38
480.969	99.38
481.188	99.38
481.406	101.38
481.624	107.38
481.843	92.38
482.061	92.38
482.28	92.38
482.498	94.38
482.717	105.38
482.935	80.38
483.153	75.38
483.372	99.38
483.59	83.38
483.808	87.38
484.027	88.38
484.245	94.38
484.463	86.38
484.681	104.38
484.9	83.38
485.118	100.38
485.336	91.38
485.554	104.38
485.772	108.38
485.99	111.38
486.209	125.38
486.427	104.38
486.645	126.38
486.863	99.38
487.081	94.38
487.299	96.38
487.517	105.38
487.735	107.38
487.953	96.38
488.171	89.38
488.389	85.38
488.607	77.38
488.825	100.38
489.043	97.38
489.261	90.38
489.479	93.38
489.696	89.38
489.914	82.38
490.132	90.38
490.35	89.38
490.568	101.38
490.786	87.38
491.003	106.38
491.221	92.38
491.439	80.38
491.657	89.38
491.874	86.38
492.092	97.38
492.31	86.38
492.527	98.38
492.745	95.38
492.963	100.38
493.18	96.38
493.398	93.38
493.615	101.38
493.833	94.38
494.05	89.38
494.268	86.38
494.485	87.38
494.703	84.38
494.92	86.38
495.138	97.38
495.355	100.38
495.573	104.38
495.79	99.38
496.008	105.38
496.225	90.38
496.442	78.38
496.66	87.38
496.877	86.38
497.094	103.38
497.312	94.38
497.529	89.38
497.746	81.38
497.963	101.38
498.181	96.38
498.398	94.38
498.615	93.38
498.832	93.38
499.049	96.38
499.267	84.38
499.484	82.38
499.701	80.38
499.918	82.38
500.135	97.38
500.352	87.38
500.569	80.38
500.786	91.38
501.003	92.38
501.22	90.38
501.437	87.38
501.654	85.38
501.871	92.38
502.088	95.38
502.305	83.38
502.522	83.38
502.739	93.38
502.956	92.38
503.172	103.38
503.389	93.38
503.606	103.38
503.823	91.38
504.04	87.38
504.256	81.38
504.473	87.38
504.69	98.38
504.907	112.38
505.123	81.38
505.34	100.38
505.557	90.38
505.773	78.38
505.99	92.38
506.207	84.38
506.423	90.38
506.64	102.38
506.856	84.38
507.073	76.38
507.289	94.38
507.506	105.38
507.722	90.38
507.939	94.38
508.155	92.38
508.372	93.38
508.588	83.38
508.805	99.38
509.021	88.38
509.238	92.38
509.454	98.38
509.67	85.38
509.887	93.38
510.103	113.38
510.319	150.38
510.536	422.38
510.752	1195.38
510.968	382.38
511.184	133.38
511.401	93.38
511.617	93.38
511.833	93.38
512.049	85.38
512.265	95.38
512.481	74.38
512.698	89.38
512.914	93.38
513.13	102.38
513.346	95.38
513.562	78.38
513.778	88.38
513.994	102.38
514.21	101.38
514.426	97.38
514.642	98.38
514.858	103.38
515.074	117.38
515.29	264.38
515.506	747.38
515.721	322.38
