Data from Circ_2002_H10_HRD10591_00055.txt Node
Date: Wed Jan 03 10:41:09 EST 2024
User: Yrep
Spectrometer: HR+D1059
Trigger mode: 1
Integration Time (sec): 1.000000E-1
Scans to average: 1
Electric dark correction enabled: true
Nonlinearity correction enabled: false
Boxcar width: 0
XAxis mode: Wavelengths
Number of Pixels in Spectrum: 2048
>>>>>Begin Spectral Data<<<<<
223.165	-14.31
223.4	-14.31
223.635	-14.31
223.869	-23.31
224.104	-8.31
224.338	-37.31
224.573	-13.31
224.808	-8.31
225.042	-12.31
225.277	1.69
225.511	7.69
225.746	4.69
225.98	6.69
226.215	4.69
226.449	10.69
226.683	10.69
226.918	27.69
227.152	42.69
227.387	38.69
227.621	41.69
227.856	37.69
228.09	50.69
228.324	53.69
228.559	57.69
228.793	67.69
229.027	68.69
229.262	76.69
229.496	76.69
229.73	59.69
229.964	78.69
230.199	67.69
230.433	68.69
230.667	78.69
230.901	75.69
231.136	69.69
231.37	79.69
231.604	90.69
231.838	80.69
232.072	57.69
232.306	83.69
232.541	79.69
232.775	75.69
233.009	77.69
233.243	77.69
233.477	90.69
233.711	75.69
233.945	69.69
234.179	62.69
234.413	69.69
234.647	76.69
234.881	80.69
235.115	70.69
235.349	83.69
235.583	80.69
235.817	75.69
236.051	74.69
236.285	78.69
236.519	70.69
236.753	85.69
236.987	74.69
237.221	66.69
237.455	78.69
237.689	80.69
237.922	72.69
238.156	74.69
238.39	88.69
238.624	81.69
238.858	80.69
239.091	73.69
239.325	71.69
239.559	79.69
239.793	83.69
240.027	81.69
240.26	78.69
240.494	95.69
240.728	62.69
240.961	85.69
241.195	72.69
241.429	76.69
241.662	79.69
241.896	68.69
242.13	75.69
242.363	80.69
242.597	65.69
242.83	82.69
243.064	62.69
243.298	80.69
243.531	86.69
243.765	74.69
243.998	63.69
244.232	80.69
244.465	75.69
244.699	72.69
244.932	89.69
245.166	70.69
245.399	76.69
245.633	67.69
245.866	72.69
246.099	92.69
246.333	57.69
246.566	75.69
246.8	70.69
247.033	79.69
247.266	77.69
247.5	83.69
247.733	63.69
247.966	76.69
248.2	80.69
248.433	89.69
248.666	81.69
248.899	95.69
249.133	88.69
249.366	90.69
249.599	94.69
249.832	84.69
250.066	86.69
250.299	71.69
250.532	79.69
250.765	90.69
250.998	78.69
251.231	80.69
251.465	72.69
251.698	86.69
251.931	72.69
252.164	89.69
252.397	73.69
252.63	82.69
252.863	74.69
253.096	70.69
253.329	70.69
253.562	74.69
253.795	69.69
254.028	75.69
254.261	70.69
254.494	75.69
254.727	86.69
254.96	72.69
255.193	79.69
255.426	73.69
255.659	81.69
255.892	85.69
256.124	85.69
256.357	89.69
256.59	73.69
256.823	78.69
257.056	91.69
257.289	77.69
257.521	70.69
257.754	80.69
257.987	85.69
258.22	91.69
258.452	79.69
258.685	85.69
258.918	98.69
259.151	90.69
259.383	80.69
259.616	79.69
259.849	96.69
260.081	76.69
260.314	88.69
260.547	76.69
260.779	85.69
261.012	100.69
261.244	92.69
261.477	62.69
261.71	92.69
261.942	111.69
262.175	112.69
262.407	88.69
262.64	82.69
262.872	73.69
263.105	83.69
263.337	75.69
263.57	83.69
263.802	81.69
264.035	78.69
264.267	72.69
264.499	79.69
264.732	83.69
264.964	84.69
265.197	65.69
265.429	81.69
265.661	78.69
265.894	90.69
266.126	94.69
266.358	72.69
266.591	79.69
266.823	76.69
267.055	96.69
267.287	92.69
267.52	88.69
267.752	82.69
267.984	78.69
268.216	78.69
268.448	90.69
268.681	81.69
268.913	89.69
269.145	82.69
269.377	80.69
269.609	79.69
269.841	83.69
270.073	90.69
270.306	90.69
270.538	84.69
270.77	85.69
271.002	79.69
271.234	83.69
271.466	95.69
271.698	92.69
271.93	92.69
272.162	89.69
272.394	87.69
272.626	91.69
272.858	71.69
273.09	90.69
273.322	86.69
273.553	70.69
273.785	93.69
274.017	90.69
274.249	89.69
274.481	80.69
274.713	85.69
274.945	86.69
275.176	87.69
275.408	78.69
275.64	85.69
275.872	79.69
276.104	86.69
276.335	86.69
276.567	100.69
276.799	115.69
277.031	102.69
277.262	82.69
277.494	82.69
277.726	92.69
277.957	91.69
278.189	85.69
278.421	86.69
278.652	87.69
278.884	84.69
279.115	95.69
279.347	75.69
279.579	80.69
279.81	102.69
280.042	98.69
280.273	76.69
280.505	73.69
280.736	89.69
280.968	89.69
281.199	85.69
281.431	82.69
281.662	80.69
281.894	95.69
282.125	87.69
282.356	105.69
282.588	126.69
282.819	96.69
283.051	93.69
283.282	90.69
283.513	84.69
283.745	92.69
283.976	86.69
284.207	84.69
284.439	88.69
284.67	84.69
284.901	97.69
285.132	86.69
285.364	79.69
285.595	73.69
285.826	74.69
286.057	79.69
286.288	84.69
286.52	95.69
286.751	91.69
286.982	83.69
287.213	75.69
287.444	87.69
287.675	81.69
287.906	92.69
288.138	77.69
288.369	87.69
288.6	96.69
288.831	89.69
289.062	90.69
289.293	91.69
289.524	79.69
289.755	74.69
289.986	89.69
290.217	81.69
290.448	94.69
290.679	89.69
290.91	98.69
291.141	99.69
291.371	83.69
291.602	95.69
291.833	77.69
292.064	82.69
292.295	84.69
292.526	83.69
292.757	71.69
292.987	69.69
293.218	90.69
293.449	96.69
293.68	90.69
293.91	86.69
294.141	91.69
294.372	83.69
294.603	81.69
294.833	87.69
295.064	81.69
295.295	86.69
295.525	87.69
295.756	98.69
295.987	95.69
296.217	113.69
296.448	113.69
296.679	100.69
296.909	86.69
297.14	92.69
297.37	95.69
297.601	90.69
297.831	85.69
298.062	90.69
298.292	89.69
298.523	80.69
298.753	90.69
298.984	84.69
299.214	94.69
299.445	88.69
299.675	81.69
299.905	99.69
300.136	102.69
300.366	102.69
300.597	103.69
300.827	83.69
301.057	98.69
301.288	101.69
301.518	87.69
301.748	71.69
301.979	95.69
302.209	92.69
302.439	82.69
302.669	79.69
302.9	90.69
303.13	83.69
303.36	98.69
303.59	101.69
303.82	104.69
304.051	81.69
304.281	87.69
304.511	86.69
304.741	90.69
304.971	97.69
305.201	83.69
305.431	87.69
305.661	81.69
305.891	92.69
306.121	84.69
306.352	101.69
306.582	110.69
306.812	91.69
307.042	99.69
307.272	97.69
307.502	88.69
307.731	88.69
307.961	88.69
308.191	82.69
308.421	98.69
308.651	78.69
308.881	84.69
309.111	89.69
309.341	85.69
309.571	87.69
309.8	88.69
310.03	88.69
310.26	93.69
310.49	88.69
310.72	102.69
310.949	96.69
311.179	99.69
311.409	97.69
311.639	85.69
311.868	87.69
312.098	96.69
312.328	87.69
312.557	96.69
312.787	83.69
313.017	99.69
313.246	94.69
313.476	82.69
313.706	83.69
313.935	84.69
314.165	100.69
314.394	96.69
314.624	91.69
314.853	108.69
315.083	78.69
315.312	96.69
315.542	99.69
315.771	92.69
316.001	92.69
316.23	94.69
316.46	96.69
316.689	81.69
316.919	80.69
317.148	90.69
317.377	86.69
317.607	89.69
317.836	85.69
318.065	86.69
318.295	91.69
318.524	83.69
318.753	75.69
318.983	103.69
319.212	108.69
319.441	103.69
319.67	119.69
319.9	106.69
320.129	98.69
320.358	92.69
320.587	92.69
320.816	96.69
321.046	82.69
321.275	88.69
321.504	96.69
321.733	95.69
321.962	92.69
322.191	96.69
322.42	108.69
322.649	108.69
322.878	103.69
323.108	118.69
323.337	111.69
323.566	121.69
323.795	129.69
324.024	179.69
324.253	339.69
324.482	720.69
324.71	1485.69
324.939	1908.69
325.168	716.69
325.397	216.69
325.626	137.69
325.855	114.69
326.084	105.69
326.313	122.69
326.542	143.69
326.77	218.69
326.999	406.69
327.228	847.69
327.457	1524.69
327.686	1198.69
327.914	334.69
328.143	168.69
328.372	134.69
328.6	106.69
328.829	110.69
329.058	111.69
329.287	114.69
329.515	105.69
329.744	89.69
329.972	104.69
330.201	123.69
330.43	134.69
330.658	111.69
330.887	130.69
331.115	111.69
331.344	105.69
331.572	96.69
331.801	99.69
332.03	99.69
332.258	110.69
332.486	90.69
332.715	84.69
332.943	110.69
333.172	100.69
333.4	89.69
333.629	89.69
333.857	101.69
334.085	112.69
334.314	120.69
334.542	138.69
334.771	116.69
334.999	106.69
335.227	90.69
335.455	97.69
335.684	97.69
335.912	92.69
336.14	97.69
336.369	98.69
336.597	103.69
336.825	99.69
337.053	84.69
337.281	103.69
337.51	80.69
337.738	96.69
337.966	88.69
338.194	96.69
338.422	107.69
338.65	107.69
338.878	93.69
339.106	86.69
339.334	100.69
339.562	95.69
339.79	92.69
340.018	90.69
340.246	102.69
340.474	82.69
340.702	80.69
340.93	98.69
341.158	92.69
341.386	104.69
341.614	96.69
341.842	101.69
342.07	79.69
342.298	101.69
342.526	90.69
342.754	90.69
342.981	89.69
343.209	74.69
343.437	105.69
343.665	100.69
343.893	100.69
344.12	90.69
344.348	102.69
344.576	100.69
344.804	97.69
345.031	87.69
345.259	98.69
345.487	96.69
345.714	95.69
345.942	94.69
346.17	83.69
346.397	97.69
346.625	98.69
346.853	79.69
347.08	71.69
347.308	86.69
347.535	94.69
347.763	94.69
347.99	91.69
348.218	105.69
348.445	95.69
348.673	88.69
348.9	88.69
349.128	88.69
349.355	75.69
349.583	89.69
349.81	83.69
350.037	98.69
350.265	88.69
350.492	90.69
350.72	90.69
350.947	85.69
351.174	104.69
351.402	95.69
351.629	105.69
351.856	106.69
352.083	101.69
352.311	82.69
352.538	110.69
352.765	96.69
352.992	117.69
353.22	111.69
353.447	109.69
353.674	91.69
353.901	99.69
354.128	94.69
354.355	103.69
354.583	101.69
354.81	95.69
355.037	98.69
355.264	86.69
355.491	94.69
355.718	107.69
355.945	87.69
356.172	87.69
356.399	92.69
356.626	101.69
356.853	89.69
357.08	84.69
357.307	92.69
357.534	89.69
357.761	86.69
357.988	98.69
358.215	94.69
358.441	96.69
358.668	89.69
358.895	82.69
359.122	89.69
359.349	95.69
359.576	98.69
359.802	96.69
360.029	117.69
360.256	87.69
360.483	97.69
360.709	97.69
360.936	93.69
361.163	93.69
361.39	76.69
361.616	86.69
361.843	105.69
362.07	94.69
362.296	99.69
362.523	76.69
362.749	85.69
362.976	95.69
363.203	89.69
363.429	92.69
363.656	74.69
363.882	85.69
364.109	99.69
364.335	98.69
364.562	79.69
364.788	86.69
365.015	92.69
365.241	89.69
365.468	110.69
365.694	107.69
365.92	104.69
366.147	105.69
366.373	88.69
366.599	85.69
366.826	92.69
367.052	87.69
367.278	91.69
367.505	100.69
367.731	94.69
367.957	94.69
368.184	81.69
368.41	87.69
368.636	99.69
368.862	111.69
369.089	94.69
369.315	92.69
369.541	88.69
369.767	94.69
369.993	79.69
370.219	94.69
370.445	103.69
370.672	80.69
370.898	76.69
371.124	84.69
371.35	76.69
371.576	79.69
371.802	87.69
372.028	92.69
372.254	92.69
372.48	96.69
372.706	81.69
372.932	85.69
373.158	94.69
373.384	91.69
373.61	80.69
373.835	81.69
374.061	87.69
374.287	96.69
374.513	99.69
374.739	106.69
374.965	84.69
375.191	94.69
375.416	80.69
375.642	72.69
375.868	91.69
376.094	89.69
376.319	84.69
376.545	87.69
376.771	85.69
376.997	89.69
377.222	95.69
377.448	95.69
377.674	84.69
377.899	86.69
378.125	91.69
378.35	76.69
378.576	86.69
378.802	90.69
379.027	88.69
379.253	100.69
379.478	95.69
379.704	90.69
379.929	106.69
380.155	103.69
380.38	98.69
380.606	84.69
380.831	88.69
381.057	93.69
381.282	82.69
381.507	88.69
381.733	91.69
381.958	101.69
382.184	99.69
382.409	103.69
382.634	106.69
382.86	102.69
383.085	99.69
383.31	105.69
383.535	91.69
383.761	87.69
383.986	89.69
384.211	104.69
384.436	104.69
384.662	96.69
384.887	100.69
385.112	89.69
385.337	106.69
385.562	90.69
385.787	97.69
386.013	110.69
386.238	111.69
386.463	99.69
386.688	107.69
386.913	101.69
387.138	94.69
387.363	101.69
387.588	90.69
387.813	92.69
388.038	106.69
388.263	111.69
388.488	110.69
388.713	91.69
388.938	89.69
389.163	98.69
389.387	100.69
389.612	106.69
389.837	94.69
390.062	95.69
390.287	96.69
390.512	100.69
390.736	102.69
390.961	85.69
391.186	95.69
391.411	87.69
391.636	88.69
391.86	109.69
392.085	86.69
392.31	87.69
392.534	86.69
392.759	105.69
392.984	87.69
393.208	99.69
393.433	106.69
393.658	95.69
393.882	86.69
394.107	80.69
394.331	82.69
394.556	92.69
394.78	86.69
395.005	87.69
395.229	87.69
395.454	86.69
395.678	81.69
395.903	87.69
396.127	83.69
396.352	76.69
396.576	87.69
396.801	89.69
397.025	82.69
397.249	92.69
397.474	88.69
397.698	93.69
397.922	91.69
398.147	89.69
398.371	73.69
398.595	81.69
398.82	73.69
399.044	93.69
399.268	86.69
399.492	85.69
399.717	93.69
399.941	81.69
400.165	92.69
400.389	95.69
400.613	85.69
400.837	87.69
401.062	81.69
401.286	80.69
401.51	107.69
401.734	93.69
401.958	100.69
402.182	113.69
402.406	164.69
402.63	104.69
402.854	85.69
403.078	91.69
403.302	91.69
403.526	88.69
403.75	81.69
403.974	86.69
404.198	87.69
404.422	80.69
404.645	89.69
404.869	100.69
405.093	99.69
405.317	95.69
405.541	90.69
405.765	87.69
405.988	104.69
406.212	156.69
406.436	198.69
406.66	126.69
406.883	103.69
407.107	83.69
407.331	106.69
407.555	95.69
407.778	88.69
408.002	76.69
408.226	92.69
408.449	102.69
408.673	101.69
408.896	93.69
409.12	90.69
409.344	104.69
409.567	92.69
409.791	100.69
410.014	81.69
410.238	74.69
410.461	95.69
410.685	105.69
410.908	97.69
411.132	106.69
411.355	98.69
411.578	92.69
411.802	96.69
412.025	76.69
412.249	86.69
412.472	102.69
412.695	100.69
412.919	93.69
413.142	86.69
413.365	83.69
413.589	92.69
413.812	88.69
414.035	88.69
414.258	81.69
414.482	100.69
414.705	95.69
414.928	91.69
415.151	82.69
415.374	89.69
415.597	87.69
415.821	90.69
416.044	105.69
416.267	78.69
416.49	78.69
416.713	98.69
416.936	96.69
417.159	83.69
417.382	68.69
417.605	90.69
417.828	83.69
418.051	83.69
418.274	88.69
418.497	75.69
418.72	97.69
418.943	99.69
419.166	92.69
419.389	96.69
419.611	91.69
419.834	81.69
420.057	101.69
420.28	81.69
420.503	98.69
420.726	81.69
420.948	74.69
421.171	77.69
421.394	81.69
421.617	89.69
421.839	90.69
422.062	90.69
422.285	91.69
422.507	98.69
422.73	99.69
422.953	97.69
423.175	92.69
423.398	77.69
423.621	76.69
423.843	100.69
424.066	78.69
424.288	90.69
424.511	90.69
424.733	98.69
424.956	93.69
425.178	97.69
425.401	97.69
425.623	84.69
425.846	91.69
426.068	78.69
426.291	112.69
426.513	104.69
426.735	99.69
426.958	89.69
427.18	115.69
427.402	128.69
427.625	147.69
427.847	110.69
428.069	109.69
428.292	87.69
428.514	83.69
428.736	92.69
428.958	72.69
429.181	81.69
429.403	71.69
429.625	81.69
429.847	92.69
430.069	105.69
430.292	102.69
430.514	84.69
430.736	87.69
430.958	87.69
431.18	88.69
431.402	72.69
431.624	90.69
431.846	107.69
432.068	87.69
432.29	98.69
432.512	104.69
432.734	94.69
432.956	101.69
433.178	95.69
433.4	97.69
433.622	84.69
433.844	89.69
434.066	88.69
434.287	91.69
434.509	84.69
434.731	96.69
434.953	92.69
435.175	87.69
435.397	91.69
435.618	99.69
435.84	91.69
436.062	102.69
436.284	111.69
436.505	94.69
436.727	90.69
436.949	97.69
437.17	84.69
437.392	94.69
437.614	89.69
437.835	96.69
438.057	117.69
438.278	109.69
438.5	98.69
438.721	123.69
438.943	103.69
439.165	91.69
439.386	74.69
439.608	90.69
439.829	91.69
440.05	120.69
440.272	131.69
440.493	95.69
440.715	88.69
440.936	96.69
441.158	90.69
441.379	78.69
441.6	80.69
441.822	83.69
442.043	87.69
442.264	102.69
442.486	90.69
442.707	99.69
442.928	103.69
443.149	118.69
443.371	121.69
443.592	107.69
443.813	112.69
444.034	89.69
444.255	91.69
444.476	81.69
444.698	98.69
444.919	83.69
445.14	126.69
445.361	128.69
445.582	111.69
445.803	142.69
446.024	135.69
446.245	130.69
446.466	107.69
446.687	88.69
446.908	95.69
447.129	99.69
447.35	84.69
447.571	80.69
447.792	98.69
448.013	90.69
448.234	88.69
448.455	98.69
448.675	101.69
448.896	94.69
449.117	88.69
449.338	94.69
449.559	125.69
449.779	108.69
450	85.69
450.221	86.69
450.442	90.69
450.662	80.69
450.883	89.69
451.104	111.69
451.324	106.69
451.545	95.69
451.766	87.69
451.986	97.69
452.207	82.69
452.428	83.69
452.648	89.69
452.869	108.69
453.089	106.69
453.31	106.69
453.53	94.69
453.751	105.69
453.971	96.69
454.192	102.69
454.412	75.69
454.633	83.69
454.853	84.69
455.073	81.69
455.294	86.69
455.514	94.69
455.734	95.69
455.955	99.69
456.175	91.69
456.395	95.69
456.616	84.69
456.836	89.69
457.056	86.69
457.276	87.69
457.497	88.69
457.717	95.69
457.937	82.69
458.157	78.69
458.377	95.69
458.598	105.69
458.818	130.69
459.038	146.69
459.258	103.69
459.478	82.69
459.698	86.69
459.918	90.69
460.138	83.69
460.358	81.69
460.578	82.69
460.798	96.69
461.018	88.69
461.238	84.69
461.458	79.69
461.678	70.69
461.898	82.69
462.118	91.69
462.338	87.69
462.558	75.69
462.777	74.69
462.997	85.69
463.217	75.69
463.437	86.69
463.657	84.69
463.876	76.69
464.096	80.69
464.316	85.69
464.536	91.69
464.755	84.69
464.975	91.69
465.195	142.69
465.414	135.69
465.634	78.69
465.854	96.69
466.073	89.69
466.293	85.69
466.512	95.69
466.732	78.69
466.951	78.69
467.171	94.69
467.391	96.69
467.61	95.69
467.829	98.69
468.049	92.69
468.268	102.69
468.488	83.69
468.707	77.69
468.927	85.69
469.146	85.69
469.365	95.69
469.585	84.69
469.804	106.69
470.023	98.69
470.243	87.69
470.462	96.69
470.681	103.69
470.901	84.69
471.12	89.69
471.339	96.69
471.558	79.69
471.777	79.69
471.997	89.69
472.216	106.69
472.435	151.69
472.654	94.69
472.873	100.69
473.092	81.69
473.311	81.69
473.53	86.69
473.749	96.69
473.968	95.69
474.187	104.69
474.406	85.69
474.625	97.69
474.844	82.69
475.063	89.69
475.282	91.69
475.501	74.69
475.72	100.69
475.939	88.69
476.158	88.69
476.377	96.69
476.596	89.69
476.814	89.69
477.033	94.69
477.252	79.69
477.471	88.69
477.69	81.69
477.908	89.69
478.127	84.69
478.346	87.69
478.564	87.69
478.783	86.69
479.002	95.69
479.22	88.69
479.439	99.69
479.658	97.69
479.876	102.69
480.095	91.69
480.313	84.69
480.532	89.69
480.751	86.69
480.969	109.69
481.188	190.69
481.406	136.69
481.624	89.69
481.843	94.69
482.061	95.69
482.28	74.69
482.498	88.69
482.717	90.69
482.935	95.69
483.153	91.69
483.372	84.69
483.59	87.69
483.808	85.69
484.027	82.69
484.245	98.69
484.463	98.69
484.681	92.69
484.9	90.69
485.118	104.69
485.336	99.69
485.554	86.69
485.772	92.69
485.99	104.69
486.209	107.69
486.427	100.69
486.645	104.69
486.863	113.69
487.081	104.69
487.299	101.69
487.517	101.69
487.735	99.69
487.953	92.69
488.171	84.69
488.389	80.69
488.607	91.69
488.825	88.69
489.043	98.69
489.261	99.69
489.479	78.69
489.696	89.69
489.914	81.69
490.132	78.69
490.35	83.69
490.568	87.69
490.786	80.69
491.003	85.69
491.221	98.69
491.439	101.69
491.657	90.69
491.874	92.69
492.092	95.69
492.31	75.69
492.527	86.69
492.745	98.69
492.963	81.69
493.18	111.69
493.398	96.69
493.615	90.69
493.833	82.69
494.05	88.69
494.268	86.69
494.485	93.69
494.703	87.69
494.92	98.69
495.138	88.69
495.355	89.69
495.573	90.69
495.79	83.69
496.008	100.69
496.225	85.69
496.442	98.69
496.66	79.69
496.877	96.69
497.094	97.69
497.312	85.69
497.529	96.69
497.746	89.69
497.963	81.69
498.181	90.69
498.398	111.69
498.615	111.69
498.832	110.69
499.049	91.69
499.267	90.69
499.484	85.69
499.701	86.69
499.918	90.69
500.135	95.69
500.352	91.69
500.569	84.69
500.786	91.69
501.003	89.69
501.22	90.69
501.437	84.69
501.654	100.69
501.871	111.69
502.088	89.69
502.305	93.69
502.522	96.69
502.739	89.69
502.956	101.69
503.172	100.69
503.389	98.69
503.606	88.69
503.823	96.69
504.04	87.69
504.256	100.69
504.473	86.69
504.69	88.69
504.907	89.69
505.123	87.69
505.34	100.69
505.557	92.69
505.773	90.69
505.99	80.69
506.207	83.69
506.423	87.69
506.64	84.69
506.856	91.69
507.073	91.69
507.289	89.69
507.506	90.69
507.722	96.69
507.939	99.69
508.155	84.69
508.372	99.69
508.588	87.69
508.805	95.69
509.021	89.69
509.238	99.69
509.454	83.69
509.67	90.69
509.887	101.69
510.103	122.69
510.319	193.69
510.536	632.69
510.752	1994.69
510.968	569.69
511.184	144.69
511.401	110.69
511.617	98.69
511.833	87.69
512.049	90.69
512.265	86.69
512.481	91.69
512.698	88.69
512.914	91.69
513.13	93.69
513.346	104.69
513.562	83.69
513.778	87.69
513.994	84.69
514.21	97.69
514.426	110.69
514.642	118.69
514.858	120.69
515.074	140.69
515.29	381.69
515.506	1177.69
515.721	470.69
515.937	136.69
516.153	116.69
516.369	99.69
