Data from Circ_2002_H10_HRD10591_00087.txt Node
Date: Wed Jan 03 10:41:15 EST 2024
User: Yrep
Spectrometer: HR+D1059
Trigger mode: 1
Integration Time (sec): 1.000000E-1
Scans to average: 1
Electric dark correction enabled: true
Nonlinearity correction enabled: false
Boxcar width: 0
XAxis mode: Wavelengths
Number of Pixels in Spectrum: 2048
>>>>>Begin Spectral Data<<<<<
223.165	-4.38
223.4	-4.38
223.635	-4.38
223.869	-30.38
224.104	-22.38
224.338	-27.38
224.573	-10.38
224.808	-0.38
225.042	3.62
225.277	-7.38
225.511	-1.38
225.746	-0.38
225.98	7.62
226.215	8.62
226.449	14.62
226.683	24.62
226.918	15.62
227.152	29.62
227.387	25.62
227.621	49.62
227.856	44.62
228.09	51.62
228.324	39.62
228.559	40.62
228.793	56.62
229.027	78.62
229.262	62.62
229.496	70.62
229.73	83.62
229.964	79.62
230.199	57.62
230.433	68.62
230.667	61.62
230.901	77.62
231.136	77.62
231.37	79.62
231.604	79.62
231.838	74.62
232.072	73.62
232.306	68.62
232.541	71.62
232.775	76.62
233.009	66.62
233.243	63.62
233.477	80.62
233.711	73.62
233.945	76.62
234.179	75.62
234.413	83.62
234.647	82.62
234.881	69.62
235.115	81.62
235.349	89.62
235.583	77.62
235.817	79.62
236.051	93.62
236.285	80.62
236.519	68.62
236.753	68.62
236.987	80.62
237.221	75.62
237.455	76.62
237.689	76.62
237.922	77.62
238.156	77.62
238.39	80.62
238.624	73.62
238.858	75.62
239.091	81.62
239.325	63.62
239.559	78.62
239.793	67.62
240.027	82.62
240.26	71.62
240.494	75.62
240.728	67.62
240.961	68.62
241.195	76.62
241.429	74.62
241.662	62.62
241.896	59.62
242.13	70.62
242.363	72.62
242.597	78.62
242.83	79.62
243.064	79.62
243.298	80.62
243.531	80.62
243.765	72.62
243.998	77.62
244.232	102.62
244.465	83.62
244.699	87.62
244.932	73.62
245.166	73.62
245.399	77.62
245.633	80.62
245.866	60.62
246.099	72.62
246.333	73.62
246.566	83.62
246.8	82.62
247.033	65.62
247.266	87.62
247.5	79.62
247.733	76.62
247.966	69.62
248.2	78.62
248.433	71.62
248.666	75.62
248.899	87.62
249.133	91.62
249.366	89.62
249.599	107.62
249.832	83.62
250.066	84.62
250.299	84.62
250.532	60.62
250.765	81.62
250.998	87.62
251.231	79.62
251.465	66.62
251.698	83.62
251.931	84.62
252.164	89.62
252.397	69.62
252.63	76.62
252.863	70.62
253.096	75.62
253.329	83.62
253.562	76.62
253.795	79.62
254.028	71.62
254.261	62.62
254.494	56.62
254.727	87.62
254.96	66.62
255.193	80.62
255.426	82.62
255.659	100.62
255.892	81.62
256.124	74.62
256.357	72.62
256.59	87.62
256.823	82.62
257.056	86.62
257.289	72.62
257.521	73.62
257.754	69.62
257.987	69.62
258.22	82.62
258.452	77.62
258.685	82.62
258.918	74.62
259.151	62.62
259.383	87.62
259.616	63.62
259.849	84.62
260.081	73.62
260.314	65.62
260.547	71.62
260.779	83.62
261.012	81.62
261.244	83.62
261.477	80.62
261.71	89.62
261.942	111.62
262.175	103.62
262.407	79.62
262.64	91.62
262.872	88.62
263.105	79.62
263.337	93.62
263.57	83.62
263.802	85.62
264.035	73.62
264.267	70.62
264.499	79.62
264.732	80.62
264.964	72.62
265.197	64.62
265.429	77.62
265.661	67.62
265.894	82.62
266.126	81.62
266.358	71.62
266.591	76.62
266.823	78.62
267.055	89.62
267.287	96.62
267.52	78.62
267.752	80.62
267.984	92.62
268.216	81.62
268.448	87.62
268.681	63.62
268.913	79.62
269.145	87.62
269.377	70.62
269.609	78.62
269.841	66.62
270.073	82.62
270.306	81.62
270.538	71.62
270.77	77.62
271.002	78.62
271.234	86.62
271.466	72.62
271.698	75.62
271.93	96.62
272.162	79.62
272.394	79.62
272.626	83.62
272.858	85.62
273.09	83.62
273.322	78.62
273.553	89.62
273.785	66.62
274.017	85.62
274.249	61.62
274.481	86.62
274.713	81.62
274.945	84.62
275.176	77.62
275.408	75.62
275.64	78.62
275.872	84.62
276.104	76.62
276.335	79.62
276.567	87.62
276.799	93.62
277.031	109.62
277.262	94.62
277.494	86.62
277.726	87.62
277.957	83.62
278.189	92.62
278.421	97.62
278.652	88.62
278.884	91.62
279.115	85.62
279.347	76.62
279.579	67.62
279.81	87.62
280.042	85.62
280.273	80.62
280.505	77.62
280.736	87.62
280.968	93.62
281.199	96.62
281.431	73.62
281.662	74.62
281.894	85.62
282.125	89.62
282.356	113.62
282.588	129.62
282.819	93.62
283.051	93.62
283.282	92.62
283.513	83.62
283.745	79.62
283.976	81.62
284.207	85.62
284.439	81.62
284.67	84.62
284.901	62.62
285.132	73.62
285.364	75.62
285.595	82.62
285.826	71.62
286.057	65.62
286.288	89.62
286.52	77.62
286.751	82.62
286.982	91.62
287.213	86.62
287.444	90.62
287.675	60.62
287.906	99.62
288.138	86.62
288.369	85.62
288.6	92.62
288.831	83.62
289.062	77.62
289.293	88.62
289.524	71.62
289.755	76.62
289.986	82.62
290.217	94.62
290.448	80.62
290.679	82.62
290.91	88.62
291.141	90.62
291.371	92.62
291.602	80.62
291.833	82.62
292.064	92.62
292.295	87.62
292.526	88.62
292.757	75.62
292.987	88.62
293.218	86.62
293.449	90.62
293.68	90.62
293.91	93.62
294.141	79.62
294.372	101.62
294.603	81.62
294.833	88.62
295.064	76.62
295.295	89.62
295.525	92.62
295.756	94.62
295.987	116.62
296.217	132.62
296.448	114.62
296.679	101.62
296.909	73.62
297.14	75.62
297.37	83.62
297.601	94.62
297.831	94.62
298.062	109.62
298.292	86.62
298.523	83.62
298.753	79.62
298.984	83.62
299.214	102.62
299.445	104.62
299.675	86.62
299.905	78.62
300.136	81.62
300.366	77.62
300.597	78.62
300.827	80.62
301.057	82.62
301.288	98.62
301.518	99.62
301.748	94.62
301.979	80.62
302.209	94.62
302.439	90.62
302.669	74.62
302.9	88.62
303.13	90.62
303.36	93.62
303.59	122.62
303.82	94.62
304.051	88.62
304.281	86.62
304.511	83.62
304.741	80.62
304.971	93.62
305.201	87.62
305.431	85.62
305.661	86.62
305.891	86.62
306.121	85.62
306.352	97.62
306.582	92.62
306.812	78.62
307.042	83.62
307.272	94.62
307.502	84.62
307.731	91.62
307.961	86.62
308.191	70.62
308.421	77.62
308.651	96.62
308.881	83.62
309.111	79.62
309.341	95.62
309.571	99.62
309.8	83.62
310.03	91.62
310.26	102.62
310.49	88.62
310.72	90.62
310.949	95.62
311.179	77.62
311.409	101.62
311.639	97.62
311.868	89.62
312.098	89.62
312.328	85.62
312.557	93.62
312.787	98.62
313.017	99.62
313.246	95.62
313.476	86.62
313.706	86.62
313.935	84.62
314.165	98.62
314.394	103.62
314.624	85.62
314.853	91.62
315.083	89.62
315.312	97.62
315.542	84.62
315.771	104.62
316.001	92.62
316.23	88.62
316.46	67.62
316.689	79.62
316.919	87.62
317.148	82.62
317.377	89.62
317.607	89.62
317.836	82.62
318.065	89.62
318.295	86.62
318.524	89.62
318.753	99.62
318.983	82.62
319.212	100.62
319.441	101.62
319.67	109.62
319.9	99.62
320.129	88.62
320.358	85.62
320.587	91.62
320.816	92.62
321.046	91.62
321.275	92.62
321.504	95.62
321.733	105.62
321.962	92.62
322.191	93.62
322.42	98.62
322.649	106.62
322.878	104.62
323.108	116.62
323.337	106.62
323.566	110.62
323.795	164.62
324.024	185.62
324.253	377.62
324.482	775.62
324.71	1600.62
324.939	2079.62
325.168	779.62
325.397	213.62
325.626	132.62
325.855	125.62
326.084	105.62
326.313	121.62
326.542	131.62
326.77	210.62
326.999	438.62
327.228	915.62
327.457	1625.62
327.686	1267.62
327.914	367.62
328.143	198.62
328.372	160.62
328.6	125.62
328.829	102.62
329.058	115.62
329.287	116.62
329.515	100.62
329.744	120.62
329.972	105.62
330.201	126.62
330.43	153.62
330.658	118.62
330.887	124.62
331.115	117.62
331.344	93.62
331.572	104.62
331.801	99.62
332.03	87.62
332.258	82.62
332.486	80.62
332.715	83.62
332.943	75.62
333.172	93.62
333.4	89.62
333.629	103.62
333.857	108.62
334.085	113.62
334.314	123.62
334.542	172.62
334.771	180.62
334.999	116.62
335.227	87.62
335.455	87.62
335.684	94.62
335.912	108.62
336.14	86.62
336.369	88.62
336.597	93.62
336.825	91.62
337.053	79.62
337.281	92.62
337.51	85.62
337.738	102.62
337.966	74.62
338.194	99.62
338.422	85.62
338.65	84.62
338.878	90.62
339.106	87.62
339.334	81.62
339.562	95.62
339.79	85.62
340.018	82.62
340.246	89.62
340.474	93.62
340.702	91.62
340.93	80.62
341.158	79.62
341.386	88.62
341.614	97.62
341.842	86.62
342.07	82.62
342.298	92.62
342.526	91.62
342.754	86.62
342.981	90.62
343.209	91.62
343.437	92.62
343.665	86.62
343.893	80.62
344.12	83.62
344.348	94.62
344.576	83.62
344.804	81.62
345.031	91.62
345.259	104.62
345.487	96.62
345.714	83.62
345.942	88.62
346.17	79.62
346.397	100.62
346.625	86.62
346.853	93.62
347.08	87.62
347.308	97.62
347.535	92.62
347.763	88.62
347.99	79.62
348.218	78.62
348.445	97.62
348.673	75.62
348.9	89.62
349.128	83.62
349.355	82.62
349.583	84.62
349.81	85.62
350.037	89.62
350.265	87.62
350.492	73.62
350.72	78.62
350.947	93.62
351.174	98.62
351.402	106.62
351.629	99.62
351.856	100.62
352.083	89.62
352.311	88.62
352.538	107.62
352.765	85.62
352.992	92.62
353.22	95.62
353.447	96.62
353.674	91.62
353.901	98.62
354.128	94.62
354.355	75.62
354.583	86.62
354.81	86.62
355.037	99.62
355.264	92.62
355.491	98.62
355.718	88.62
355.945	79.62
356.172	81.62
356.399	94.62
356.626	100.62
356.853	80.62
357.08	92.62
357.307	88.62
357.534	86.62
357.761	100.62
357.988	89.62
358.215	85.62
358.441	92.62
358.668	84.62
358.895	77.62
359.122	93.62
359.349	82.62
359.576	93.62
359.802	98.62
360.029	93.62
360.256	101.62
360.483	75.62
360.709	88.62
360.936	81.62
361.163	65.62
361.39	79.62
361.616	83.62
361.843	93.62
362.07	93.62
362.296	83.62
362.523	90.62
362.749	72.62
362.976	95.62
363.203	90.62
363.429	100.62
363.656	88.62
363.882	77.62
364.109	88.62
364.335	83.62
364.562	73.62
364.788	96.62
365.015	92.62
365.241	97.62
365.468	97.62
365.694	83.62
365.92	91.62
366.147	78.62
366.373	81.62
366.599	93.62
366.826	86.62
367.052	76.62
367.278	81.62
367.505	71.62
367.731	84.62
367.957	88.62
368.184	86.62
368.41	78.62
368.636	96.62
368.862	106.62
369.089	111.62
369.315	84.62
369.541	85.62
369.767	80.62
369.993	97.62
370.219	91.62
370.445	81.62
370.672	76.62
370.898	86.62
371.124	86.62
371.35	68.62
371.576	86.62
371.802	68.62
372.028	85.62
372.254	81.62
372.48	81.62
372.706	88.62
372.932	89.62
373.158	88.62
373.384	82.62
373.61	80.62
373.835	81.62
374.061	80.62
374.287	88.62
374.513	91.62
374.739	86.62
374.965	85.62
375.191	71.62
375.416	82.62
375.642	73.62
375.868	88.62
376.094	92.62
376.319	75.62
376.545	78.62
376.771	90.62
376.997	85.62
377.222	85.62
377.448	78.62
377.674	66.62
377.899	80.62
378.125	77.62
378.35	79.62
378.576	78.62
378.802	85.62
379.027	78.62
379.253	97.62
379.478	70.62
379.704	85.62
379.929	87.62
380.155	95.62
380.38	96.62
380.606	71.62
380.831	84.62
381.057	88.62
381.282	97.62
381.507	87.62
381.733	91.62
381.958	88.62
382.184	87.62
382.409	108.62
382.634	100.62
382.86	88.62
383.085	101.62
383.31	97.62
383.535	73.62
383.761	102.62
383.986	92.62
384.211	88.62
384.436	101.62
384.662	92.62
384.887	87.62
385.112	96.62
385.337	91.62
385.562	99.62
385.787	88.62
386.013	95.62
386.238	86.62
386.463	100.62
386.688	99.62
386.913	107.62
387.138	100.62
387.363	96.62
387.588	89.62
387.813	98.62
388.038	89.62
388.263	91.62
388.488	98.62
388.713	84.62
388.938	87.62
389.163	88.62
389.387	99.62
389.612	91.62
389.837	86.62
390.062	78.62
390.287	85.62
390.512	93.62
390.736	74.62
390.961	81.62
391.186	84.62
391.411	91.62
391.636	77.62
391.86	65.62
392.085	92.62
392.31	83.62
392.534	82.62
392.759	86.62
392.984	73.62
393.208	96.62
393.433	83.62
393.658	98.62
393.882	89.62
394.107	76.62
394.331	92.62
394.556	91.62
394.78	84.62
395.005	99.62
395.229	79.62
395.454	83.62
395.678	89.62
395.903	86.62
396.127	107.62
396.352	85.62
396.576	72.62
396.801	87.62
397.025	84.62
397.249	82.62
397.474	87.62
397.698	92.62
397.922	80.62
398.147	84.62
398.371	87.62
398.595	71.62
398.82	85.62
399.044	103.62
399.268	87.62
399.492	84.62
399.717	82.62
399.941	81.62
400.165	86.62
400.389	88.62
400.613	81.62
400.837	77.62
401.062	83.62
401.286	77.62
401.51	89.62
401.734	79.62
401.958	86.62
402.182	106.62
402.406	135.62
402.63	105.62
402.854	86.62
403.078	81.62
403.302	80.62
403.526	72.62
403.75	93.62
403.974	82.62
404.198	85.62
404.422	87.62
404.645	79.62
404.869	86.62
405.093	82.62
405.317	98.62
405.541	104.62
405.765	97.62
405.988	107.62
406.212	138.62
406.436	201.62
406.66	128.62
406.883	72.62
407.107	81.62
407.331	89.62
407.555	87.62
407.778	91.62
408.002	91.62
408.226	76.62
408.449	90.62
408.673	89.62
408.896	81.62
409.12	84.62
409.344	83.62
409.567	86.62
409.791	81.62
410.014	83.62
410.238	85.62
410.461	87.62
410.685	88.62
410.908	90.62
411.132	89.62
411.355	88.62
411.578	83.62
411.802	102.62
412.025	83.62
412.249	85.62
412.472	84.62
412.695	95.62
412.919	85.62
413.142	104.62
413.365	85.62
413.589	90.62
413.812	97.62
414.035	87.62
414.258	97.62
414.482	89.62
414.705	89.62
414.928	87.62
415.151	88.62
415.374	72.62
415.597	92.62
415.821	87.62
416.044	88.62
416.267	81.62
416.49	79.62
416.713	72.62
416.936	96.62
417.159	67.62
417.382	80.62
417.605	84.62
417.828	87.62
418.051	105.62
418.274	89.62
418.497	80.62
418.72	84.62
418.943	71.62
419.166	77.62
419.389	80.62
419.611	76.62
419.834	82.62
420.057	88.62
420.28	84.62
420.503	91.62
420.726	83.62
420.948	80.62
421.171	93.62
421.394	79.62
421.617	88.62
421.839	74.62
422.062	96.62
422.285	83.62
422.507	101.62
422.73	92.62
422.953	97.62
423.175	79.62
423.398	90.62
423.621	84.62
423.843	85.62
424.066	82.62
424.288	101.62
424.511	72.62
424.733	98.62
424.956	97.62
425.178	86.62
425.401	91.62
425.623	94.62
425.846	83.62
426.068	87.62
426.291	82.62
426.513	84.62
426.735	102.62
426.958	103.62
427.18	78.62
427.402	131.62
427.625	147.62
427.847	119.62
428.069	119.62
428.292	86.62
428.514	90.62
428.736	84.62
428.958	79.62
429.181	93.62
429.403	91.62
429.625	85.62
429.847	82.62
430.069	87.62
430.292	95.62
430.514	68.62
430.736	70.62
430.958	85.62
431.18	86.62
431.402	77.62
431.624	85.62
431.846	88.62
432.068	85.62
432.29	82.62
432.512	87.62
432.734	82.62
432.956	86.62
433.178	80.62
433.4	75.62
433.622	81.62
433.844	85.62
434.066	85.62
434.287	80.62
434.509	84.62
434.731	91.62
434.953	95.62
435.175	85.62
435.397	80.62
435.618	84.62
435.84	91.62
436.062	111.62
436.284	111.62
436.505	96.62
436.727	96.62
436.949	71.62
437.17	94.62
437.392	83.62
437.614	100.62
437.835	103.62
438.057	98.62
438.278	111.62
438.5	83.62
438.721	104.62
438.943	96.62
439.165	88.62
439.386	82.62
439.608	96.62
439.829	82.62
440.05	116.62
440.272	132.62
440.493	106.62
440.715	77.62
440.936	86.62
441.158	94.62
441.379	99.62
441.6	85.62
441.822	84.62
442.043	80.62
442.264	101.62
442.486	91.62
442.707	85.62
442.928	106.62
443.149	114.62
443.371	126.62
443.592	103.62
443.813	119.62
444.034	93.62
444.255	80.62
444.476	81.62
444.698	81.62
444.919	80.62
445.14	141.62
445.361	110.62
445.582	110.62
445.803	119.62
446.024	129.62
446.245	129.62
446.466	121.62
446.687	71.62
446.908	82.62
447.129	89.62
447.35	84.62
447.571	92.62
447.792	94.62
448.013	83.62
448.234	84.62
448.455	93.62
448.675	107.62
448.896	110.62
449.117	88.62
449.338	95.62
449.559	118.62
449.779	125.62
450	91.62
450.221	76.62
450.442	93.62
450.662	95.62
450.883	93.62
451.104	101.62
451.324	78.62
451.545	81.62
451.766	92.62
451.986	87.62
452.207	80.62
452.428	88.62
452.648	99.62
452.869	99.62
453.089	102.62
453.31	101.62
453.53	94.62
453.751	92.62
453.971	103.62
454.192	99.62
454.412	82.62
454.633	90.62
454.853	88.62
455.073	75.62
455.294	86.62
455.514	77.62
455.734	77.62
455.955	80.62
456.175	85.62
456.395	91.62
456.616	89.62
456.836	76.62
457.056	80.62
457.276	84.62
457.497	74.62
457.717	80.62
457.937	66.62
458.157	85.62
458.377	76.62
458.598	96.62
458.818	115.62
459.038	145.62
459.258	102.62
459.478	87.62
459.698	89.62
459.918	81.62
460.138	84.62
460.358	86.62
460.578	91.62
460.798	77.62
461.018	70.62
461.238	79.62
461.458	72.62
461.678	81.62
461.898	92.62
462.118	92.62
462.338	88.62
462.558	79.62
462.777	80.62
462.997	83.62
463.217	87.62
463.437	81.62
463.657	81.62
463.876	78.62
464.096	84.62
464.316	79.62
464.536	91.62
464.755	101.62
464.975	88.62
465.195	143.62
465.414	152.62
465.634	87.62
465.854	84.62
466.073	85.62
466.293	83.62
466.512	81.62
466.732	89.62
466.951	86.62
467.171	79.62
467.391	85.62
467.61	101.62
467.829	100.62
468.049	109.62
468.268	105.62
468.488	89.62
468.707	92.62
468.927	97.62
469.146	75.62
469.365	93.62
469.585	92.62
469.804	78.62
470.023	81.62
470.243	82.62
470.462	85.62
470.681	102.62
470.901	75.62
471.12	79.62
471.339	80.62
471.558	93.62
471.777	69.62
471.997	92.62
472.216	114.62
472.435	192.62
472.654	100.62
472.873	100.62
473.092	87.62
473.311	80.62
473.53	84.62
473.749	98.62
473.968	82.62
474.187	97.62
474.406	88.62
474.625	82.62
474.844	76.62
475.063	81.62
475.282	88.62
475.501	71.62
475.72	87.62
475.939	95.62
476.158	75.62
476.377	89.62
476.596	94.62
476.814	92.62
477.033	96.62
477.252	87.62
477.471	91.62
477.69	92.62
477.908	93.62
478.127	89.62
478.346	83.62
478.564	93.62
478.783	93.62
479.002	102.62
479.22	79.62
479.439	85.62
479.658	87.62
479.876	89.62
480.095	94.62
480.313	88.62
480.532	88.62
480.751	94.62
480.969	152.62
481.188	284.62
481.406	201.62
481.624	76.62
481.843	83.62
482.061	74.62
482.28	69.62
482.498	70.62
482.717	91.62
482.935	91.62
483.153	86.62
483.372	85.62
483.59	85.62
483.808	83.62
484.027	86.62
484.245	84.62
484.463	82.62
484.681	99.62
484.9	68.62
485.118	89.62
485.336	91.62
485.554	78.62
485.772	92.62
485.99	91.62
486.209	114.62
486.427	88.62
486.645	98.62
486.863	112.62
487.081	88.62
487.299	104.62
487.517	84.62
487.735	93.62
487.953	78.62
488.171	90.62
488.389	94.62
488.607	101.62
488.825	100.62
489.043	104.62
489.261	79.62
489.479	89.62
489.696	80.62
489.914	84.62
490.132	96.62
490.35	90.62
490.568	77.62
490.786	87.62
491.003	91.62
491.221	95.62
491.439	86.62
491.657	81.62
491.874	89.62
492.092	102.62
492.31	85.62
492.527	99.62
492.745	103.62
492.963	86.62
493.18	87.62
493.398	84.62
493.615	80.62
493.833	73.62
494.05	80.62
494.268	93.62
494.485	89.62
494.703	84.62
494.92	87.62
495.138	84.62
495.355	86.62
495.573	78.62
495.79	81.62
496.008	96.62
496.225	101.62
496.442	83.62
496.66	90.62
496.877	87.62
497.094	79.62
497.312	88.62
497.529	91.62
497.746	83.62
497.963	72.62
498.181	88.62
498.398	85.62
498.615	109.62
498.832	102.62
499.049	97.62
499.267	90.62
499.484	94.62
499.701	81.62
499.918	75.62
500.135	83.62
500.352	85.62
500.569	93.62
500.786	96.62
501.003	98.62
501.22	73.62
501.437	73.62
501.654	93.62
501.871	108.62
502.088	107.62
502.305	89.62
502.522	79.62
502.739	81.62
502.956	73.62
503.172	86.62
503.389	97.62
503.606	88.62
503.823	91.62
504.04	99.62
504.256	93.62
504.473	91.62
504.69	89.62
504.907	91.62
505.123	84.62
505.34	88.62
505.557	80.62
505.773	86.62
505.99	97.62
506.207	88.62
506.423	91.62
506.64	89.62
506.856	81.62
507.073	86.62
507.289	94.62
507.506	79.62
507.722	100.62
507.939	99.62
508.155	97.62
508.372	90.62
508.588	91.62
508.805	81.62
509.021	96.62
509.238	99.62
509.454	98.62
509.67	97.62
509.887	102.62
510.103	116.62
510.319	179.62
510.536	624.62
510.752	1922.62
510.968	567.62
511.184	146.62
511.401	105.62
511.617	87.62
511.833	88.62
512.049	94.62
512.265	94.62
512.481	89.62
512.698	97.62
512.914	86.62
513.13	88.62
513.346	95.62
513.562	92.62
513.778	99.62
513.994	91.62
514.21	96.62
514.426	106.62
514.642	105.62
514.858	113.62
515.074	145.62
515.29	379.62
515.506	1159.62
515.721	450.62
515.937	140.62
516.153	96.62
516.369	103.62
516.585	94.62
516.801	100.62
517.016	99.62
517.232	94.62
517.448	95.62
