Data from Circ_2002_H10_HRD10591_00031.txt Node
Date: Wed Jan 03 10:41:04 EST 2024
User: Yrep
Spectrometer: HR+D1059
Trigger mode: 1
Integration Time (sec): 1.000000E-1
Scans to average: 1
Electric dark correction enabled: true
Nonlinearity correction enabled: false
Boxcar width: 0
XAxis mode: Wavelengths
Number of Pixels in Spectrum: 2048
>>>>>Begin Spectral Data<<<<<
223.165	-5.88
223.4	-5.88
223.635	-5.88
223.869	-11.88
224.104	-21.88
224.338	-25.88
224.573	-0.88
224.808	-20.88
225.042	-19.88
225.277	-4.88
225.511	-8.88
225.746	4.12
225.98	12.12
226.215	13.12
226.449	9.12
226.683	28.12
226.918	32.12
227.152	22.12
227.387	26.12
227.621	43.12
227.856	43.12
228.09	46.12
228.324	50.12
228.559	47.12
228.793	65.12
229.027	72.12
229.262	72.12
229.496	80.12
229.73	86.12
229.964	84.12
230.199	77.12
230.433	85.12
230.667	77.12
230.901	73.12
231.136	88.12
231.37	82.12
231.604	83.12
231.838	81.12
232.072	57.12
232.306	88.12
232.541	82.12
232.775	92.12
233.009	88.12
233.243	85.12
233.477	66.12
233.711	94.12
233.945	78.12
234.179	82.12
234.413	82.12
234.647	93.12
234.881	71.12
235.115	68.12
235.349	91.12
235.583	73.12
235.817	72.12
236.051	68.12
236.285	71.12
236.519	90.12
236.753	84.12
236.987	79.12
237.221	76.12
237.455	81.12
237.689	88.12
237.922	68.12
238.156	97.12
238.39	82.12
238.624	60.12
238.858	79.12
239.091	74.12
239.325	62.12
239.559	81.12
239.793	86.12
240.027	74.12
240.26	83.12
240.494	87.12
240.728	70.12
240.961	73.12
241.195	81.12
241.429	74.12
241.662	77.12
241.896	71.12
242.13	70.12
242.363	83.12
242.597	74.12
242.83	78.12
243.064	82.12
243.298	89.12
243.531	85.12
243.765	82.12
243.998	82.12
244.232	75.12
244.465	92.12
244.699	88.12
244.932	75.12
245.166	75.12
245.399	79.12
245.633	75.12
245.866	66.12
246.099	81.12
246.333	57.12
246.566	84.12
246.8	84.12
247.033	72.12
247.266	63.12
247.5	83.12
247.733	83.12
247.966	88.12
248.2	75.12
248.433	71.12
248.666	85.12
248.899	94.12
249.133	81.12
249.366	95.12
249.599	98.12
249.832	91.12
250.066	72.12
250.299	97.12
250.532	93.12
250.765	78.12
250.998	80.12
251.231	86.12
251.465	67.12
251.698	78.12
251.931	83.12
252.164	89.12
252.397	84.12
252.63	65.12
252.863	63.12
253.096	87.12
253.329	89.12
253.562	80.12
253.795	76.12
254.028	97.12
254.261	83.12
254.494	84.12
254.727	83.12
254.96	83.12
255.193	89.12
255.426	71.12
255.659	79.12
255.892	88.12
256.124	87.12
256.357	75.12
256.59	76.12
256.823	91.12
257.056	83.12
257.289	95.12
257.521	84.12
257.754	82.12
257.987	64.12
258.22	91.12
258.452	82.12
258.685	86.12
258.918	84.12
259.151	86.12
259.383	87.12
259.616	78.12
259.849	87.12
260.081	74.12
260.314	90.12
260.547	72.12
260.779	85.12
261.012	82.12
261.244	83.12
261.477	94.12
261.71	91.12
261.942	112.12
262.175	98.12
262.407	91.12
262.64	88.12
262.872	74.12
263.105	79.12
263.337	96.12
263.57	85.12
263.802	71.12
264.035	80.12
264.267	71.12
264.499	84.12
264.732	92.12
264.964	80.12
265.197	96.12
265.429	81.12
265.661	82.12
265.894	82.12
266.126	89.12
266.358	91.12
266.591	78.12
266.823	89.12
267.055	84.12
267.287	83.12
267.52	86.12
267.752	79.12
267.984	89.12
268.216	96.12
268.448	86.12
268.681	78.12
268.913	90.12
269.145	90.12
269.377	76.12
269.609	87.12
269.841	87.12
270.073	94.12
270.306	73.12
270.538	81.12
270.77	87.12
271.002	90.12
271.234	87.12
271.466	87.12
271.698	88.12
271.93	76.12
272.162	76.12
272.394	98.12
272.626	80.12
272.858	89.12
273.09	100.12
273.322	78.12
273.553	81.12
273.785	83.12
274.017	88.12
274.249	87.12
274.481	89.12
274.713	77.12
274.945	89.12
275.176	84.12
275.408	79.12
275.64	82.12
275.872	91.12
276.104	72.12
276.335	83.12
276.567	96.12
276.799	103.12
277.031	92.12
277.262	89.12
277.494	87.12
277.726	89.12
277.957	82.12
278.189	95.12
278.421	92.12
278.652	82.12
278.884	109.12
279.115	96.12
279.347	90.12
279.579	101.12
279.81	97.12
280.042	88.12
280.273	89.12
280.505	102.12
280.736	72.12
280.968	86.12
281.199	98.12
281.431	91.12
281.662	84.12
281.894	88.12
282.125	102.12
282.356	122.12
282.588	132.12
282.819	112.12
283.051	72.12
283.282	78.12
283.513	85.12
283.745	87.12
283.976	99.12
284.207	87.12
284.439	88.12
284.67	83.12
284.901	92.12
285.132	74.12
285.364	86.12
285.595	89.12
285.826	90.12
286.057	83.12
286.288	78.12
286.52	92.12
286.751	82.12
286.982	91.12
287.213	82.12
287.444	86.12
287.675	88.12
287.906	101.12
288.138	87.12
288.369	79.12
288.6	82.12
288.831	89.12
289.062	89.12
289.293	97.12
289.524	89.12
289.755	80.12
289.986	75.12
290.217	94.12
290.448	93.12
290.679	87.12
290.91	79.12
291.141	77.12
291.371	69.12
291.602	91.12
291.833	89.12
292.064	90.12
292.295	86.12
292.526	85.12
292.757	86.12
292.987	100.12
293.218	84.12
293.449	87.12
293.68	94.12
293.91	85.12
294.141	97.12
294.372	88.12
294.603	77.12
294.833	80.12
295.064	86.12
295.295	83.12
295.525	91.12
295.756	103.12
295.987	105.12
296.217	132.12
296.448	117.12
296.679	96.12
296.909	86.12
297.14	102.12
297.37	88.12
297.601	82.12
297.831	100.12
298.062	88.12
298.292	97.12
298.523	97.12
298.753	86.12
298.984	79.12
299.214	90.12
299.445	92.12
299.675	98.12
299.905	94.12
300.136	93.12
300.366	95.12
300.597	99.12
300.827	94.12
301.057	89.12
301.288	94.12
301.518	79.12
301.748	96.12
301.979	106.12
302.209	99.12
302.439	91.12
302.669	94.12
302.9	73.12
303.13	87.12
303.36	99.12
303.59	99.12
303.82	105.12
304.051	90.12
304.281	80.12
304.511	104.12
304.741	82.12
304.971	86.12
305.201	90.12
305.431	97.12
305.661	91.12
305.891	97.12
306.121	102.12
306.352	92.12
306.582	95.12
306.812	103.12
307.042	106.12
307.272	95.12
307.502	102.12
307.731	86.12
307.961	74.12
308.191	82.12
308.421	83.12
308.651	86.12
308.881	97.12
309.111	94.12
309.341	93.12
309.571	94.12
309.8	83.12
310.03	79.12
310.26	94.12
310.49	92.12
310.72	102.12
310.949	86.12
311.179	82.12
311.409	80.12
311.639	96.12
311.868	91.12
312.098	79.12
312.328	95.12
312.557	100.12
312.787	92.12
313.017	96.12
313.246	94.12
313.476	81.12
313.706	85.12
313.935	91.12
314.165	89.12
314.394	97.12
314.624	108.12
314.853	89.12
315.083	94.12
315.312	84.12
315.542	84.12
315.771	94.12
316.001	101.12
316.23	89.12
316.46	70.12
316.689	104.12
316.919	92.12
317.148	102.12
317.377	93.12
317.607	90.12
317.836	101.12
318.065	97.12
318.295	92.12
318.524	78.12
318.753	100.12
318.983	101.12
319.212	104.12
319.441	104.12
319.67	95.12
319.9	86.12
320.129	101.12
320.358	77.12
320.587	102.12
320.816	99.12
321.046	96.12
321.275	92.12
321.504	81.12
321.733	75.12
321.962	83.12
322.191	104.12
322.42	102.12
322.649	105.12
322.878	103.12
323.108	110.12
323.337	107.12
323.566	125.12
323.795	127.12
324.024	193.12
324.253	369.12
324.482	772.12
324.71	1624.12
324.939	2116.12
325.168	778.12
325.397	230.12
325.626	157.12
325.855	135.12
326.084	127.12
326.313	118.12
326.542	152.12
326.77	229.12
326.999	442.12
327.228	950.12
327.457	1674.12
327.686	1319.12
327.914	351.12
328.143	193.12
328.372	146.12
328.6	119.12
328.829	110.12
329.058	120.12
329.287	122.12
329.515	110.12
329.744	103.12
329.972	84.12
330.201	115.12
330.43	128.12
330.658	119.12
330.887	124.12
331.115	110.12
331.344	96.12
331.572	96.12
331.801	100.12
332.03	100.12
332.258	79.12
332.486	87.12
332.715	97.12
332.943	89.12
333.172	89.12
333.4	96.12
333.629	118.12
333.857	103.12
334.085	91.12
334.314	96.12
334.542	112.12
334.771	100.12
334.999	88.12
335.227	102.12
335.455	99.12
335.684	91.12
335.912	84.12
336.14	98.12
336.369	99.12
336.597	106.12
336.825	103.12
337.053	99.12
337.281	88.12
337.51	107.12
337.738	97.12
337.966	105.12
338.194	81.12
338.422	94.12
338.65	90.12
338.878	87.12
339.106	100.12
339.334	100.12
339.562	85.12
339.79	100.12
340.018	98.12
340.246	82.12
340.474	92.12
340.702	90.12
340.93	91.12
341.158	79.12
341.386	96.12
341.614	95.12
341.842	81.12
342.07	90.12
342.298	84.12
342.526	89.12
342.754	98.12
342.981	81.12
343.209	81.12
343.437	108.12
343.665	85.12
343.893	100.12
344.12	96.12
344.348	93.12
344.576	86.12
344.804	100.12
345.031	107.12
345.259	92.12
345.487	100.12
345.714	96.12
345.942	83.12
346.17	85.12
346.397	106.12
346.625	91.12
346.853	82.12
347.08	91.12
347.308	96.12
347.535	96.12
347.763	103.12
347.99	104.12
348.218	97.12
348.445	90.12
348.673	111.12
348.9	94.12
349.128	82.12
349.355	87.12
349.583	89.12
349.81	92.12
350.037	90.12
350.265	85.12
350.492	99.12
350.72	83.12
350.947	89.12
351.174	98.12
351.402	102.12
351.629	102.12
351.856	87.12
352.083	89.12
352.311	99.12
352.538	103.12
352.765	108.12
352.992	118.12
353.22	94.12
353.447	83.12
353.674	82.12
353.901	95.12
354.128	92.12
354.355	101.12
354.583	92.12
354.81	103.12
355.037	83.12
355.264	94.12
355.491	107.12
355.718	91.12
355.945	90.12
356.172	90.12
356.399	119.12
356.626	91.12
356.853	87.12
357.08	102.12
357.307	93.12
357.534	94.12
357.761	105.12
357.988	106.12
358.215	93.12
358.441	94.12
358.668	81.12
358.895	87.12
359.122	91.12
359.349	93.12
359.576	87.12
359.802	94.12
360.029	116.12
360.256	104.12
360.483	80.12
360.709	89.12
360.936	92.12
361.163	98.12
361.39	100.12
361.616	93.12
361.843	106.12
362.07	92.12
362.296	98.12
362.523	99.12
362.749	94.12
362.976	97.12
363.203	86.12
363.429	110.12
363.656	90.12
363.882	90.12
364.109	107.12
364.335	85.12
364.562	96.12
364.788	66.12
365.015	99.12
365.241	102.12
365.468	101.12
365.694	105.12
365.92	82.12
366.147	82.12
366.373	87.12
366.599	90.12
366.826	86.12
367.052	94.12
367.278	94.12
367.505	90.12
367.731	106.12
367.957	91.12
368.184	75.12
368.41	89.12
368.636	103.12
368.862	120.12
369.089	106.12
369.315	97.12
369.541	87.12
369.767	109.12
369.993	84.12
370.219	98.12
370.445	73.12
370.672	90.12
370.898	99.12
371.124	101.12
371.35	88.12
371.576	82.12
371.802	96.12
372.028	90.12
372.254	87.12
372.48	82.12
372.706	87.12
372.932	84.12
373.158	104.12
373.384	86.12
373.61	90.12
373.835	102.12
374.061	78.12
374.287	97.12
374.513	94.12
374.739	99.12
374.965	87.12
375.191	96.12
375.416	99.12
375.642	84.12
375.868	98.12
376.094	94.12
376.319	97.12
376.545	91.12
376.771	92.12
376.997	86.12
377.222	89.12
377.448	102.12
377.674	95.12
377.899	91.12
378.125	95.12
378.35	94.12
378.576	99.12
378.802	87.12
379.027	92.12
379.253	79.12
379.478	104.12
379.704	81.12
379.929	92.12
380.155	90.12
380.38	105.12
380.606	80.12
380.831	91.12
381.057	87.12
381.282	81.12
381.507	90.12
381.733	84.12
381.958	100.12
382.184	96.12
382.409	104.12
382.634	89.12
382.86	102.12
383.085	102.12
383.31	114.12
383.535	104.12
383.761	97.12
383.986	98.12
384.211	94.12
384.436	105.12
384.662	94.12
384.887	119.12
385.112	108.12
385.337	105.12
385.562	105.12
385.787	99.12
386.013	123.12
386.238	114.12
386.463	99.12
386.688	108.12
386.913	111.12
387.138	94.12
387.363	111.12
387.588	98.12
387.813	102.12
388.038	100.12
388.263	117.12
388.488	126.12
388.713	97.12
388.938	101.12
389.163	103.12
389.387	75.12
389.612	98.12
389.837	86.12
390.062	95.12
390.287	95.12
390.512	97.12
390.736	89.12
390.961	94.12
391.186	97.12
391.411	94.12
391.636	94.12
391.86	87.12
392.085	84.12
392.31	90.12
392.534	55.12
392.759	99.12
392.984	94.12
393.208	104.12
393.433	104.12
393.658	95.12
393.882	65.12
394.107	79.12
394.331	87.12
394.556	79.12
394.78	78.12
395.005	87.12
395.229	78.12
395.454	76.12
395.678	79.12
395.903	86.12
396.127	90.12
396.352	92.12
396.576	82.12
396.801	102.12
397.025	98.12
397.249	93.12
397.474	83.12
397.698	80.12
397.922	93.12
398.147	89.12
398.371	82.12
398.595	94.12
398.82	89.12
399.044	85.12
399.268	87.12
399.492	87.12
399.717	91.12
399.941	91.12
400.165	78.12
400.389	92.12
400.613	77.12
400.837	94.12
401.062	90.12
401.286	87.12
401.51	86.12
401.734	98.12
401.958	91.12
402.182	123.12
402.406	146.12
402.63	108.12
402.854	89.12
403.078	85.12
403.302	90.12
403.526	89.12
403.75	75.12
403.974	95.12
404.198	94.12
404.422	88.12
404.645	84.12
404.869	88.12
405.093	97.12
405.317	102.12
405.541	102.12
405.765	79.12
405.988	116.12
406.212	160.12
406.436	206.12
406.66	132.12
406.883	105.12
407.107	107.12
407.331	103.12
407.555	95.12
407.778	103.12
408.002	95.12
408.226	90.12
408.449	84.12
408.673	96.12
408.896	86.12
409.12	96.12
409.344	95.12
409.567	91.12
409.791	99.12
410.014	90.12
410.238	95.12
410.461	98.12
410.685	98.12
410.908	86.12
411.132	117.12
411.355	92.12
411.578	95.12
411.802	99.12
412.025	83.12
412.249	102.12
412.472	80.12
412.695	97.12
412.919	98.12
413.142	68.12
413.365	94.12
413.589	101.12
413.812	102.12
414.035	94.12
414.258	84.12
414.482	106.12
414.705	84.12
414.928	80.12
415.151	95.12
415.374	90.12
415.597	94.12
415.821	83.12
416.044	101.12
416.267	93.12
416.49	78.12
416.713	82.12
416.936	96.12
417.159	89.12
417.382	87.12
417.605	93.12
417.828	92.12
418.051	90.12
418.274	81.12
418.497	86.12
418.72	91.12
418.943	83.12
419.166	79.12
419.389	80.12
419.611	81.12
419.834	92.12
420.057	95.12
420.28	93.12
420.503	97.12
420.726	92.12
420.948	107.12
421.171	86.12
421.394	101.12
421.617	92.12
421.839	88.12
422.062	71.12
422.285	89.12
422.507	99.12
422.73	111.12
422.953	95.12
423.175	89.12
423.398	81.12
423.621	83.12
423.843	78.12
424.066	79.12
424.288	93.12
424.511	91.12
424.733	92.12
424.956	118.12
425.178	112.12
425.401	102.12
425.623	103.12
425.846	111.12
426.068	95.12
426.291	75.12
426.513	107.12
426.735	101.12
426.958	107.12
427.18	116.12
427.402	121.12
427.625	160.12
427.847	124.12
428.069	90.12
428.292	100.12
428.514	94.12
428.736	88.12
428.958	98.12
429.181	82.12
429.403	87.12
429.625	82.12
429.847	103.12
430.069	104.12
430.292	81.12
430.514	95.12
430.736	89.12
430.958	93.12
431.18	95.12
431.402	93.12
431.624	83.12
431.846	85.12
432.068	91.12
432.29	80.12
432.512	98.12
432.734	74.12
432.956	99.12
433.178	97.12
433.4	92.12
433.622	91.12
433.844	83.12
434.066	86.12
434.287	92.12
434.509	105.12
434.731	93.12
434.953	83.12
435.175	96.12
435.397	86.12
435.618	86.12
435.84	110.12
436.062	112.12
436.284	117.12
436.505	90.12
436.727	92.12
436.949	84.12
437.17	75.12
437.392	89.12
437.614	86.12
437.835	103.12
438.057	110.12
438.278	104.12
438.5	100.12
438.721	116.12
438.943	109.12
439.165	95.12
439.386	90.12
439.608	91.12
439.829	92.12
440.05	125.12
440.272	144.12
440.493	83.12
440.715	88.12
440.936	103.12
441.158	96.12
441.379	87.12
441.6	90.12
441.822	95.12
442.043	108.12
442.264	94.12
442.486	86.12
442.707	79.12
442.928	99.12
443.149	119.12
443.371	120.12
443.592	109.12
443.813	114.12
444.034	104.12
444.255	98.12
444.476	84.12
444.698	88.12
444.919	92.12
445.14	138.12
445.361	112.12
445.582	121.12
445.803	129.12
446.024	122.12
446.245	131.12
446.466	118.12
446.687	66.12
446.908	84.12
447.129	91.12
447.35	89.12
447.571	104.12
447.792	92.12
448.013	100.12
448.234	98.12
448.455	98.12
448.675	109.12
448.896	115.12
449.117	101.12
449.338	103.12
449.559	133.12
449.779	117.12
450	88.12
450.221	87.12
450.442	80.12
450.662	94.12
450.883	89.12
451.104	113.12
451.324	100.12
451.545	88.12
451.766	84.12
451.986	84.12
452.207	71.12
452.428	92.12
452.648	88.12
452.869	111.12
453.089	106.12
453.31	122.12
453.53	86.12
453.751	104.12
453.971	96.12
454.192	107.12
454.412	92.12
454.633	91.12
454.853	87.12
455.073	87.12
455.294	82.12
455.514	102.12
455.734	96.12
455.955	83.12
456.175	96.12
456.395	89.12
456.616	87.12
456.836	77.12
457.056	102.12
457.276	83.12
457.497	83.12
457.717	89.12
457.937	93.12
458.157	93.12
458.377	95.12
458.598	102.12
458.818	122.12
459.038	139.12
459.258	111.12
459.478	99.12
459.698	88.12
459.918	82.12
460.138	83.12
460.358	87.12
460.578	97.12
460.798	91.12
461.018	82.12
461.238	92.12
461.458	102.12
461.678	88.12
461.898	81.12
462.118	80.12
462.338	79.12
462.558	92.12
462.777	83.12
462.997	78.12
463.217	77.12
463.437	99.12
463.657	93.12
463.876	100.12
464.096	101.12
464.316	81.12
464.536	96.12
464.755	74.12
464.975	101.12
465.195	151.12
465.414	143.12
465.634	102.12
465.854	107.12
466.073	92.12
466.293	107.12
466.512	92.12
466.732	104.12
466.951	82.12
467.171	97.12
467.391	89.12
467.61	89.12
467.829	99.12
468.049	86.12
468.268	106.12
468.488	89.12
468.707	93.12
468.927	89.12
469.146	87.12
469.365	94.12
469.585	79.12
469.804	86.12
470.023	91.12
470.243	95.12
470.462	98.12
470.681	109.12
470.901	89.12
471.12	108.12
471.339	95.12
471.558	83.12
471.777	85.12
471.997	93.12
472.216	95.12
472.435	108.12
472.654	80.12
472.873	74.12
473.092	84.12
473.311	86.12
473.53	83.12
473.749	89.12
473.968	85.12
474.187	104.12
474.406	92.12
474.625	78.12
474.844	103.12
475.063	91.12
475.282	104.12
475.501	95.12
475.72	97.12
475.939	89.12
476.158	90.12
476.377	92.12
476.596	97.12
476.814	96.12
477.033	87.12
477.252	95.12
477.471	89.12
477.69	90.12
477.908	98.12
478.127	92.12
478.346	80.12
478.564	90.12
478.783	89.12
479.002	100.12
479.22	100.12
479.439	100.12
479.658	104.12
479.876	97.12
480.095	96.12
480.313	90.12
480.532	85.12
480.751	109.12
480.969	93.12
481.188	122.12
481.406	115.12
481.624	75.12
481.843	66.12
482.061	103.12
482.28	96.12
482.498	87.12
482.717	89.12
482.935	96.12
483.153	94.12
483.372	96.12
483.59	98.12
483.808	89.12
484.027	106.12
484.245	92.12
484.463	80.12
484.681	105.12
484.9	98.12
485.118	94.12
485.336	88.12
485.554	105.12
485.772	99.12
485.99	112.12
486.209	109.12
486.427	99.12
486.645	116.12
486.863	97.12
487.081	105.12
487.299	96.12
487.517	92.12
487.735	90.12
487.953	100.12
488.171	104.12
488.389	86.12
488.607	111.12
488.825	98.12
489.043	77.12
489.261	90.12
489.479	86.12
489.696	107.12
489.914	100.12
490.132	87.12
490.35	101.12
490.568	72.12
490.786	77.12
491.003	82.12
491.221	89.12
491.439	103.12
491.657	97.12
491.874	95.12
492.092	97.12
492.31	94.12
492.527	97.12
492.745	85.12
492.963	94.12
493.18	103.12
493.398	95.12
493.615	103.12
493.833	88.12
494.05	75.12
494.268	86.12
494.485	97.12
494.703	91.12
494.92	92.12
495.138	86.12
495.355	82.12
495.573	88.12
495.79	103.12
496.008	89.12
496.225	71.12
496.442	83.12
496.66	91.12
496.877	89.12
497.094	94.12
497.312	88.12
497.529	94.12
497.746	90.12
497.963	99.12
498.181	97.12
498.398	83.12
498.615	97.12
498.832	95.12
499.049	85.12
499.267	96.12
499.484	95.12
499.701	84.12
499.918	84.12
500.135	91.12
500.352	83.12
500.569	80.12
500.786	81.12
501.003	97.12
501.22	95.12
501.437	103.12
501.654	96.12
501.871	99.12
502.088	92.12
502.305	92.12
502.522	102.12
502.739	84.12
502.956	92.12
503.172	99.12
503.389	102.12
503.606	106.12
503.823	89.12
504.04	93.12
504.256	82.12
504.473	92.12
504.69	96.12
504.907	92.12
505.123	86.12
505.34	79.12
505.557	89.12
505.773	89.12
505.99	95.12
506.207	90.12
506.423	87.12
506.64	96.12
506.856	98.12
507.073	87.12
507.289	90.12
507.506	103.12
507.722	99.12
507.939	106.12
508.155	76.12
508.372	91.12
508.588	92.12
508.805	98.12
509.021	95.12
509.238	93.12
509.454	86.12
509.67	95.12
509.887	105.12
510.103	131.12
510.319	213.12
510.536	658.12
510.752	2089.12
510.968	571.12
511.184	140.12
511.401	98.12
511.617	86.12
511.833	83.12
512.049	90.12
512.265	93.12
512.481	94.12
512.698	88.12
512.914	108.12
513.13	102.12
513.346	105.12
513.562	98.12
513.778	108.12
513.994	105.12
514.21	107.12
514.426	106.12
514.642	129.12
514.858	128.12
515.074	156.12
515.29	400.12
515.506	1289.12
515.721	486.12
