Data from Circ_2002_H10_HRD10591_00058.txt Node
Date: Wed Jan 03 10:41:09 EST 2024
User: Yrep
Spectrometer: HR+D1059
Trigger mode: 1
Integration Time (sec): 1.000000E-1
Scans to average: 1
Electric dark correction enabled: true
Nonlinearity correction enabled: false
Boxcar width: 0
XAxis mode: Wavelengths
Number of Pixels in Spectrum: 2048
>>>>>Begin Spectral Data<<<<<
223.165	-21.44
223.4	-21.44
223.635	-21.44
223.869	-16.44
224.104	-26.44
224.338	-11.44
224.573	-17.44
224.808	0.56
225.042	-25.44
225.277	-8.44
225.511	0.56
225.746	-4.44
225.98	3.56
226.215	13.56
226.449	23.56
226.683	24.56
226.918	41.56
227.152	23.56
227.387	37.56
227.621	31.56
227.856	37.56
228.09	46.56
228.324	53.56
228.559	61.56
228.793	55.56
229.027	50.56
229.262	76.56
229.496	75.56
229.73	83.56
229.964	74.56
230.199	73.56
230.433	77.56
230.667	71.56
230.901	83.56
231.136	82.56
231.37	79.56
231.604	77.56
231.838	98.56
232.072	92.56
232.306	95.56
232.541	87.56
232.775	86.56
233.009	73.56
233.243	96.56
233.477	87.56
233.711	82.56
233.945	92.56
234.179	69.56
234.413	70.56
234.647	75.56
234.881	93.56
235.115	88.56
235.349	77.56
235.583	77.56
235.817	92.56
236.051	91.56
236.285	78.56
236.519	84.56
236.753	88.56
236.987	94.56
237.221	87.56
237.455	83.56
237.689	96.56
237.922	90.56
238.156	82.56
238.39	92.56
238.624	69.56
238.858	72.56
239.091	73.56
239.325	90.56
239.559	70.56
239.793	85.56
240.027	86.56
240.26	76.56
240.494	79.56
240.728	87.56
240.961	76.56
241.195	90.56
241.429	82.56
241.662	85.56
241.896	74.56
242.13	82.56
242.363	96.56
242.597	81.56
242.83	81.56
243.064	77.56
243.298	93.56
243.531	87.56
243.765	89.56
243.998	94.56
244.232	90.56
244.465	74.56
244.699	75.56
244.932	72.56
245.166	81.56
245.399	86.56
245.633	59.56
245.866	81.56
246.099	79.56
246.333	86.56
246.566	79.56
246.8	90.56
247.033	78.56
247.266	78.56
247.5	88.56
247.733	79.56
247.966	97.56
248.2	85.56
248.433	90.56
248.666	93.56
248.899	83.56
249.133	91.56
249.366	88.56
249.599	102.56
249.832	83.56
250.066	85.56
250.299	82.56
250.532	89.56
250.765	84.56
250.998	92.56
251.231	77.56
251.465	62.56
251.698	90.56
251.931	92.56
252.164	86.56
252.397	90.56
252.63	82.56
252.863	68.56
253.096	89.56
253.329	83.56
253.562	85.56
253.795	83.56
254.028	93.56
254.261	83.56
254.494	94.56
254.727	85.56
254.96	77.56
255.193	97.56
255.426	86.56
255.659	78.56
255.892	82.56
256.124	71.56
256.357	86.56
256.59	94.56
256.823	95.56
257.056	76.56
257.289	82.56
257.521	91.56
257.754	78.56
257.987	94.56
258.22	97.56
258.452	83.56
258.685	73.56
258.918	84.56
259.151	91.56
259.383	84.56
259.616	77.56
259.849	74.56
260.081	77.56
260.314	81.56
260.547	97.56
260.779	79.56
261.012	88.56
261.244	98.56
261.477	83.56
261.71	81.56
261.942	120.56
262.175	110.56
262.407	97.56
262.64	90.56
262.872	75.56
263.105	80.56
263.337	90.56
263.57	92.56
263.802	93.56
264.035	85.56
264.267	85.56
264.499	85.56
264.732	104.56
264.964	85.56
265.197	91.56
265.429	99.56
265.661	79.56
265.894	84.56
266.126	87.56
266.358	89.56
266.591	83.56
266.823	95.56
267.055	79.56
267.287	102.56
267.52	78.56
267.752	89.56
267.984	87.56
268.216	96.56
268.448	92.56
268.681	90.56
268.913	85.56
269.145	85.56
269.377	88.56
269.609	82.56
269.841	75.56
270.073	72.56
270.306	89.56
270.538	85.56
270.77	86.56
271.002	85.56
271.234	86.56
271.466	83.56
271.698	92.56
271.93	89.56
272.162	89.56
272.394	111.56
272.626	97.56
272.858	79.56
273.09	77.56
273.322	86.56
273.553	84.56
273.785	92.56
274.017	92.56
274.249	95.56
274.481	90.56
274.713	90.56
274.945	88.56
275.176	88.56
275.408	97.56
275.64	77.56
275.872	92.56
276.104	79.56
276.335	88.56
276.567	95.56
276.799	113.56
277.031	88.56
277.262	79.56
277.494	94.56
277.726	86.56
277.957	93.56
278.189	90.56
278.421	81.56
278.652	80.56
278.884	95.56
279.115	95.56
279.347	101.56
279.579	98.56
279.81	93.56
280.042	90.56
280.273	92.56
280.505	82.56
280.736	84.56
280.968	92.56
281.199	95.56
281.431	95.56
281.662	98.56
281.894	91.56
282.125	102.56
282.356	122.56
282.588	136.56
282.819	110.56
283.051	91.56
283.282	87.56
283.513	91.56
283.745	94.56
283.976	88.56
284.207	97.56
284.439	90.56
284.67	76.56
284.901	87.56
285.132	101.56
285.364	79.56
285.595	92.56
285.826	104.56
286.057	94.56
286.288	90.56
286.52	95.56
286.751	93.56
286.982	93.56
287.213	83.56
287.444	103.56
287.675	92.56
287.906	83.56
288.138	91.56
288.369	94.56
288.6	99.56
288.831	80.56
289.062	93.56
289.293	95.56
289.524	96.56
289.755	93.56
289.986	88.56
290.217	96.56
290.448	90.56
290.679	99.56
290.91	97.56
291.141	92.56
291.371	84.56
291.602	103.56
291.833	88.56
292.064	77.56
292.295	100.56
292.526	86.56
292.757	92.56
292.987	98.56
293.218	92.56
293.449	88.56
293.68	85.56
293.91	85.56
294.141	102.56
294.372	85.56
294.603	87.56
294.833	83.56
295.064	90.56
295.295	88.56
295.525	78.56
295.756	104.56
295.987	106.56
296.217	142.56
296.448	124.56
296.679	92.56
296.909	81.56
297.14	83.56
297.37	92.56
297.601	86.56
297.831	84.56
298.062	77.56
298.292	102.56
298.523	86.56
298.753	92.56
298.984	91.56
299.214	98.56
299.445	93.56
299.675	97.56
299.905	99.56
300.136	93.56
300.366	86.56
300.597	94.56
300.827	91.56
301.057	101.56
301.288	90.56
301.518	98.56
301.748	84.56
301.979	101.56
302.209	102.56
302.439	91.56
302.669	86.56
302.9	102.56
303.13	91.56
303.36	97.56
303.59	112.56
303.82	98.56
304.051	107.56
304.281	99.56
304.511	93.56
304.741	87.56
304.971	85.56
305.201	94.56
305.431	95.56
305.661	76.56
305.891	82.56
306.121	91.56
306.352	106.56
306.582	112.56
306.812	101.56
307.042	100.56
307.272	102.56
307.502	108.56
307.731	90.56
307.961	86.56
308.191	85.56
308.421	101.56
308.651	91.56
308.881	103.56
309.111	82.56
309.341	101.56
309.571	91.56
309.8	98.56
310.03	105.56
310.26	94.56
310.49	91.56
310.72	86.56
310.949	95.56
311.179	111.56
311.409	93.56
311.639	104.56
311.868	92.56
312.098	90.56
312.328	93.56
312.557	105.56
312.787	99.56
313.017	116.56
313.246	96.56
313.476	90.56
313.706	91.56
313.935	91.56
314.165	103.56
314.394	110.56
314.624	88.56
314.853	97.56
315.083	98.56
315.312	101.56
315.542	91.56
315.771	96.56
316.001	93.56
316.23	90.56
316.46	100.56
316.689	89.56
316.919	81.56
317.148	75.56
317.377	87.56
317.607	94.56
317.836	86.56
318.065	91.56
318.295	90.56
318.524	94.56
318.753	102.56
318.983	98.56
319.212	93.56
319.441	115.56
319.67	101.56
319.9	99.56
320.129	102.56
320.358	96.56
320.587	94.56
320.816	91.56
321.046	102.56
321.275	96.56
321.504	100.56
321.733	97.56
321.962	105.56
322.191	95.56
322.42	104.56
322.649	102.56
322.878	95.56
323.108	101.56
323.337	101.56
323.566	130.56
323.795	141.56
324.024	189.56
324.253	339.56
324.482	764.56
324.71	1512.56
324.939	1940.56
325.168	708.56
325.397	226.56
325.626	151.56
325.855	122.56
326.084	132.56
326.313	114.56
326.542	145.56
326.77	216.56
326.999	438.56
327.228	908.56
327.457	1553.56
327.686	1228.56
327.914	341.56
328.143	185.56
328.372	147.56
328.6	113.56
328.829	114.56
329.058	131.56
329.287	126.56
329.515	119.56
329.744	106.56
329.972	107.56
330.201	115.56
330.43	129.56
330.658	129.56
330.887	133.56
331.115	110.56
331.344	106.56
331.572	100.56
331.801	105.56
332.03	103.56
332.258	98.56
332.486	106.56
332.715	82.56
332.943	96.56
333.172	92.56
333.4	104.56
333.629	119.56
333.857	110.56
334.085	114.56
334.314	122.56
334.542	133.56
334.771	117.56
334.999	92.56
335.227	94.56
335.455	89.56
335.684	99.56
335.912	102.56
336.14	102.56
336.369	98.56
336.597	100.56
336.825	95.56
337.053	95.56
337.281	95.56
337.51	93.56
337.738	84.56
337.966	91.56
338.194	103.56
338.422	102.56
338.65	94.56
338.878	87.56
339.106	92.56
339.334	76.56
339.562	81.56
339.79	80.56
340.018	91.56
340.246	101.56
340.474	92.56
340.702	109.56
340.93	94.56
341.158	102.56
341.386	105.56
341.614	109.56
341.842	95.56
342.07	95.56
342.298	97.56
342.526	94.56
342.754	86.56
342.981	87.56
343.209	100.56
343.437	99.56
343.665	90.56
343.893	102.56
344.12	100.56
344.348	90.56
344.576	86.56
344.804	94.56
345.031	100.56
345.259	99.56
345.487	92.56
345.714	98.56
345.942	96.56
346.17	102.56
346.397	102.56
346.625	98.56
346.853	92.56
347.08	93.56
347.308	95.56
347.535	108.56
347.763	103.56
347.99	100.56
348.218	101.56
348.445	123.56
348.673	101.56
348.9	84.56
349.128	101.56
349.355	99.56
349.583	105.56
349.81	94.56
350.037	108.56
350.265	109.56
350.492	107.56
350.72	85.56
350.947	99.56
351.174	116.56
351.402	103.56
351.629	105.56
351.856	96.56
352.083	97.56
352.311	111.56
352.538	114.56
352.765	119.56
352.992	113.56
353.22	122.56
353.447	100.56
353.674	105.56
353.901	106.56
354.128	94.56
354.355	100.56
354.583	97.56
354.81	98.56
355.037	84.56
355.264	85.56
355.491	95.56
355.718	100.56
355.945	89.56
356.172	97.56
356.399	99.56
356.626	101.56
356.853	81.56
357.08	99.56
357.307	88.56
357.534	100.56
357.761	113.56
357.988	87.56
358.215	89.56
358.441	94.56
358.668	96.56
358.895	98.56
359.122	89.56
359.349	97.56
359.576	90.56
359.802	100.56
360.029	105.56
360.256	111.56
360.483	93.56
360.709	95.56
360.936	93.56
361.163	93.56
361.39	95.56
361.616	95.56
361.843	81.56
362.07	80.56
362.296	74.56
362.523	80.56
362.749	85.56
362.976	95.56
363.203	90.56
363.429	94.56
363.656	90.56
363.882	86.56
364.109	104.56
364.335	95.56
364.562	100.56
364.788	96.56
365.015	102.56
365.241	102.56
365.468	104.56
365.694	115.56
365.92	96.56
366.147	88.56
366.373	90.56
366.599	88.56
366.826	94.56
367.052	94.56
367.278	100.56
367.505	97.56
367.731	91.56
367.957	100.56
368.184	100.56
368.41	100.56
368.636	101.56
368.862	114.56
369.089	105.56
369.315	82.56
369.541	91.56
369.767	95.56
369.993	105.56
370.219	92.56
370.445	88.56
370.672	84.56
370.898	94.56
371.124	105.56
371.35	91.56
371.576	103.56
371.802	88.56
372.028	95.56
372.254	104.56
372.48	83.56
372.706	77.56
372.932	84.56
373.158	93.56
373.384	99.56
373.61	91.56
373.835	81.56
374.061	85.56
374.287	91.56
374.513	85.56
374.739	91.56
374.965	94.56
375.191	93.56
375.416	96.56
375.642	94.56
375.868	97.56
376.094	93.56
376.319	92.56
376.545	81.56
376.771	82.56
376.997	85.56
377.222	101.56
377.448	96.56
377.674	91.56
377.899	89.56
378.125	87.56
378.35	92.56
378.576	99.56
378.802	96.56
379.027	92.56
379.253	85.56
379.478	81.56
379.704	106.56
379.929	108.56
380.155	90.56
380.38	92.56
380.606	89.56
380.831	93.56
381.057	98.56
381.282	95.56
381.507	102.56
381.733	102.56
381.958	103.56
382.184	92.56
382.409	100.56
382.634	100.56
382.86	94.56
383.085	95.56
383.31	113.56
383.535	107.56
383.761	95.56
383.986	91.56
384.211	94.56
384.436	104.56
384.662	106.56
384.887	99.56
385.112	105.56
385.337	95.56
385.562	100.56
385.787	112.56
386.013	97.56
386.238	119.56
386.463	110.56
386.688	105.56
386.913	113.56
387.138	114.56
387.363	94.56
387.588	97.56
387.813	106.56
388.038	113.56
388.263	111.56
388.488	117.56
388.713	101.56
388.938	92.56
389.163	93.56
389.387	111.56
389.612	92.56
389.837	97.56
390.062	86.56
390.287	101.56
390.512	99.56
390.736	76.56
390.961	77.56
391.186	100.56
391.411	92.56
391.636	102.56
391.86	82.56
392.085	95.56
392.31	84.56
392.534	92.56
392.759	111.56
392.984	76.56
393.208	96.56
393.433	105.56
393.658	97.56
393.882	100.56
394.107	90.56
394.331	71.56
394.556	89.56
394.78	86.56
395.005	86.56
395.229	93.56
395.454	89.56
395.678	91.56
395.903	103.56
396.127	90.56
396.352	90.56
396.576	91.56
396.801	100.56
397.025	83.56
397.249	112.56
397.474	73.56
397.698	85.56
397.922	86.56
398.147	79.56
398.371	83.56
398.595	96.56
398.82	85.56
399.044	101.56
399.268	90.56
399.492	89.56
399.717	95.56
399.941	92.56
400.165	93.56
400.389	85.56
400.613	81.56
400.837	82.56
401.062	73.56
401.286	86.56
401.51	98.56
401.734	95.56
401.958	103.56
402.182	124.56
402.406	153.56
402.63	109.56
402.854	96.56
403.078	84.56
403.302	91.56
403.526	86.56
403.75	67.56
403.974	86.56
404.198	77.56
404.422	102.56
404.645	89.56
404.869	90.56
405.093	101.56
405.317	101.56
405.541	98.56
405.765	100.56
405.988	114.56
406.212	151.56
406.436	197.56
406.66	139.56
406.883	107.56
407.107	91.56
407.331	89.56
407.555	87.56
407.778	97.56
408.002	97.56
408.226	100.56
408.449	98.56
408.673	94.56
408.896	99.56
409.12	101.56
409.344	86.56
409.567	100.56
409.791	89.56
410.014	101.56
410.238	101.56
410.461	89.56
410.685	99.56
410.908	101.56
411.132	101.56
411.355	102.56
411.578	95.56
411.802	89.56
412.025	92.56
412.249	94.56
412.472	87.56
412.695	95.56
412.919	83.56
413.142	90.56
413.365	83.56
413.589	75.56
413.812	99.56
414.035	92.56
414.258	81.56
414.482	93.56
414.705	85.56
414.928	94.56
415.151	87.56
415.374	87.56
415.597	91.56
415.821	94.56
416.044	85.56
416.267	94.56
416.49	90.56
416.713	90.56
416.936	99.56
417.159	82.56
417.382	89.56
417.605	101.56
417.828	92.56
418.051	84.56
418.274	89.56
418.497	99.56
418.72	89.56
418.943	93.56
419.166	91.56
419.389	97.56
419.611	87.56
419.834	105.56
420.057	107.56
420.28	75.56
420.503	82.56
420.726	83.56
420.948	79.56
421.171	103.56
421.394	82.56
421.617	87.56
421.839	83.56
422.062	87.56
422.285	94.56
422.507	85.56
422.73	98.56
422.953	90.56
423.175	82.56
423.398	83.56
423.621	102.56
423.843	100.56
424.066	82.56
424.288	90.56
424.511	104.56
424.733	95.56
424.956	96.56
425.178	90.56
425.401	101.56
425.623	92.56
425.846	85.56
426.068	103.56
426.291	107.56
426.513	82.56
426.735	89.56
426.958	87.56
427.18	94.56
427.402	136.56
427.625	158.56
427.847	143.56
428.069	120.56
428.292	76.56
428.514	83.56
428.736	92.56
428.958	106.56
429.181	91.56
429.403	101.56
429.625	98.56
429.847	79.56
430.069	100.56
430.292	96.56
430.514	92.56
430.736	88.56
430.958	77.56
431.18	83.56
431.402	102.56
431.624	92.56
431.846	90.56
432.068	95.56
432.29	87.56
432.512	86.56
432.734	83.56
432.956	95.56
433.178	98.56
433.4	112.56
433.622	82.56
433.844	100.56
434.066	85.56
434.287	101.56
434.509	98.56
434.731	92.56
434.953	94.56
435.175	87.56
435.397	102.56
435.618	99.56
435.84	99.56
436.062	121.56
436.284	123.56
436.505	109.56
436.727	102.56
436.949	105.56
437.17	95.56
437.392	89.56
437.614	94.56
437.835	94.56
438.057	103.56
438.278	114.56
438.5	108.56
438.721	114.56
438.943	95.56
439.165	97.56
439.386	81.56
439.608	96.56
439.829	106.56
440.05	125.56
440.272	121.56
440.493	113.56
440.715	105.56
440.936	84.56
441.158	101.56
441.379	93.56
441.6	85.56
441.822	86.56
442.043	87.56
442.264	102.56
442.486	89.56
442.707	81.56
442.928	89.56
443.149	107.56
443.371	111.56
443.592	94.56
443.813	103.56
444.034	102.56
444.255	87.56
444.476	93.56
444.698	90.56
444.919	84.56
445.14	151.56
445.361	118.56
445.582	117.56
445.803	131.56
446.024	123.56
446.245	134.56
446.466	103.56
446.687	93.56
446.908	86.56
447.129	88.56
447.35	92.56
447.571	89.56
447.792	101.56
448.013	95.56
448.234	108.56
448.455	96.56
448.675	107.56
448.896	108.56
449.117	110.56
449.338	93.56
449.559	126.56
449.779	127.56
450	94.56
450.221	79.56
450.442	94.56
450.662	104.56
450.883	95.56
451.104	106.56
451.324	94.56
451.545	91.56
451.766	93.56
451.986	89.56
452.207	107.56
452.428	104.56
452.648	105.56
452.869	95.56
453.089	110.56
453.31	126.56
453.53	92.56
453.751	109.56
453.971	96.56
454.192	101.56
454.412	100.56
454.633	89.56
454.853	90.56
455.073	104.56
455.294	88.56
455.514	90.56
455.734	77.56
455.955	79.56
456.175	103.56
456.395	101.56
456.616	91.56
456.836	78.56
457.056	86.56
457.276	84.56
457.497	75.56
457.717	85.56
457.937	86.56
458.157	92.56
458.377	97.56
458.598	88.56
458.818	143.56
459.038	132.56
459.258	119.56
459.478	78.56
459.698	91.56
459.918	91.56
460.138	91.56
460.358	89.56
460.578	89.56
460.798	100.56
461.018	76.56
461.238	84.56
461.458	81.56
461.678	89.56
461.898	82.56
462.118	87.56
462.338	94.56
462.558	95.56
462.777	91.56
462.997	81.56
463.217	86.56
463.437	89.56
463.657	80.56
463.876	90.56
464.096	97.56
464.316	99.56
464.536	111.56
464.755	93.56
464.975	96.56
465.195	146.56
465.414	151.56
465.634	98.56
465.854	92.56
466.073	94.56
466.293	85.56
466.512	102.56
466.732	101.56
466.951	88.56
467.171	99.56
467.391	84.56
467.61	107.56
467.829	92.56
468.049	106.56
468.268	99.56
468.488	90.56
468.707	91.56
468.927	85.56
469.146	78.56
469.365	84.56
469.585	103.56
469.804	91.56
470.023	92.56
470.243	82.56
470.462	94.56
470.681	101.56
470.901	94.56
471.12	94.56
471.339	114.56
471.558	113.56
471.777	84.56
471.997	81.56
472.216	114.56
472.435	130.56
472.654	102.56
472.873	91.56
473.092	81.56
473.311	99.56
473.53	92.56
473.749	89.56
473.968	93.56
474.187	101.56
474.406	94.56
474.625	99.56
474.844	89.56
475.063	70.56
475.282	95.56
475.501	95.56
475.72	88.56
475.939	85.56
476.158	102.56
476.377	87.56
476.596	91.56
476.814	91.56
477.033	88.56
477.252	94.56
477.471	93.56
477.69	87.56
477.908	83.56
478.127	91.56
478.346	82.56
478.564	101.56
478.783	81.56
479.002	83.56
479.22	102.56
479.439	100.56
479.658	94.56
479.876	104.56
480.095	89.56
480.313	103.56
480.532	110.56
480.751	83.56
480.969	128.56
481.188	193.56
481.406	154.56
481.624	91.56
481.843	81.56
482.061	101.56
482.28	72.56
482.498	90.56
482.717	94.56
482.935	87.56
483.153	84.56
483.372	106.56
483.59	83.56
483.808	78.56
484.027	84.56
484.245	98.56
484.463	84.56
484.681	88.56
484.9	105.56
485.118	91.56
485.336	106.56
485.554	97.56
485.772	96.56
485.99	102.56
486.209	99.56
486.427	107.56
486.645	106.56
486.863	104.56
487.081	103.56
487.299	95.56
487.517	93.56
487.735	95.56
487.953	106.56
488.171	101.56
488.389	99.56
488.607	104.56
488.825	92.56
489.043	90.56
489.261	94.56
489.479	103.56
489.696	95.56
489.914	102.56
490.132	87.56
490.35	86.56
490.568	104.56
490.786	94.56
491.003	88.56
491.221	101.56
491.439	88.56
491.657	95.56
491.874	95.56
492.092	90.56
492.31	89.56
492.527	93.56
492.745	96.56
492.963	97.56
493.18	98.56
493.398	103.56
493.615	102.56
493.833	119.56
494.05	108.56
494.268	92.56
494.485	102.56
494.703	95.56
494.92	89.56
495.138	93.56
495.355	90.56
495.573	100.56
495.79	92.56
496.008	87.56
496.225	108.56
496.442	91.56
496.66	91.56
496.877	100.56
497.094	89.56
497.312	83.56
497.529	96.56
497.746	94.56
497.963	95.56
498.181	87.56
498.398	89.56
498.615	121.56
498.832	106.56
499.049	98.56
499.267	101.56
499.484	87.56
499.701	100.56
499.918	99.56
500.135	87.56
500.352	76.56
500.569	89.56
500.786	90.56
501.003	87.56
501.22	85.56
501.437	104.56
501.654	86.56
501.871	100.56
502.088	87.56
502.305	97.56
502.522	84.56
502.739	90.56
502.956	101.56
503.172	96.56
503.389	88.56
503.606	123.56
503.823	115.56
504.04	96.56
504.256	89.56
504.473	87.56
504.69	87.56
504.907	85.56
505.123	94.56
505.34	90.56
505.557	84.56
505.773	84.56
505.99	93.56
506.207	90.56
506.423	99.56
506.64	106.56
506.856	93.56
507.073	85.56
507.289	86.56
507.506	98.56
507.722	102.56
507.939	109.56
508.155	97.56
508.372	92.56
508.588	100.56
508.805	96.56
509.021	102.56
509.238	107.56
509.454	108.56
509.67	114.56
509.887	115.56
510.103	134.56
510.319	189.56
510.536	632.56
510.752	1957.56
510.968	573.56
511.184	157.56
511.401	122.56
511.617	94.56
511.833	95.56
512.049	97.56
512.265	96.56
512.481	82.56
512.698	90.56
512.914	101.56
513.13	90.56
513.346	84.56
513.562	106.56
513.778	113.56
513.994	97.56
514.21	104.56
514.426	98.56
514.642	105.56
