Data from Circ_2002_H10_HRD10591_00048.txt Node
Date: Wed Jan 03 10:41:07 EST 2024
User: Yrep
Spectrometer: HR+D1059
Trigger mode: 1
Integration Time (sec): 1.000000E-1
Scans to average: 1
Electric dark correction enabled: true
Nonlinearity correction enabled: false
Boxcar width: 0
XAxis mode: Wavelengths
Number of Pixels in Spectrum: 2048
>>>>>Begin Spectral Data<<<<<
223.165	-16.69
223.4	-16.69
223.635	-16.69
223.869	-12.69
224.104	-27.69
224.338	-17.69
224.573	-7.69
224.808	-13.69
225.042	-13.69
225.277	-7.69
225.511	11.31
225.746	-3.69
225.98	11.31
226.215	7.31
226.449	15.31
226.683	22.31
226.918	28.31
227.152	25.31
227.387	36.31
227.621	27.31
227.856	41.31
228.09	41.31
228.324	31.31
228.559	54.31
228.793	63.31
229.027	72.31
229.262	54.31
229.496	74.31
229.73	80.31
229.964	89.31
230.199	75.31
230.433	79.31
230.667	83.31
230.901	73.31
231.136	77.31
231.37	83.31
231.604	76.31
231.838	74.31
232.072	78.31
232.306	69.31
232.541	83.31
232.775	77.31
233.009	74.31
233.243	79.31
233.477	72.31
233.711	91.31
233.945	96.31
234.179	87.31
234.413	88.31
234.647	78.31
234.881	83.31
235.115	73.31
235.349	70.31
235.583	77.31
235.817	70.31
236.051	80.31
236.285	73.31
236.519	75.31
236.753	77.31
236.987	66.31
237.221	88.31
237.455	86.31
237.689	82.31
237.922	80.31
238.156	63.31
238.39	74.31
238.624	74.31
238.858	67.31
239.091	70.31
239.325	75.31
239.559	73.31
239.793	73.31
240.027	87.31
240.26	80.31
240.494	79.31
240.728	78.31
240.961	62.31
241.195	73.31
241.429	75.31
241.662	84.31
241.896	70.31
242.13	71.31
242.363	71.31
242.597	85.31
242.83	81.31
243.064	77.31
243.298	81.31
243.531	63.31
243.765	87.31
243.998	83.31
244.232	87.31
244.465	89.31
244.699	88.31
244.932	79.31
245.166	78.31
245.399	82.31
245.633	81.31
245.866	76.31
246.099	63.31
246.333	83.31
246.566	76.31
246.8	69.31
247.033	77.31
247.266	74.31
247.5	83.31
247.733	83.31
247.966	74.31
248.2	81.31
248.433	79.31
248.666	79.31
248.899	89.31
249.133	75.31
249.366	98.31
249.599	99.31
249.832	73.31
250.066	82.31
250.299	66.31
250.532	75.31
250.765	94.31
250.998	78.31
251.231	81.31
251.465	87.31
251.698	86.31
251.931	63.31
252.164	71.31
252.397	78.31
252.63	84.31
252.863	85.31
253.096	79.31
253.329	78.31
253.562	76.31
253.795	83.31
254.028	81.31
254.261	74.31
254.494	85.31
254.727	80.31
254.96	82.31
255.193	86.31
255.426	80.31
255.659	66.31
255.892	87.31
256.124	83.31
256.357	75.31
256.59	90.31
256.823	79.31
257.056	79.31
257.289	81.31
257.521	85.31
257.754	76.31
257.987	83.31
258.22	83.31
258.452	88.31
258.685	73.31
258.918	87.31
259.151	91.31
259.383	81.31
259.616	95.31
259.849	78.31
260.081	78.31
260.314	95.31
260.547	82.31
260.779	67.31
261.012	92.31
261.244	85.31
261.477	74.31
261.71	86.31
261.942	98.31
262.175	114.31
262.407	88.31
262.64	73.31
262.872	84.31
263.105	87.31
263.337	84.31
263.57	71.31
263.802	70.31
264.035	79.31
264.267	74.31
264.499	76.31
264.732	89.31
264.964	78.31
265.197	88.31
265.429	67.31
265.661	66.31
265.894	91.31
266.126	73.31
266.358	96.31
266.591	97.31
266.823	86.31
267.055	93.31
267.287	94.31
267.52	81.31
267.752	77.31
267.984	72.31
268.216	79.31
268.448	77.31
268.681	97.31
268.913	88.31
269.145	81.31
269.377	90.31
269.609	80.31
269.841	82.31
270.073	79.31
270.306	84.31
270.538	89.31
270.77	91.31
271.002	88.31
271.234	88.31
271.466	96.31
271.698	95.31
271.93	89.31
272.162	86.31
272.394	101.31
272.626	87.31
272.858	75.31
273.09	85.31
273.322	91.31
273.553	69.31
273.785	77.31
274.017	85.31
274.249	80.31
274.481	80.31
274.713	90.31
274.945	89.31
275.176	84.31
275.408	71.31
275.64	85.31
275.872	94.31
276.104	86.31
276.335	88.31
276.567	78.31
276.799	100.31
277.031	96.31
277.262	90.31
277.494	93.31
277.726	91.31
277.957	94.31
278.189	78.31
278.421	85.31
278.652	97.31
278.884	86.31
279.115	88.31
279.347	92.31
279.579	90.31
279.81	85.31
280.042	76.31
280.273	82.31
280.505	88.31
280.736	96.31
280.968	90.31
281.199	73.31
281.431	73.31
281.662	88.31
281.894	76.31
282.125	94.31
282.356	119.31
282.588	133.31
282.819	101.31
283.051	80.31
283.282	94.31
283.513	92.31
283.745	81.31
283.976	79.31
284.207	93.31
284.439	78.31
284.67	91.31
284.901	81.31
285.132	86.31
285.364	82.31
285.595	88.31
285.826	77.31
286.057	71.31
286.288	76.31
286.52	86.31
286.751	90.31
286.982	96.31
287.213	82.31
287.444	84.31
287.675	90.31
287.906	91.31
288.138	101.31
288.369	74.31
288.6	83.31
288.831	89.31
289.062	97.31
289.293	90.31
289.524	76.31
289.755	89.31
289.986	96.31
290.217	85.31
290.448	94.31
290.679	94.31
290.91	101.31
291.141	86.31
291.371	83.31
291.602	91.31
291.833	84.31
292.064	79.31
292.295	76.31
292.526	82.31
292.757	86.31
292.987	85.31
293.218	87.31
293.449	78.31
293.68	80.31
293.91	82.31
294.141	84.31
294.372	98.31
294.603	100.31
294.833	82.31
295.064	89.31
295.295	78.31
295.525	90.31
295.756	95.31
295.987	118.31
296.217	131.31
296.448	134.31
296.679	78.31
296.909	83.31
297.14	82.31
297.37	78.31
297.601	85.31
297.831	86.31
298.062	104.31
298.292	97.31
298.523	71.31
298.753	92.31
298.984	75.31
299.214	88.31
299.445	91.31
299.675	88.31
299.905	101.31
300.136	86.31
300.366	88.31
300.597	86.31
300.827	96.31
301.057	94.31
301.288	105.31
301.518	90.31
301.748	85.31
301.979	91.31
302.209	99.31
302.439	72.31
302.669	93.31
302.9	91.31
303.13	84.31
303.36	96.31
303.59	91.31
303.82	102.31
304.051	97.31
304.281	83.31
304.511	91.31
304.741	88.31
304.971	92.31
305.201	86.31
305.431	88.31
305.661	103.31
305.891	95.31
306.121	98.31
306.352	111.31
306.582	98.31
306.812	79.31
307.042	101.31
307.272	92.31
307.502	99.31
307.731	83.31
307.961	97.31
308.191	81.31
308.421	87.31
308.651	82.31
308.881	93.31
309.111	101.31
309.341	85.31
309.571	96.31
309.8	95.31
310.03	83.31
310.26	104.31
310.49	107.31
310.72	98.31
310.949	106.31
311.179	93.31
311.409	89.31
311.639	91.31
311.868	94.31
312.098	88.31
312.328	83.31
312.557	105.31
312.787	109.31
313.017	110.31
313.246	86.31
313.476	90.31
313.706	85.31
313.935	87.31
314.165	87.31
314.394	103.31
314.624	94.31
314.853	113.31
315.083	90.31
315.312	90.31
315.542	102.31
315.771	89.31
316.001	97.31
316.23	88.31
316.46	82.31
316.689	97.31
316.919	98.31
317.148	89.31
317.377	103.31
317.607	92.31
317.836	90.31
318.065	82.31
318.295	88.31
318.524	84.31
318.753	90.31
318.983	80.31
319.212	95.31
319.441	97.31
319.67	104.31
319.9	86.31
320.129	99.31
320.358	101.31
320.587	90.31
320.816	106.31
321.046	107.31
321.275	96.31
321.504	103.31
321.733	91.31
321.962	87.31
322.191	102.31
322.42	110.31
322.649	93.31
322.878	100.31
323.108	108.31
323.337	120.31
323.566	114.31
323.795	148.31
324.024	184.31
324.253	391.31
324.482	788.31
324.71	1637.31
324.939	2145.31
325.168	804.31
325.397	234.31
325.626	152.31
325.855	115.31
326.084	119.31
326.313	122.31
326.542	155.31
326.77	221.31
326.999	468.31
327.228	929.31
327.457	1679.31
327.686	1327.31
327.914	366.31
328.143	176.31
328.372	155.31
328.6	132.31
328.829	109.31
329.058	128.31
329.287	115.31
329.515	98.31
329.744	95.31
329.972	97.31
330.201	104.31
330.43	111.31
330.658	124.31
330.887	143.31
331.115	120.31
331.344	97.31
331.572	102.31
331.801	85.31
332.03	98.31
332.258	92.31
332.486	87.31
332.715	96.31
332.943	99.31
333.172	89.31
333.4	95.31
333.629	90.31
333.857	105.31
334.085	97.31
334.314	94.31
334.542	119.31
334.771	121.31
334.999	96.31
335.227	92.31
335.455	91.31
335.684	105.31
335.912	103.31
336.14	93.31
336.369	105.31
336.597	104.31
336.825	99.31
337.053	90.31
337.281	86.31
337.51	77.31
337.738	92.31
337.966	92.31
338.194	88.31
338.422	97.31
338.65	101.31
338.878	82.31
339.106	96.31
339.334	91.31
339.562	99.31
339.79	78.31
340.018	89.31
340.246	110.31
340.474	95.31
340.702	85.31
340.93	79.31
341.158	110.31
341.386	93.31
341.614	85.31
341.842	88.31
342.07	88.31
342.298	95.31
342.526	105.31
342.754	86.31
342.981	73.31
343.209	92.31
343.437	83.31
343.665	81.31
343.893	83.31
344.12	94.31
344.348	98.31
344.576	72.31
344.804	87.31
345.031	96.31
345.259	105.31
345.487	95.31
345.714	95.31
345.942	81.31
346.17	82.31
346.397	84.31
346.625	91.31
346.853	104.31
347.08	99.31
347.308	91.31
347.535	91.31
347.763	95.31
347.99	97.31
348.218	101.31
348.445	90.31
348.673	102.31
348.9	102.31
349.128	98.31
349.355	79.31
349.583	91.31
349.81	91.31
350.037	105.31
350.265	105.31
350.492	101.31
350.72	96.31
350.947	90.31
351.174	108.31
351.402	101.31
351.629	102.31
351.856	95.31
352.083	91.31
352.311	105.31
352.538	113.31
352.765	102.31
352.992	109.31
353.22	108.31
353.447	88.31
353.674	87.31
353.901	100.31
354.128	68.31
354.355	111.31
354.583	103.31
354.81	94.31
355.037	88.31
355.264	90.31
355.491	91.31
355.718	82.31
355.945	90.31
356.172	86.31
356.399	91.31
356.626	96.31
356.853	92.31
357.08	90.31
357.307	89.31
357.534	102.31
357.761	91.31
357.988	79.31
358.215	100.31
358.441	98.31
358.668	74.31
358.895	90.31
359.122	94.31
359.349	103.31
359.576	81.31
359.802	91.31
360.029	104.31
360.256	88.31
360.483	87.31
360.709	86.31
360.936	87.31
361.163	96.31
361.39	87.31
361.616	85.31
361.843	104.31
362.07	102.31
362.296	84.31
362.523	89.31
362.749	86.31
362.976	86.31
363.203	88.31
363.429	89.31
363.656	80.31
363.882	88.31
364.109	81.31
364.335	93.31
364.562	91.31
364.788	106.31
365.015	101.31
365.241	86.31
365.468	101.31
365.694	100.31
365.92	87.31
366.147	97.31
366.373	77.31
366.599	78.31
366.826	101.31
367.052	89.31
367.278	89.31
367.505	77.31
367.731	79.31
367.957	89.31
368.184	73.31
368.41	89.31
368.636	115.31
368.862	97.31
369.089	118.31
369.315	102.31
369.541	80.31
369.767	94.31
369.993	91.31
370.219	87.31
370.445	87.31
370.672	90.31
370.898	82.31
371.124	80.31
371.35	76.31
371.576	81.31
371.802	88.31
372.028	90.31
372.254	90.31
372.48	90.31
372.706	85.31
372.932	83.31
373.158	85.31
373.384	79.31
373.61	74.31
373.835	78.31
374.061	89.31
374.287	93.31
374.513	91.31
374.739	97.31
374.965	99.31
375.191	83.31
375.416	85.31
375.642	94.31
375.868	89.31
376.094	94.31
376.319	88.31
376.545	96.31
376.771	84.31
376.997	92.31
377.222	95.31
377.448	93.31
377.674	81.31
377.899	93.31
378.125	92.31
378.35	99.31
378.576	101.31
378.802	89.31
379.027	75.31
379.253	98.31
379.478	94.31
379.704	75.31
379.929	97.31
380.155	110.31
380.38	91.31
380.606	90.31
380.831	86.31
381.057	101.31
381.282	82.31
381.507	105.31
381.733	110.31
381.958	97.31
382.184	87.31
382.409	99.31
382.634	108.31
382.86	95.31
383.085	99.31
383.31	96.31
383.535	95.31
383.761	95.31
383.986	87.31
384.211	94.31
384.436	96.31
384.662	109.31
384.887	91.31
385.112	92.31
385.337	104.31
385.562	101.31
385.787	96.31
386.013	121.31
386.238	115.31
386.463	104.31
386.688	109.31
386.913	104.31
387.138	106.31
387.363	116.31
387.588	105.31
387.813	102.31
388.038	105.31
388.263	118.31
388.488	117.31
388.713	97.31
388.938	97.31
389.163	101.31
389.387	87.31
389.612	89.31
389.837	84.31
390.062	88.31
390.287	92.31
390.512	81.31
390.736	101.31
390.961	74.31
391.186	85.31
391.411	97.31
391.636	101.31
391.86	83.31
392.085	85.31
392.31	67.31
392.534	81.31
392.759	87.31
392.984	81.31
393.208	89.31
393.433	83.31
393.658	96.31
393.882	85.31
394.107	90.31
394.331	84.31
394.556	88.31
394.78	87.31
395.005	88.31
395.229	89.31
395.454	77.31
395.678	90.31
395.903	98.31
396.127	83.31
396.352	79.31
396.576	79.31
396.801	79.31
397.025	80.31
397.249	98.31
397.474	86.31
397.698	79.31
397.922	83.31
398.147	89.31
398.371	82.31
398.595	70.31
398.82	86.31
399.044	83.31
399.268	91.31
399.492	80.31
399.717	91.31
399.941	93.31
400.165	91.31
400.389	77.31
400.613	84.31
400.837	84.31
401.062	83.31
401.286	83.31
401.51	79.31
401.734	94.31
401.958	109.31
402.182	141.31
402.406	136.31
402.63	107.31
402.854	92.31
403.078	84.31
403.302	88.31
403.526	97.31
403.75	93.31
403.974	66.31
404.198	88.31
404.422	87.31
404.645	100.31
404.869	95.31
405.093	103.31
405.317	94.31
405.541	88.31
405.765	98.31
405.988	116.31
406.212	166.31
406.436	183.31
406.66	131.31
406.883	101.31
407.107	89.31
407.331	94.31
407.555	103.31
407.778	83.31
408.002	101.31
408.226	97.31
408.449	78.31
408.673	87.31
408.896	88.31
409.12	92.31
409.344	97.31
409.567	89.31
409.791	99.31
410.014	97.31
410.238	95.31
410.461	85.31
410.685	102.31
410.908	99.31
411.132	105.31
411.355	97.31
411.578	79.31
411.802	85.31
412.025	80.31
412.249	82.31
412.472	100.31
412.695	96.31
412.919	88.31
413.142	79.31
413.365	85.31
413.589	88.31
413.812	74.31
414.035	88.31
414.258	83.31
414.482	89.31
414.705	83.31
414.928	88.31
415.151	88.31
415.374	101.31
415.597	90.31
415.821	74.31
416.044	87.31
416.267	94.31
416.49	75.31
416.713	93.31
416.936	93.31
417.159	96.31
417.382	88.31
417.605	102.31
417.828	101.31
418.051	78.31
418.274	97.31
418.497	87.31
418.72	79.31
418.943	91.31
419.166	99.31
419.389	94.31
419.611	75.31
419.834	89.31
420.057	91.31
420.28	79.31
420.503	80.31
420.726	98.31
420.948	93.31
421.171	97.31
421.394	93.31
421.617	94.31
421.839	87.31
422.062	88.31
422.285	88.31
422.507	98.31
422.73	98.31
422.953	95.31
423.175	73.31
423.398	79.31
423.621	89.31
423.843	97.31
424.066	82.31
424.288	99.31
424.511	90.31
424.733	98.31
424.956	88.31
425.178	101.31
425.401	98.31
425.623	86.31
425.846	96.31
426.068	80.31
426.291	90.31
426.513	96.31
426.735	84.31
426.958	96.31
427.18	102.31
427.402	131.31
427.625	162.31
427.847	116.31
428.069	104.31
428.292	86.31
428.514	90.31
428.736	87.31
428.958	84.31
429.181	84.31
429.403	89.31
429.625	79.31
429.847	94.31
430.069	106.31
430.292	89.31
430.514	82.31
430.736	72.31
430.958	88.31
431.18	73.31
431.402	77.31
431.624	95.31
431.846	89.31
432.068	80.31
432.29	91.31
432.512	85.31
432.734	89.31
432.956	91.31
433.178	85.31
433.4	94.31
433.622	85.31
433.844	88.31
434.066	107.31
434.287	90.31
434.509	87.31
434.731	79.31
434.953	87.31
435.175	88.31
435.397	101.31
435.618	103.31
435.84	91.31
436.062	114.31
436.284	129.31
436.505	96.31
436.727	88.31
436.949	95.31
437.17	79.31
437.392	81.31
437.614	94.31
437.835	97.31
438.057	114.31
438.278	100.31
438.5	111.31
438.721	115.31
438.943	104.31
439.165	95.31
439.386	94.31
439.608	70.31
439.829	85.31
440.05	126.31
440.272	142.31
440.493	95.31
440.715	84.31
440.936	89.31
441.158	76.31
441.379	85.31
441.6	98.31
441.822	89.31
442.043	90.31
442.264	99.31
442.486	103.31
442.707	85.31
442.928	106.31
443.149	110.31
443.371	105.31
443.592	90.31
443.813	119.31
444.034	109.31
444.255	95.31
444.476	83.31
444.698	83.31
444.919	90.31
445.14	116.31
445.361	120.31
445.582	115.31
445.803	130.31
446.024	121.31
446.245	125.31
446.466	107.31
446.687	87.31
446.908	91.31
447.129	93.31
447.35	87.31
447.571	103.31
447.792	87.31
448.013	100.31
448.234	103.31
448.455	97.31
448.675	106.31
448.896	102.31
449.117	99.31
449.338	111.31
449.559	112.31
449.779	130.31
450	105.31
450.221	90.31
450.442	86.31
450.662	76.31
450.883	106.31
451.104	98.31
451.324	91.31
451.545	83.31
451.766	89.31
451.986	69.31
452.207	81.31
452.428	107.31
452.648	102.31
452.869	99.31
453.089	99.31
453.31	109.31
453.53	89.31
453.751	97.31
453.971	95.31
454.192	101.31
454.412	79.31
454.633	73.31
454.853	86.31
455.073	90.31
455.294	91.31
455.514	87.31
455.734	81.31
455.955	84.31
456.175	83.31
456.395	80.31
456.616	80.31
456.836	72.31
457.056	81.31
457.276	90.31
457.497	81.31
457.717	92.31
457.937	73.31
458.157	84.31
458.377	85.31
458.598	95.31
458.818	141.31
459.038	157.31
459.258	111.31
459.478	90.31
459.698	78.31
459.918	91.31
460.138	86.31
460.358	91.31
460.578	81.31
460.798	97.31
461.018	89.31
461.238	82.31
461.458	106.31
461.678	103.31
461.898	86.31
462.118	103.31
462.338	94.31
462.558	88.31
462.777	91.31
462.997	97.31
463.217	94.31
463.437	101.31
463.657	89.31
463.876	91.31
464.096	92.31
464.316	84.31
464.536	93.31
464.755	82.31
464.975	109.31
465.195	150.31
465.414	149.31
465.634	83.31
465.854	91.31
466.073	88.31
466.293	87.31
466.512	83.31
466.732	86.31
466.951	78.31
467.171	91.31
467.391	77.31
467.61	98.31
467.829	107.31
468.049	96.31
468.268	100.31
468.488	74.31
468.707	79.31
468.927	75.31
469.146	91.31
469.365	93.31
469.585	82.31
469.804	100.31
470.023	93.31
470.243	96.31
470.462	78.31
470.681	100.31
470.901	101.31
471.12	81.31
471.339	82.31
471.558	76.31
471.777	96.31
471.997	87.31
472.216	113.31
472.435	123.31
472.654	102.31
472.873	75.31
473.092	91.31
473.311	84.31
473.53	92.31
473.749	85.31
473.968	85.31
474.187	89.31
474.406	91.31
474.625	87.31
474.844	94.31
475.063	82.31
475.282	73.31
475.501	73.31
475.72	89.31
475.939	74.31
476.158	89.31
476.377	87.31
476.596	102.31
476.814	81.31
477.033	91.31
477.252	94.31
477.471	86.31
477.69	90.31
477.908	94.31
478.127	78.31
478.346	97.31
478.564	95.31
478.783	81.31
479.002	95.31
479.22	88.31
479.439	87.31
479.658	90.31
479.876	96.31
480.095	83.31
480.313	76.31
480.532	89.31
480.751	105.31
480.969	107.31
481.188	166.31
481.406	131.31
481.624	94.31
481.843	77.31
482.061	88.31
482.28	77.31
482.498	96.31
482.717	91.31
482.935	96.31
483.153	88.31
483.372	101.31
483.59	93.31
483.808	91.31
484.027	100.31
484.245	88.31
484.463	96.31
484.681	103.31
484.9	94.31
485.118	87.31
485.336	83.31
485.554	106.31
485.772	90.31
485.99	110.31
486.209	107.31
486.427	98.31
486.645	117.31
486.863	111.31
487.081	102.31
487.299	90.31
487.517	99.31
487.735	102.31
487.953	95.31
488.171	98.31
488.389	104.31
488.607	96.31
488.825	105.31
489.043	87.31
489.261	95.31
489.479	81.31
489.696	90.31
489.914	88.31
490.132	82.31
490.35	91.31
490.568	77.31
490.786	89.31
491.003	101.31
491.221	100.31
491.439	98.31
491.657	82.31
491.874	95.31
492.092	106.31
492.31	92.31
492.527	81.31
492.745	83.31
492.963	93.31
493.18	85.31
493.398	90.31
493.615	102.31
493.833	93.31
494.05	90.31
494.268	86.31
494.485	97.31
494.703	76.31
494.92	80.31
495.138	82.31
495.355	86.31
495.573	91.31
495.79	87.31
496.008	86.31
496.225	96.31
496.442	98.31
496.66	111.31
496.877	89.31
497.094	83.31
497.312	79.31
497.529	82.31
497.746	88.31
497.963	79.31
498.181	88.31
498.398	88.31
498.615	112.31
498.832	100.31
499.049	90.31
499.267	85.31
499.484	86.31
499.701	100.31
499.918	93.31
500.135	92.31
500.352	93.31
500.569	83.31
500.786	103.31
501.003	94.31
501.22	98.31
501.437	98.31
501.654	86.31
501.871	98.31
502.088	96.31
502.305	90.31
502.522	77.31
502.739	99.31
502.956	94.31
503.172	102.31
503.389	95.31
503.606	103.31
503.823	95.31
504.04	89.31
504.256	79.31
504.473	79.31
504.69	94.31
504.907	94.31
505.123	98.31
505.34	90.31
505.557	89.31
505.773	91.31
505.99	85.31
506.207	89.31
506.423	81.31
506.64	85.31
506.856	108.31
507.073	86.31
507.289	75.31
507.506	88.31
507.722	116.31
507.939	105.31
508.155	91.31
508.372	99.31
508.588	85.31
508.805	105.31
509.021	89.31
509.238	111.31
509.454	104.31
509.67	99.31
509.887	116.31
510.103	129.31
510.319	197.31
510.536	679.31
510.752	2142.31
510.968	589.31
511.184	145.31
511.401	106.31
511.617	88.31
511.833	84.31
512.049	90.31
512.265	105.31
512.481	95.31
512.698	106.31
512.914	93.31
513.13	103.31
513.346	91.31
513.562	100.31
513.778	80.31
513.994	102.31
514.21	95.31
514.426	97.31
514.642	116.31
514.858	121.31
515.074	161.31
515.29	417.31
515.506	1330.31
515.721	515.31
515.937	153.31
516.153	117.31
