Data from Circ_2002_H10_HRD10591_00096.txt Node
Date: Wed Jan 03 10:41:17 EST 2024
User: Yrep
Spectrometer: HR+D1059
Trigger mode: 1
Integration Time (sec): 1.000000E-1
Scans to average: 1
Electric dark correction enabled: true
Nonlinearity correction enabled: false
Boxcar width: 0
XAxis mode: Wavelengths
Number of Pixels in Spectrum: 2048
>>>>>Begin Spectral Data<<<<<
223.165	-3.62
223.4	-3.62
223.635	-3.62
223.869	-27.62
224.104	-17.62
224.338	-20.62
224.573	-7.62
224.808	-23.62
225.042	-14.62
225.277	-2.62
225.511	-4.62
225.746	16.38
225.98	7.38
226.215	9.38
226.449	9.38
226.683	19.38
226.918	26.38
227.152	34.38
227.387	40.38
227.621	35.38
227.856	42.38
228.09	39.38
228.324	61.38
228.559	67.38
228.793	48.38
229.027	67.38
229.262	53.38
229.496	79.38
229.73	76.38
229.964	71.38
230.199	77.38
230.433	55.38
230.667	64.38
230.901	96.38
231.136	82.38
231.37	74.38
231.604	84.38
231.838	74.38
232.072	74.38
232.306	82.38
232.541	75.38
232.775	67.38
233.009	97.38
233.243	82.38
233.477	79.38
233.711	95.38
233.945	78.38
234.179	88.38
234.413	87.38
234.647	72.38
234.881	60.38
235.115	84.38
235.349	67.38
235.583	63.38
235.817	64.38
236.051	66.38
236.285	93.38
236.519	95.38
236.753	82.38
236.987	69.38
237.221	82.38
237.455	86.38
237.689	75.38
237.922	76.38
238.156	86.38
238.39	71.38
238.624	70.38
238.858	76.38
239.091	71.38
239.325	75.38
239.559	85.38
239.793	79.38
240.027	72.38
240.26	72.38
240.494	78.38
240.728	83.38
240.961	60.38
241.195	57.38
241.429	73.38
241.662	79.38
241.896	72.38
242.13	89.38
242.363	70.38
242.597	73.38
242.83	79.38
243.064	84.38
243.298	72.38
243.531	74.38
243.765	91.38
243.998	82.38
244.232	70.38
244.465	87.38
244.699	79.38
244.932	82.38
245.166	72.38
245.399	63.38
245.633	74.38
245.866	93.38
246.099	75.38
246.333	76.38
246.566	82.38
246.8	73.38
247.033	70.38
247.266	75.38
247.5	82.38
247.733	77.38
247.966	69.38
248.2	80.38
248.433	72.38
248.666	91.38
248.899	86.38
249.133	103.38
249.366	92.38
249.599	92.38
249.832	86.38
250.066	76.38
250.299	92.38
250.532	88.38
250.765	81.38
250.998	79.38
251.231	60.38
251.465	93.38
251.698	73.38
251.931	80.38
252.164	89.38
252.397	74.38
252.63	89.38
252.863	81.38
253.096	86.38
253.329	71.38
253.562	72.38
253.795	90.38
254.028	72.38
254.261	100.38
254.494	72.38
254.727	80.38
254.96	81.38
255.193	71.38
255.426	85.38
255.659	76.38
255.892	75.38
256.124	87.38
256.357	80.38
256.59	84.38
256.823	76.38
257.056	58.38
257.289	86.38
257.521	81.38
257.754	78.38
257.987	86.38
258.22	80.38
258.452	83.38
258.685	88.38
258.918	88.38
259.151	62.38
259.383	88.38
259.616	83.38
259.849	69.38
260.081	92.38
260.314	83.38
260.547	95.38
260.779	91.38
261.012	77.38
261.244	82.38
261.477	87.38
261.71	95.38
261.942	109.38
262.175	108.38
262.407	80.38
262.64	70.38
262.872	86.38
263.105	85.38
263.337	89.38
263.57	97.38
263.802	83.38
264.035	78.38
264.267	87.38
264.499	86.38
264.732	84.38
264.964	81.38
265.197	85.38
265.429	73.38
265.661	86.38
265.894	89.38
266.126	76.38
266.358	80.38
266.591	83.38
266.823	86.38
267.055	92.38
267.287	89.38
267.52	92.38
267.752	76.38
267.984	88.38
268.216	95.38
268.448	85.38
268.681	97.38
268.913	77.38
269.145	84.38
269.377	80.38
269.609	71.38
269.841	92.38
270.073	96.38
270.306	74.38
270.538	97.38
270.77	83.38
271.002	91.38
271.234	90.38
271.466	75.38
271.698	83.38
271.93	88.38
272.162	82.38
272.394	84.38
272.626	80.38
272.858	71.38
273.09	85.38
273.322	81.38
273.553	93.38
273.785	85.38
274.017	73.38
274.249	90.38
274.481	92.38
274.713	81.38
274.945	88.38
275.176	81.38
275.408	80.38
275.64	87.38
275.872	72.38
276.104	88.38
276.335	89.38
276.567	103.38
276.799	107.38
277.031	111.38
277.262	91.38
277.494	74.38
277.726	97.38
277.957	94.38
278.189	97.38
278.421	94.38
278.652	97.38
278.884	91.38
279.115	76.38
279.347	73.38
279.579	86.38
279.81	86.38
280.042	98.38
280.273	104.38
280.505	76.38
280.736	89.38
280.968	90.38
281.199	85.38
281.431	84.38
281.662	74.38
281.894	95.38
282.125	100.38
282.356	113.38
282.588	117.38
282.819	119.38
283.051	103.38
283.282	93.38
283.513	79.38
283.745	98.38
283.976	94.38
284.207	79.38
284.439	91.38
284.67	84.38
284.901	91.38
285.132	82.38
285.364	83.38
285.595	89.38
285.826	81.38
286.057	80.38
286.288	85.38
286.52	84.38
286.751	78.38
286.982	81.38
287.213	100.38
287.444	82.38
287.675	86.38
287.906	90.38
288.138	72.38
288.369	78.38
288.6	99.38
288.831	89.38
289.062	83.38
289.293	96.38
289.524	94.38
289.755	76.38
289.986	79.38
290.217	93.38
290.448	92.38
290.679	83.38
290.91	100.38
291.141	81.38
291.371	88.38
291.602	111.38
291.833	68.38
292.064	77.38
292.295	82.38
292.526	93.38
292.757	106.38
292.987	92.38
293.218	80.38
293.449	96.38
293.68	89.38
293.91	91.38
294.141	109.38
294.372	96.38
294.603	85.38
294.833	93.38
295.064	90.38
295.295	85.38
295.525	100.38
295.756	83.38
295.987	105.38
296.217	131.38
296.448	125.38
296.679	88.38
296.909	83.38
297.14	83.38
297.37	105.38
297.601	91.38
297.831	91.38
298.062	103.38
298.292	88.38
298.523	91.38
298.753	87.38
298.984	81.38
299.214	89.38
299.445	95.38
299.675	89.38
299.905	84.38
300.136	86.38
300.366	90.38
300.597	89.38
300.827	99.38
301.057	101.38
301.288	99.38
301.518	96.38
301.748	76.38
301.979	111.38
302.209	96.38
302.439	81.38
302.669	86.38
302.9	83.38
303.13	98.38
303.36	85.38
303.59	99.38
303.82	91.38
304.051	89.38
304.281	88.38
304.511	87.38
304.741	88.38
304.971	82.38
305.201	82.38
305.431	82.38
305.661	102.38
305.891	97.38
306.121	81.38
306.352	104.38
306.582	97.38
306.812	96.38
307.042	84.38
307.272	89.38
307.502	87.38
307.731	106.38
307.961	85.38
308.191	96.38
308.421	91.38
308.651	93.38
308.881	86.38
309.111	95.38
309.341	97.38
309.571	85.38
309.8	87.38
310.03	88.38
310.26	92.38
310.49	95.38
310.72	109.38
310.949	93.38
311.179	100.38
311.409	100.38
311.639	103.38
311.868	99.38
312.098	101.38
312.328	103.38
312.557	98.38
312.787	95.38
313.017	98.38
313.246	97.38
313.476	96.38
313.706	97.38
313.935	94.38
314.165	98.38
314.394	104.38
314.624	111.38
314.853	92.38
315.083	100.38
315.312	82.38
315.542	97.38
315.771	95.38
316.001	87.38
316.23	102.38
316.46	88.38
316.689	98.38
316.919	92.38
317.148	101.38
317.377	99.38
317.607	97.38
317.836	104.38
318.065	91.38
318.295	85.38
318.524	86.38
318.753	96.38
318.983	87.38
319.212	89.38
319.441	104.38
319.67	110.38
319.9	93.38
320.129	98.38
320.358	92.38
320.587	108.38
320.816	102.38
321.046	100.38
321.275	89.38
321.504	99.38
321.733	92.38
321.962	86.38
322.191	101.38
322.42	112.38
322.649	95.38
322.878	111.38
323.108	120.38
323.337	109.38
323.566	131.38
323.795	144.38
324.024	193.38
324.253	392.38
324.482	817.38
324.71	1674.38
324.939	2160.38
325.168	764.38
325.397	228.38
325.626	132.38
325.855	117.38
326.084	107.38
326.313	132.38
326.542	155.38
326.77	237.38
326.999	481.38
327.228	978.38
327.457	1737.38
327.686	1366.38
327.914	353.38
328.143	193.38
328.372	179.38
328.6	143.38
328.829	112.38
329.058	128.38
329.287	118.38
329.515	113.38
329.744	127.38
329.972	121.38
330.201	164.38
330.43	169.38
330.658	135.38
330.887	139.38
331.115	120.38
331.344	97.38
331.572	113.38
331.801	96.38
332.03	103.38
332.258	93.38
332.486	97.38
332.715	91.38
332.943	98.38
333.172	90.38
333.4	99.38
333.629	108.38
333.857	109.38
334.085	108.38
334.314	141.38
334.542	179.38
334.771	175.38
334.999	113.38
335.227	77.38
335.455	92.38
335.684	100.38
335.912	92.38
336.14	84.38
336.369	87.38
336.597	94.38
336.825	88.38
337.053	89.38
337.281	92.38
337.51	95.38
337.738	91.38
337.966	89.38
338.194	89.38
338.422	92.38
338.65	91.38
338.878	106.38
339.106	91.38
339.334	93.38
339.562	99.38
339.79	90.38
340.018	84.38
340.246	89.38
340.474	98.38
340.702	99.38
340.93	94.38
341.158	102.38
341.386	98.38
341.614	99.38
341.842	101.38
342.07	88.38
342.298	99.38
342.526	83.38
342.754	98.38
342.981	94.38
343.209	81.38
343.437	103.38
343.665	100.38
343.893	96.38
344.12	95.38
344.348	98.38
344.576	95.38
344.804	102.38
345.031	92.38
345.259	106.38
345.487	101.38
345.714	102.38
345.942	100.38
346.17	104.38
346.397	87.38
346.625	87.38
346.853	93.38
347.08	105.38
347.308	100.38
347.535	100.38
347.763	97.38
347.99	105.38
348.218	106.38
348.445	103.38
348.673	99.38
348.9	90.38
349.128	90.38
349.355	92.38
349.583	97.38
349.81	80.38
350.037	84.38
350.265	94.38
350.492	102.38
350.72	95.38
350.947	100.38
351.174	102.38
351.402	107.38
351.629	107.38
351.856	119.38
352.083	108.38
352.311	106.38
352.538	91.38
352.765	105.38
352.992	103.38
353.22	106.38
353.447	106.38
353.674	95.38
353.901	98.38
354.128	93.38
354.355	91.38
354.583	93.38
354.81	109.38
355.037	90.38
355.264	90.38
355.491	100.38
355.718	101.38
355.945	96.38
356.172	96.38
356.399	96.38
356.626	92.38
356.853	87.38
357.08	102.38
357.307	88.38
357.534	81.38
357.761	106.38
357.988	93.38
358.215	92.38
358.441	99.38
358.668	75.38
358.895	73.38
359.122	91.38
359.349	97.38
359.576	94.38
359.802	99.38
360.029	112.38
360.256	111.38
360.483	93.38
360.709	99.38
360.936	81.38
361.163	87.38
361.39	96.38
361.616	87.38
361.843	88.38
362.07	96.38
362.296	77.38
362.523	84.38
362.749	102.38
362.976	90.38
363.203	94.38
363.429	94.38
363.656	91.38
363.882	84.38
364.109	87.38
364.335	81.38
364.562	90.38
364.788	93.38
365.015	84.38
365.241	107.38
365.468	99.38
365.694	106.38
365.92	101.38
366.147	83.38
366.373	83.38
366.599	73.38
366.826	99.38
367.052	87.38
367.278	96.38
367.505	83.38
367.731	89.38
367.957	75.38
368.184	94.38
368.41	105.38
368.636	110.38
368.862	128.38
369.089	101.38
369.315	91.38
369.541	85.38
369.767	95.38
369.993	109.38
370.219	99.38
370.445	87.38
370.672	86.38
370.898	88.38
371.124	100.38
371.35	91.38
371.576	76.38
371.802	96.38
372.028	85.38
372.254	99.38
372.48	97.38
372.706	88.38
372.932	85.38
373.158	77.38
373.384	96.38
373.61	88.38
373.835	101.38
374.061	104.38
374.287	83.38
374.513	82.38
374.739	82.38
374.965	68.38
375.191	93.38
375.416	94.38
375.642	97.38
375.868	83.38
376.094	88.38
376.319	86.38
376.545	86.38
376.771	92.38
376.997	87.38
377.222	89.38
377.448	78.38
377.674	87.38
377.899	74.38
378.125	89.38
378.35	84.38
378.576	102.38
378.802	91.38
379.027	82.38
379.253	93.38
379.478	100.38
379.704	106.38
379.929	95.38
380.155	88.38
380.38	84.38
380.606	97.38
380.831	98.38
381.057	88.38
381.282	96.38
381.507	105.38
381.733	108.38
381.958	98.38
382.184	93.38
382.409	91.38
382.634	105.38
382.86	106.38
383.085	94.38
383.31	98.38
383.535	98.38
383.761	89.38
383.986	86.38
384.211	102.38
384.436	89.38
384.662	99.38
384.887	99.38
385.112	96.38
385.337	107.38
385.562	102.38
385.787	114.38
386.013	113.38
386.238	116.38
386.463	108.38
386.688	103.38
386.913	106.38
387.138	101.38
387.363	100.38
387.588	104.38
387.813	101.38
388.038	98.38
388.263	108.38
388.488	108.38
388.713	92.38
388.938	95.38
389.163	93.38
389.387	114.38
389.612	94.38
389.837	90.38
390.062	91.38
390.287	85.38
390.512	80.38
390.736	93.38
390.961	100.38
391.186	98.38
391.411	91.38
391.636	89.38
391.86	84.38
392.085	97.38
392.31	100.38
392.534	91.38
392.759	82.38
392.984	87.38
393.208	88.38
393.433	96.38
393.658	90.38
393.882	84.38
394.107	73.38
394.331	91.38
394.556	101.38
394.78	102.38
395.005	83.38
395.229	85.38
395.454	89.38
395.678	87.38
395.903	75.38
396.127	80.38
396.352	85.38
396.576	80.38
396.801	87.38
397.025	84.38
397.249	93.38
397.474	99.38
397.698	104.38
397.922	87.38
398.147	96.38
398.371	86.38
398.595	90.38
398.82	94.38
399.044	87.38
399.268	89.38
399.492	81.38
399.717	90.38
399.941	98.38
400.165	84.38
400.389	87.38
400.613	80.38
400.837	96.38
401.062	82.38
401.286	81.38
401.51	90.38
401.734	80.38
401.958	99.38
402.182	116.38
402.406	152.38
402.63	120.38
402.854	109.38
403.078	103.38
403.302	89.38
403.526	83.38
403.75	81.38
403.974	75.38
404.198	84.38
404.422	88.38
404.645	80.38
404.869	70.38
405.093	80.38
405.317	103.38
405.541	112.38
405.765	112.38
405.988	114.38
406.212	155.38
406.436	188.38
406.66	129.38
406.883	102.38
407.107	94.38
407.331	89.38
407.555	87.38
407.778	92.38
408.002	91.38
408.226	92.38
408.449	93.38
408.673	100.38
408.896	96.38
409.12	79.38
409.344	86.38
409.567	73.38
409.791	95.38
410.014	107.38
410.238	88.38
410.461	89.38
410.685	100.38
410.908	94.38
411.132	100.38
411.355	93.38
411.578	100.38
411.802	87.38
412.025	84.38
412.249	82.38
412.472	106.38
412.695	112.38
412.919	89.38
413.142	88.38
413.365	95.38
413.589	99.38
413.812	80.38
414.035	89.38
414.258	96.38
414.482	85.38
414.705	72.38
414.928	92.38
415.151	92.38
415.374	75.38
415.597	91.38
415.821	81.38
416.044	94.38
416.267	84.38
416.49	104.38
416.713	96.38
416.936	97.38
417.159	97.38
417.382	85.38
417.605	90.38
417.828	96.38
418.051	81.38
418.274	90.38
418.497	93.38
418.72	85.38
418.943	84.38
419.166	97.38
419.389	87.38
419.611	92.38
419.834	85.38
420.057	89.38
420.28	82.38
420.503	92.38
420.726	84.38
420.948	74.38
421.171	87.38
421.394	87.38
421.617	80.38
421.839	92.38
422.062	90.38
422.285	90.38
422.507	99.38
422.73	92.38
422.953	86.38
423.175	86.38
423.398	73.38
423.621	74.38
423.843	92.38
424.066	77.38
424.288	108.38
424.511	85.38
424.733	86.38
424.956	107.38
425.178	107.38
425.401	89.38
425.623	90.38
425.846	93.38
426.068	84.38
426.291	88.38
426.513	96.38
426.735	89.38
426.958	94.38
427.18	86.38
427.402	129.38
427.625	157.38
427.847	147.38
428.069	124.38
428.292	87.38
428.514	92.38
428.736	84.38
428.958	74.38
429.181	91.38
429.403	84.38
429.625	76.38
429.847	94.38
430.069	106.38
430.292	81.38
430.514	87.38
430.736	71.38
430.958	81.38
431.18	81.38
431.402	76.38
431.624	95.38
431.846	87.38
432.068	80.38
432.29	77.38
432.512	93.38
432.734	91.38
432.956	81.38
433.178	98.38
433.4	95.38
433.622	97.38
433.844	94.38
434.066	87.38
434.287	83.38
434.509	92.38
434.731	97.38
434.953	77.38
435.175	89.38
435.397	103.38
435.618	106.38
435.84	101.38
436.062	118.38
436.284	132.38
436.505	103.38
436.727	97.38
436.949	97.38
437.17	92.38
437.392	96.38
437.614	107.38
437.835	98.38
438.057	115.38
438.278	103.38
438.5	100.38
438.721	113.38
438.943	95.38
439.165	89.38
439.386	95.38
439.608	104.38
439.829	89.38
440.05	118.38
440.272	131.38
440.493	109.38
440.715	93.38
440.936	85.38
441.158	87.38
441.379	89.38
441.6	85.38
441.822	85.38
442.043	99.38
442.264	101.38
442.486	97.38
442.707	111.38
442.928	113.38
443.149	120.38
443.371	116.38
443.592	104.38
443.813	99.38
444.034	115.38
444.255	78.38
444.476	82.38
444.698	85.38
444.919	88.38
445.14	144.38
445.361	123.38
445.582	125.38
445.803	126.38
446.024	129.38
446.245	124.38
446.466	108.38
446.687	101.38
446.908	94.38
447.129	85.38
447.35	89.38
447.571	87.38
447.792	81.38
448.013	91.38
448.234	101.38
448.455	100.38
448.675	117.38
448.896	121.38
449.117	96.38
449.338	93.38
449.559	125.38
449.779	131.38
450	84.38
450.221	91.38
450.442	87.38
450.662	91.38
450.883	107.38
451.104	115.38
451.324	92.38
451.545	88.38
451.766	83.38
451.986	79.38
452.207	87.38
452.428	87.38
452.648	94.38
452.869	98.38
453.089	92.38
453.31	100.38
453.53	92.38
453.751	79.38
453.971	89.38
454.192	111.38
454.412	103.38
454.633	87.38
454.853	85.38
455.073	106.38
455.294	95.38
455.514	94.38
455.734	89.38
455.955	91.38
456.175	94.38
456.395	101.38
456.616	99.38
456.836	76.38
457.056	85.38
457.276	73.38
457.497	77.38
457.717	79.38
457.937	81.38
458.157	84.38
458.377	84.38
458.598	112.38
458.818	149.38
459.038	137.38
459.258	109.38
459.478	90.38
459.698	94.38
459.918	84.38
460.138	79.38
460.358	76.38
460.578	89.38
460.798	73.38
461.018	96.38
461.238	86.38
461.458	89.38
461.678	102.38
461.898	97.38
462.118	83.38
462.338	84.38
462.558	89.38
462.777	89.38
462.997	90.38
463.217	85.38
463.437	81.38
463.657	80.38
463.876	89.38
464.096	105.38
464.316	96.38
464.536	84.38
464.755	96.38
464.975	113.38
465.195	151.38
465.414	158.38
465.634	103.38
465.854	83.38
466.073	91.38
466.293	101.38
466.512	87.38
466.732	99.38
466.951	92.38
467.171	84.38
467.391	80.38
467.61	93.38
467.829	111.38
468.049	109.38
468.268	112.38
468.488	98.38
468.707	82.38
468.927	81.38
469.146	74.38
469.365	86.38
469.585	107.38
469.804	94.38
470.023	79.38
470.243	82.38
470.462	106.38
470.681	100.38
470.901	75.38
471.12	98.38
471.339	79.38
471.558	92.38
471.777	92.38
471.997	86.38
472.216	150.38
472.435	227.38
472.654	119.38
472.873	91.38
473.092	96.38
473.311	88.38
473.53	85.38
473.749	94.38
473.968	83.38
474.187	115.38
474.406	98.38
474.625	86.38
474.844	82.38
475.063	85.38
475.282	85.38
475.501	95.38
475.72	96.38
475.939	104.38
476.158	94.38
476.377	91.38
476.596	99.38
476.814	80.38
477.033	91.38
477.252	92.38
477.471	86.38
477.69	89.38
477.908	106.38
478.127	93.38
478.346	78.38
478.564	78.38
478.783	90.38
479.002	86.38
479.22	96.38
479.439	94.38
479.658	87.38
479.876	98.38
480.095	96.38
480.313	93.38
480.532	97.38
480.751	101.38
480.969	153.38
481.188	328.38
481.406	228.38
481.624	116.38
481.843	84.38
482.061	99.38
482.28	90.38
482.498	89.38
482.717	83.38
482.935	88.38
483.153	95.38
483.372	101.38
483.59	88.38
483.808	88.38
484.027	91.38
484.245	89.38
484.463	106.38
484.681	98.38
484.9	100.38
485.118	103.38
485.336	94.38
485.554	110.38
485.772	96.38
485.99	95.38
486.209	116.38
486.427	119.38
486.645	109.38
486.863	99.38
487.081	99.38
487.299	107.38
487.517	108.38
487.735	93.38
487.953	91.38
488.171	99.38
488.389	100.38
488.607	100.38
488.825	96.38
489.043	104.38
489.261	84.38
489.479	92.38
489.696	98.38
489.914	92.38
490.132	92.38
490.35	107.38
490.568	90.38
490.786	89.38
491.003	92.38
491.221	93.38
491.439	79.38
491.657	92.38
491.874	95.38
492.092	83.38
492.31	92.38
492.527	84.38
492.745	79.38
492.963	91.38
493.18	94.38
493.398	103.38
493.615	91.38
493.833	105.38
494.05	86.38
494.268	94.38
494.485	88.38
494.703	95.38
494.92	95.38
495.138	87.38
495.355	89.38
495.573	89.38
495.79	98.38
496.008	100.38
496.225	96.38
496.442	87.38
496.66	92.38
496.877	79.38
497.094	88.38
497.312	91.38
497.529	89.38
497.746	84.38
497.963	102.38
498.181	87.38
498.398	106.38
498.615	100.38
498.832	97.38
499.049	90.38
499.267	107.38
499.484	79.38
499.701	81.38
499.918	74.38
500.135	99.38
500.352	83.38
500.569	94.38
500.786	95.38
501.003	76.38
501.22	98.38
501.437	91.38
501.654	96.38
501.871	107.38
502.088	77.38
502.305	86.38
502.522	96.38
502.739	93.38
502.956	80.38
503.172	83.38
503.389	83.38
503.606	97.38
503.823	106.38
504.04	95.38
504.256	93.38
504.473	84.38
504.69	77.38
504.907	108.38
505.123	91.38
505.34	96.38
505.557	81.38
505.773	99.38
505.99	87.38
506.207	85.38
506.423	83.38
506.64	97.38
506.856	104.38
507.073	91.38
507.289	83.38
507.506	87.38
507.722	109.38
507.939	94.38
508.155	94.38
508.372	106.38
508.588	93.38
508.805	90.38
509.021	87.38
509.238	93.38
509.454	112.38
509.67	102.38
509.887	109.38
510.103	111.38
510.319	196.38
510.536	680.38
510.752	2091.38
510.968	577.38
511.184	130.38
511.401	105.38
511.617	108.38
511.833	97.38
512.049	89.38
512.265	90.38
512.481	96.38
512.698	78.38
512.914	85.38
513.13	81.38
513.346	100.38
513.562	83.38
513.778	101.38
513.994	81.38
514.21	105.38
514.426	116.38
514.642	141.38
514.858	113.38
515.074	147.38
515.29	389.38
515.506	1285.38
