Data from Circ_2002_H10_HRD10591_00032.txt Node
Date: Wed Jan 03 10:41:04 EST 2024
User: Yrep
Spectrometer: HR+D1059
Trigger mode: 1
Integration Time (sec): 1.000000E-1
Scans to average: 1
Electric dark correction enabled: true
Nonlinearity correction enabled: false
Boxcar width: 0
XAxis mode: Wavelengths
Number of Pixels in Spectrum: 2048
>>>>>Begin Spectral Data<<<<<
223.165	-11.38
223.4	-11.38
223.635	-11.38
223.869	-20.38
224.104	-33.38
224.338	-17.38
224.573	-23.38
224.808	-17.38
225.042	-2.38
225.277	11.62
225.511	-4.38
225.746	-4.38
225.98	11.62
226.215	10.62
226.449	16.62
226.683	24.62
226.918	20.62
227.152	38.62
227.387	39.62
227.621	49.62
227.856	33.62
228.09	58.62
228.324	46.62
228.559	62.62
228.793	61.62
229.027	70.62
229.262	60.62
229.496	85.62
229.73	78.62
229.964	96.62
230.199	80.62
230.433	74.62
230.667	89.62
230.901	76.62
231.136	78.62
231.37	82.62
231.604	88.62
231.838	90.62
232.072	82.62
232.306	75.62
232.541	94.62
232.775	81.62
233.009	82.62
233.243	82.62
233.477	83.62
233.711	80.62
233.945	80.62
234.179	86.62
234.413	89.62
234.647	81.62
234.881	86.62
235.115	78.62
235.349	74.62
235.583	75.62
235.817	87.62
236.051	88.62
236.285	82.62
236.519	90.62
236.753	83.62
236.987	78.62
237.221	81.62
237.455	88.62
237.689	70.62
237.922	92.62
238.156	82.62
238.39	81.62
238.624	83.62
238.858	74.62
239.091	68.62
239.325	84.62
239.559	85.62
239.793	79.62
240.027	81.62
240.26	87.62
240.494	59.62
240.728	95.62
240.961	85.62
241.195	89.62
241.429	86.62
241.662	102.62
241.896	91.62
242.13	68.62
242.363	87.62
242.597	75.62
242.83	71.62
243.064	76.62
243.298	78.62
243.531	81.62
243.765	90.62
243.998	75.62
244.232	69.62
244.465	88.62
244.699	101.62
244.932	85.62
245.166	80.62
245.399	77.62
245.633	86.62
245.866	82.62
246.099	82.62
246.333	97.62
246.566	85.62
246.8	74.62
247.033	92.62
247.266	81.62
247.5	86.62
247.733	88.62
247.966	86.62
248.2	74.62
248.433	78.62
248.666	73.62
248.899	87.62
249.133	90.62
249.366	104.62
249.599	105.62
249.832	89.62
250.066	88.62
250.299	86.62
250.532	90.62
250.765	84.62
250.998	89.62
251.231	91.62
251.465	72.62
251.698	88.62
251.931	81.62
252.164	79.62
252.397	86.62
252.63	85.62
252.863	71.62
253.096	85.62
253.329	81.62
253.562	83.62
253.795	104.62
254.028	93.62
254.261	85.62
254.494	97.62
254.727	100.62
254.96	91.62
255.193	85.62
255.426	103.62
255.659	81.62
255.892	91.62
256.124	75.62
256.357	84.62
256.59	78.62
256.823	82.62
257.056	82.62
257.289	91.62
257.521	84.62
257.754	92.62
257.987	84.62
258.22	89.62
258.452	73.62
258.685	89.62
258.918	69.62
259.151	80.62
259.383	92.62
259.616	85.62
259.849	83.62
260.081	83.62
260.314	83.62
260.547	82.62
260.779	91.62
261.012	92.62
261.244	83.62
261.477	103.62
261.71	84.62
261.942	111.62
262.175	110.62
262.407	96.62
262.64	89.62
262.872	92.62
263.105	66.62
263.337	104.62
263.57	78.62
263.802	86.62
264.035	94.62
264.267	92.62
264.499	97.62
264.732	90.62
264.964	80.62
265.197	78.62
265.429	79.62
265.661	94.62
265.894	78.62
266.126	93.62
266.358	77.62
266.591	79.62
266.823	92.62
267.055	68.62
267.287	76.62
267.52	79.62
267.752	65.62
267.984	76.62
268.216	84.62
268.448	87.62
268.681	77.62
268.913	88.62
269.145	81.62
269.377	90.62
269.609	98.62
269.841	84.62
270.073	80.62
270.306	89.62
270.538	77.62
270.77	83.62
271.002	68.62
271.234	89.62
271.466	83.62
271.698	109.62
271.93	91.62
272.162	93.62
272.394	99.62
272.626	86.62
272.858	81.62
273.09	88.62
273.322	85.62
273.553	80.62
273.785	98.62
274.017	86.62
274.249	94.62
274.481	91.62
274.713	79.62
274.945	81.62
275.176	90.62
275.408	102.62
275.64	86.62
275.872	78.62
276.104	93.62
276.335	100.62
276.567	114.62
276.799	103.62
277.031	106.62
277.262	106.62
277.494	82.62
277.726	69.62
277.957	77.62
278.189	92.62
278.421	88.62
278.652	81.62
278.884	74.62
279.115	83.62
279.347	96.62
279.579	107.62
279.81	101.62
280.042	97.62
280.273	93.62
280.505	82.62
280.736	90.62
280.968	85.62
281.199	84.62
281.431	86.62
281.662	81.62
281.894	88.62
282.125	106.62
282.356	112.62
282.588	128.62
282.819	100.62
283.051	89.62
283.282	91.62
283.513	85.62
283.745	80.62
283.976	81.62
284.207	77.62
284.439	80.62
284.67	86.62
284.901	84.62
285.132	92.62
285.364	83.62
285.595	95.62
285.826	92.62
286.057	88.62
286.288	104.62
286.52	104.62
286.751	96.62
286.982	94.62
287.213	88.62
287.444	95.62
287.675	102.62
287.906	109.62
288.138	101.62
288.369	91.62
288.6	95.62
288.831	78.62
289.062	97.62
289.293	104.62
289.524	87.62
289.755	98.62
289.986	105.62
290.217	84.62
290.448	85.62
290.679	98.62
290.91	81.62
291.141	87.62
291.371	87.62
291.602	94.62
291.833	97.62
292.064	83.62
292.295	93.62
292.526	107.62
292.757	93.62
292.987	93.62
293.218	90.62
293.449	96.62
293.68	84.62
293.91	98.62
294.141	93.62
294.372	102.62
294.603	89.62
294.833	93.62
295.064	87.62
295.295	77.62
295.525	101.62
295.756	93.62
295.987	126.62
296.217	138.62
296.448	136.62
296.679	102.62
296.909	101.62
297.14	89.62
297.37	86.62
297.601	82.62
297.831	93.62
298.062	93.62
298.292	89.62
298.523	95.62
298.753	89.62
298.984	82.62
299.214	81.62
299.445	90.62
299.675	95.62
299.905	94.62
300.136	91.62
300.366	103.62
300.597	116.62
300.827	91.62
301.057	96.62
301.288	107.62
301.518	100.62
301.748	98.62
301.979	97.62
302.209	92.62
302.439	101.62
302.669	90.62
302.9	98.62
303.13	89.62
303.36	101.62
303.59	98.62
303.82	115.62
304.051	98.62
304.281	86.62
304.511	110.62
304.741	104.62
304.971	100.62
305.201	86.62
305.431	90.62
305.661	76.62
305.891	98.62
306.121	89.62
306.352	99.62
306.582	105.62
306.812	87.62
307.042	96.62
307.272	92.62
307.502	99.62
307.731	101.62
307.961	93.62
308.191	91.62
308.421	108.62
308.651	98.62
308.881	107.62
309.111	97.62
309.341	98.62
309.571	97.62
309.8	96.62
310.03	90.62
310.26	107.62
310.49	107.62
310.72	104.62
310.949	116.62
311.179	97.62
311.409	91.62
311.639	102.62
311.868	98.62
312.098	93.62
312.328	97.62
312.557	113.62
312.787	99.62
313.017	106.62
313.246	102.62
313.476	90.62
313.706	85.62
313.935	102.62
314.165	97.62
314.394	96.62
314.624	95.62
314.853	105.62
315.083	93.62
315.312	91.62
315.542	94.62
315.771	100.62
316.001	81.62
316.23	94.62
316.46	93.62
316.689	107.62
316.919	101.62
317.148	104.62
317.377	106.62
317.607	86.62
317.836	94.62
318.065	90.62
318.295	93.62
318.524	93.62
318.753	91.62
318.983	98.62
319.212	80.62
319.441	108.62
319.67	110.62
319.9	99.62
320.129	110.62
320.358	102.62
320.587	98.62
320.816	108.62
321.046	114.62
321.275	103.62
321.504	94.62
321.733	101.62
321.962	99.62
322.191	107.62
322.42	119.62
322.649	105.62
322.878	115.62
323.108	124.62
323.337	141.62
323.566	122.62
323.795	148.62
324.024	210.62
324.253	421.62
324.482	878.62
324.71	1795.62
324.939	2409.62
325.168	907.62
325.397	266.62
325.626	165.62
325.855	135.62
326.084	124.62
326.313	119.62
326.542	155.62
326.77	221.62
326.999	475.62
327.228	1016.62
327.457	1856.62
327.686	1474.62
327.914	390.62
328.143	192.62
328.372	155.62
328.6	114.62
328.829	117.62
329.058	127.62
329.287	133.62
329.515	114.62
329.744	105.62
329.972	109.62
330.201	103.62
330.43	119.62
330.658	113.62
330.887	132.62
331.115	141.62
331.344	98.62
331.572	109.62
331.801	96.62
332.03	105.62
332.258	104.62
332.486	97.62
332.715	96.62
332.943	100.62
333.172	101.62
333.4	117.62
333.629	102.62
333.857	95.62
334.085	117.62
334.314	109.62
334.542	121.62
334.771	114.62
334.999	105.62
335.227	94.62
335.455	84.62
335.684	90.62
335.912	98.62
336.14	96.62
336.369	102.62
336.597	112.62
336.825	95.62
337.053	91.62
337.281	88.62
337.51	113.62
337.738	100.62
337.966	87.62
338.194	91.62
338.422	86.62
338.65	94.62
338.878	88.62
339.106	103.62
339.334	82.62
339.562	89.62
339.79	101.62
340.018	93.62
340.246	105.62
340.474	100.62
340.702	91.62
340.93	76.62
341.158	87.62
341.386	91.62
341.614	89.62
341.842	105.62
342.07	108.62
342.298	107.62
342.526	106.62
342.754	98.62
342.981	91.62
343.209	84.62
343.437	107.62
343.665	97.62
343.893	100.62
344.12	102.62
344.348	98.62
344.576	96.62
344.804	92.62
345.031	84.62
345.259	102.62
345.487	99.62
345.714	94.62
345.942	101.62
346.17	97.62
346.397	95.62
346.625	87.62
346.853	93.62
347.08	97.62
347.308	105.62
347.535	93.62
347.763	108.62
347.99	101.62
348.218	112.62
348.445	93.62
348.673	85.62
348.9	104.62
349.128	101.62
349.355	97.62
349.583	100.62
349.81	96.62
350.037	92.62
350.265	106.62
350.492	102.62
350.72	85.62
350.947	105.62
351.174	104.62
351.402	117.62
351.629	126.62
351.856	116.62
352.083	111.62
352.311	112.62
352.538	112.62
352.765	101.62
352.992	96.62
353.22	109.62
353.447	100.62
353.674	116.62
353.901	100.62
354.128	96.62
354.355	103.62
354.583	101.62
354.81	89.62
355.037	105.62
355.264	85.62
355.491	80.62
355.718	98.62
355.945	95.62
356.172	89.62
356.399	94.62
356.626	94.62
356.853	86.62
357.08	93.62
357.307	92.62
357.534	87.62
357.761	100.62
357.988	97.62
358.215	98.62
358.441	108.62
358.668	84.62
358.895	92.62
359.122	90.62
359.349	91.62
359.576	93.62
359.802	101.62
360.029	115.62
360.256	123.62
360.483	95.62
360.709	91.62
360.936	94.62
361.163	97.62
361.39	99.62
361.616	101.62
361.843	98.62
362.07	95.62
362.296	107.62
362.523	98.62
362.749	88.62
362.976	81.62
363.203	90.62
363.429	90.62
363.656	99.62
363.882	105.62
364.109	100.62
364.335	92.62
364.562	86.62
364.788	95.62
365.015	99.62
365.241	93.62
365.468	105.62
365.694	96.62
365.92	96.62
366.147	89.62
366.373	80.62
366.599	82.62
366.826	83.62
367.052	90.62
367.278	99.62
367.505	98.62
367.731	95.62
367.957	88.62
368.184	87.62
368.41	97.62
368.636	118.62
368.862	119.62
369.089	116.62
369.315	105.62
369.541	96.62
369.767	76.62
369.993	96.62
370.219	98.62
370.445	99.62
370.672	90.62
370.898	94.62
371.124	94.62
371.35	92.62
371.576	98.62
371.802	99.62
372.028	93.62
372.254	91.62
372.48	92.62
372.706	73.62
372.932	92.62
373.158	85.62
373.384	88.62
373.61	90.62
373.835	97.62
374.061	80.62
374.287	100.62
374.513	94.62
374.739	88.62
374.965	103.62
375.191	97.62
375.416	82.62
375.642	117.62
375.868	85.62
376.094	85.62
376.319	103.62
376.545	90.62
376.771	84.62
376.997	98.62
377.222	90.62
377.448	90.62
377.674	98.62
377.899	88.62
378.125	94.62
378.35	84.62
378.576	80.62
378.802	78.62
379.027	99.62
379.253	79.62
379.478	101.62
379.704	98.62
379.929	98.62
380.155	107.62
380.38	94.62
380.606	110.62
380.831	89.62
381.057	116.62
381.282	106.62
381.507	98.62
381.733	104.62
381.958	114.62
382.184	93.62
382.409	106.62
382.634	101.62
382.86	113.62
383.085	115.62
383.31	104.62
383.535	100.62
383.761	105.62
383.986	93.62
384.211	112.62
384.436	89.62
384.662	107.62
384.887	108.62
385.112	112.62
385.337	108.62
385.562	105.62
385.787	102.62
386.013	105.62
386.238	114.62
386.463	95.62
386.688	110.62
386.913	108.62
387.138	109.62
387.363	98.62
387.588	108.62
387.813	111.62
388.038	112.62
388.263	103.62
388.488	120.62
388.713	91.62
388.938	98.62
389.163	106.62
389.387	113.62
389.612	96.62
389.837	88.62
390.062	88.62
390.287	88.62
390.512	84.62
390.736	90.62
390.961	82.62
391.186	100.62
391.411	99.62
391.636	101.62
391.86	93.62
392.085	94.62
392.31	102.62
392.534	89.62
392.759	79.62
392.984	98.62
393.208	101.62
393.433	108.62
393.658	94.62
393.882	85.62
394.107	88.62
394.331	88.62
394.556	85.62
394.78	94.62
395.005	113.62
395.229	88.62
395.454	75.62
395.678	95.62
395.903	81.62
396.127	89.62
396.352	94.62
396.576	81.62
396.801	90.62
397.025	93.62
397.249	98.62
397.474	97.62
397.698	90.62
397.922	84.62
398.147	88.62
398.371	85.62
398.595	82.62
398.82	100.62
399.044	99.62
399.268	105.62
399.492	86.62
399.717	97.62
399.941	83.62
400.165	84.62
400.389	90.62
400.613	94.62
400.837	99.62
401.062	84.62
401.286	85.62
401.51	104.62
401.734	93.62
401.958	103.62
402.182	113.62
402.406	164.62
402.63	139.62
402.854	93.62
403.078	93.62
403.302	94.62
403.526	90.62
403.75	99.62
403.974	78.62
404.198	75.62
404.422	100.62
404.645	82.62
404.869	101.62
405.093	81.62
405.317	101.62
405.541	97.62
405.765	108.62
405.988	125.62
406.212	157.62
406.436	223.62
406.66	147.62
406.883	118.62
407.107	97.62
407.331	91.62
407.555	118.62
407.778	108.62
408.002	105.62
408.226	92.62
408.449	93.62
408.673	98.62
408.896	90.62
409.12	104.62
409.344	92.62
409.567	98.62
409.791	87.62
410.014	94.62
410.238	89.62
410.461	94.62
410.685	93.62
410.908	99.62
411.132	108.62
411.355	91.62
411.578	81.62
411.802	78.62
412.025	81.62
412.249	107.62
412.472	86.62
412.695	92.62
412.919	99.62
413.142	98.62
413.365	87.62
413.589	98.62
413.812	91.62
414.035	95.62
414.258	74.62
414.482	96.62
414.705	90.62
414.928	92.62
415.151	98.62
415.374	98.62
415.597	91.62
415.821	92.62
416.044	86.62
416.267	81.62
416.49	102.62
416.713	104.62
416.936	90.62
417.159	86.62
417.382	88.62
417.605	93.62
417.828	101.62
418.051	89.62
418.274	96.62
418.497	87.62
418.72	97.62
418.943	91.62
419.166	79.62
419.389	97.62
419.611	101.62
419.834	83.62
420.057	90.62
420.28	106.62
420.503	95.62
420.726	87.62
420.948	99.62
421.171	87.62
421.394	86.62
421.617	97.62
421.839	90.62
422.062	89.62
422.285	114.62
422.507	109.62
422.73	121.62
422.953	99.62
423.175	85.62
423.398	81.62
423.621	91.62
423.843	85.62
424.066	96.62
424.288	86.62
424.511	85.62
424.733	101.62
424.956	97.62
425.178	110.62
425.401	105.62
425.623	101.62
425.846	100.62
426.068	109.62
426.291	105.62
426.513	87.62
426.735	97.62
426.958	89.62
427.18	100.62
427.402	146.62
427.625	155.62
427.847	123.62
428.069	105.62
428.292	109.62
428.514	86.62
428.736	83.62
428.958	85.62
429.181	79.62
429.403	109.62
429.625	93.62
429.847	93.62
430.069	97.62
430.292	80.62
430.514	84.62
430.736	95.62
430.958	85.62
431.18	89.62
431.402	88.62
431.624	100.62
431.846	85.62
432.068	88.62
432.29	88.62
432.512	97.62
432.734	83.62
432.956	92.62
433.178	115.62
433.4	101.62
433.622	102.62
433.844	100.62
434.066	92.62
434.287	91.62
434.509	98.62
434.731	106.62
434.953	82.62
435.175	92.62
435.397	78.62
435.618	92.62
435.84	109.62
436.062	120.62
436.284	119.62
436.505	113.62
436.727	106.62
436.949	94.62
437.17	97.62
437.392	86.62
437.614	98.62
437.835	96.62
438.057	114.62
438.278	114.62
438.5	107.62
438.721	116.62
438.943	107.62
439.165	81.62
439.386	93.62
439.608	105.62
439.829	123.62
440.05	125.62
440.272	155.62
440.493	89.62
440.715	87.62
440.936	85.62
441.158	76.62
441.379	81.62
441.6	92.62
441.822	90.62
442.043	88.62
442.264	107.62
442.486	112.62
442.707	96.62
442.928	116.62
443.149	131.62
443.371	144.62
443.592	106.62
443.813	124.62
444.034	103.62
444.255	88.62
444.476	94.62
444.698	92.62
444.919	90.62
445.14	138.62
445.361	138.62
445.582	128.62
445.803	134.62
446.024	158.62
446.245	143.62
446.466	126.62
446.687	85.62
446.908	83.62
447.129	88.62
447.35	91.62
447.571	90.62
447.792	98.62
448.013	101.62
448.234	103.62
448.455	108.62
448.675	110.62
448.896	133.62
449.117	106.62
449.338	103.62
449.559	145.62
449.779	136.62
450	82.62
450.221	77.62
450.442	101.62
450.662	96.62
450.883	105.62
451.104	107.62
451.324	91.62
451.545	106.62
451.766	87.62
451.986	92.62
452.207	94.62
452.428	89.62
452.648	105.62
452.869	99.62
453.089	115.62
453.31	116.62
453.53	91.62
453.751	96.62
453.971	89.62
454.192	103.62
454.412	91.62
454.633	85.62
454.853	91.62
455.073	93.62
455.294	100.62
455.514	102.62
455.734	98.62
455.955	82.62
456.175	81.62
456.395	88.62
456.616	100.62
456.836	91.62
457.056	103.62
457.276	94.62
457.497	88.62
457.717	84.62
457.937	85.62
458.157	82.62
458.377	96.62
458.598	110.62
458.818	153.62
459.038	164.62
459.258	112.62
459.478	80.62
459.698	80.62
459.918	98.62
460.138	86.62
460.358	101.62
460.578	87.62
460.798	98.62
461.018	89.62
461.238	96.62
461.458	80.62
461.678	95.62
461.898	88.62
462.118	109.62
462.338	94.62
462.558	96.62
462.777	81.62
462.997	96.62
463.217	103.62
463.437	86.62
463.657	93.62
463.876	91.62
464.096	88.62
464.316	95.62
464.536	78.62
464.755	95.62
464.975	125.62
465.195	168.62
465.414	148.62
465.634	104.62
465.854	103.62
466.073	91.62
466.293	96.62
466.512	93.62
466.732	96.62
466.951	89.62
467.171	108.62
467.391	104.62
467.61	106.62
467.829	89.62
468.049	104.62
468.268	104.62
468.488	85.62
468.707	85.62
468.927	93.62
469.146	97.62
469.365	88.62
469.585	98.62
469.804	89.62
470.023	105.62
470.243	95.62
470.462	98.62
470.681	109.62
470.901	98.62
471.12	80.62
471.339	86.62
471.558	90.62
471.777	83.62
471.997	93.62
472.216	97.62
472.435	109.62
472.654	87.62
472.873	107.62
473.092	94.62
473.311	87.62
473.53	91.62
473.749	90.62
473.968	85.62
474.187	105.62
474.406	87.62
474.625	80.62
474.844	92.62
475.063	87.62
475.282	88.62
475.501	92.62
475.72	94.62
475.939	91.62
476.158	88.62
476.377	87.62
476.596	82.62
476.814	95.62
477.033	99.62
477.252	90.62
477.471	105.62
477.69	83.62
477.908	89.62
478.127	98.62
478.346	99.62
478.564	108.62
478.783	99.62
479.002	94.62
479.22	99.62
479.439	110.62
479.658	94.62
479.876	101.62
480.095	96.62
480.313	85.62
480.532	105.62
480.751	90.62
480.969	101.62
481.188	151.62
481.406	120.62
481.624	101.62
481.843	95.62
482.061	101.62
482.28	104.62
482.498	94.62
482.717	103.62
482.935	84.62
483.153	101.62
483.372	85.62
483.59	92.62
483.808	100.62
484.027	98.62
484.245	92.62
484.463	91.62
484.681	87.62
484.9	93.62
485.118	97.62
485.336	98.62
485.554	104.62
485.772	93.62
485.99	104.62
486.209	109.62
486.427	113.62
486.645	95.62
486.863	123.62
487.081	100.62
487.299	103.62
487.517	83.62
487.735	93.62
487.953	93.62
488.171	97.62
488.389	101.62
488.607	105.62
488.825	96.62
489.043	96.62
489.261	106.62
489.479	89.62
489.696	97.62
489.914	83.62
490.132	77.62
490.35	88.62
490.568	84.62
490.786	85.62
491.003	89.62
491.221	86.62
491.439	89.62
491.657	103.62
491.874	105.62
492.092	86.62
492.31	97.62
492.527	86.62
492.745	96.62
492.963	83.62
493.18	82.62
493.398	102.62
493.615	100.62
493.833	97.62
494.05	86.62
494.268	88.62
494.485	79.62
494.703	87.62
494.92	98.62
495.138	91.62
495.355	84.62
495.573	99.62
495.79	92.62
496.008	108.62
496.225	91.62
496.442	98.62
496.66	97.62
496.877	93.62
497.094	104.62
497.312	84.62
497.529	104.62
497.746	83.62
497.963	90.62
498.181	99.62
498.398	113.62
498.615	117.62
498.832	98.62
499.049	89.62
499.267	81.62
499.484	84.62
499.701	95.62
499.918	116.62
500.135	77.62
500.352	95.62
500.569	98.62
500.786	110.62
501.003	83.62
501.22	84.62
501.437	92.62
501.654	105.62
501.871	103.62
502.088	101.62
502.305	95.62
502.522	89.62
502.739	87.62
502.956	98.62
503.172	92.62
503.389	95.62
503.606	99.62
503.823	93.62
504.04	92.62
504.256	106.62
504.473	88.62
504.69	92.62
504.907	84.62
505.123	77.62
505.34	93.62
505.557	94.62
505.773	111.62
505.99	96.62
506.207	98.62
506.423	90.62
506.64	94.62
506.856	89.62
507.073	97.62
507.289	100.62
507.506	108.62
507.722	111.62
507.939	111.62
508.155	108.62
508.372	98.62
508.588	98.62
508.805	91.62
509.021	100.62
509.238	92.62
509.454	100.62
509.67	123.62
509.887	111.62
510.103	137.62
510.319	193.62
510.536	729.62
510.752	2293.62
510.968	632.62
511.184	164.62
511.401	118.62
511.617	101.62
511.833	105.62
512.049	98.62
512.265	104.62
512.481	97.62
512.698	80.62
512.914	83.62
513.13	89.62
513.346	94.62
513.562	105.62
513.778	94.62
513.994	91.62
514.21	98.62
