Data from Circ_2002_H10_HRD10591_00075.txt Node
Date: Wed Jan 03 10:41:13 EST 2024
User: Yrep
Spectrometer: HR+D1059
Trigger mode: 1
Integration Time (sec): 1.000000E-1
Scans to average: 1
Electric dark correction enabled: true
Nonlinearity correction enabled: false
Boxcar width: 0
XAxis mode: Wavelengths
Number of Pixels in Spectrum: 2048
>>>>>Begin Spectral Data<<<<<
223.165	-15.69
223.4	-15.69
223.635	-15.69
223.869	-8.69
224.104	-23.69
224.338	-18.69
224.573	-16.69
224.808	-5.69
225.042	-12.69
225.277	-14.69
225.511	2.31
225.746	-0.69
225.98	11.31
226.215	4.31
226.449	16.31
226.683	28.31
226.918	39.31
227.152	15.31
227.387	36.31
227.621	30.31
227.856	38.31
228.09	39.31
228.324	55.31
228.559	52.31
228.793	59.31
229.027	58.31
229.262	43.31
229.496	75.31
229.73	63.31
229.964	61.31
230.199	77.31
230.433	80.31
230.667	74.31
230.901	62.31
231.136	79.31
231.37	92.31
231.604	88.31
231.838	80.31
232.072	84.31
232.306	76.31
232.541	76.31
232.775	79.31
233.009	76.31
233.243	68.31
233.477	66.31
233.711	74.31
233.945	74.31
234.179	71.31
234.413	71.31
234.647	67.31
234.881	72.31
235.115	73.31
235.349	78.31
235.583	70.31
235.817	87.31
236.051	76.31
236.285	51.31
236.519	87.31
236.753	79.31
236.987	67.31
237.221	80.31
237.455	75.31
237.689	85.31
237.922	55.31
238.156	67.31
238.39	66.31
238.624	81.31
238.858	82.31
239.091	62.31
239.325	62.31
239.559	81.31
239.793	70.31
240.027	81.31
240.26	75.31
240.494	69.31
240.728	70.31
240.961	70.31
241.195	74.31
241.429	77.31
241.662	72.31
241.896	61.31
242.13	74.31
242.363	77.31
242.597	82.31
242.83	78.31
243.064	70.31
243.298	86.31
243.531	68.31
243.765	66.31
243.998	71.31
244.232	63.31
244.465	90.31
244.699	66.31
244.932	85.31
245.166	72.31
245.399	66.31
245.633	63.31
245.866	66.31
246.099	76.31
246.333	78.31
246.566	82.31
246.8	61.31
247.033	75.31
247.266	83.31
247.5	59.31
247.733	77.31
247.966	78.31
248.2	64.31
248.433	71.31
248.666	70.31
248.899	81.31
249.133	65.31
249.366	80.31
249.599	92.31
249.832	79.31
250.066	66.31
250.299	66.31
250.532	78.31
250.765	85.31
250.998	85.31
251.231	75.31
251.465	72.31
251.698	70.31
251.931	91.31
252.164	78.31
252.397	77.31
252.63	88.31
252.863	75.31
253.096	79.31
253.329	91.31
253.562	91.31
253.795	80.31
254.028	63.31
254.261	80.31
254.494	69.31
254.727	71.31
254.96	67.31
255.193	81.31
255.426	75.31
255.659	88.31
255.892	80.31
256.124	64.31
256.357	77.31
256.59	76.31
256.823	84.31
257.056	77.31
257.289	92.31
257.521	87.31
257.754	82.31
257.987	80.31
258.22	79.31
258.452	74.31
258.685	75.31
258.918	80.31
259.151	77.31
259.383	88.31
259.616	71.31
259.849	80.31
260.081	77.31
260.314	65.31
260.547	69.31
260.779	85.31
261.012	65.31
261.244	86.31
261.477	81.31
261.71	88.31
261.942	93.31
262.175	90.31
262.407	91.31
262.64	71.31
262.872	78.31
263.105	83.31
263.337	92.31
263.57	82.31
263.802	82.31
264.035	93.31
264.267	91.31
264.499	78.31
264.732	72.31
264.964	89.31
265.197	85.31
265.429	71.31
265.661	87.31
265.894	84.31
266.126	72.31
266.358	95.31
266.591	86.31
266.823	76.31
267.055	73.31
267.287	59.31
267.52	69.31
267.752	96.31
267.984	80.31
268.216	77.31
268.448	86.31
268.681	79.31
268.913	77.31
269.145	71.31
269.377	81.31
269.609	76.31
269.841	84.31
270.073	85.31
270.306	91.31
270.538	74.31
270.77	90.31
271.002	87.31
271.234	75.31
271.466	79.31
271.698	84.31
271.93	82.31
272.162	86.31
272.394	90.31
272.626	74.31
272.858	81.31
273.09	82.31
273.322	83.31
273.553	76.31
273.785	86.31
274.017	68.31
274.249	79.31
274.481	88.31
274.713	94.31
274.945	82.31
275.176	92.31
275.408	79.31
275.64	85.31
275.872	91.31
276.104	91.31
276.335	81.31
276.567	79.31
276.799	86.31
277.031	99.31
277.262	84.31
277.494	69.31
277.726	83.31
277.957	76.31
278.189	82.31
278.421	87.31
278.652	76.31
278.884	83.31
279.115	72.31
279.347	78.31
279.579	90.31
279.81	75.31
280.042	78.31
280.273	85.31
280.505	77.31
280.736	84.31
280.968	86.31
281.199	75.31
281.431	93.31
281.662	80.31
281.894	82.31
282.125	99.31
282.356	103.31
282.588	128.31
282.819	105.31
283.051	76.31
283.282	71.31
283.513	88.31
283.745	86.31
283.976	81.31
284.207	84.31
284.439	84.31
284.67	85.31
284.901	81.31
285.132	87.31
285.364	95.31
285.595	95.31
285.826	83.31
286.057	86.31
286.288	91.31
286.52	75.31
286.751	79.31
286.982	79.31
287.213	80.31
287.444	78.31
287.675	80.31
287.906	98.31
288.138	86.31
288.369	102.31
288.6	84.31
288.831	78.31
289.062	90.31
289.293	84.31
289.524	81.31
289.755	96.31
289.986	83.31
290.217	95.31
290.448	80.31
290.679	86.31
290.91	79.31
291.141	82.31
291.371	86.31
291.602	77.31
291.833	86.31
292.064	82.31
292.295	96.31
292.526	96.31
292.757	88.31
292.987	87.31
293.218	79.31
293.449	83.31
293.68	82.31
293.91	69.31
294.141	77.31
294.372	75.31
294.603	86.31
294.833	76.31
295.064	99.31
295.295	92.31
295.525	87.31
295.756	91.31
295.987	110.31
296.217	114.31
296.448	109.31
296.679	99.31
296.909	100.31
297.14	82.31
297.37	92.31
297.601	89.31
297.831	92.31
298.062	80.31
298.292	89.31
298.523	86.31
298.753	92.31
298.984	85.31
299.214	95.31
299.445	95.31
299.675	91.31
299.905	78.31
300.136	78.31
300.366	85.31
300.597	76.31
300.827	84.31
301.057	77.31
301.288	93.31
301.518	98.31
301.748	88.31
301.979	88.31
302.209	94.31
302.439	77.31
302.669	92.31
302.9	79.31
303.13	75.31
303.36	84.31
303.59	96.31
303.82	85.31
304.051	82.31
304.281	63.31
304.511	92.31
304.741	89.31
304.971	84.31
305.201	74.31
305.431	86.31
305.661	86.31
305.891	93.31
306.121	90.31
306.352	92.31
306.582	90.31
306.812	101.31
307.042	86.31
307.272	82.31
307.502	95.31
307.731	92.31
307.961	74.31
308.191	74.31
308.421	78.31
308.651	83.31
308.881	73.31
309.111	72.31
309.341	89.31
309.571	94.31
309.8	99.31
310.03	82.31
310.26	93.31
310.49	85.31
310.72	110.31
310.949	95.31
311.179	89.31
311.409	89.31
311.639	86.31
311.868	94.31
312.098	91.31
312.328	79.31
312.557	85.31
312.787	94.31
313.017	98.31
313.246	98.31
313.476	76.31
313.706	79.31
313.935	88.31
314.165	95.31
314.394	95.31
314.624	77.31
314.853	83.31
315.083	92.31
315.312	90.31
315.542	87.31
315.771	85.31
316.001	91.31
316.23	77.31
316.46	86.31
316.689	97.31
316.919	92.31
317.148	90.31
317.377	98.31
317.607	90.31
317.836	88.31
318.065	79.31
318.295	78.31
318.524	81.31
318.753	77.31
318.983	85.31
319.212	94.31
319.441	108.31
319.67	103.31
319.9	97.31
320.129	104.31
320.358	85.31
320.587	89.31
320.816	95.31
321.046	84.31
321.275	82.31
321.504	91.31
321.733	74.31
321.962	82.31
322.191	108.31
322.42	86.31
322.649	95.31
322.878	101.31
323.108	109.31
323.337	107.31
323.566	118.31
323.795	145.31
324.024	171.31
324.253	349.31
324.482	740.31
324.71	1513.31
324.939	1940.31
325.168	729.31
325.397	216.31
325.626	131.31
325.855	106.31
326.084	124.31
326.313	130.31
326.542	135.31
326.77	206.31
326.999	436.31
327.228	892.31
327.457	1569.31
327.686	1240.31
327.914	336.31
328.143	164.31
328.372	126.31
328.6	117.31
328.829	118.31
329.058	117.31
329.287	110.31
329.515	107.31
329.744	110.31
329.972	90.31
330.201	111.31
330.43	148.31
330.658	130.31
330.887	108.31
331.115	106.31
331.344	108.31
331.572	103.31
331.801	94.31
332.03	103.31
332.258	95.31
332.486	97.31
332.715	82.31
332.943	99.31
333.172	91.31
333.4	96.31
333.629	105.31
333.857	102.31
334.085	99.31
334.314	126.31
334.542	158.31
334.771	144.31
334.999	102.31
335.227	100.31
335.455	102.31
335.684	83.31
335.912	96.31
336.14	87.31
336.369	104.31
336.597	85.31
336.825	94.31
337.053	86.31
337.281	88.31
337.51	91.31
337.738	79.31
337.966	90.31
338.194	90.31
338.422	88.31
338.65	92.31
338.878	93.31
339.106	92.31
339.334	78.31
339.562	84.31
339.79	80.31
340.018	92.31
340.246	99.31
340.474	87.31
340.702	87.31
340.93	101.31
341.158	86.31
341.386	84.31
341.614	89.31
341.842	89.31
342.07	86.31
342.298	104.31
342.526	88.31
342.754	81.31
342.981	86.31
343.209	83.31
343.437	86.31
343.665	85.31
343.893	87.31
344.12	81.31
344.348	96.31
344.576	78.31
344.804	93.31
345.031	77.31
345.259	92.31
345.487	90.31
345.714	87.31
345.942	91.31
346.17	74.31
346.397	74.31
346.625	72.31
346.853	97.31
347.08	87.31
347.308	84.31
347.535	101.31
347.763	94.31
347.99	107.31
348.218	106.31
348.445	92.31
348.673	94.31
348.9	88.31
349.128	89.31
349.355	94.31
349.583	88.31
349.81	98.31
350.037	91.31
350.265	94.31
350.492	80.31
350.72	85.31
350.947	99.31
351.174	102.31
351.402	102.31
351.629	112.31
351.856	99.31
352.083	87.31
352.311	92.31
352.538	105.31
352.765	100.31
352.992	109.31
353.22	108.31
353.447	78.31
353.674	105.31
353.901	103.31
354.128	80.31
354.355	102.31
354.583	87.31
354.81	108.31
355.037	101.31
355.264	80.31
355.491	99.31
355.718	84.31
355.945	91.31
356.172	98.31
356.399	87.31
356.626	97.31
356.853	97.31
357.08	92.31
357.307	78.31
357.534	94.31
357.761	88.31
357.988	91.31
358.215	75.31
358.441	82.31
358.668	90.31
358.895	79.31
359.122	89.31
359.349	91.31
359.576	84.31
359.802	82.31
360.029	92.31
360.256	94.31
360.483	98.31
360.709	83.31
360.936	80.31
361.163	78.31
361.39	83.31
361.616	89.31
361.843	92.31
362.07	79.31
362.296	93.31
362.523	88.31
362.749	95.31
362.976	88.31
363.203	80.31
363.429	79.31
363.656	76.31
363.882	86.31
364.109	86.31
364.335	87.31
364.562	76.31
364.788	80.31
365.015	87.31
365.241	95.31
365.468	84.31
365.694	87.31
365.92	91.31
366.147	89.31
366.373	92.31
366.599	90.31
366.826	88.31
367.052	78.31
367.278	87.31
367.505	86.31
367.731	98.31
367.957	75.31
368.184	84.31
368.41	89.31
368.636	106.31
368.862	110.31
369.089	97.31
369.315	81.31
369.541	98.31
369.767	77.31
369.993	88.31
370.219	96.31
370.445	75.31
370.672	72.31
370.898	85.31
371.124	76.31
371.35	93.31
371.576	75.31
371.802	77.31
372.028	85.31
372.254	75.31
372.48	79.31
372.706	77.31
372.932	70.31
373.158	83.31
373.384	92.31
373.61	96.31
373.835	80.31
374.061	77.31
374.287	85.31
374.513	94.31
374.739	74.31
374.965	94.31
375.191	87.31
375.416	92.31
375.642	91.31
375.868	87.31
376.094	85.31
376.319	79.31
376.545	83.31
376.771	76.31
376.997	85.31
377.222	82.31
377.448	92.31
377.674	91.31
377.899	76.31
378.125	80.31
378.35	92.31
378.576	92.31
378.802	95.31
379.027	80.31
379.253	83.31
379.478	88.31
379.704	80.31
379.929	80.31
380.155	93.31
380.38	100.31
380.606	88.31
380.831	77.31
381.057	101.31
381.282	98.31
381.507	100.31
381.733	84.31
381.958	91.31
382.184	86.31
382.409	94.31
382.634	85.31
382.86	100.31
383.085	99.31
383.31	100.31
383.535	91.31
383.761	96.31
383.986	100.31
384.211	98.31
384.436	86.31
384.662	97.31
384.887	94.31
385.112	106.31
385.337	97.31
385.562	102.31
385.787	91.31
386.013	108.31
386.238	100.31
386.463	92.31
386.688	105.31
386.913	105.31
387.138	94.31
387.363	104.31
387.588	101.31
387.813	84.31
388.038	108.31
388.263	98.31
388.488	99.31
388.713	102.31
388.938	96.31
389.163	85.31
389.387	101.31
389.612	97.31
389.837	90.31
390.062	78.31
390.287	98.31
390.512	79.31
390.736	94.31
390.961	97.31
391.186	98.31
391.411	85.31
391.636	94.31
391.86	88.31
392.085	96.31
392.31	80.31
392.534	84.31
392.759	88.31
392.984	79.31
393.208	87.31
393.433	91.31
393.658	92.31
393.882	97.31
394.107	85.31
394.331	87.31
394.556	81.31
394.78	88.31
395.005	89.31
395.229	76.31
395.454	92.31
395.678	91.31
395.903	86.31
396.127	75.31
396.352	90.31
396.576	94.31
396.801	73.31
397.025	90.31
397.249	85.31
397.474	93.31
397.698	86.31
397.922	78.31
398.147	70.31
398.371	79.31
398.595	79.31
398.82	91.31
399.044	91.31
399.268	92.31
399.492	83.31
399.717	88.31
399.941	84.31
400.165	88.31
400.389	90.31
400.613	89.31
400.837	86.31
401.062	86.31
401.286	94.31
401.51	85.31
401.734	77.31
401.958	86.31
402.182	107.31
402.406	122.31
402.63	105.31
402.854	85.31
403.078	86.31
403.302	80.31
403.526	82.31
403.75	82.31
403.974	80.31
404.198	91.31
404.422	90.31
404.645	80.31
404.869	80.31
405.093	87.31
405.317	90.31
405.541	86.31
405.765	80.31
405.988	109.31
406.212	143.31
406.436	177.31
406.66	124.31
406.883	75.31
407.107	85.31
407.331	110.31
407.555	89.31
407.778	86.31
408.002	85.31
408.226	79.31
408.449	93.31
408.673	64.31
408.896	76.31
409.12	91.31
409.344	81.31
409.567	73.31
409.791	87.31
410.014	82.31
410.238	79.31
410.461	86.31
410.685	98.31
410.908	110.31
411.132	107.31
411.355	90.31
411.578	93.31
411.802	85.31
412.025	86.31
412.249	91.31
412.472	80.31
412.695	76.31
412.919	80.31
413.142	79.31
413.365	80.31
413.589	86.31
413.812	80.31
414.035	98.31
414.258	87.31
414.482	103.31
414.705	77.31
414.928	78.31
415.151	87.31
415.374	99.31
415.597	98.31
415.821	86.31
416.044	81.31
416.267	87.31
416.49	79.31
416.713	96.31
416.936	80.31
417.159	89.31
417.382	77.31
417.605	90.31
417.828	77.31
418.051	76.31
418.274	92.31
418.497	87.31
418.72	90.31
418.943	88.31
419.166	82.31
419.389	81.31
419.611	87.31
419.834	72.31
420.057	80.31
420.28	76.31
420.503	69.31
420.726	74.31
420.948	88.31
421.171	93.31
421.394	85.31
421.617	85.31
421.839	82.31
422.062	76.31
422.285	93.31
422.507	83.31
422.73	108.31
422.953	102.31
423.175	86.31
423.398	94.31
423.621	107.31
423.843	78.31
424.066	85.31
424.288	80.31
424.511	84.31
424.733	92.31
424.956	83.31
425.178	87.31
425.401	102.31
425.623	96.31
425.846	79.31
426.068	87.31
426.291	96.31
426.513	92.31
426.735	79.31
426.958	87.31
427.18	90.31
427.402	108.31
427.625	138.31
427.847	112.31
428.069	103.31
428.292	83.31
428.514	82.31
428.736	67.31
428.958	76.31
429.181	87.31
429.403	85.31
429.625	98.31
429.847	78.31
430.069	99.31
430.292	78.31
430.514	74.31
430.736	64.31
430.958	68.31
431.18	79.31
431.402	87.31
431.624	71.31
431.846	81.31
432.068	64.31
432.29	75.31
432.512	87.31
432.734	87.31
432.956	86.31
433.178	84.31
433.4	86.31
433.622	91.31
433.844	98.31
434.066	84.31
434.287	87.31
434.509	88.31
434.731	87.31
434.953	85.31
435.175	83.31
435.397	78.31
435.618	91.31
435.84	91.31
436.062	107.31
436.284	100.31
436.505	91.31
436.727	99.31
436.949	92.31
437.17	88.31
437.392	72.31
437.614	88.31
437.835	91.31
438.057	101.31
438.278	98.31
438.5	90.31
438.721	112.31
438.943	88.31
439.165	89.31
439.386	79.31
439.608	83.31
439.829	91.31
440.05	90.31
440.272	128.31
440.493	94.31
440.715	75.31
440.936	67.31
441.158	89.31
441.379	70.31
441.6	92.31
441.822	101.31
442.043	88.31
442.264	99.31
442.486	101.31
442.707	96.31
442.928	93.31
443.149	98.31
443.371	107.31
443.592	94.31
443.813	96.31
444.034	96.31
444.255	86.31
444.476	94.31
444.698	75.31
444.919	85.31
445.14	142.31
445.361	119.31
445.582	101.31
445.803	124.31
446.024	119.31
446.245	130.31
446.466	87.31
446.687	87.31
446.908	83.31
447.129	96.31
447.35	88.31
447.571	86.31
447.792	87.31
448.013	81.31
448.234	106.31
448.455	83.31
448.675	106.31
448.896	95.31
449.117	82.31
449.338	89.31
449.559	114.31
449.779	127.31
450	102.31
450.221	82.31
450.442	88.31
450.662	91.31
450.883	96.31
451.104	96.31
451.324	92.31
451.545	91.31
451.766	75.31
451.986	76.31
452.207	88.31
452.428	92.31
452.648	84.31
452.869	106.31
453.089	88.31
453.31	108.31
453.53	94.31
453.751	72.31
453.971	95.31
454.192	100.31
454.412	74.31
454.633	94.31
454.853	81.31
455.073	89.31
455.294	82.31
455.514	99.31
455.734	88.31
455.955	85.31
456.175	77.31
456.395	79.31
456.616	86.31
456.836	87.31
457.056	77.31
457.276	84.31
457.497	82.31
457.717	82.31
457.937	86.31
458.157	91.31
458.377	72.31
458.598	96.31
458.818	119.31
459.038	122.31
459.258	103.31
459.478	88.31
459.698	85.31
459.918	71.31
460.138	85.31
460.358	87.31
460.578	70.31
460.798	79.31
461.018	71.31
461.238	93.31
461.458	66.31
461.678	76.31
461.898	72.31
462.118	91.31
462.338	76.31
462.558	72.31
462.777	86.31
462.997	76.31
463.217	81.31
463.437	68.31
463.657	79.31
463.876	86.31
464.096	77.31
464.316	84.31
464.536	92.31
464.755	90.31
464.975	84.31
465.195	111.31
465.414	124.31
465.634	90.31
465.854	87.31
466.073	74.31
466.293	80.31
466.512	77.31
466.732	89.31
466.951	58.31
467.171	79.31
467.391	99.31
467.61	94.31
467.829	97.31
468.049	102.31
468.268	89.31
468.488	88.31
468.707	74.31
468.927	72.31
469.146	79.31
469.365	67.31
469.585	93.31
469.804	85.31
470.023	70.31
470.243	87.31
470.462	75.31
470.681	90.31
470.901	84.31
471.12	85.31
471.339	76.31
471.558	88.31
471.777	85.31
471.997	82.31
472.216	126.31
472.435	158.31
472.654	93.31
472.873	88.31
473.092	81.31
473.311	77.31
473.53	71.31
473.749	83.31
473.968	84.31
474.187	91.31
474.406	75.31
474.625	92.31
474.844	89.31
475.063	66.31
475.282	83.31
475.501	77.31
475.72	79.31
475.939	64.31
476.158	83.31
476.377	62.31
476.596	77.31
476.814	74.31
477.033	83.31
477.252	79.31
477.471	87.31
477.69	74.31
477.908	82.31
478.127	80.31
478.346	82.31
478.564	75.31
478.783	83.31
479.002	81.31
479.22	78.31
479.439	82.31
479.658	93.31
479.876	81.31
480.095	86.31
480.313	78.31
480.532	91.31
480.751	95.31
480.969	110.31
481.188	212.31
481.406	164.31
481.624	90.31
481.843	84.31
482.061	94.31
482.28	76.31
482.498	79.31
482.717	78.31
482.935	77.31
483.153	80.31
483.372	83.31
483.59	91.31
483.808	84.31
484.027	92.31
484.245	84.31
484.463	82.31
484.681	96.31
484.9	99.31
485.118	90.31
485.336	92.31
485.554	94.31
485.772	74.31
485.99	102.31
486.209	94.31
486.427	102.31
486.645	86.31
486.863	92.31
487.081	85.31
487.299	92.31
487.517	85.31
487.735	64.31
487.953	91.31
488.171	101.31
488.389	103.31
488.607	87.31
488.825	83.31
489.043	82.31
489.261	87.31
489.479	90.31
489.696	88.31
489.914	85.31
490.132	77.31
490.35	83.31
490.568	90.31
490.786	84.31
491.003	79.31
491.221	78.31
491.439	83.31
491.657	96.31
491.874	94.31
492.092	72.31
492.31	94.31
492.527	95.31
492.745	94.31
492.963	88.31
493.18	85.31
493.398	83.31
493.615	79.31
493.833	105.31
494.05	90.31
494.268	89.31
494.485	84.31
494.703	63.31
494.92	74.31
495.138	95.31
495.355	90.31
495.573	84.31
495.79	84.31
496.008	72.31
496.225	87.31
496.442	79.31
496.66	92.31
496.877	71.31
497.094	100.31
497.312	86.31
497.529	75.31
497.746	98.31
497.963	88.31
498.181	83.31
498.398	92.31
498.615	124.31
498.832	97.31
499.049	94.31
499.267	91.31
499.484	76.31
499.701	91.31
499.918	80.31
500.135	77.31
500.352	88.31
500.569	90.31
500.786	93.31
501.003	91.31
501.22	90.31
501.437	88.31
501.654	93.31
501.871	85.31
502.088	91.31
502.305	88.31
502.522	91.31
502.739	73.31
502.956	87.31
503.172	86.31
503.389	72.31
503.606	77.31
503.823	81.31
504.04	108.31
504.256	82.31
504.473	85.31
504.69	84.31
504.907	88.31
505.123	83.31
505.34	87.31
505.557	86.31
505.773	75.31
505.99	88.31
506.207	66.31
506.423	71.31
506.64	83.31
506.856	74.31
507.073	93.31
507.289	93.31
507.506	92.31
507.722	91.31
507.939	85.31
508.155	87.31
508.372	76.31
508.588	82.31
508.805	98.31
509.021	78.31
509.238	94.31
509.454	95.31
509.67	92.31
509.887	109.31
510.103	106.31
510.319	176.31
510.536	609.31
510.752	1810.31
510.968	516.31
511.184	128.31
511.401	96.31
511.617	98.31
511.833	88.31
512.049	82.31
512.265	83.31
512.481	84.31
512.698	96.31
512.914	97.31
513.13	75.31
513.346	89.31
513.562	79.31
513.778	88.31
513.994	91.31
514.21	102.31
514.426	116.31
514.642	112.31
514.858	95.31
515.074	128.31
515.29	331.31
515.506	1077.31
515.721	403.31
515.937	132.31
516.153	89.31
516.369	107.31
516.585	91.31
516.801	91.31
517.016	91.31
517.232	82.31
517.448	95.31
517.664	95.31
