Data from Circ_2002_H10_HRD10591_00010.txt Node
Date: Wed Jan 03 10:41:00 EST 2024
User: Yrep
Spectrometer: HR+D1059
Trigger mode: 1
Integration Time (sec): 1.000000E-1
Scans to average: 1
Electric dark correction enabled: true
Nonlinearity correction enabled: false
Boxcar width: 0
XAxis mode: Wavelengths
Number of Pixels in Spectrum: 2048
>>>>>Begin Spectral Data<<<<<
223.165	-16.62
223.4	-16.62
223.635	-16.62
223.869	-20.62
224.104	-16.62
224.338	-19.62
224.573	-21.62
224.808	-11.62
225.042	-1.62
225.277	-10.62
225.511	7.38
225.746	6.38
225.98	7.38
226.215	15.38
226.449	15.38
226.683	8.38
226.918	29.38
227.152	29.38
227.387	43.38
227.621	35.38
227.856	41.38
228.09	38.38
228.324	44.38
228.559	68.38
228.793	57.38
229.027	60.38
229.262	80.38
229.496	87.38
229.73	70.38
229.964	75.38
230.199	70.38
230.433	66.38
230.667	72.38
230.901	79.38
231.136	73.38
231.37	76.38
231.604	85.38
231.838	82.38
232.072	72.38
232.306	94.38
232.541	88.38
232.775	73.38
233.009	85.38
233.243	84.38
233.477	73.38
233.711	84.38
233.945	63.38
234.179	85.38
234.413	92.38
234.647	69.38
234.881	82.38
235.115	87.38
235.349	87.38
235.583	89.38
235.817	70.38
236.051	82.38
236.285	83.38
236.519	79.38
236.753	76.38
236.987	85.38
237.221	92.38
237.455	90.38
237.689	85.38
237.922	85.38
238.156	75.38
238.39	82.38
238.624	83.38
238.858	76.38
239.091	74.38
239.325	81.38
239.559	81.38
239.793	75.38
240.027	84.38
240.26	79.38
240.494	74.38
240.728	70.38
240.961	81.38
241.195	91.38
241.429	83.38
241.662	74.38
241.896	74.38
242.13	82.38
242.363	73.38
242.597	77.38
242.83	72.38
243.064	85.38
243.298	80.38
243.531	94.38
243.765	74.38
243.998	77.38
244.232	81.38
244.465	75.38
244.699	81.38
244.932	89.38
245.166	86.38
245.399	75.38
245.633	96.38
245.866	81.38
246.099	69.38
246.333	81.38
246.566	81.38
246.8	80.38
247.033	90.38
247.266	78.38
247.5	80.38
247.733	68.38
247.966	83.38
248.2	94.38
248.433	84.38
248.666	77.38
248.899	86.38
249.133	73.38
249.366	89.38
249.599	84.38
249.832	92.38
250.066	81.38
250.299	92.38
250.532	84.38
250.765	78.38
250.998	78.38
251.231	83.38
251.465	96.38
251.698	85.38
251.931	86.38
252.164	70.38
252.397	90.38
252.63	84.38
252.863	73.38
253.096	92.38
253.329	82.38
253.562	97.38
253.795	92.38
254.028	89.38
254.261	81.38
254.494	66.38
254.727	76.38
254.96	87.38
255.193	88.38
255.426	86.38
255.659	81.38
255.892	84.38
256.124	84.38
256.357	80.38
256.59	83.38
256.823	77.38
257.056	86.38
257.289	93.38
257.521	93.38
257.754	72.38
257.987	85.38
258.22	89.38
258.452	67.38
258.685	69.38
258.918	81.38
259.151	69.38
259.383	92.38
259.616	82.38
259.849	89.38
260.081	87.38
260.314	91.38
260.547	89.38
260.779	88.38
261.012	82.38
261.244	93.38
261.477	90.38
261.71	96.38
261.942	99.38
262.175	91.38
262.407	86.38
262.64	80.38
262.872	82.38
263.105	90.38
263.337	96.38
263.57	76.38
263.802	94.38
264.035	90.38
264.267	94.38
264.499	79.38
264.732	88.38
264.964	77.38
265.197	75.38
265.429	82.38
265.661	85.38
265.894	84.38
266.126	91.38
266.358	81.38
266.591	86.38
266.823	83.38
267.055	91.38
267.287	86.38
267.52	92.38
267.752	94.38
267.984	81.38
268.216	78.38
268.448	81.38
268.681	81.38
268.913	80.38
269.145	81.38
269.377	69.38
269.609	70.38
269.841	91.38
270.073	92.38
270.306	87.38
270.538	84.38
270.77	96.38
271.002	76.38
271.234	90.38
271.466	83.38
271.698	96.38
271.93	100.38
272.162	75.38
272.394	88.38
272.626	87.38
272.858	89.38
273.09	89.38
273.322	106.38
273.553	92.38
273.785	77.38
274.017	84.38
274.249	82.38
274.481	82.38
274.713	82.38
274.945	100.38
275.176	95.38
275.408	98.38
275.64	91.38
275.872	88.38
276.104	87.38
276.335	78.38
276.567	88.38
276.799	93.38
277.031	87.38
277.262	82.38
277.494	85.38
277.726	86.38
277.957	98.38
278.189	88.38
278.421	85.38
278.652	87.38
278.884	92.38
279.115	91.38
279.347	82.38
279.579	80.38
279.81	90.38
280.042	91.38
280.273	83.38
280.505	78.38
280.736	87.38
280.968	94.38
281.199	88.38
281.431	82.38
281.662	81.38
281.894	93.38
282.125	90.38
282.356	129.38
282.588	95.38
282.819	104.38
283.051	96.38
283.282	92.38
283.513	90.38
283.745	86.38
283.976	76.38
284.207	80.38
284.439	98.38
284.67	90.38
284.901	85.38
285.132	79.38
285.364	87.38
285.595	81.38
285.826	89.38
286.057	96.38
286.288	90.38
286.52	74.38
286.751	91.38
286.982	100.38
287.213	85.38
287.444	104.38
287.675	99.38
287.906	87.38
288.138	85.38
288.369	87.38
288.6	94.38
288.831	95.38
289.062	101.38
289.293	98.38
289.524	82.38
289.755	93.38
289.986	86.38
290.217	89.38
290.448	85.38
290.679	96.38
290.91	77.38
291.141	85.38
291.371	85.38
291.602	95.38
291.833	104.38
292.064	77.38
292.295	91.38
292.526	97.38
292.757	86.38
292.987	96.38
293.218	88.38
293.449	73.38
293.68	95.38
293.91	77.38
294.141	82.38
294.372	89.38
294.603	91.38
294.833	90.38
295.064	90.38
295.295	85.38
295.525	85.38
295.756	97.38
295.987	102.38
296.217	111.38
296.448	108.38
296.679	98.38
296.909	94.38
297.14	93.38
297.37	85.38
297.601	94.38
297.831	92.38
298.062	94.38
298.292	98.38
298.523	79.38
298.753	97.38
298.984	86.38
299.214	91.38
299.445	102.38
299.675	104.38
299.905	92.38
300.136	91.38
300.366	84.38
300.597	89.38
300.827	86.38
301.057	101.38
301.288	99.38
301.518	92.38
301.748	97.38
301.979	88.38
302.209	95.38
302.439	97.38
302.669	85.38
302.9	97.38
303.13	104.38
303.36	115.38
303.59	89.38
303.82	91.38
304.051	84.38
304.281	93.38
304.511	93.38
304.741	76.38
304.971	87.38
305.201	89.38
305.431	83.38
305.661	99.38
305.891	90.38
306.121	94.38
306.352	95.38
306.582	73.38
306.812	92.38
307.042	92.38
307.272	83.38
307.502	100.38
307.731	99.38
307.961	95.38
308.191	89.38
308.421	100.38
308.651	105.38
308.881	97.38
309.111	91.38
309.341	91.38
309.571	102.38
309.8	90.38
310.03	88.38
310.26	96.38
310.49	103.38
310.72	93.38
310.949	86.38
311.179	93.38
311.409	90.38
311.639	89.38
311.868	77.38
312.098	85.38
312.328	106.38
312.557	119.38
312.787	103.38
313.017	102.38
313.246	96.38
313.476	87.38
313.706	96.38
313.935	92.38
314.165	99.38
314.394	104.38
314.624	101.38
314.853	101.38
315.083	88.38
315.312	93.38
315.542	94.38
315.771	96.38
316.001	88.38
316.23	82.38
316.46	90.38
316.689	90.38
316.919	76.38
317.148	99.38
317.377	105.38
317.607	86.38
317.836	84.38
318.065	100.38
318.295	92.38
318.524	80.38
318.753	77.38
318.983	86.38
319.212	114.38
319.441	97.38
319.67	93.38
319.9	99.38
320.129	97.38
320.358	92.38
320.587	91.38
320.816	90.38
321.046	101.38
321.275	106.38
321.504	91.38
321.733	89.38
321.962	108.38
322.191	88.38
322.42	93.38
322.649	108.38
322.878	99.38
323.108	114.38
323.337	108.38
323.566	121.38
323.795	134.38
324.024	168.38
324.253	298.38
324.482	593.38
324.71	1197.38
324.939	1560.38
325.168	596.38
325.397	194.38
325.626	125.38
325.855	121.38
326.084	121.38
326.313	130.38
326.542	136.38
326.77	201.38
326.999	361.38
327.228	705.38
327.457	1256.38
327.686	1019.38
327.914	290.38
328.143	168.38
328.372	125.38
328.6	100.38
328.829	104.38
329.058	104.38
329.287	97.38
329.515	103.38
329.744	101.38
329.972	117.38
330.201	109.38
330.43	106.38
330.658	111.38
330.887	119.38
331.115	113.38
331.344	98.38
331.572	86.38
331.801	95.38
332.03	99.38
332.258	103.38
332.486	91.38
332.715	104.38
332.943	82.38
333.172	104.38
333.4	100.38
333.629	121.38
333.857	107.38
334.085	100.38
334.314	83.38
334.542	92.38
334.771	96.38
334.999	93.38
335.227	98.38
335.455	95.38
335.684	100.38
335.912	102.38
336.14	97.38
336.369	90.38
336.597	88.38
336.825	92.38
337.053	105.38
337.281	92.38
337.51	103.38
337.738	105.38
337.966	87.38
338.194	100.38
338.422	80.38
338.65	88.38
338.878	89.38
339.106	95.38
339.334	90.38
339.562	90.38
339.79	94.38
340.018	98.38
340.246	100.38
340.474	90.38
340.702	77.38
340.93	92.38
341.158	71.38
341.386	83.38
341.614	83.38
341.842	92.38
342.07	94.38
342.298	82.38
342.526	89.38
342.754	93.38
342.981	74.38
343.209	92.38
343.437	106.38
343.665	103.38
343.893	91.38
344.12	89.38
344.348	91.38
344.576	94.38
344.804	77.38
345.031	94.38
345.259	96.38
345.487	106.38
345.714	95.38
345.942	91.38
346.17	90.38
346.397	88.38
346.625	88.38
346.853	96.38
347.08	99.38
347.308	107.38
347.535	105.38
347.763	92.38
347.99	94.38
348.218	86.38
348.445	95.38
348.673	101.38
348.9	103.38
349.128	81.38
349.355	76.38
349.583	102.38
349.81	95.38
350.037	101.38
350.265	92.38
350.492	93.38
350.72	103.38
350.947	93.38
351.174	95.38
351.402	90.38
351.629	94.38
351.856	95.38
352.083	92.38
352.311	104.38
352.538	102.38
352.765	105.38
352.992	105.38
353.22	109.38
353.447	94.38
353.674	104.38
353.901	102.38
354.128	107.38
354.355	85.38
354.583	100.38
354.81	99.38
355.037	105.38
355.264	103.38
355.491	100.38
355.718	96.38
355.945	94.38
356.172	106.38
356.399	104.38
356.626	119.38
356.853	109.38
357.08	95.38
357.307	92.38
357.534	109.38
357.761	86.38
357.988	101.38
358.215	107.38
358.441	97.38
358.668	88.38
358.895	101.38
359.122	95.38
359.349	82.38
359.576	101.38
359.802	94.38
360.029	97.38
360.256	95.38
360.483	111.38
360.709	90.38
360.936	103.38
361.163	106.38
361.39	108.38
361.616	97.38
361.843	92.38
362.07	94.38
362.296	90.38
362.523	101.38
362.749	104.38
362.976	84.38
363.203	106.38
363.429	90.38
363.656	94.38
363.882	88.38
364.109	85.38
364.335	92.38
364.562	97.38
364.788	93.38
365.015	89.38
365.241	102.38
365.468	87.38
365.694	87.38
365.92	98.38
366.147	90.38
366.373	93.38
366.599	79.38
366.826	97.38
367.052	98.38
367.278	102.38
367.505	94.38
367.731	88.38
367.957	82.38
368.184	93.38
368.41	108.38
368.636	87.38
368.862	91.38
369.089	101.38
369.315	93.38
369.541	98.38
369.767	98.38
369.993	105.38
370.219	87.38
370.445	79.38
370.672	87.38
370.898	91.38
371.124	88.38
371.35	77.38
371.576	90.38
371.802	80.38
372.028	85.38
372.254	98.38
372.48	91.38
372.706	103.38
372.932	94.38
373.158	84.38
373.384	103.38
373.61	94.38
373.835	88.38
374.061	79.38
374.287	99.38
374.513	96.38
374.739	101.38
374.965	94.38
375.191	94.38
375.416	101.38
375.642	97.38
375.868	116.38
376.094	87.38
376.319	78.38
376.545	86.38
376.771	94.38
376.997	93.38
377.222	92.38
377.448	93.38
377.674	100.38
377.899	99.38
378.125	93.38
378.35	99.38
378.576	94.38
378.802	79.38
379.027	107.38
379.253	88.38
379.478	105.38
379.704	85.38
379.929	101.38
380.155	91.38
380.38	109.38
380.606	105.38
380.831	108.38
381.057	108.38
381.282	112.38
381.507	101.38
381.733	97.38
381.958	109.38
382.184	107.38
382.409	108.38
382.634	101.38
382.86	106.38
383.085	97.38
383.31	110.38
383.535	103.38
383.761	102.38
383.986	100.38
384.211	114.38
384.436	103.38
384.662	115.38
384.887	109.38
385.112	118.38
385.337	117.38
385.562	94.38
385.787	123.38
386.013	117.38
386.238	117.38
386.463	121.38
386.688	134.38
386.913	115.38
387.138	141.38
387.363	116.38
387.588	107.38
387.813	118.38
388.038	114.38
388.263	133.38
388.488	118.38
388.713	117.38
388.938	111.38
389.163	99.38
389.387	89.38
389.612	89.38
389.837	99.38
390.062	95.38
390.287	107.38
390.512	85.38
390.736	90.38
390.961	87.38
391.186	98.38
391.411	105.38
391.636	90.38
391.86	87.38
392.085	96.38
392.31	95.38
392.534	74.38
392.759	87.38
392.984	105.38
393.208	87.38
393.433	93.38
393.658	98.38
393.882	82.38
394.107	80.38
394.331	94.38
394.556	86.38
394.78	95.38
395.005	97.38
395.229	94.38
395.454	86.38
395.678	89.38
395.903	81.38
396.127	104.38
396.352	97.38
396.576	89.38
396.801	97.38
397.025	105.38
397.249	84.38
397.474	84.38
397.698	85.38
397.922	75.38
398.147	85.38
398.371	95.38
398.595	92.38
398.82	94.38
399.044	102.38
399.268	85.38
399.492	87.38
399.717	92.38
399.941	84.38
400.165	78.38
400.389	88.38
400.613	84.38
400.837	96.38
401.062	91.38
401.286	80.38
401.51	74.38
401.734	92.38
401.958	100.38
402.182	107.38
402.406	128.38
402.63	98.38
402.854	96.38
403.078	83.38
403.302	88.38
403.526	101.38
403.75	94.38
403.974	95.38
404.198	91.38
404.422	101.38
404.645	93.38
404.869	88.38
405.093	90.38
405.317	89.38
405.541	97.38
405.765	97.38
405.988	94.38
406.212	135.38
406.436	150.38
406.66	122.38
406.883	101.38
407.107	82.38
407.331	98.38
407.555	103.38
407.778	108.38
408.002	88.38
408.226	89.38
408.449	89.38
408.673	97.38
408.896	93.38
409.12	90.38
409.344	100.38
409.567	88.38
409.791	88.38
410.014	99.38
410.238	95.38
410.461	94.38
410.685	83.38
410.908	102.38
411.132	94.38
411.355	103.38
411.578	96.38
411.802	92.38
412.025	93.38
412.249	87.38
412.472	97.38
412.695	91.38
412.919	82.38
413.142	98.38
413.365	101.38
413.589	93.38
413.812	87.38
414.035	80.38
414.258	88.38
414.482	92.38
414.705	97.38
414.928	95.38
415.151	89.38
415.374	102.38
415.597	99.38
415.821	96.38
416.044	85.38
416.267	91.38
416.49	78.38
416.713	94.38
416.936	92.38
417.159	93.38
417.382	97.38
417.605	92.38
417.828	81.38
418.051	97.38
418.274	90.38
418.497	91.38
418.72	90.38
418.943	87.38
419.166	89.38
419.389	91.38
419.611	92.38
419.834	85.38
420.057	104.38
420.28	94.38
420.503	86.38
420.726	93.38
420.948	85.38
421.171	102.38
421.394	94.38
421.617	105.38
421.839	93.38
422.062	85.38
422.285	98.38
422.507	85.38
422.73	88.38
422.953	84.38
423.175	99.38
423.398	103.38
423.621	97.38
423.843	94.38
424.066	76.38
424.288	89.38
424.511	92.38
424.733	84.38
424.956	93.38
425.178	97.38
425.401	97.38
425.623	93.38
425.846	80.38
426.068	73.38
426.291	87.38
426.513	79.38
426.735	97.38
426.958	100.38
427.18	110.38
427.402	132.38
427.625	128.38
427.847	107.38
428.069	97.38
428.292	107.38
428.514	87.38
428.736	92.38
428.958	82.38
429.181	76.38
429.403	81.38
429.625	91.38
429.847	87.38
430.069	104.38
430.292	97.38
430.514	87.38
430.736	88.38
430.958	99.38
431.18	105.38
431.402	94.38
431.624	90.38
431.846	85.38
432.068	80.38
432.29	85.38
432.512	81.38
432.734	75.38
432.956	92.38
433.178	97.38
433.4	88.38
433.622	93.38
433.844	96.38
434.066	109.38
434.287	91.38
434.509	93.38
434.731	76.38
434.953	83.38
435.175	83.38
435.397	102.38
435.618	79.38
435.84	88.38
436.062	106.38
436.284	104.38
436.505	84.38
436.727	100.38
436.949	78.38
437.17	85.38
437.392	79.38
437.614	96.38
437.835	91.38
438.057	100.38
438.278	103.38
438.5	97.38
438.721	115.38
438.943	94.38
439.165	78.38
439.386	82.38
439.608	86.38
439.829	91.38
440.05	99.38
440.272	104.38
440.493	84.38
440.715	85.38
440.936	80.38
441.158	100.38
441.379	98.38
441.6	83.38
441.822	107.38
442.043	99.38
442.264	93.38
442.486	98.38
442.707	88.38
442.928	88.38
443.149	109.38
443.371	102.38
443.592	81.38
443.813	102.38
444.034	102.38
444.255	105.38
444.476	80.38
444.698	94.38
444.919	88.38
445.14	128.38
445.361	105.38
445.582	80.38
445.803	114.38
446.024	109.38
446.245	116.38
446.466	98.38
446.687	92.38
446.908	82.38
447.129	86.38
447.35	76.38
447.571	85.38
447.792	93.38
448.013	88.38
448.234	96.38
448.455	103.38
448.675	99.38
448.896	101.38
449.117	81.38
449.338	92.38
449.559	120.38
449.779	112.38
450	83.38
450.221	92.38
450.442	88.38
450.662	82.38
450.883	89.38
451.104	84.38
451.324	76.38
451.545	88.38
451.766	91.38
451.986	79.38
452.207	77.38
452.428	95.38
452.648	110.38
452.869	96.38
453.089	101.38
453.31	105.38
453.53	83.38
453.751	93.38
453.971	92.38
454.192	94.38
454.412	94.38
454.633	91.38
454.853	86.38
455.073	87.38
455.294	79.38
455.514	79.38
455.734	89.38
455.955	79.38
456.175	90.38
456.395	78.38
456.616	67.38
456.836	84.38
457.056	73.38
457.276	75.38
457.497	76.38
457.717	75.38
457.937	74.38
458.157	94.38
458.377	86.38
458.598	102.38
458.818	119.38
459.038	118.38
459.258	122.38
459.478	84.38
459.698	97.38
459.918	83.38
460.138	76.38
460.358	73.38
460.578	94.38
460.798	88.38
461.018	83.38
461.238	93.38
461.458	85.38
461.678	85.38
461.898	76.38
462.118	94.38
462.338	89.38
462.558	86.38
462.777	96.38
462.997	87.38
463.217	94.38
463.437	94.38
463.657	83.38
463.876	90.38
464.096	92.38
464.316	73.38
464.536	94.38
464.755	88.38
464.975	92.38
465.195	114.38
465.414	122.38
465.634	99.38
465.854	80.38
466.073	96.38
466.293	85.38
466.512	68.38
466.732	82.38
466.951	94.38
467.171	104.38
467.391	100.38
467.61	99.38
467.829	84.38
468.049	73.38
468.268	80.38
468.488	75.38
468.707	88.38
468.927	77.38
469.146	82.38
469.365	87.38
469.585	91.38
469.804	85.38
470.023	88.38
470.243	88.38
470.462	95.38
470.681	88.38
470.901	85.38
471.12	89.38
471.339	93.38
471.558	75.38
471.777	85.38
471.997	85.38
472.216	106.38
472.435	83.38
472.654	74.38
472.873	80.38
473.092	83.38
473.311	87.38
473.53	89.38
473.749	86.38
473.968	87.38
474.187	87.38
474.406	86.38
474.625	87.38
474.844	87.38
475.063	97.38
475.282	89.38
475.501	92.38
475.72	99.38
475.939	96.38
476.158	86.38
476.377	83.38
476.596	89.38
476.814	84.38
477.033	91.38
477.252	92.38
477.471	79.38
477.69	83.38
477.908	86.38
478.127	80.38
478.346	81.38
478.564	81.38
478.783	87.38
479.002	102.38
479.22	101.38
479.439	93.38
479.658	91.38
479.876	89.38
480.095	84.38
480.313	102.38
480.532	94.38
480.751	92.38
480.969	85.38
481.188	91.38
481.406	101.38
481.624	76.38
481.843	97.38
482.061	91.38
482.28	91.38
482.498	91.38
482.717	78.38
482.935	94.38
483.153	91.38
483.372	89.38
483.59	90.38
483.808	94.38
484.027	105.38
484.245	104.38
484.463	93.38
484.681	105.38
484.9	102.38
485.118	90.38
485.336	78.38
485.554	93.38
485.772	92.38
485.99	112.38
486.209	105.38
486.427	102.38
486.645	102.38
486.863	107.38
487.081	109.38
487.299	79.38
487.517	98.38
487.735	90.38
487.953	89.38
488.171	95.38
488.389	93.38
488.607	101.38
488.825	94.38
489.043	96.38
489.261	95.38
489.479	94.38
489.696	86.38
489.914	88.38
490.132	104.38
490.35	102.38
490.568	76.38
490.786	87.38
491.003	97.38
491.221	81.38
491.439	81.38
491.657	86.38
491.874	96.38
492.092	104.38
492.31	106.38
492.527	95.38
492.745	88.38
492.963	70.38
493.18	81.38
493.398	81.38
493.615	91.38
493.833	97.38
494.05	83.38
494.268	97.38
494.485	97.38
494.703	102.38
494.92	91.38
495.138	92.38
495.355	98.38
495.573	75.38
495.79	98.38
496.008	82.38
496.225	77.38
496.442	82.38
496.66	78.38
496.877	82.38
497.094	85.38
497.312	86.38
497.529	99.38
497.746	97.38
497.963	76.38
498.181	86.38
498.398	92.38
498.615	113.38
498.832	94.38
499.049	88.38
499.267	84.38
499.484	98.38
499.701	90.38
499.918	93.38
500.135	99.38
500.352	86.38
500.569	83.38
500.786	88.38
501.003	91.38
501.22	89.38
501.437	87.38
501.654	97.38
501.871	98.38
502.088	87.38
502.305	90.38
502.522	100.38
502.739	103.38
502.956	99.38
503.172	84.38
503.389	94.38
503.606	93.38
503.823	101.38
504.04	102.38
504.256	97.38
504.473	96.38
504.69	102.38
504.907	90.38
505.123	83.38
505.34	84.38
505.557	85.38
505.773	93.38
505.99	85.38
506.207	87.38
506.423	81.38
506.64	90.38
506.856	84.38
507.073	104.38
507.289	81.38
507.506	98.38
507.722	96.38
507.939	86.38
508.155	82.38
508.372	94.38
508.588	104.38
508.805	97.38
509.021	95.38
509.238	99.38
509.454	87.38
509.67	92.38
509.887	88.38
510.103	105.38
510.319	149.38
510.536	482.38
510.752	1372.38
510.968	411.38
511.184	116.38
511.401	104.38
511.617	83.38
511.833	80.38
512.049	84.38
512.265	88.38
512.481	88.38
512.698	103.38
512.914	85.38
513.13	90.38
513.346	84.38
513.562	91.38
513.778	74.38
513.994	96.38
514.21	92.38
514.426	106.38
514.642	111.38
514.858	112.38
515.074	137.38
515.29	292.38
515.506	798.38
515.721	317.38
515.937	112.38
