Data from Circ_2002_H10_HRD10591_00081.txt Node
Date: Wed Jan 03 10:41:14 EST 2024
User: Yrep
Spectrometer: HR+D1059
Trigger mode: 1
Integration Time (sec): 1.000000E-1
Scans to average: 1
Electric dark correction enabled: true
Nonlinearity correction enabled: false
Boxcar width: 0
XAxis mode: Wavelengths
Number of Pixels in Spectrum: 2048
>>>>>Begin Spectral Data<<<<<
223.165	-14.5
223.4	-14.5
223.635	-14.5
223.869	-22.5
224.104	-34.5
224.338	-11.5
224.573	-11.5
224.808	-14.5
225.042	-14.5
225.277	-19.5
225.511	2.5
225.746	10.5
225.98	19.5
226.215	12.5
226.449	16.5
226.683	25.5
226.918	12.5
227.152	43.5
227.387	32.5
227.621	36.5
227.856	57.5
228.09	57.5
228.324	49.5
228.559	52.5
228.793	57.5
229.027	71.5
229.262	80.5
229.496	76.5
229.73	89.5
229.964	78.5
230.199	62.5
230.433	60.5
230.667	77.5
230.901	72.5
231.136	75.5
231.37	86.5
231.604	87.5
231.838	80.5
232.072	78.5
232.306	93.5
232.541	75.5
232.775	82.5
233.009	70.5
233.243	82.5
233.477	80.5
233.711	81.5
233.945	76.5
234.179	79.5
234.413	77.5
234.647	75.5
234.881	72.5
235.115	77.5
235.349	62.5
235.583	66.5
235.817	87.5
236.051	90.5
236.285	73.5
236.519	75.5
236.753	66.5
236.987	93.5
237.221	83.5
237.455	91.5
237.689	75.5
237.922	79.5
238.156	81.5
238.39	78.5
238.624	78.5
238.858	72.5
239.091	61.5
239.325	80.5
239.559	74.5
239.793	71.5
240.027	71.5
240.26	76.5
240.494	62.5
240.728	79.5
240.961	83.5
241.195	79.5
241.429	72.5
241.662	62.5
241.896	73.5
242.13	73.5
242.363	90.5
242.597	87.5
242.83	66.5
243.064	80.5
243.298	79.5
243.531	87.5
243.765	80.5
243.998	64.5
244.232	87.5
244.465	55.5
244.699	75.5
244.932	71.5
245.166	80.5
245.399	75.5
245.633	74.5
245.866	76.5
246.099	68.5
246.333	75.5
246.566	66.5
246.8	88.5
247.033	89.5
247.266	87.5
247.5	86.5
247.733	74.5
247.966	84.5
248.2	83.5
248.433	79.5
248.666	79.5
248.899	86.5
249.133	78.5
249.366	100.5
249.599	105.5
249.832	70.5
250.066	73.5
250.299	84.5
250.532	66.5
250.765	72.5
250.998	86.5
251.231	83.5
251.465	73.5
251.698	78.5
251.931	70.5
252.164	68.5
252.397	75.5
252.63	90.5
252.863	82.5
253.096	68.5
253.329	75.5
253.562	88.5
253.795	71.5
254.028	88.5
254.261	83.5
254.494	79.5
254.727	84.5
254.96	87.5
255.193	86.5
255.426	69.5
255.659	71.5
255.892	95.5
256.124	76.5
256.357	95.5
256.59	91.5
256.823	66.5
257.056	79.5
257.289	69.5
257.521	74.5
257.754	89.5
257.987	85.5
258.22	101.5
258.452	81.5
258.685	86.5
258.918	75.5
259.151	78.5
259.383	90.5
259.616	73.5
259.849	70.5
260.081	85.5
260.314	74.5
260.547	86.5
260.779	89.5
261.012	67.5
261.244	84.5
261.477	84.5
261.71	83.5
261.942	84.5
262.175	112.5
262.407	96.5
262.64	82.5
262.872	86.5
263.105	70.5
263.337	94.5
263.57	72.5
263.802	77.5
264.035	83.5
264.267	83.5
264.499	62.5
264.732	88.5
264.964	87.5
265.197	72.5
265.429	79.5
265.661	91.5
265.894	82.5
266.126	94.5
266.358	87.5
266.591	80.5
266.823	85.5
267.055	80.5
267.287	87.5
267.52	79.5
267.752	87.5
267.984	75.5
268.216	76.5
268.448	85.5
268.681	83.5
268.913	75.5
269.145	75.5
269.377	75.5
269.609	81.5
269.841	85.5
270.073	74.5
270.306	86.5
270.538	80.5
270.77	76.5
271.002	76.5
271.234	75.5
271.466	91.5
271.698	71.5
271.93	77.5
272.162	78.5
272.394	87.5
272.626	79.5
272.858	89.5
273.09	68.5
273.322	88.5
273.553	88.5
273.785	98.5
274.017	83.5
274.249	72.5
274.481	71.5
274.713	87.5
274.945	80.5
275.176	79.5
275.408	86.5
275.64	85.5
275.872	81.5
276.104	91.5
276.335	86.5
276.567	89.5
276.799	85.5
277.031	103.5
277.262	79.5
277.494	106.5
277.726	90.5
277.957	86.5
278.189	80.5
278.421	85.5
278.652	87.5
278.884	79.5
279.115	82.5
279.347	84.5
279.579	95.5
279.81	84.5
280.042	96.5
280.273	98.5
280.505	75.5
280.736	84.5
280.968	79.5
281.199	69.5
281.431	87.5
281.662	77.5
281.894	81.5
282.125	99.5
282.356	105.5
282.588	115.5
282.819	91.5
283.051	96.5
283.282	96.5
283.513	87.5
283.745	82.5
283.976	75.5
284.207	79.5
284.439	85.5
284.67	76.5
284.901	96.5
285.132	76.5
285.364	72.5
285.595	95.5
285.826	94.5
286.057	80.5
286.288	84.5
286.52	98.5
286.751	80.5
286.982	82.5
287.213	85.5
287.444	92.5
287.675	94.5
287.906	97.5
288.138	85.5
288.369	87.5
288.6	84.5
288.831	83.5
289.062	83.5
289.293	84.5
289.524	88.5
289.755	70.5
289.986	86.5
290.217	78.5
290.448	96.5
290.679	91.5
290.91	89.5
291.141	99.5
291.371	82.5
291.602	87.5
291.833	88.5
292.064	83.5
292.295	91.5
292.526	95.5
292.757	89.5
292.987	85.5
293.218	88.5
293.449	67.5
293.68	99.5
293.91	81.5
294.141	87.5
294.372	81.5
294.603	102.5
294.833	101.5
295.064	80.5
295.295	95.5
295.525	82.5
295.756	93.5
295.987	102.5
296.217	106.5
296.448	112.5
296.679	79.5
296.909	74.5
297.14	98.5
297.37	96.5
297.601	88.5
297.831	94.5
298.062	86.5
298.292	90.5
298.523	89.5
298.753	88.5
298.984	92.5
299.214	78.5
299.445	83.5
299.675	87.5
299.905	88.5
300.136	79.5
300.366	92.5
300.597	86.5
300.827	92.5
301.057	99.5
301.288	100.5
301.518	84.5
301.748	85.5
301.979	96.5
302.209	96.5
302.439	86.5
302.669	82.5
302.9	80.5
303.13	89.5
303.36	96.5
303.59	88.5
303.82	87.5
304.051	105.5
304.281	80.5
304.511	97.5
304.741	96.5
304.971	92.5
305.201	95.5
305.431	89.5
305.661	84.5
305.891	90.5
306.121	84.5
306.352	100.5
306.582	105.5
306.812	94.5
307.042	96.5
307.272	94.5
307.502	89.5
307.731	75.5
307.961	91.5
308.191	83.5
308.421	97.5
308.651	91.5
308.881	97.5
309.111	80.5
309.341	82.5
309.571	97.5
309.8	95.5
310.03	91.5
310.26	103.5
310.49	103.5
310.72	98.5
310.949	100.5
311.179	98.5
311.409	89.5
311.639	85.5
311.868	97.5
312.098	91.5
312.328	92.5
312.557	93.5
312.787	106.5
313.017	100.5
313.246	82.5
313.476	84.5
313.706	106.5
313.935	90.5
314.165	92.5
314.394	89.5
314.624	92.5
314.853	75.5
315.083	90.5
315.312	97.5
315.542	99.5
315.771	104.5
316.001	92.5
316.23	82.5
316.46	89.5
316.689	83.5
316.919	98.5
317.148	107.5
317.377	96.5
317.607	92.5
317.836	92.5
318.065	91.5
318.295	90.5
318.524	94.5
318.753	94.5
318.983	98.5
319.212	84.5
319.441	102.5
319.67	97.5
319.9	98.5
320.129	84.5
320.358	95.5
320.587	101.5
320.816	97.5
321.046	102.5
321.275	87.5
321.504	94.5
321.733	92.5
321.962	97.5
322.191	90.5
322.42	96.5
322.649	93.5
322.878	106.5
323.108	101.5
323.337	107.5
323.566	130.5
323.795	142.5
324.024	194.5
324.253	347.5
324.482	734.5
324.71	1481.5
324.939	1947.5
325.168	702.5
325.397	210.5
325.626	150.5
325.855	137.5
326.084	134.5
326.313	134.5
326.542	141.5
326.77	221.5
326.999	418.5
327.228	848.5
327.457	1549.5
327.686	1221.5
327.914	333.5
328.143	178.5
328.372	148.5
328.6	123.5
328.829	109.5
329.058	130.5
329.287	114.5
329.515	109.5
329.744	93.5
329.972	115.5
330.201	132.5
330.43	147.5
330.658	122.5
330.887	125.5
331.115	110.5
331.344	98.5
331.572	89.5
331.801	110.5
332.03	98.5
332.258	94.5
332.486	91.5
332.715	105.5
332.943	95.5
333.172	91.5
333.4	83.5
333.629	104.5
333.857	119.5
334.085	118.5
334.314	116.5
334.542	157.5
334.771	146.5
334.999	116.5
335.227	95.5
335.455	89.5
335.684	110.5
335.912	100.5
336.14	111.5
336.369	107.5
336.597	97.5
336.825	92.5
337.053	90.5
337.281	91.5
337.51	84.5
337.738	94.5
337.966	90.5
338.194	96.5
338.422	85.5
338.65	92.5
338.878	88.5
339.106	95.5
339.334	91.5
339.562	91.5
339.79	99.5
340.018	92.5
340.246	83.5
340.474	94.5
340.702	83.5
340.93	84.5
341.158	87.5
341.386	89.5
341.614	97.5
341.842	83.5
342.07	85.5
342.298	86.5
342.526	94.5
342.754	79.5
342.981	83.5
343.209	102.5
343.437	97.5
343.665	88.5
343.893	86.5
344.12	100.5
344.348	104.5
344.576	74.5
344.804	93.5
345.031	93.5
345.259	91.5
345.487	92.5
345.714	99.5
345.942	101.5
346.17	99.5
346.397	95.5
346.625	97.5
346.853	88.5
347.08	85.5
347.308	86.5
347.535	89.5
347.763	103.5
347.99	104.5
348.218	92.5
348.445	95.5
348.673	96.5
348.9	90.5
349.128	94.5
349.355	87.5
349.583	95.5
349.81	89.5
350.037	93.5
350.265	111.5
350.492	92.5
350.72	89.5
350.947	109.5
351.174	98.5
351.402	98.5
351.629	91.5
351.856	85.5
352.083	100.5
352.311	100.5
352.538	100.5
352.765	105.5
352.992	111.5
353.22	106.5
353.447	99.5
353.674	92.5
353.901	105.5
354.128	88.5
354.355	106.5
354.583	98.5
354.81	96.5
355.037	93.5
355.264	92.5
355.491	101.5
355.718	94.5
355.945	92.5
356.172	97.5
356.399	105.5
356.626	99.5
356.853	105.5
357.08	82.5
357.307	90.5
357.534	92.5
357.761	95.5
357.988	85.5
358.215	94.5
358.441	104.5
358.668	77.5
358.895	82.5
359.122	81.5
359.349	92.5
359.576	115.5
359.802	82.5
360.029	104.5
360.256	103.5
360.483	101.5
360.709	81.5
360.936	92.5
361.163	91.5
361.39	95.5
361.616	93.5
361.843	90.5
362.07	104.5
362.296	91.5
362.523	101.5
362.749	91.5
362.976	85.5
363.203	102.5
363.429	95.5
363.656	97.5
363.882	97.5
364.109	87.5
364.335	74.5
364.562	84.5
364.788	87.5
365.015	85.5
365.241	113.5
365.468	95.5
365.694	89.5
365.92	95.5
366.147	89.5
366.373	89.5
366.599	77.5
366.826	90.5
367.052	79.5
367.278	86.5
367.505	81.5
367.731	86.5
367.957	88.5
368.184	89.5
368.41	104.5
368.636	101.5
368.862	112.5
369.089	112.5
369.315	98.5
369.541	87.5
369.767	87.5
369.993	95.5
370.219	79.5
370.445	80.5
370.672	78.5
370.898	83.5
371.124	93.5
371.35	85.5
371.576	94.5
371.802	87.5
372.028	90.5
372.254	82.5
372.48	66.5
372.706	86.5
372.932	91.5
373.158	89.5
373.384	87.5
373.61	92.5
373.835	98.5
374.061	91.5
374.287	84.5
374.513	98.5
374.739	88.5
374.965	96.5
375.191	93.5
375.416	92.5
375.642	100.5
375.868	103.5
376.094	103.5
376.319	84.5
376.545	84.5
376.771	78.5
376.997	90.5
377.222	94.5
377.448	100.5
377.674	79.5
377.899	82.5
378.125	90.5
378.35	99.5
378.576	94.5
378.802	86.5
379.027	83.5
379.253	88.5
379.478	84.5
379.704	91.5
379.929	91.5
380.155	102.5
380.38	99.5
380.606	104.5
380.831	96.5
381.057	112.5
381.282	97.5
381.507	99.5
381.733	88.5
381.958	94.5
382.184	98.5
382.409	91.5
382.634	97.5
382.86	83.5
383.085	89.5
383.31	100.5
383.535	107.5
383.761	117.5
383.986	86.5
384.211	92.5
384.436	87.5
384.662	92.5
384.887	96.5
385.112	96.5
385.337	102.5
385.562	112.5
385.787	114.5
386.013	106.5
386.238	94.5
386.463	107.5
386.688	111.5
386.913	103.5
387.138	107.5
387.363	97.5
387.588	101.5
387.813	97.5
388.038	105.5
388.263	106.5
388.488	112.5
388.713	94.5
388.938	103.5
389.163	94.5
389.387	92.5
389.612	81.5
389.837	87.5
390.062	74.5
390.287	77.5
390.512	94.5
390.736	87.5
390.961	88.5
391.186	82.5
391.411	104.5
391.636	91.5
391.86	87.5
392.085	90.5
392.31	79.5
392.534	87.5
392.759	91.5
392.984	70.5
393.208	86.5
393.433	86.5
393.658	86.5
393.882	87.5
394.107	86.5
394.331	91.5
394.556	92.5
394.78	79.5
395.005	84.5
395.229	87.5
395.454	97.5
395.678	78.5
395.903	88.5
396.127	83.5
396.352	90.5
396.576	81.5
396.801	81.5
397.025	104.5
397.249	88.5
397.474	82.5
397.698	80.5
397.922	88.5
398.147	94.5
398.371	80.5
398.595	88.5
398.82	82.5
399.044	88.5
399.268	85.5
399.492	89.5
399.717	86.5
399.941	79.5
400.165	94.5
400.389	79.5
400.613	83.5
400.837	87.5
401.062	98.5
401.286	83.5
401.51	103.5
401.734	81.5
401.958	91.5
402.182	118.5
402.406	129.5
402.63	116.5
402.854	98.5
403.078	94.5
403.302	89.5
403.526	89.5
403.75	86.5
403.974	82.5
404.198	73.5
404.422	84.5
404.645	81.5
404.869	91.5
405.093	104.5
405.317	114.5
405.541	88.5
405.765	85.5
405.988	95.5
406.212	154.5
406.436	190.5
406.66	117.5
406.883	96.5
407.107	77.5
407.331	93.5
407.555	96.5
407.778	97.5
408.002	91.5
408.226	85.5
408.449	96.5
408.673	87.5
408.896	105.5
409.12	94.5
409.344	89.5
409.567	87.5
409.791	84.5
410.014	96.5
410.238	105.5
410.461	86.5
410.685	98.5
410.908	88.5
411.132	98.5
411.355	102.5
411.578	83.5
411.802	80.5
412.025	79.5
412.249	96.5
412.472	92.5
412.695	106.5
412.919	94.5
413.142	98.5
413.365	92.5
413.589	84.5
413.812	99.5
414.035	82.5
414.258	96.5
414.482	88.5
414.705	78.5
414.928	90.5
415.151	78.5
415.374	92.5
415.597	81.5
415.821	86.5
416.044	82.5
416.267	83.5
416.49	76.5
416.713	78.5
416.936	85.5
417.159	81.5
417.382	80.5
417.605	94.5
417.828	110.5
418.051	95.5
418.274	92.5
418.497	87.5
418.72	82.5
418.943	82.5
419.166	80.5
419.389	88.5
419.611	96.5
419.834	86.5
420.057	84.5
420.28	78.5
420.503	74.5
420.726	86.5
420.948	82.5
421.171	95.5
421.394	82.5
421.617	87.5
421.839	87.5
422.062	92.5
422.285	82.5
422.507	101.5
422.73	88.5
422.953	86.5
423.175	80.5
423.398	96.5
423.621	93.5
423.843	95.5
424.066	87.5
424.288	85.5
424.511	81.5
424.733	91.5
424.956	89.5
425.178	89.5
425.401	95.5
425.623	88.5
425.846	94.5
426.068	106.5
426.291	83.5
426.513	107.5
426.735	87.5
426.958	84.5
427.18	100.5
427.402	123.5
427.625	145.5
427.847	123.5
428.069	112.5
428.292	90.5
428.514	78.5
428.736	87.5
428.958	82.5
429.181	82.5
429.403	76.5
429.625	97.5
429.847	92.5
430.069	100.5
430.292	102.5
430.514	100.5
430.736	75.5
430.958	87.5
431.18	81.5
431.402	92.5
431.624	90.5
431.846	92.5
432.068	92.5
432.29	87.5
432.512	84.5
432.734	67.5
432.956	94.5
433.178	106.5
433.4	95.5
433.622	92.5
433.844	95.5
434.066	87.5
434.287	90.5
434.509	96.5
434.731	85.5
434.953	96.5
435.175	76.5
435.397	88.5
435.618	98.5
435.84	86.5
436.062	110.5
436.284	108.5
436.505	96.5
436.727	96.5
436.949	96.5
437.17	90.5
437.392	96.5
437.614	81.5
437.835	92.5
438.057	107.5
438.278	96.5
438.5	99.5
438.721	96.5
438.943	94.5
439.165	99.5
439.386	87.5
439.608	102.5
439.829	101.5
440.05	126.5
440.272	105.5
440.493	90.5
440.715	100.5
440.936	90.5
441.158	84.5
441.379	104.5
441.6	92.5
441.822	95.5
442.043	91.5
442.264	89.5
442.486	73.5
442.707	85.5
442.928	96.5
443.149	127.5
443.371	116.5
443.592	97.5
443.813	101.5
444.034	106.5
444.255	94.5
444.476	89.5
444.698	86.5
444.919	91.5
445.14	139.5
445.361	113.5
445.582	99.5
445.803	120.5
446.024	125.5
446.245	120.5
446.466	91.5
446.687	85.5
446.908	97.5
447.129	88.5
447.35	76.5
447.571	89.5
447.792	78.5
448.013	104.5
448.234	104.5
448.455	88.5
448.675	109.5
448.896	110.5
449.117	94.5
449.338	106.5
449.559	119.5
449.779	130.5
450	99.5
450.221	73.5
450.442	93.5
450.662	88.5
450.883	102.5
451.104	93.5
451.324	86.5
451.545	83.5
451.766	90.5
451.986	83.5
452.207	87.5
452.428	82.5
452.648	111.5
452.869	102.5
453.089	99.5
453.31	92.5
453.53	77.5
453.751	90.5
453.971	89.5
454.192	91.5
454.412	76.5
454.633	80.5
454.853	88.5
455.073	99.5
455.294	92.5
455.514	93.5
455.734	77.5
455.955	89.5
456.175	85.5
456.395	92.5
456.616	64.5
456.836	88.5
457.056	88.5
457.276	80.5
457.497	79.5
457.717	99.5
457.937	91.5
458.157	93.5
458.377	96.5
458.598	99.5
458.818	151.5
459.038	128.5
459.258	111.5
459.478	84.5
459.698	90.5
459.918	89.5
460.138	67.5
460.358	89.5
460.578	91.5
460.798	86.5
461.018	94.5
461.238	84.5
461.458	88.5
461.678	82.5
461.898	79.5
462.118	96.5
462.338	85.5
462.558	92.5
462.777	71.5
462.997	89.5
463.217	88.5
463.437	90.5
463.657	85.5
463.876	83.5
464.096	89.5
464.316	87.5
464.536	81.5
464.755	94.5
464.975	104.5
465.195	126.5
465.414	134.5
465.634	107.5
465.854	93.5
466.073	74.5
466.293	95.5
466.512	82.5
466.732	91.5
466.951	76.5
467.171	99.5
467.391	104.5
467.61	99.5
467.829	100.5
468.049	95.5
468.268	112.5
468.488	84.5
468.707	98.5
468.927	85.5
469.146	78.5
469.365	78.5
469.585	83.5
469.804	98.5
470.023	96.5
470.243	96.5
470.462	88.5
470.681	115.5
470.901	80.5
471.12	88.5
471.339	78.5
471.558	86.5
471.777	84.5
471.997	89.5
472.216	132.5
472.435	174.5
472.654	96.5
472.873	91.5
473.092	84.5
473.311	64.5
473.53	91.5
473.749	89.5
473.968	104.5
474.187	88.5
474.406	88.5
474.625	94.5
474.844	96.5
475.063	79.5
475.282	97.5
475.501	72.5
475.72	87.5
475.939	87.5
476.158	87.5
476.377	80.5
476.596	101.5
476.814	90.5
477.033	97.5
477.252	84.5
477.471	95.5
477.69	92.5
477.908	89.5
478.127	87.5
478.346	86.5
478.564	84.5
478.783	95.5
479.002	82.5
479.22	91.5
479.439	88.5
479.658	92.5
479.876	88.5
480.095	103.5
480.313	104.5
480.532	97.5
480.751	117.5
480.969	120.5
481.188	244.5
481.406	196.5
481.624	111.5
481.843	84.5
482.061	91.5
482.28	86.5
482.498	71.5
482.717	66.5
482.935	87.5
483.153	94.5
483.372	81.5
483.59	83.5
483.808	90.5
484.027	88.5
484.245	83.5
484.463	80.5
484.681	98.5
484.9	98.5
485.118	95.5
485.336	97.5
485.554	94.5
485.772	100.5
485.99	101.5
486.209	106.5
486.427	80.5
486.645	109.5
486.863	107.5
487.081	104.5
487.299	96.5
487.517	92.5
487.735	91.5
487.953	87.5
488.171	104.5
488.389	83.5
488.607	88.5
488.825	86.5
489.043	75.5
489.261	92.5
489.479	90.5
489.696	88.5
489.914	87.5
490.132	99.5
490.35	105.5
490.568	86.5
490.786	92.5
491.003	84.5
491.221	100.5
491.439	99.5
491.657	97.5
491.874	86.5
492.092	74.5
492.31	81.5
492.527	86.5
492.745	76.5
492.963	83.5
493.18	100.5
493.398	103.5
493.615	93.5
493.833	97.5
494.05	84.5
494.268	84.5
494.485	90.5
494.703	86.5
494.92	94.5
495.138	96.5
495.355	102.5
495.573	95.5
495.79	86.5
496.008	83.5
496.225	90.5
496.442	82.5
496.66	85.5
496.877	87.5
497.094	91.5
497.312	96.5
497.529	98.5
497.746	98.5
497.963	103.5
498.181	81.5
498.398	99.5
498.615	95.5
498.832	91.5
499.049	84.5
499.267	95.5
499.484	103.5
499.701	74.5
499.918	98.5
500.135	100.5
500.352	97.5
500.569	99.5
500.786	96.5
501.003	85.5
501.22	86.5
501.437	102.5
501.654	83.5
501.871	86.5
502.088	86.5
502.305	102.5
502.522	81.5
502.739	100.5
502.956	97.5
503.172	91.5
503.389	111.5
503.606	102.5
503.823	84.5
504.04	92.5
504.256	81.5
504.473	89.5
504.69	78.5
504.907	91.5
505.123	96.5
505.34	90.5
505.557	82.5
505.773	88.5
505.99	74.5
506.207	89.5
506.423	80.5
506.64	79.5
506.856	93.5
507.073	76.5
507.289	80.5
507.506	83.5
507.722	110.5
507.939	96.5
508.155	89.5
508.372	104.5
508.588	96.5
508.805	111.5
509.021	101.5
509.238	100.5
509.454	100.5
509.67	86.5
509.887	112.5
510.103	130.5
510.319	187.5
510.536	601.5
510.752	1764.5
510.968	526.5
511.184	137.5
511.401	118.5
511.617	99.5
511.833	94.5
512.049	104.5
512.265	94.5
512.481	82.5
512.698	82.5
512.914	96.5
513.13	90.5
513.346	90.5
513.562	93.5
513.778	97.5
513.994	86.5
514.21	91.5
514.426	106.5
514.642	108.5
514.858	96.5
515.074	138.5
515.29	363.5
515.506	1058.5
515.721	402.5
515.937	133.5
516.153	99.5
516.369	96.5
516.585	92.5
516.801	92.5
517.016	82.5
517.232	98.5
517.448	89.5
517.664	92.5
517.879	90.5
518.095	82.5
518.311	93.5
518.527	91.5
518.742	91.5
518.958	85.5
519.173	100.5
519.389	96.5
519.605	88.5
519.82	94.5
520.036	99.5
520.251	106.5
520.467	110.5
520.682	102.5
520.898	107.5
521.113	111.5
521.329	126.5
521.544	162.5
521.76	437.5
521.975	1694.5
522.19	1062.5
522.406	247.5
522.621	128.5
522.836	100.5
523.052	104.5
523.267	100.5
523.482	94.5
523.698	85.5
523.913	115.5
524.128	95.5
524.343	97.5
524.559	100.5
524.774	95.5
524.989	87.5
525.204	98.5
525.419	94.5
525.634	75.5
525.849	70.5
526.064	84.5
526.28	83.5
526.495	83.5
526.71	94.5
526.925	83.5
527.14	86.5
527.355	87.5
527.57	80.5
527.785	88.5
527.999	84.5
528.214	82.5
528.429	95.5
528.644	85.5
528.859	96.5
529.074	93.5
529.289	107.5
529.503	145.5
529.718	96.5
529.933	91.5
530.148	87.5
530.363	94.5
530.577	88.5
530.792	85.5
531.007	93.5
531.221	100.5
531.436	87.5
531.651	89.5
531.865	83.5
532.08	87.5
532.295	98.5
532.509	92.5
532.724	89.5
532.938	100.5
533.153	96.5
533.367	84.5
533.582	70.5
533.796	106.5
534.011	94.5
534.225	102.5
534.44	107.5
534.654	102.5
534.868	88.5
535.083	77.5
535.297	83.5
535.511	87.5
535.726	78.5
535.94	102.5
536.154	86.5
