Data from Circ_2002_H10_HRD10591_00008.txt Node
Date: Wed Jan 03 10:40:59 EST 2024
User: Yrep
Spectrometer: HR+D1059
Trigger mode: 1
Integration Time (sec): 1.000000E-1
Scans to average: 1
Electric dark correction enabled: true
Nonlinearity correction enabled: false
Boxcar width: 0
XAxis mode: Wavelengths
Number of Pixels in Spectrum: 2048
>>>>>Begin Spectral Data<<<<<
223.165	-15.06
223.4	-15.06
223.635	-15.06
223.869	-33.06
224.104	-17.06
224.338	-14.06
224.573	-12.06
224.808	-15.06
225.042	-12.06
225.277	-14.06
225.511	10.94
225.746	4.94
225.98	12.94
226.215	11.94
226.449	15.94
226.683	22.94
226.918	23.94
227.152	28.94
227.387	31.94
227.621	41.94
227.856	55.94
228.09	47.94
228.324	59.94
228.559	64.94
228.793	148.94
229.027	418.94
229.262	435.94
229.496	530.94
229.73	674.94
229.964	674.94
230.199	451.94
230.433	412.94
230.667	414.94
230.901	405.94
231.136	402.94
231.37	413.94
231.604	404.94
231.838	418.94
232.072	397.94
232.306	412.94
232.541	449.94
232.775	430.94
233.009	428.94
233.243	437.94
233.477	456.94
233.711	449.94
233.945	462.94
234.179	474.94
234.413	468.94
234.647	464.94
234.881	478.94
235.115	448.94
235.349	499.94
235.583	512.94
235.817	534.94
236.051	555.94
236.285	556.94
236.519	574.94
236.753	618.94
236.987	781.94
237.221	1173.94
237.455	1285.94
237.689	785.94
237.922	643.94
238.156	654.94
238.39	632.94
238.624	565.94
238.858	613.94
239.091	589.94
239.325	588.94
239.559	607.94
239.793	627.94
240.027	692.94
240.26	811.94
240.494	844.94
240.728	828.94
240.961	804.94
241.195	727.94
241.429	731.94
241.662	708.94
241.896	690.94
242.13	709.94
242.363	732.94
242.597	719.94
242.83	756.94
243.064	752.94
243.298	760.94
243.531	731.94
243.765	751.94
243.998	757.94
244.232	770.94
244.465	792.94
244.699	819.94
244.932	820.94
245.166	827.94
245.399	827.94
245.633	845.94
245.866	833.94
246.099	829.94
246.333	876.94
246.566	844.94
246.8	877.94
247.033	927.94
247.266	939.94
247.5	1004.94
247.733	1019.94
247.966	1032.94
248.2	1020.94
248.433	1054.94
248.666	1108.94
248.899	1178.94
249.133	1276.94
249.366	1231.94
249.599	1146.94
249.832	1074.94
250.066	1098.94
250.299	1132.94
250.532	1205.94
250.765	1332.94
250.998	1503.94
251.231	1425.94
251.465	1347.94
251.698	1268.94
251.931	1268.94
252.164	1247.94
252.397	1281.94
252.63	1290.94
252.863	1383.94
253.096	1472.94
253.329	1533.94
253.562	1473.94
253.795	1413.94
254.028	1420.94
254.261	1466.94
254.494	1573.94
254.727	1854.94
254.96	1896.94
255.193	1715.94
255.426	1589.94
255.659	1443.94
255.892	1403.94
256.124	1389.94
256.357	1383.94
256.59	1354.94
256.823	1370.94
257.056	1349.94
257.289	1393.94
257.521	1420.94
257.754	1376.94
257.987	1397.94
258.22	1429.94
258.452	1390.94
258.685	1381.94
258.918	1412.94
259.151	1459.94
259.383	1515.94
259.616	1541.94
259.849	1568.94
260.081	1690.94
260.314	1831.94
260.547	1798.94
260.779	1675.94
261.012	1625.94
261.244	1542.94
261.477	1539.94
261.71	1538.94
261.942	1562.94
262.175	1602.94
262.407	1536.94
262.64	1506.94
262.872	1520.94
263.105	1538.94
263.337	1493.94
263.57	1556.94
263.802	1542.94
264.035	1563.94
264.267	1488.94
264.499	1551.94
264.732	1568.94
264.964	1547.94
265.197	1576.94
265.429	1603.94
265.661	1566.94
265.894	1597.94
266.126	1583.94
266.358	1599.94
266.591	1630.94
266.823	1741.94
267.055	1722.94
267.287	1718.94
267.52	1687.94
267.752	1729.94
267.984	1729.94
268.216	1739.94
268.448	1803.94
268.681	1858.94
268.913	1950.94
269.145	2115.94
269.377	2132.94
269.609	2077.94
269.841	2039.94
270.073	2137.94
270.306	2326.94
270.538	2464.94
270.77	2376.94
271.002	2236.94
271.234	2155.94
271.466	2330.94
271.698	2417.94
271.93	2413.94
272.162	2451.94
272.394	2420.94
272.626	2249.94
272.858	2150.94
273.09	2130.94
273.322	2054.94
273.553	2078.94
273.785	2128.94
274.017	2082.94
274.249	2072.94
274.481	2096.94
274.713	2101.94
274.945	2086.94
275.176	2087.94
275.408	2077.94
275.64	2128.94
275.872	2057.94
276.104	2133.94
276.335	2083.94
276.567	2198.94
276.799	2312.94
277.031	2527.94
277.262	2536.94
277.494	2547.94
277.726	2332.94
277.957	2318.94
278.189	2244.94
278.421	2228.94
278.652	2238.94
278.884	2238.94
279.115	2233.94
279.347	2212.94
279.579	2217.94
279.81	2215.94
280.042	2239.94
280.273	2228.94
280.505	2261.94
280.736	2274.94
280.968	2259.94
281.199	2276.94
281.431	2334.94
281.662	2239.94
281.894	2302.94
282.125	2362.94
282.356	2511.94
282.588	2554.94
282.819	2448.94
283.051	2380.94
283.282	2347.94
283.513	2445.94
283.745	2454.94
283.976	2488.94
284.207	2470.94
284.439	2482.94
284.67	2522.94
284.901	2462.94
285.132	2480.94
285.364	2486.94
285.595	2491.94
285.826	2499.94
286.057	2488.94
286.288	2486.94
286.52	2566.94
286.751	2555.94
286.982	2548.94
287.213	2554.94
287.444	2562.94
287.675	2591.94
287.906	2700.94
288.138	2723.94
288.369	2745.94
288.6	2726.94
288.831	2733.94
289.062	2664.94
289.293	2649.94
289.524	2581.94
289.755	2645.94
289.986	2679.94
290.217	2666.94
290.448	2638.94
290.679	2693.94
290.91	2631.94
291.141	2661.94
291.371	2638.94
291.602	2657.94
291.833	2640.94
292.064	2722.94
292.295	2661.94
292.526	2698.94
292.757	2609.94
292.987	2676.94
293.218	2620.94
293.449	2678.94
293.68	2700.94
293.91	2755.94
294.141	2707.94
294.372	2662.94
294.603	2716.94
294.833	2708.94
295.064	2733.94
295.295	2779.94
295.525	2669.94
295.756	2770.94
295.987	2868.94
296.217	2982.94
296.448	2911.94
296.679	2801.94
296.909	2827.94
297.14	2823.94
297.37	2840.94
297.601	2868.94
297.831	2913.94
298.062	2855.94
298.292	2896.94
298.523	2990.94
298.753	2958.94
298.984	2881.94
299.214	2939.94
299.445	2949.94
299.675	2899.94
299.905	3042.94
300.136	2990.94
300.366	2985.94
300.597	2985.94
300.827	3083.94
301.057	3177.94
301.288	3221.94
301.518	3162.94
301.748	3169.94
301.979	3255.94
302.209	3198.94
302.439	3244.94
302.669	3170.94
302.9	3126.94
303.13	3075.94
303.36	3168.94
303.59	3175.94
303.82	3174.94
304.051	3146.94
304.281	3148.94
304.511	3083.94
304.741	3080.94
304.971	3112.94
305.201	3048.94
305.431	3101.94
305.661	3106.94
305.891	3143.94
306.121	3126.94
306.352	3128.94
306.582	3123.94
306.812	3046.94
307.042	3086.94
307.272	3142.94
307.502	3155.94
307.731	3134.94
307.961	3082.94
308.191	3063.94
308.421	3079.94
308.651	3147.94
308.881	3109.94
309.111	3188.94
309.341	3185.94
309.571	3243.94
309.8	3243.94
310.03	3298.94
310.26	3287.94
310.49	3351.94
310.72	3374.94
310.949	3477.94
311.179	3475.94
311.409	3401.94
311.639	3381.94
311.868	3395.94
312.098	3400.94
312.328	3498.94
312.557	3580.94
312.787	3677.94
313.017	3556.94
313.246	3554.94
313.476	3476.94
313.706	3557.94
313.935	3583.94
314.165	3684.94
314.394	3676.94
314.624	3637.94
314.853	3582.94
315.083	3587.94
315.312	3538.94
315.542	3514.94
315.771	3487.94
316.001	3445.94
316.23	3532.94
316.46	3479.94
316.689	3515.94
316.919	3539.94
317.148	3620.94
317.377	3522.94
317.607	3498.94
317.836	3453.94
318.065	3472.94
318.295	3468.94
318.524	3470.94
318.753	3462.94
318.983	3491.94
319.212	3458.94
319.441	3474.94
319.67	3539.94
319.9	3490.94
320.129	3474.94
320.358	3522.94
320.587	3522.94
320.816	3586.94
321.046	3591.94
321.275	3570.94
321.504	3612.94
321.733	3678.94
321.962	3669.94
322.191	3758.94
322.42	3792.94
322.649	3843.94
322.878	3899.94
323.108	3963.94
323.337	4163.94
323.566	4226.94
323.795	4466.94
324.024	4839.94
324.253	6174.94
324.482	8948.94
324.71	13464.94
324.939	15111.94
325.168	9860.94
325.397	5635.94
325.626	4714.94
325.855	4465.94
326.084	4386.94
326.313	4395.94
326.542	4454.94
326.77	4883.94
326.999	6015.94
327.228	8392.94
327.457	12192.94
327.686	11247.94
327.914	6244.94
328.143	5110.94
328.372	4807.94
328.6	4681.94
328.829	4686.94
329.058	4769.94
329.287	4753.94
329.515	4496.94
329.744	4369.94
329.972	4400.94
330.201	4454.94
330.43	4565.94
330.658	4854.94
330.887	5027.94
331.115	4816.94
331.344	4551.94
331.572	4529.94
331.801	4620.94
332.03	4639.94
332.258	4670.94
332.486	4716.94
332.715	4769.94
332.943	4931.94
333.172	4968.94
333.4	5190.94
333.629	5282.94
333.857	5339.94
334.085	5295.94
334.314	5136.94
334.542	5160.94
334.771	5158.94
334.999	4994.94
335.227	4892.94
335.455	4865.94
335.684	4734.94
335.912	4739.94
336.14	4721.94
336.369	4717.94
336.597	4714.94
336.825	4691.94
337.053	4638.94
337.281	4552.94
337.51	4475.94
337.738	4487.94
337.966	4459.94
338.194	4406.94
338.422	4362.94
338.65	4305.94
338.878	4307.94
339.106	4295.94
339.334	4301.94
339.562	4226.94
339.79	4169.94
340.018	4158.94
340.246	4124.94
340.474	4168.94
340.702	4236.94
340.93	4167.94
341.158	4199.94
341.386	4160.94
341.614	4151.94
341.842	4112.94
342.07	4080.94
342.298	4088.94
342.526	4092.94
342.754	4139.94
342.981	4144.94
343.209	4232.94
343.437	4538.94
343.665	4726.94
343.893	4975.94
344.12	5041.94
344.348	4713.94
344.576	4548.94
344.804	4482.94
345.031	4303.94
345.259	4302.94
345.487	4242.94
345.714	4084.94
345.942	4047.94
346.17	3980.94
346.397	3981.94
346.625	3899.94
346.853	3920.94
347.08	3937.94
347.308	4027.94
347.535	3997.94
347.763	4059.94
347.99	4039.94
348.218	3997.94
348.445	4084.94
348.673	3966.94
348.9	3966.94
349.128	3842.94
349.355	3851.94
349.583	3852.94
349.81	3845.94
350.037	3864.94
350.265	3790.94
350.492	3810.94
350.72	3822.94
350.947	3842.94
351.174	3939.94
351.402	3979.94
351.629	3908.94
351.856	3921.94
352.083	3949.94
352.311	4015.94
352.538	3934.94
352.765	3950.94
352.992	3884.94
353.22	3855.94
353.447	3818.94
353.674	3868.94
353.901	3739.94
354.128	3765.94
354.355	3760.94
354.583	3817.94
354.81	3787.94
355.037	3844.94
355.264	3782.94
355.491	3753.94
355.718	3765.94
355.945	3785.94
356.172	3821.94
356.399	3824.94
356.626	3748.94
356.853	3748.94
357.08	3754.94
357.307	3763.94
357.534	3795.94
357.761	3852.94
357.988	3759.94
358.215	3797.94
358.441	3840.94
358.668	3882.94
358.895	3858.94
359.122	3893.94
359.349	3920.94
359.576	4002.94
359.802	4167.94
360.029	4231.94
360.256	4210.94
360.483	4067.94
360.709	3998.94
360.936	3956.94
361.163	3977.94
361.39	3962.94
361.616	3982.94
361.843	3934.94
362.07	3986.94
362.296	3959.94
362.523	3872.94
362.749	3981.94
362.976	3979.94
363.203	3809.94
363.429	3854.94
363.656	3887.94
363.882	3836.94
364.109	3836.94
364.335	3844.94
364.562	3868.94
364.788	3856.94
365.015	3847.94
365.241	3827.94
365.468	3887.94
365.694	3856.94
365.92	3899.94
366.147	3831.94
366.373	3831.94
366.599	3792.94
366.826	3840.94
367.052	3800.94
367.278	3871.94
367.505	3854.94
367.731	3857.94
367.957	3866.94
368.184	3922.94
368.41	3930.94
368.636	4013.94
368.862	4006.94
369.089	3992.94
369.315	3987.94
369.541	3907.94
369.767	4001.94
369.993	3959.94
370.219	4017.94
370.445	4039.94
370.672	4071.94
370.898	3985.94
371.124	4083.94
371.35	4187.94
371.576	4133.94
371.802	4173.94
372.028	4076.94
372.254	4135.94
372.48	4254.94
372.706	4298.94
372.932	4312.94
373.158	4298.94
373.384	4185.94
373.61	4238.94
373.835	4160.94
374.061	4150.94
374.287	4270.94
374.513	4284.94
374.739	4490.94
374.965	4615.94
375.191	4577.94
375.416	4529.94
375.642	4328.94
375.868	4328.94
376.094	4216.94
376.319	4263.94
376.545	4220.94
376.771	4186.94
376.997	4211.94
377.222	4200.94
377.448	4118.94
377.674	4167.94
377.899	4170.94
378.125	4151.94
378.35	4111.94
378.576	4037.94
378.802	4047.94
379.027	4142.94
379.253	4169.94
379.478	4080.94
379.704	4134.94
379.929	4082.94
380.155	4121.94
380.38	4138.94
380.606	4147.94
380.831	4097.94
381.057	4221.94
381.282	4189.94
381.507	4216.94
381.733	4262.94
381.958	4280.94
382.184	4366.94
382.409	4376.94
382.634	4390.94
382.86	4410.94
383.085	4515.94
383.31	4488.94
383.535	4621.94
383.761	4676.94
383.986	4732.94
384.211	4794.94
384.436	4949.94
384.662	4957.94
384.887	5037.94
385.112	5022.94
385.337	5110.94
385.562	5103.94
385.787	5192.94
386.013	5126.94
386.238	5233.94
386.463	5113.94
386.688	5191.94
386.913	4999.94
387.138	5100.94
387.363	4994.94
387.588	4965.94
387.813	5045.94
388.038	5019.94
388.263	5058.94
388.488	5071.94
388.713	4922.94
388.938	4976.94
389.163	4931.94
389.387	4975.94
389.612	4936.94
389.837	4939.94
390.062	4939.94
390.287	4993.94
390.512	4913.94
390.736	5002.94
390.961	5087.94
391.186	5194.94
391.411	5298.94
391.636	5443.94
391.86	5629.94
392.085	5588.94
392.31	5505.94
392.534	5391.94
392.759	5297.94
392.984	5235.94
393.208	5216.94
393.433	5261.94
393.658	5150.94
393.882	5199.94
394.107	5252.94
394.331	5252.94
394.556	5247.94
394.78	5367.94
395.005	5334.94
395.229	5338.94
395.454	5592.94
395.678	5658.94
395.903	5610.94
396.127	5560.94
396.352	5416.94
396.576	5290.94
396.801	5359.94
397.025	5390.94
397.249	5492.94
397.474	5586.94
397.698	5671.94
397.922	5738.94
398.147	5794.94
398.371	5969.94
398.595	6053.94
398.82	6357.94
399.044	6943.94
399.268	7758.94
399.492	8736.94
399.717	9300.94
399.941	9024.94
400.165	8303.94
400.389	7799.94
400.613	7019.94
400.837	6654.94
401.062	6460.94
401.286	6346.94
401.51	6339.94
401.734	6187.94
401.958	6464.94
402.182	6509.94
402.406	6590.94
402.63	6679.94
402.854	6794.94
403.078	6891.94
403.302	6978.94
403.526	7149.94
403.75	7185.94
403.974	7192.94
404.198	7278.94
404.422	7234.94
404.645	7190.94
404.869	7090.94
405.093	7186.94
405.317	7194.94
405.541	7255.94
405.765	6994.94
405.988	6982.94
406.212	7087.94
406.436	7245.94
406.66	7372.94
406.883	7448.94
407.107	8021.94
407.331	8495.94
407.555	8982.94
407.778	8627.94
408.002	7966.94
408.226	7633.94
408.449	7451.94
408.673	7294.94
408.896	7446.94
409.12	7637.94
409.344	7266.94
409.567	6951.94
409.791	6878.94
410.014	6794.94
410.238	6746.94
410.461	6842.94
410.685	6802.94
410.908	6862.94
411.132	6934.94
411.355	6928.94
411.578	6730.94
411.802	6519.94
412.025	6466.94
412.249	6570.94
412.472	6545.94
412.695	6459.94
412.919	6304.94
413.142	6215.94
413.365	6163.94
413.589	6290.94
413.812	6099.94
414.035	6100.94
414.258	6164.94
414.482	6141.94
414.705	6252.94
414.928	6183.94
415.151	6199.94
415.374	6223.94
415.597	6179.94
415.821	6045.94
416.044	6001.94
416.267	6028.94
416.49	5992.94
416.713	5995.94
416.936	5998.94
417.159	6093.94
417.382	6082.94
417.605	6091.94
417.828	6221.94
418.051	6368.94
418.274	6284.94
418.497	6154.94
418.72	6339.94
418.943	6246.94
419.166	6640.94
419.389	7006.94
419.611	6874.94
419.834	6598.94
420.057	6501.94
420.28	6318.94
420.503	6156.94
420.726	6223.94
420.948	6366.94
421.171	6633.94
421.394	6704.94
421.617	6286.94
421.839	6301.94
422.062	6385.94
422.285	6451.94
422.507	7074.94
422.73	7422.94
422.953	7008.94
423.175	6743.94
423.398	6750.94
423.621	6681.94
423.843	6869.94
424.066	6942.94
424.288	6805.94
424.511	6998.94
424.733	7364.94
424.956	7635.94
425.178	7292.94
425.401	7362.94
425.623	7344.94
425.846	6528.94
426.068	6302.94
426.291	6262.94
426.513	6202.94
426.735	6384.94
426.958	6760.94
427.18	7390.94
427.402	8300.94
427.625	8272.94
427.847	7005.94
428.069	6337.94
428.292	6039.94
428.514	5720.94
428.736	5735.94
428.958	5667.94
429.181	5494.94
429.403	5599.94
429.625	5705.94
429.847	6020.94
430.069	6460.94
430.292	5990.94
430.514	5564.94
430.736	5576.94
430.958	5582.94
431.18	5440.94
431.402	5467.94
431.624	5359.94
431.846	5482.94
432.068	5532.94
432.29	5607.94
432.512	5485.94
432.734	5661.94
432.956	5493.94
433.178	5568.94
433.4	5601.94
433.622	5525.94
433.844	5587.94
434.066	5523.94
434.287	5630.94
434.509	5934.94
434.731	6080.94
434.953	6264.94
435.175	6355.94
435.397	6401.94
435.618	6276.94
435.84	6591.94
436.062	7261.94
436.284	7232.94
436.505	6184.94
436.727	5919.94
436.949	5713.94
437.17	5610.94
437.392	5534.94
437.614	5679.94
437.835	5901.94
438.057	6781.94
438.278	7269.94
438.5	7296.94
438.721	7939.94
438.943	7039.94
439.165	6031.94
439.386	5961.94
439.608	5876.94
439.829	5994.94
440.05	6207.94
440.272	6443.94
440.493	6082.94
440.715	5875.94
440.936	5810.94
441.158	5904.94
441.379	5976.94
441.6	6323.94
441.822	6467.94
442.043	6812.94
442.264	7527.94
442.486	7271.94
442.707	6492.94
442.928	6360.94
443.149	6544.94
443.371	6709.94
443.592	7200.94
443.813	8134.94
444.034	8051.94
444.255	7131.94
444.476	7069.94
444.698	7337.94
444.919	7349.94
445.14	7037.94
445.361	6838.94
445.582	6935.94
445.803	7358.94
446.024	7864.94
446.245	7518.94
446.466	6878.94
446.687	6084.94
446.908	5797.94
447.129	5515.94
447.35	5458.94
447.571	5377.94
447.792	5326.94
448.013	5346.94
448.234	5472.94
448.455	6046.94
448.675	7106.94
448.896	7436.94
449.117	6260.94
449.338	6433.94
449.559	7568.94
449.779	7718.94
450	5989.94
450.221	5424.94
450.442	5236.94
450.662	5185.94
450.883	5221.94
451.104	5287.94
451.324	5171.94
451.545	5067.94
451.766	4928.94
451.986	4850.94
452.207	4846.94
452.428	4779.94
452.648	4790.94
452.869	4804.94
453.089	4896.94
453.31	4990.94
453.53	4824.94
453.751	4798.94
453.971	4772.94
454.192	4882.94
454.412	4719.94
454.633	4662.94
454.853	4704.94
455.073	4704.94
455.294	5016.94
455.514	5410.94
455.734	5069.94
455.955	4573.94
456.175	4548.94
456.395	4511.94
456.616	4446.94
456.836	4444.94
457.056	4468.94
457.276	4315.94
457.497	4551.94
457.717	4484.94
457.937	4542.94
458.157	4636.94
458.377	4727.94
458.598	5031.94
458.818	5562.94
459.038	6085.94
459.258	6195.94
459.478	5604.94
459.698	5548.94
459.918	5708.94
460.138	5874.94
460.358	6142.94
460.578	6090.94
460.798	6176.94
461.018	6193.94
461.238	6038.94
461.458	5996.94
461.678	5983.94
461.898	6103.94
462.118	6149.94
462.338	6509.94
462.558	6641.94
462.777	6904.94
462.997	7558.94
463.217	7874.94
463.437	7693.94
463.657	7187.94
463.876	6911.94
464.096	6952.94
464.316	7029.94
464.536	6975.94
464.755	6748.94
464.975	6605.94
465.195	6586.94
465.414	6523.94
465.634	5900.94
465.854	5644.94
466.073	5426.94
466.293	5219.94
466.512	5132.94
466.732	5024.94
466.951	5022.94
467.171	5044.94
467.391	5094.94
467.61	5064.94
467.829	5005.94
468.049	4952.94
468.268	4769.94
468.488	4782.94
468.707	4778.94
468.927	4813.94
469.146	4867.94
469.365	4884.94
469.585	4924.94
469.804	5060.94
470.023	5205.94
470.243	5184.94
470.462	5258.94
470.681	5344.94
470.901	5206.94
471.12	5150.94
471.339	5051.94
471.558	5083.94
471.777	4923.94
471.997	4843.94
472.216	4840.94
472.435	4862.94
472.654	4776.94
472.873	4738.94
473.092	4743.94
473.311	4830.94
473.53	4784.94
473.749	4842.94
473.968	5342.94
474.187	6038.94
474.406	5676.94
474.625	5043.94
474.844	4819.94
475.063	4711.94
475.282	4819.94
475.501	4832.94
475.72	4897.94
475.939	4959.94
476.158	4970.94
476.377	5037.94
476.596	5016.94
476.814	5129.94
477.033	5103.94
477.252	5234.94
477.471	5337.94
477.69	5458.94
477.908	5452.94
478.127	5704.94
478.346	5696.94
478.564	5868.94
478.783	5936.94
479.002	6150.94
479.22	5967.94
479.439	6145.94
479.658	6163.94
479.876	6278.94
480.095	6498.94
480.313	6829.94
480.532	6797.94
480.751	6609.94
480.969	6441.94
481.188	6323.94
481.406	5996.94
481.624	5872.94
481.843	5811.94
482.061	5662.94
482.28	5725.94
482.498	5675.94
482.717	5583.94
482.935	5612.94
483.153	5647.94
483.372	5540.94
483.59	5629.94
483.808	5619.94
484.027	5626.94
484.245	5683.94
484.463	5624.94
484.681	5801.94
484.9	5783.94
485.118	5844.94
485.336	5877.94
485.554	5921.94
485.772	6056.94
485.99	5999.94
486.209	6022.94
486.427	6008.94
486.645	6065.94
486.863	6150.94
487.081	6065.94
487.299	5976.94
487.517	5987.94
487.735	6001.94
487.953	5975.94
