Data from Circ_2002_H10_HRD10591_00093.txt Node
Date: Wed Jan 03 10:41:16 EST 2024
User: Yrep
Spectrometer: HR+D1059
Trigger mode: 1
Integration Time (sec): 1.000000E-1
Scans to average: 1
Electric dark correction enabled: true
Nonlinearity correction enabled: false
Boxcar width: 0
XAxis mode: Wavelengths
Number of Pixels in Spectrum: 2048
>>>>>Begin Spectral Data<<<<<
223.165	-12.12
223.4	-12.12
223.635	-12.12
223.869	-14.12
224.104	-15.12
224.338	-13.12
224.573	-9.12
224.808	-15.12
225.042	-8.12
225.277	-8.12
225.511	-8.12
225.746	3.88
225.98	11.88
226.215	4.88
226.449	14.88
226.683	19.88
226.918	14.88
227.152	32.88
227.387	33.88
227.621	53.88
227.856	39.88
228.09	36.88
228.324	50.88
228.559	68.88
228.793	52.88
229.027	83.88
229.262	69.88
229.496	67.88
229.73	76.88
229.964	79.88
230.199	63.88
230.433	74.88
230.667	75.88
230.901	87.88
231.136	76.88
231.37	70.88
231.604	71.88
231.838	68.88
232.072	65.88
232.306	67.88
232.541	79.88
232.775	87.88
233.009	77.88
233.243	69.88
233.477	72.88
233.711	78.88
233.945	78.88
234.179	83.88
234.413	79.88
234.647	76.88
234.881	87.88
235.115	75.88
235.349	88.88
235.583	70.88
235.817	65.88
236.051	67.88
236.285	79.88
236.519	75.88
236.753	77.88
236.987	77.88
237.221	80.88
237.455	90.88
237.689	58.88
237.922	74.88
238.156	72.88
238.39	73.88
238.624	80.88
238.858	82.88
239.091	82.88
239.325	75.88
239.559	79.88
239.793	77.88
240.027	75.88
240.26	68.88
240.494	78.88
240.728	60.88
240.961	68.88
241.195	67.88
241.429	59.88
241.662	70.88
241.896	64.88
242.13	78.88
242.363	75.88
242.597	79.88
242.83	72.88
243.064	73.88
243.298	71.88
243.531	68.88
243.765	71.88
243.998	85.88
244.232	63.88
244.465	93.88
244.699	78.88
244.932	85.88
245.166	79.88
245.399	76.88
245.633	78.88
245.866	74.88
246.099	86.88
246.333	87.88
246.566	85.88
246.8	74.88
247.033	75.88
247.266	71.88
247.5	76.88
247.733	83.88
247.966	68.88
248.2	69.88
248.433	95.88
248.666	84.88
248.899	66.88
249.133	75.88
249.366	96.88
249.599	79.88
249.832	78.88
250.066	69.88
250.299	78.88
250.532	68.88
250.765	70.88
250.998	84.88
251.231	66.88
251.465	83.88
251.698	76.88
251.931	78.88
252.164	80.88
252.397	84.88
252.63	80.88
252.863	78.88
253.096	75.88
253.329	75.88
253.562	81.88
253.795	82.88
254.028	76.88
254.261	70.88
254.494	87.88
254.727	83.88
254.96	72.88
255.193	78.88
255.426	86.88
255.659	73.88
255.892	68.88
256.124	82.88
256.357	85.88
256.59	76.88
256.823	80.88
257.056	82.88
257.289	87.88
257.521	78.88
257.754	69.88
257.987	84.88
258.22	90.88
258.452	83.88
258.685	93.88
258.918	80.88
259.151	86.88
259.383	70.88
259.616	64.88
259.849	79.88
260.081	89.88
260.314	75.88
260.547	75.88
260.779	66.88
261.012	82.88
261.244	77.88
261.477	82.88
261.71	88.88
261.942	94.88
262.175	106.88
262.407	87.88
262.64	93.88
262.872	97.88
263.105	85.88
263.337	80.88
263.57	72.88
263.802	87.88
264.035	74.88
264.267	75.88
264.499	66.88
264.732	85.88
264.964	92.88
265.197	86.88
265.429	83.88
265.661	88.88
265.894	75.88
266.126	81.88
266.358	92.88
266.591	97.88
266.823	86.88
267.055	74.88
267.287	81.88
267.52	64.88
267.752	92.88
267.984	86.88
268.216	88.88
268.448	84.88
268.681	77.88
268.913	76.88
269.145	99.88
269.377	68.88
269.609	83.88
269.841	90.88
270.073	73.88
270.306	78.88
270.538	90.88
270.77	85.88
271.002	65.88
271.234	90.88
271.466	83.88
271.698	84.88
271.93	94.88
272.162	78.88
272.394	79.88
272.626	94.88
272.858	81.88
273.09	95.88
273.322	92.88
273.553	78.88
273.785	84.88
274.017	76.88
274.249	87.88
274.481	86.88
274.713	95.88
274.945	83.88
275.176	90.88
275.408	87.88
275.64	84.88
275.872	83.88
276.104	98.88
276.335	99.88
276.567	87.88
276.799	97.88
277.031	92.88
277.262	94.88
277.494	87.88
277.726	84.88
277.957	59.88
278.189	87.88
278.421	80.88
278.652	93.88
278.884	76.88
279.115	100.88
279.347	84.88
279.579	66.88
279.81	96.88
280.042	89.88
280.273	82.88
280.505	83.88
280.736	83.88
280.968	83.88
281.199	84.88
281.431	83.88
281.662	74.88
281.894	98.88
282.125	91.88
282.356	94.88
282.588	140.88
282.819	110.88
283.051	85.88
283.282	80.88
283.513	84.88
283.745	74.88
283.976	78.88
284.207	85.88
284.439	83.88
284.67	100.88
284.901	82.88
285.132	86.88
285.364	83.88
285.595	84.88
285.826	91.88
286.057	95.88
286.288	96.88
286.52	89.88
286.751	86.88
286.982	73.88
287.213	94.88
287.444	88.88
287.675	91.88
287.906	86.88
288.138	87.88
288.369	75.88
288.6	94.88
288.831	82.88
289.062	110.88
289.293	90.88
289.524	86.88
289.755	89.88
289.986	82.88
290.217	92.88
290.448	85.88
290.679	89.88
290.91	95.88
291.141	86.88
291.371	89.88
291.602	81.88
291.833	96.88
292.064	84.88
292.295	97.88
292.526	97.88
292.757	92.88
292.987	76.88
293.218	94.88
293.449	77.88
293.68	73.88
293.91	85.88
294.141	95.88
294.372	91.88
294.603	88.88
294.833	91.88
295.064	83.88
295.295	97.88
295.525	99.88
295.756	85.88
295.987	122.88
296.217	137.88
296.448	122.88
296.679	92.88
296.909	82.88
297.14	91.88
297.37	89.88
297.601	91.88
297.831	84.88
298.062	82.88
298.292	92.88
298.523	105.88
298.753	77.88
298.984	86.88
299.214	68.88
299.445	80.88
299.675	98.88
299.905	99.88
300.136	96.88
300.366	91.88
300.597	89.88
300.827	99.88
301.057	104.88
301.288	94.88
301.518	93.88
301.748	83.88
301.979	90.88
302.209	97.88
302.439	88.88
302.669	87.88
302.9	88.88
303.13	95.88
303.36	71.88
303.59	99.88
303.82	104.88
304.051	104.88
304.281	88.88
304.511	96.88
304.741	91.88
304.971	91.88
305.201	82.88
305.431	90.88
305.661	80.88
305.891	94.88
306.121	96.88
306.352	95.88
306.582	97.88
306.812	95.88
307.042	95.88
307.272	90.88
307.502	88.88
307.731	93.88
307.961	88.88
308.191	90.88
308.421	72.88
308.651	96.88
308.881	96.88
309.111	110.88
309.341	82.88
309.571	79.88
309.8	100.88
310.03	88.88
310.26	84.88
310.49	101.88
310.72	93.88
310.949	94.88
311.179	94.88
311.409	87.88
311.639	95.88
311.868	82.88
312.098	99.88
312.328	88.88
312.557	94.88
312.787	96.88
313.017	95.88
313.246	89.88
313.476	75.88
313.706	88.88
313.935	85.88
314.165	92.88
314.394	107.88
314.624	96.88
314.853	97.88
315.083	84.88
315.312	94.88
315.542	93.88
315.771	88.88
316.001	73.88
316.23	78.88
316.46	76.88
316.689	83.88
316.919	82.88
317.148	93.88
317.377	86.88
317.607	92.88
317.836	94.88
318.065	98.88
318.295	89.88
318.524	87.88
318.753	88.88
318.983	95.88
319.212	103.88
319.441	104.88
319.67	103.88
319.9	87.88
320.129	100.88
320.358	100.88
320.587	98.88
320.816	91.88
321.046	103.88
321.275	108.88
321.504	97.88
321.733	100.88
321.962	86.88
322.191	93.88
322.42	105.88
322.649	111.88
322.878	107.88
323.108	112.88
323.337	116.88
323.566	111.88
323.795	130.88
324.024	179.88
324.253	355.88
324.482	741.88
324.71	1512.88
324.939	1932.88
325.168	728.88
325.397	205.88
325.626	142.88
325.855	125.88
326.084	102.88
326.313	114.88
326.542	155.88
326.77	223.88
326.999	414.88
327.228	868.88
327.457	1555.88
327.686	1234.88
327.914	332.88
328.143	200.88
328.372	162.88
328.6	121.88
328.829	112.88
329.058	130.88
329.287	125.88
329.515	114.88
329.744	118.88
329.972	112.88
330.201	157.88
330.43	166.88
330.658	131.88
330.887	131.88
331.115	99.88
331.344	112.88
331.572	97.88
331.801	104.88
332.03	105.88
332.258	103.88
332.486	95.88
332.715	102.88
332.943	103.88
333.172	96.88
333.4	102.88
333.629	105.88
333.857	119.88
334.085	121.88
334.314	158.88
334.542	187.88
334.771	162.88
334.999	110.88
335.227	93.88
335.455	108.88
335.684	89.88
335.912	101.88
336.14	102.88
336.369	95.88
336.597	97.88
336.825	82.88
337.053	92.88
337.281	89.88
337.51	90.88
337.738	98.88
337.966	97.88
338.194	101.88
338.422	103.88
338.65	95.88
338.878	86.88
339.106	84.88
339.334	87.88
339.562	86.88
339.79	86.88
340.018	95.88
340.246	106.88
340.474	96.88
340.702	106.88
340.93	94.88
341.158	106.88
341.386	87.88
341.614	93.88
341.842	91.88
342.07	92.88
342.298	95.88
342.526	84.88
342.754	102.88
342.981	91.88
343.209	101.88
343.437	87.88
343.665	89.88
343.893	102.88
344.12	85.88
344.348	84.88
344.576	105.88
344.804	92.88
345.031	98.88
345.259	94.88
345.487	78.88
345.714	91.88
345.942	91.88
346.17	98.88
346.397	82.88
346.625	76.88
346.853	79.88
347.08	89.88
347.308	92.88
347.535	100.88
347.763	96.88
347.99	94.88
348.218	98.88
348.445	100.88
348.673	104.88
348.9	91.88
349.128	94.88
349.355	77.88
349.583	97.88
349.81	95.88
350.037	98.88
350.265	89.88
350.492	94.88
350.72	91.88
350.947	91.88
351.174	106.88
351.402	100.88
351.629	98.88
351.856	104.88
352.083	100.88
352.311	99.88
352.538	99.88
352.765	113.88
352.992	122.88
353.22	105.88
353.447	100.88
353.674	87.88
353.901	94.88
354.128	93.88
354.355	92.88
354.583	108.88
354.81	98.88
355.037	97.88
355.264	97.88
355.491	102.88
355.718	89.88
355.945	102.88
356.172	96.88
356.399	80.88
356.626	96.88
356.853	87.88
357.08	99.88
357.307	99.88
357.534	89.88
357.761	85.88
357.988	87.88
358.215	101.88
358.441	96.88
358.668	86.88
358.895	94.88
359.122	96.88
359.349	78.88
359.576	100.88
359.802	94.88
360.029	94.88
360.256	97.88
360.483	98.88
360.709	96.88
360.936	91.88
361.163	81.88
361.39	94.88
361.616	91.88
361.843	73.88
362.07	101.88
362.296	106.88
362.523	94.88
362.749	94.88
362.976	102.88
363.203	98.88
363.429	81.88
363.656	81.88
363.882	76.88
364.109	81.88
364.335	73.88
364.562	87.88
364.788	89.88
365.015	77.88
365.241	88.88
365.468	110.88
365.694	103.88
365.92	102.88
366.147	81.88
366.373	81.88
366.599	102.88
366.826	86.88
367.052	91.88
367.278	91.88
367.505	84.88
367.731	87.88
367.957	86.88
368.184	96.88
368.41	92.88
368.636	118.88
368.862	119.88
369.089	106.88
369.315	97.88
369.541	97.88
369.767	92.88
369.993	79.88
370.219	97.88
370.445	98.88
370.672	91.88
370.898	82.88
371.124	87.88
371.35	80.88
371.576	89.88
371.802	83.88
372.028	99.88
372.254	90.88
372.48	80.88
372.706	87.88
372.932	83.88
373.158	95.88
373.384	80.88
373.61	87.88
373.835	105.88
374.061	90.88
374.287	104.88
374.513	81.88
374.739	73.88
374.965	98.88
375.191	97.88
375.416	102.88
375.642	97.88
375.868	104.88
376.094	81.88
376.319	98.88
376.545	81.88
376.771	82.88
376.997	95.88
377.222	68.88
377.448	89.88
377.674	83.88
377.899	98.88
378.125	87.88
378.35	89.88
378.576	80.88
378.802	78.88
379.027	84.88
379.253	68.88
379.478	100.88
379.704	105.88
379.929	95.88
380.155	101.88
380.38	84.88
380.606	93.88
380.831	95.88
381.057	100.88
381.282	92.88
381.507	89.88
381.733	89.88
381.958	101.88
382.184	87.88
382.409	95.88
382.634	106.88
382.86	96.88
383.085	101.88
383.31	98.88
383.535	92.88
383.761	88.88
383.986	104.88
384.211	100.88
384.436	103.88
384.662	96.88
384.887	97.88
385.112	104.88
385.337	100.88
385.562	93.88
385.787	105.88
386.013	121.88
386.238	112.88
386.463	107.88
386.688	114.88
386.913	88.88
387.138	98.88
387.363	94.88
387.588	102.88
387.813	103.88
388.038	91.88
388.263	92.88
388.488	92.88
388.713	95.88
388.938	99.88
389.163	107.88
389.387	87.88
389.612	92.88
389.837	94.88
390.062	106.88
390.287	95.88
390.512	93.88
390.736	87.88
390.961	92.88
391.186	89.88
391.411	83.88
391.636	84.88
391.86	85.88
392.085	85.88
392.31	79.88
392.534	81.88
392.759	90.88
392.984	92.88
393.208	86.88
393.433	85.88
393.658	85.88
393.882	96.88
394.107	91.88
394.331	84.88
394.556	79.88
394.78	82.88
395.005	94.88
395.229	91.88
395.454	86.88
395.678	82.88
395.903	83.88
396.127	90.88
396.352	63.88
396.576	74.88
396.801	90.88
397.025	75.88
397.249	79.88
397.474	88.88
397.698	92.88
397.922	84.88
398.147	69.88
398.371	89.88
398.595	88.88
398.82	91.88
399.044	82.88
399.268	77.88
399.492	86.88
399.717	88.88
399.941	87.88
400.165	94.88
400.389	80.88
400.613	65.88
400.837	92.88
401.062	92.88
401.286	92.88
401.51	89.88
401.734	90.88
401.958	71.88
402.182	115.88
402.406	127.88
402.63	106.88
402.854	86.88
403.078	95.88
403.302	83.88
403.526	87.88
403.75	81.88
403.974	88.88
404.198	96.88
404.422	78.88
404.645	82.88
404.869	89.88
405.093	90.88
405.317	105.88
405.541	87.88
405.765	106.88
405.988	110.88
406.212	145.88
406.436	194.88
406.66	126.88
406.883	86.88
407.107	82.88
407.331	91.88
407.555	85.88
407.778	98.88
408.002	88.88
408.226	82.88
408.449	89.88
408.673	93.88
408.896	83.88
409.12	84.88
409.344	105.88
409.567	93.88
409.791	96.88
410.014	97.88
410.238	82.88
410.461	84.88
410.685	82.88
410.908	100.88
411.132	113.88
411.355	113.88
411.578	87.88
411.802	81.88
412.025	88.88
412.249	98.88
412.472	102.88
412.695	114.88
412.919	84.88
413.142	84.88
413.365	100.88
413.589	90.88
413.812	84.88
414.035	92.88
414.258	85.88
414.482	96.88
414.705	85.88
414.928	98.88
415.151	103.88
415.374	79.88
415.597	76.88
415.821	96.88
416.044	91.88
416.267	89.88
416.49	76.88
416.713	96.88
416.936	87.88
417.159	102.88
417.382	83.88
417.605	80.88
417.828	86.88
418.051	92.88
418.274	79.88
418.497	80.88
418.72	85.88
418.943	84.88
419.166	74.88
419.389	93.88
419.611	94.88
419.834	85.88
420.057	96.88
420.28	85.88
420.503	105.88
420.726	95.88
420.948	76.88
421.171	96.88
421.394	87.88
421.617	81.88
421.839	88.88
422.062	94.88
422.285	80.88
422.507	94.88
422.73	97.88
422.953	91.88
423.175	88.88
423.398	92.88
423.621	81.88
423.843	82.88
424.066	87.88
424.288	99.88
424.511	95.88
424.733	95.88
424.956	90.88
425.178	86.88
425.401	94.88
425.623	95.88
425.846	98.88
426.068	88.88
426.291	89.88
426.513	97.88
426.735	89.88
426.958	78.88
427.18	107.88
427.402	122.88
427.625	162.88
427.847	118.88
428.069	111.88
428.292	94.88
428.514	90.88
428.736	88.88
428.958	85.88
429.181	85.88
429.403	84.88
429.625	84.88
429.847	89.88
430.069	96.88
430.292	88.88
430.514	94.88
430.736	82.88
430.958	88.88
431.18	78.88
431.402	79.88
431.624	88.88
431.846	79.88
432.068	89.88
432.29	97.88
432.512	74.88
432.734	90.88
432.956	98.88
433.178	92.88
433.4	96.88
433.622	104.88
433.844	74.88
434.066	85.88
434.287	83.88
434.509	96.88
434.731	98.88
434.953	88.88
435.175	92.88
435.397	90.88
435.618	97.88
435.84	86.88
436.062	128.88
436.284	106.88
436.505	96.88
436.727	89.88
436.949	73.88
437.17	79.88
437.392	87.88
437.614	95.88
437.835	98.88
438.057	103.88
438.278	101.88
438.5	110.88
438.721	106.88
438.943	93.88
439.165	85.88
439.386	88.88
439.608	96.88
439.829	100.88
440.05	120.88
440.272	134.88
440.493	96.88
440.715	86.88
440.936	92.88
441.158	83.88
441.379	76.88
441.6	95.88
441.822	91.88
442.043	82.88
442.264	97.88
442.486	88.88
442.707	87.88
442.928	97.88
443.149	121.88
443.371	134.88
443.592	108.88
443.813	109.88
444.034	108.88
444.255	89.88
444.476	87.88
444.698	87.88
444.919	92.88
445.14	119.88
445.361	126.88
445.582	113.88
445.803	139.88
446.024	138.88
446.245	132.88
446.466	105.88
446.687	80.88
446.908	90.88
447.129	98.88
447.35	80.88
447.571	87.88
447.792	84.88
448.013	113.88
448.234	104.88
448.455	94.88
448.675	102.88
448.896	115.88
449.117	92.88
449.338	103.88
449.559	122.88
449.779	123.88
450	99.88
450.221	85.88
450.442	102.88
450.662	82.88
450.883	94.88
451.104	108.88
451.324	95.88
451.545	90.88
451.766	75.88
451.986	91.88
452.207	93.88
452.428	95.88
452.648	99.88
452.869	109.88
453.089	102.88
453.31	113.88
453.53	90.88
453.751	92.88
453.971	88.88
454.192	102.88
454.412	87.88
454.633	94.88
454.853	78.88
455.073	93.88
455.294	68.88
455.514	99.88
455.734	95.88
455.955	100.88
456.175	87.88
456.395	79.88
456.616	96.88
456.836	88.88
457.056	89.88
457.276	95.88
457.497	86.88
457.717	92.88
457.937	91.88
458.157	82.88
458.377	104.88
458.598	114.88
458.818	118.88
459.038	140.88
459.258	106.88
459.478	91.88
459.698	90.88
459.918	84.88
460.138	86.88
460.358	87.88
460.578	87.88
460.798	98.88
461.018	86.88
461.238	78.88
461.458	83.88
461.678	70.88
461.898	92.88
462.118	92.88
462.338	90.88
462.558	92.88
462.777	95.88
462.997	80.88
463.217	81.88
463.437	86.88
463.657	95.88
463.876	83.88
464.096	84.88
464.316	60.88
464.536	74.88
464.755	92.88
464.975	88.88
465.195	143.88
465.414	146.88
465.634	90.88
465.854	79.88
466.073	96.88
466.293	83.88
466.512	78.88
466.732	89.88
466.951	81.88
467.171	87.88
467.391	106.88
467.61	110.88
467.829	95.88
468.049	107.88
468.268	122.88
468.488	98.88
468.707	79.88
468.927	83.88
469.146	97.88
469.365	87.88
469.585	90.88
469.804	94.88
470.023	80.88
470.243	81.88
470.462	87.88
470.681	112.88
470.901	83.88
471.12	82.88
471.339	82.88
471.558	92.88
471.777	82.88
471.997	102.88
472.216	134.88
472.435	193.88
472.654	115.88
472.873	87.88
473.092	75.88
473.311	74.88
473.53	68.88
473.749	74.88
473.968	90.88
474.187	98.88
474.406	95.88
474.625	90.88
474.844	87.88
475.063	96.88
475.282	90.88
475.501	77.88
475.72	80.88
475.939	84.88
476.158	103.88
476.377	91.88
476.596	86.88
476.814	80.88
477.033	89.88
477.252	75.88
477.471	99.88
477.69	80.88
477.908	92.88
478.127	74.88
478.346	89.88
478.564	82.88
478.783	94.88
479.002	101.88
479.22	98.88
479.439	90.88
479.658	91.88
479.876	94.88
480.095	80.88
480.313	90.88
480.532	88.88
480.751	91.88
480.969	144.88
481.188	291.88
481.406	196.88
481.624	95.88
481.843	79.88
482.061	84.88
482.28	82.88
482.498	89.88
482.717	97.88
482.935	85.88
483.153	91.88
483.372	76.88
483.59	80.88
483.808	76.88
484.027	94.88
484.245	92.88
484.463	78.88
484.681	103.88
484.9	77.88
485.118	89.88
485.336	89.88
485.554	91.88
485.772	99.88
485.99	86.88
486.209	107.88
486.427	101.88
486.645	105.88
486.863	107.88
487.081	102.88
487.299	94.88
487.517	82.88
487.735	111.88
487.953	83.88
488.171	92.88
488.389	101.88
488.607	101.88
488.825	99.88
489.043	90.88
489.261	76.88
489.479	85.88
489.696	94.88
489.914	90.88
490.132	74.88
490.35	89.88
490.568	81.88
490.786	90.88
491.003	90.88
491.221	93.88
491.439	90.88
491.657	92.88
491.874	93.88
492.092	78.88
492.31	88.88
492.527	85.88
492.745	87.88
492.963	71.88
493.18	110.88
493.398	98.88
493.615	93.88
493.833	97.88
494.05	87.88
494.268	98.88
494.485	80.88
494.703	77.88
494.92	77.88
495.138	92.88
495.355	91.88
495.573	78.88
495.79	89.88
496.008	105.88
496.225	91.88
496.442	96.88
496.66	91.88
496.877	91.88
497.094	93.88
497.312	68.88
497.529	75.88
497.746	94.88
497.963	93.88
498.181	92.88
498.398	100.88
498.615	94.88
498.832	115.88
499.049	101.88
499.267	87.88
499.484	98.88
499.701	92.88
499.918	98.88
500.135	91.88
500.352	93.88
500.569	96.88
500.786	90.88
501.003	93.88
501.22	78.88
501.437	72.88
501.654	102.88
501.871	103.88
502.088	89.88
502.305	83.88
502.522	84.88
502.739	100.88
502.956	91.88
503.172	82.88
503.389	99.88
503.606	109.88
503.823	90.88
504.04	103.88
504.256	90.88
504.473	80.88
504.69	87.88
504.907	97.88
505.123	98.88
505.34	86.88
505.557	90.88
505.773	100.88
505.99	91.88
506.207	91.88
506.423	91.88
506.64	73.88
506.856	80.88
507.073	86.88
507.289	87.88
507.506	103.88
507.722	102.88
507.939	98.88
508.155	104.88
508.372	91.88
508.588	95.88
508.805	89.88
509.021	92.88
509.238	101.88
509.454	84.88
509.67	94.88
509.887	107.88
510.103	129.88
510.319	179.88
510.536	625.88
510.752	1965.88
510.968	565.88
511.184	137.88
511.401	108.88
511.617	102.88
511.833	86.88
512.049	84.88
512.265	81.88
512.481	80.88
512.698	94.88
512.914	91.88
513.13	91.88
513.346	94.88
513.562	94.88
513.778	100.88
513.994	97.88
514.21	104.88
514.426	106.88
514.642	115.88
514.858	128.88
515.074	160.88
515.29	367.88
515.506	1156.88
515.721	436.88
515.937	140.88
516.153	108.88
516.369	95.88
