Data from Circ_2002_H10_HRD10591_00074.txt Node
Date: Wed Jan 03 10:41:13 EST 2024
User: Yrep
Spectrometer: HR+D1059
Trigger mode: 1
Integration Time (sec): 1.000000E-1
Scans to average: 1
Electric dark correction enabled: true
Nonlinearity correction enabled: false
Boxcar width: 0
XAxis mode: Wavelengths
Number of Pixels in Spectrum: 2048
>>>>>Begin Spectral Data<<<<<
223.165	-2.94
223.4	-2.94
223.635	-2.94
223.869	-18.94
224.104	-20.94
224.338	-12.94
224.573	-28.94
224.808	9.06
225.042	-0.94
225.277	10.06
225.511	-13.94
225.746	-12.94
225.98	3.06
226.215	-7.94
226.449	20.06
226.683	28.06
226.918	15.06
227.152	35.06
227.387	35.06
227.621	41.06
227.856	53.06
228.09	63.06
228.324	53.06
228.559	68.06
228.793	41.06
229.027	57.06
229.262	58.06
229.496	69.06
229.73	79.06
229.964	85.06
230.199	86.06
230.433	84.06
230.667	87.06
230.901	85.06
231.136	81.06
231.37	84.06
231.604	84.06
231.838	81.06
232.072	89.06
232.306	92.06
232.541	84.06
232.775	80.06
233.009	75.06
233.243	87.06
233.477	83.06
233.711	88.06
233.945	87.06
234.179	77.06
234.413	77.06
234.647	83.06
234.881	90.06
235.115	86.06
235.349	74.06
235.583	79.06
235.817	83.06
236.051	68.06
236.285	65.06
236.519	84.06
236.753	76.06
236.987	88.06
237.221	87.06
237.455	90.06
237.689	75.06
237.922	85.06
238.156	72.06
238.39	84.06
238.624	82.06
238.858	72.06
239.091	67.06
239.325	92.06
239.559	87.06
239.793	75.06
240.027	85.06
240.26	81.06
240.494	88.06
240.728	77.06
240.961	73.06
241.195	79.06
241.429	89.06
241.662	69.06
241.896	77.06
242.13	68.06
242.363	87.06
242.597	68.06
242.83	87.06
243.064	75.06
243.298	82.06
243.531	88.06
243.765	97.06
243.998	87.06
244.232	75.06
244.465	93.06
244.699	94.06
244.932	80.06
245.166	82.06
245.399	90.06
245.633	88.06
245.866	72.06
246.099	91.06
246.333	82.06
246.566	75.06
246.8	87.06
247.033	70.06
247.266	84.06
247.5	88.06
247.733	74.06
247.966	71.06
248.2	82.06
248.433	70.06
248.666	79.06
248.899	103.06
249.133	81.06
249.366	93.06
249.599	105.06
249.832	93.06
250.066	86.06
250.299	79.06
250.532	74.06
250.765	86.06
250.998	91.06
251.231	68.06
251.465	89.06
251.698	72.06
251.931	77.06
252.164	86.06
252.397	80.06
252.63	50.06
252.863	74.06
253.096	88.06
253.329	80.06
253.562	81.06
253.795	84.06
254.028	77.06
254.261	87.06
254.494	70.06
254.727	84.06
254.96	88.06
255.193	91.06
255.426	78.06
255.659	78.06
255.892	77.06
256.124	81.06
256.357	78.06
256.59	85.06
256.823	88.06
257.056	81.06
257.289	87.06
257.521	91.06
257.754	81.06
257.987	89.06
258.22	75.06
258.452	83.06
258.685	80.06
258.918	80.06
259.151	76.06
259.383	83.06
259.616	84.06
259.849	86.06
260.081	84.06
260.314	89.06
260.547	85.06
260.779	81.06
261.012	87.06
261.244	84.06
261.477	73.06
261.71	79.06
261.942	96.06
262.175	115.06
262.407	94.06
262.64	87.06
262.872	81.06
263.105	87.06
263.337	82.06
263.57	98.06
263.802	92.06
264.035	85.06
264.267	79.06
264.499	71.06
264.732	84.06
264.964	85.06
265.197	101.06
265.429	81.06
265.661	76.06
265.894	80.06
266.126	85.06
266.358	74.06
266.591	84.06
266.823	75.06
267.055	79.06
267.287	75.06
267.52	91.06
267.752	83.06
267.984	80.06
268.216	93.06
268.448	84.06
268.681	86.06
268.913	77.06
269.145	76.06
269.377	90.06
269.609	91.06
269.841	80.06
270.073	79.06
270.306	99.06
270.538	77.06
270.77	84.06
271.002	99.06
271.234	95.06
271.466	87.06
271.698	82.06
271.93	72.06
272.162	87.06
272.394	95.06
272.626	80.06
272.858	84.06
273.09	101.06
273.322	93.06
273.553	88.06
273.785	88.06
274.017	89.06
274.249	88.06
274.481	93.06
274.713	74.06
274.945	88.06
275.176	84.06
275.408	69.06
275.64	91.06
275.872	87.06
276.104	95.06
276.335	94.06
276.567	94.06
276.799	101.06
277.031	92.06
277.262	82.06
277.494	79.06
277.726	88.06
277.957	81.06
278.189	84.06
278.421	97.06
278.652	95.06
278.884	91.06
279.115	96.06
279.347	88.06
279.579	87.06
279.81	102.06
280.042	81.06
280.273	87.06
280.505	91.06
280.736	85.06
280.968	89.06
281.199	85.06
281.431	89.06
281.662	89.06
281.894	83.06
282.125	107.06
282.356	98.06
282.588	113.06
282.819	99.06
283.051	83.06
283.282	99.06
283.513	90.06
283.745	73.06
283.976	92.06
284.207	81.06
284.439	87.06
284.67	89.06
284.901	100.06
285.132	91.06
285.364	92.06
285.595	95.06
285.826	106.06
286.057	92.06
286.288	81.06
286.52	96.06
286.751	86.06
286.982	97.06
287.213	91.06
287.444	90.06
287.675	79.06
287.906	98.06
288.138	92.06
288.369	88.06
288.6	98.06
288.831	72.06
289.062	92.06
289.293	87.06
289.524	93.06
289.755	94.06
289.986	81.06
290.217	83.06
290.448	106.06
290.679	95.06
290.91	88.06
291.141	98.06
291.371	82.06
291.602	95.06
291.833	84.06
292.064	75.06
292.295	87.06
292.526	83.06
292.757	95.06
292.987	82.06
293.218	93.06
293.449	89.06
293.68	92.06
293.91	89.06
294.141	87.06
294.372	97.06
294.603	103.06
294.833	91.06
295.064	88.06
295.295	93.06
295.525	82.06
295.756	100.06
295.987	103.06
296.217	123.06
296.448	102.06
296.679	89.06
296.909	99.06
297.14	94.06
297.37	87.06
297.601	81.06
297.831	75.06
298.062	73.06
298.292	86.06
298.523	100.06
298.753	94.06
298.984	94.06
299.214	92.06
299.445	79.06
299.675	103.06
299.905	91.06
300.136	85.06
300.366	98.06
300.597	89.06
300.827	86.06
301.057	86.06
301.288	103.06
301.518	108.06
301.748	93.06
301.979	97.06
302.209	96.06
302.439	101.06
302.669	90.06
302.9	86.06
303.13	88.06
303.36	90.06
303.59	103.06
303.82	96.06
304.051	104.06
304.281	96.06
304.511	91.06
304.741	99.06
304.971	83.06
305.201	82.06
305.431	88.06
305.661	87.06
305.891	98.06
306.121	104.06
306.352	96.06
306.582	100.06
306.812	85.06
307.042	83.06
307.272	101.06
307.502	86.06
307.731	87.06
307.961	92.06
308.191	79.06
308.421	87.06
308.651	82.06
308.881	109.06
309.111	95.06
309.341	83.06
309.571	93.06
309.8	91.06
310.03	101.06
310.26	89.06
310.49	88.06
310.72	93.06
310.949	93.06
311.179	101.06
311.409	91.06
311.639	92.06
311.868	92.06
312.098	93.06
312.328	93.06
312.557	94.06
312.787	100.06
313.017	101.06
313.246	100.06
313.476	87.06
313.706	88.06
313.935	92.06
314.165	97.06
314.394	110.06
314.624	102.06
314.853	84.06
315.083	94.06
315.312	100.06
315.542	95.06
315.771	91.06
316.001	100.06
316.23	94.06
316.46	91.06
316.689	90.06
316.919	84.06
317.148	85.06
317.377	83.06
317.607	92.06
317.836	99.06
318.065	94.06
318.295	83.06
318.524	91.06
318.753	101.06
318.983	95.06
319.212	108.06
319.441	99.06
319.67	108.06
319.9	90.06
320.129	97.06
320.358	89.06
320.587	81.06
320.816	93.06
321.046	89.06
321.275	97.06
321.504	94.06
321.733	102.06
321.962	102.06
322.191	95.06
322.42	100.06
322.649	92.06
322.878	100.06
323.108	100.06
323.337	106.06
323.566	115.06
323.795	135.06
324.024	175.06
324.253	325.06
324.482	667.06
324.71	1370.06
324.939	1748.06
325.168	676.06
325.397	221.06
325.626	133.06
325.855	114.06
326.084	111.06
326.313	129.06
326.542	144.06
326.77	178.06
326.999	395.06
327.228	791.06
327.457	1439.06
327.686	1102.06
327.914	334.06
328.143	195.06
328.372	145.06
328.6	113.06
328.829	99.06
329.058	112.06
329.287	103.06
329.515	95.06
329.744	101.06
329.972	108.06
330.201	128.06
330.43	138.06
330.658	107.06
330.887	129.06
331.115	103.06
331.344	109.06
331.572	97.06
331.801	93.06
332.03	88.06
332.258	95.06
332.486	95.06
332.715	99.06
332.943	90.06
333.172	99.06
333.4	93.06
333.629	101.06
333.857	97.06
334.085	104.06
334.314	114.06
334.542	147.06
334.771	146.06
334.999	86.06
335.227	83.06
335.455	79.06
335.684	100.06
335.912	91.06
336.14	103.06
336.369	83.06
336.597	96.06
336.825	102.06
337.053	80.06
337.281	90.06
337.51	89.06
337.738	95.06
337.966	85.06
338.194	103.06
338.422	102.06
338.65	98.06
338.878	93.06
339.106	88.06
339.334	95.06
339.562	76.06
339.79	84.06
340.018	102.06
340.246	94.06
340.474	85.06
340.702	83.06
340.93	105.06
341.158	101.06
341.386	96.06
341.614	102.06
341.842	106.06
342.07	99.06
342.298	87.06
342.526	90.06
342.754	88.06
342.981	83.06
343.209	84.06
343.437	98.06
343.665	84.06
343.893	88.06
344.12	89.06
344.348	88.06
344.576	75.06
344.804	84.06
345.031	85.06
345.259	79.06
345.487	101.06
345.714	83.06
345.942	104.06
346.17	81.06
346.397	91.06
346.625	83.06
346.853	97.06
347.08	84.06
347.308	98.06
347.535	102.06
347.763	102.06
347.99	103.06
348.218	88.06
348.445	95.06
348.673	105.06
348.9	96.06
349.128	81.06
349.355	101.06
349.583	81.06
349.81	79.06
350.037	92.06
350.265	99.06
350.492	86.06
350.72	96.06
350.947	102.06
351.174	111.06
351.402	105.06
351.629	97.06
351.856	93.06
352.083	97.06
352.311	102.06
352.538	96.06
352.765	102.06
352.992	100.06
353.22	105.06
353.447	99.06
353.674	94.06
353.901	99.06
354.128	110.06
354.355	105.06
354.583	81.06
354.81	86.06
355.037	107.06
355.264	77.06
355.491	90.06
355.718	96.06
355.945	111.06
356.172	80.06
356.399	93.06
356.626	101.06
356.853	97.06
357.08	100.06
357.307	97.06
357.534	84.06
357.761	87.06
357.988	106.06
358.215	92.06
358.441	101.06
358.668	89.06
358.895	83.06
359.122	81.06
359.349	85.06
359.576	89.06
359.802	90.06
360.029	105.06
360.256	93.06
360.483	97.06
360.709	81.06
360.936	98.06
361.163	89.06
361.39	87.06
361.616	93.06
361.843	89.06
362.07	95.06
362.296	93.06
362.523	89.06
362.749	80.06
362.976	85.06
363.203	88.06
363.429	89.06
363.656	84.06
363.882	81.06
364.109	96.06
364.335	92.06
364.562	92.06
364.788	80.06
365.015	76.06
365.241	102.06
365.468	92.06
365.694	103.06
365.92	89.06
366.147	90.06
366.373	77.06
366.599	79.06
366.826	87.06
367.052	76.06
367.278	84.06
367.505	95.06
367.731	98.06
367.957	84.06
368.184	100.06
368.41	76.06
368.636	90.06
368.862	116.06
369.089	104.06
369.315	81.06
369.541	97.06
369.767	99.06
369.993	92.06
370.219	89.06
370.445	71.06
370.672	82.06
370.898	89.06
371.124	79.06
371.35	86.06
371.576	98.06
371.802	99.06
372.028	89.06
372.254	89.06
372.48	82.06
372.706	79.06
372.932	102.06
373.158	89.06
373.384	98.06
373.61	89.06
373.835	87.06
374.061	92.06
374.287	84.06
374.513	93.06
374.739	93.06
374.965	83.06
375.191	81.06
375.416	94.06
375.642	101.06
375.868	92.06
376.094	90.06
376.319	84.06
376.545	77.06
376.771	83.06
376.997	84.06
377.222	101.06
377.448	84.06
377.674	81.06
377.899	105.06
378.125	79.06
378.35	97.06
378.576	101.06
378.802	85.06
379.027	96.06
379.253	88.06
379.478	107.06
379.704	98.06
379.929	105.06
380.155	82.06
380.38	91.06
380.606	81.06
380.831	85.06
381.057	86.06
381.282	95.06
381.507	95.06
381.733	91.06
381.958	98.06
382.184	81.06
382.409	94.06
382.634	102.06
382.86	88.06
383.085	89.06
383.31	103.06
383.535	106.06
383.761	87.06
383.986	88.06
384.211	96.06
384.436	92.06
384.662	111.06
384.887	105.06
385.112	107.06
385.337	97.06
385.562	100.06
385.787	105.06
386.013	111.06
386.238	113.06
386.463	93.06
386.688	92.06
386.913	94.06
387.138	103.06
387.363	90.06
387.588	108.06
387.813	93.06
388.038	97.06
388.263	100.06
388.488	123.06
388.713	99.06
388.938	113.06
389.163	84.06
389.387	87.06
389.612	81.06
389.837	79.06
390.062	86.06
390.287	88.06
390.512	83.06
390.736	91.06
390.961	92.06
391.186	92.06
391.411	89.06
391.636	87.06
391.86	83.06
392.085	98.06
392.31	79.06
392.534	82.06
392.759	90.06
392.984	90.06
393.208	89.06
393.433	84.06
393.658	95.06
393.882	88.06
394.107	79.06
394.331	81.06
394.556	85.06
394.78	97.06
395.005	103.06
395.229	68.06
395.454	84.06
395.678	86.06
395.903	81.06
396.127	82.06
396.352	80.06
396.576	84.06
396.801	80.06
397.025	90.06
397.249	81.06
397.474	84.06
397.698	92.06
397.922	85.06
398.147	87.06
398.371	69.06
398.595	72.06
398.82	92.06
399.044	98.06
399.268	87.06
399.492	78.06
399.717	83.06
399.941	99.06
400.165	87.06
400.389	78.06
400.613	95.06
400.837	98.06
401.062	96.06
401.286	84.06
401.51	88.06
401.734	86.06
401.958	81.06
402.182	97.06
402.406	134.06
402.63	107.06
402.854	89.06
403.078	87.06
403.302	83.06
403.526	80.06
403.75	83.06
403.974	73.06
404.198	88.06
404.422	80.06
404.645	86.06
404.869	81.06
405.093	100.06
405.317	95.06
405.541	91.06
405.765	83.06
405.988	108.06
406.212	136.06
406.436	191.06
406.66	119.06
406.883	96.06
407.107	82.06
407.331	79.06
407.555	91.06
407.778	88.06
408.002	82.06
408.226	90.06
408.449	88.06
408.673	86.06
408.896	85.06
409.12	91.06
409.344	86.06
409.567	87.06
409.791	98.06
410.014	97.06
410.238	77.06
410.461	101.06
410.685	88.06
410.908	81.06
411.132	99.06
411.355	103.06
411.578	100.06
411.802	79.06
412.025	79.06
412.249	98.06
412.472	90.06
412.695	91.06
412.919	88.06
413.142	80.06
413.365	84.06
413.589	81.06
413.812	83.06
414.035	112.06
414.258	88.06
414.482	74.06
414.705	99.06
414.928	96.06
415.151	102.06
415.374	91.06
415.597	98.06
415.821	90.06
416.044	92.06
416.267	85.06
416.49	83.06
416.713	99.06
416.936	77.06
417.159	75.06
417.382	96.06
417.605	90.06
417.828	87.06
418.051	89.06
418.274	87.06
418.497	99.06
418.72	88.06
418.943	86.06
419.166	87.06
419.389	85.06
419.611	99.06
419.834	85.06
420.057	84.06
420.28	76.06
420.503	94.06
420.726	95.06
420.948	74.06
421.171	81.06
421.394	94.06
421.617	98.06
421.839	82.06
422.062	91.06
422.285	81.06
422.507	85.06
422.73	89.06
422.953	88.06
423.175	85.06
423.398	91.06
423.621	93.06
423.843	91.06
424.066	89.06
424.288	97.06
424.511	92.06
424.733	101.06
424.956	103.06
425.178	96.06
425.401	97.06
425.623	91.06
425.846	87.06
426.068	89.06
426.291	95.06
426.513	81.06
426.735	72.06
426.958	99.06
427.18	116.06
427.402	118.06
427.625	132.06
427.847	115.06
428.069	104.06
428.292	86.06
428.514	110.06
428.736	92.06
428.958	90.06
429.181	79.06
429.403	92.06
429.625	97.06
429.847	97.06
430.069	103.06
430.292	87.06
430.514	85.06
430.736	85.06
430.958	86.06
431.18	77.06
431.402	76.06
431.624	91.06
431.846	91.06
432.068	85.06
432.29	90.06
432.512	93.06
432.734	90.06
432.956	80.06
433.178	91.06
433.4	92.06
433.622	92.06
433.844	92.06
434.066	97.06
434.287	82.06
434.509	90.06
434.731	81.06
434.953	87.06
435.175	94.06
435.397	100.06
435.618	92.06
435.84	102.06
436.062	96.06
436.284	100.06
436.505	101.06
436.727	100.06
436.949	97.06
437.17	85.06
437.392	74.06
437.614	78.06
437.835	93.06
438.057	97.06
438.278	93.06
438.5	107.06
438.721	115.06
438.943	92.06
439.165	100.06
439.386	91.06
439.608	88.06
439.829	97.06
440.05	106.06
440.272	127.06
440.493	111.06
440.715	87.06
440.936	98.06
441.158	91.06
441.379	89.06
441.6	87.06
441.822	91.06
442.043	93.06
442.264	81.06
442.486	104.06
442.707	92.06
442.928	94.06
443.149	113.06
443.371	115.06
443.592	95.06
443.813	99.06
444.034	91.06
444.255	78.06
444.476	95.06
444.698	72.06
444.919	97.06
445.14	118.06
445.361	129.06
445.582	104.06
445.803	117.06
446.024	130.06
446.245	110.06
446.466	106.06
446.687	100.06
446.908	76.06
447.129	84.06
447.35	88.06
447.571	108.06
447.792	89.06
448.013	102.06
448.234	90.06
448.455	89.06
448.675	109.06
448.896	105.06
449.117	106.06
449.338	101.06
449.559	111.06
449.779	118.06
450	111.06
450.221	95.06
450.442	88.06
450.662	95.06
450.883	96.06
451.104	100.06
451.324	97.06
451.545	80.06
451.766	87.06
451.986	90.06
452.207	91.06
452.428	82.06
452.648	93.06
452.869	102.06
453.089	96.06
453.31	109.06
453.53	85.06
453.751	96.06
453.971	91.06
454.192	94.06
454.412	89.06
454.633	85.06
454.853	83.06
455.073	72.06
455.294	88.06
455.514	76.06
455.734	67.06
455.955	85.06
456.175	79.06
456.395	87.06
456.616	77.06
456.836	81.06
457.056	88.06
457.276	79.06
457.497	89.06
457.717	89.06
457.937	105.06
458.157	99.06
458.377	97.06
458.598	95.06
458.818	135.06
459.038	143.06
459.258	107.06
459.478	75.06
459.698	80.06
459.918	80.06
460.138	95.06
460.358	89.06
460.578	76.06
460.798	87.06
461.018	88.06
461.238	74.06
461.458	82.06
461.678	69.06
461.898	99.06
462.118	83.06
462.338	83.06
462.558	92.06
462.777	95.06
462.997	99.06
463.217	89.06
463.437	101.06
463.657	76.06
463.876	75.06
464.096	92.06
464.316	80.06
464.536	86.06
464.755	94.06
464.975	96.06
465.195	145.06
465.414	131.06
465.634	87.06
465.854	81.06
466.073	80.06
466.293	83.06
466.512	90.06
466.732	79.06
466.951	92.06
467.171	86.06
467.391	95.06
467.61	77.06
467.829	85.06
468.049	84.06
468.268	100.06
468.488	85.06
468.707	87.06
468.927	84.06
469.146	92.06
469.365	98.06
469.585	80.06
469.804	96.06
470.023	92.06
470.243	95.06
470.462	89.06
470.681	96.06
470.901	79.06
471.12	82.06
471.339	94.06
471.558	80.06
471.777	98.06
471.997	100.06
472.216	128.06
472.435	161.06
472.654	114.06
472.873	80.06
473.092	102.06
473.311	90.06
473.53	87.06
473.749	91.06
473.968	76.06
474.187	98.06
474.406	85.06
474.625	82.06
474.844	104.06
475.063	84.06
475.282	87.06
475.501	100.06
475.72	83.06
475.939	89.06
476.158	93.06
476.377	98.06
476.596	88.06
476.814	91.06
477.033	103.06
477.252	98.06
477.471	96.06
477.69	93.06
477.908	95.06
478.127	95.06
478.346	90.06
478.564	110.06
478.783	96.06
479.002	92.06
479.22	101.06
479.439	98.06
479.658	96.06
479.876	91.06
480.095	79.06
480.313	105.06
480.532	104.06
480.751	94.06
480.969	106.06
481.188	229.06
481.406	169.06
481.624	100.06
481.843	87.06
482.061	92.06
482.28	79.06
482.498	83.06
482.717	80.06
482.935	89.06
483.153	82.06
483.372	83.06
483.59	105.06
483.808	105.06
484.027	91.06
484.245	82.06
484.463	85.06
484.681	85.06
484.9	87.06
485.118	89.06
485.336	89.06
485.554	110.06
485.772	119.06
485.99	88.06
486.209	101.06
486.427	95.06
486.645	104.06
486.863	110.06
487.081	102.06
487.299	92.06
487.517	96.06
487.735	93.06
487.953	97.06
488.171	98.06
488.389	101.06
488.607	96.06
488.825	91.06
489.043	94.06
489.261	101.06
489.479	96.06
489.696	88.06
489.914	60.06
490.132	99.06
490.35	96.06
490.568	95.06
490.786	88.06
491.003	98.06
491.221	93.06
491.439	90.06
491.657	87.06
491.874	76.06
492.092	94.06
492.31	91.06
492.527	86.06
492.745	91.06
492.963	98.06
493.18	81.06
493.398	91.06
493.615	114.06
493.833	97.06
494.05	86.06
494.268	90.06
494.485	88.06
494.703	83.06
494.92	79.06
495.138	91.06
495.355	88.06
495.573	100.06
495.79	100.06
496.008	96.06
496.225	86.06
496.442	81.06
496.66	84.06
496.877	89.06
497.094	96.06
497.312	108.06
497.529	87.06
497.746	85.06
497.963	86.06
498.181	91.06
498.398	101.06
498.615	92.06
498.832	96.06
499.049	90.06
499.267	76.06
499.484	93.06
499.701	101.06
499.918	95.06
500.135	89.06
500.352	91.06
500.569	93.06
500.786	103.06
501.003	77.06
501.22	99.06
501.437	85.06
501.654	96.06
501.871	100.06
502.088	92.06
502.305	95.06
502.522	98.06
502.739	84.06
502.956	96.06
503.172	91.06
503.389	88.06
503.606	92.06
503.823	92.06
504.04	88.06
504.256	103.06
504.473	98.06
504.69	96.06
504.907	101.06
505.123	86.06
505.34	97.06
505.557	91.06
505.773	89.06
505.99	86.06
506.207	86.06
506.423	83.06
506.64	94.06
506.856	101.06
507.073	89.06
507.289	88.06
507.506	100.06
507.722	96.06
507.939	99.06
508.155	85.06
508.372	100.06
508.588	82.06
508.805	98.06
509.021	86.06
509.238	101.06
509.454	102.06
509.67	117.06
509.887	116.06
510.103	132.06
510.319	201.06
510.536	591.06
510.752	1813.06
510.968	538.06
511.184	143.06
511.401	108.06
511.617	101.06
511.833	100.06
512.049	101.06
512.265	83.06
512.481	90.06
512.698	104.06
512.914	92.06
513.13	93.06
513.346	92.06
513.562	91.06
513.778	104.06
513.994	90.06
514.21	102.06
514.426	102.06
514.642	100.06
514.858	107.06
515.074	136.06
515.29	353.06
515.506	1053.06
515.721	407.06
515.937	145.06
516.153	112.06
