Data from Circ_2002_H10_HRD10591_00045.txt Node
Date: Wed Jan 03 10:41:07 EST 2024
User: Yrep
Spectrometer: HR+D1059
Trigger mode: 1
Integration Time (sec): 1.000000E-1
Scans to average: 1
Electric dark correction enabled: true
Nonlinearity correction enabled: false
Boxcar width: 0
XAxis mode: Wavelengths
Number of Pixels in Spectrum: 2048
>>>>>Begin Spectral Data<<<<<
223.165	-13.38
223.4	-13.38
223.635	-13.38
223.869	-11.38
224.104	-31.38
224.338	-13.38
224.573	-20.38
224.808	-14.38
225.042	-15.38
225.277	3.62
225.511	2.62
225.746	-4.38
225.98	11.62
226.215	11.62
226.449	23.62
226.683	12.62
226.918	24.62
227.152	33.62
227.387	22.62
227.621	51.62
227.856	38.62
228.09	41.62
228.324	35.62
228.559	45.62
228.793	53.62
229.027	60.62
229.262	66.62
229.496	68.62
229.73	69.62
229.964	71.62
230.199	72.62
230.433	83.62
230.667	80.62
230.901	77.62
231.136	67.62
231.37	75.62
231.604	67.62
231.838	71.62
232.072	74.62
232.306	75.62
232.541	68.62
232.775	69.62
233.009	67.62
233.243	85.62
233.477	74.62
233.711	76.62
233.945	86.62
234.179	80.62
234.413	68.62
234.647	82.62
234.881	73.62
235.115	82.62
235.349	77.62
235.583	66.62
235.817	80.62
236.051	76.62
236.285	77.62
236.519	69.62
236.753	67.62
236.987	74.62
237.221	66.62
237.455	85.62
237.689	75.62
237.922	75.62
238.156	61.62
238.39	61.62
238.624	79.62
238.858	82.62
239.091	90.62
239.325	76.62
239.559	59.62
239.793	87.62
240.027	81.62
240.26	75.62
240.494	82.62
240.728	76.62
240.961	83.62
241.195	65.62
241.429	67.62
241.662	74.62
241.896	86.62
242.13	89.62
242.363	74.62
242.597	79.62
242.83	64.62
243.064	74.62
243.298	79.62
243.531	64.62
243.765	75.62
243.998	62.62
244.232	70.62
244.465	79.62
244.699	64.62
244.932	78.62
245.166	72.62
245.399	79.62
245.633	68.62
245.866	65.62
246.099	76.62
246.333	90.62
246.566	82.62
246.8	64.62
247.033	70.62
247.266	83.62
247.5	68.62
247.733	86.62
247.966	71.62
248.2	70.62
248.433	58.62
248.666	83.62
248.899	84.62
249.133	70.62
249.366	81.62
249.599	86.62
249.832	87.62
250.066	80.62
250.299	80.62
250.532	80.62
250.765	95.62
250.998	86.62
251.231	72.62
251.465	74.62
251.698	74.62
251.931	71.62
252.164	69.62
252.397	69.62
252.63	82.62
252.863	80.62
253.096	83.62
253.329	87.62
253.562	77.62
253.795	72.62
254.028	73.62
254.261	90.62
254.494	85.62
254.727	74.62
254.96	76.62
255.193	71.62
255.426	80.62
255.659	71.62
255.892	68.62
256.124	74.62
256.357	68.62
256.59	87.62
256.823	65.62
257.056	81.62
257.289	79.62
257.521	82.62
257.754	71.62
257.987	85.62
258.22	79.62
258.452	71.62
258.685	79.62
258.918	77.62
259.151	69.62
259.383	81.62
259.616	87.62
259.849	64.62
260.081	64.62
260.314	79.62
260.547	79.62
260.779	69.62
261.012	79.62
261.244	75.62
261.477	75.62
261.71	85.62
261.942	85.62
262.175	103.62
262.407	95.62
262.64	85.62
262.872	89.62
263.105	71.62
263.337	87.62
263.57	84.62
263.802	76.62
264.035	69.62
264.267	82.62
264.499	72.62
264.732	80.62
264.964	79.62
265.197	77.62
265.429	66.62
265.661	94.62
265.894	72.62
266.126	82.62
266.358	84.62
266.591	80.62
266.823	76.62
267.055	76.62
267.287	82.62
267.52	94.62
267.752	90.62
267.984	87.62
268.216	75.62
268.448	75.62
268.681	90.62
268.913	72.62
269.145	78.62
269.377	81.62
269.609	76.62
269.841	83.62
270.073	91.62
270.306	76.62
270.538	93.62
270.77	76.62
271.002	74.62
271.234	80.62
271.466	87.62
271.698	78.62
271.93	76.62
272.162	99.62
272.394	69.62
272.626	87.62
272.858	79.62
273.09	82.62
273.322	83.62
273.553	95.62
273.785	78.62
274.017	69.62
274.249	80.62
274.481	76.62
274.713	76.62
274.945	99.62
275.176	82.62
275.408	96.62
275.64	91.62
275.872	82.62
276.104	87.62
276.335	80.62
276.567	81.62
276.799	97.62
277.031	89.62
277.262	92.62
277.494	92.62
277.726	72.62
277.957	68.62
278.189	80.62
278.421	87.62
278.652	95.62
278.884	95.62
279.115	82.62
279.347	82.62
279.579	73.62
279.81	79.62
280.042	99.62
280.273	78.62
280.505	75.62
280.736	86.62
280.968	93.62
281.199	81.62
281.431	99.62
281.662	85.62
281.894	91.62
282.125	94.62
282.356	112.62
282.588	141.62
282.819	104.62
283.051	92.62
283.282	94.62
283.513	77.62
283.745	75.62
283.976	76.62
284.207	85.62
284.439	83.62
284.67	94.62
284.901	89.62
285.132	78.62
285.364	75.62
285.595	85.62
285.826	86.62
286.057	83.62
286.288	87.62
286.52	93.62
286.751	83.62
286.982	73.62
287.213	86.62
287.444	85.62
287.675	91.62
287.906	86.62
288.138	93.62
288.369	78.62
288.6	87.62
288.831	88.62
289.062	93.62
289.293	65.62
289.524	72.62
289.755	79.62
289.986	91.62
290.217	81.62
290.448	81.62
290.679	84.62
290.91	83.62
291.141	75.62
291.371	87.62
291.602	81.62
291.833	74.62
292.064	82.62
292.295	94.62
292.526	84.62
292.757	80.62
292.987	90.62
293.218	84.62
293.449	85.62
293.68	83.62
293.91	83.62
294.141	86.62
294.372	80.62
294.603	77.62
294.833	79.62
295.064	94.62
295.295	86.62
295.525	67.62
295.756	87.62
295.987	107.62
296.217	124.62
296.448	111.62
296.679	103.62
296.909	92.62
297.14	82.62
297.37	78.62
297.601	87.62
297.831	74.62
298.062	89.62
298.292	82.62
298.523	88.62
298.753	81.62
298.984	91.62
299.214	86.62
299.445	90.62
299.675	88.62
299.905	79.62
300.136	89.62
300.366	90.62
300.597	98.62
300.827	95.62
301.057	96.62
301.288	84.62
301.518	80.62
301.748	88.62
301.979	93.62
302.209	94.62
302.439	90.62
302.669	79.62
302.9	88.62
303.13	105.62
303.36	87.62
303.59	97.62
303.82	101.62
304.051	100.62
304.281	94.62
304.511	87.62
304.741	78.62
304.971	74.62
305.201	73.62
305.431	74.62
305.661	91.62
305.891	80.62
306.121	108.62
306.352	98.62
306.582	117.62
306.812	82.62
307.042	95.62
307.272	80.62
307.502	93.62
307.731	79.62
307.961	108.62
308.191	82.62
308.421	77.62
308.651	87.62
308.881	82.62
309.111	96.62
309.341	92.62
309.571	97.62
309.8	81.62
310.03	71.62
310.26	100.62
310.49	85.62
310.72	84.62
310.949	102.62
311.179	107.62
311.409	84.62
311.639	94.62
311.868	93.62
312.098	83.62
312.328	78.62
312.557	76.62
312.787	90.62
313.017	102.62
313.246	91.62
313.476	90.62
313.706	83.62
313.935	86.62
314.165	94.62
314.394	84.62
314.624	84.62
314.853	87.62
315.083	91.62
315.312	67.62
315.542	69.62
315.771	105.62
316.001	99.62
316.23	89.62
316.46	91.62
316.689	95.62
316.919	83.62
317.148	99.62
317.377	89.62
317.607	82.62
317.836	92.62
318.065	88.62
318.295	95.62
318.524	76.62
318.753	80.62
318.983	88.62
319.212	101.62
319.441	101.62
319.67	104.62
319.9	96.62
320.129	88.62
320.358	77.62
320.587	72.62
320.816	109.62
321.046	100.62
321.275	84.62
321.504	80.62
321.733	81.62
321.962	95.62
322.191	83.62
322.42	109.62
322.649	101.62
322.878	101.62
323.108	110.62
323.337	113.62
323.566	125.62
323.795	167.62
324.024	194.62
324.253	390.62
324.482	773.62
324.71	1620.62
324.939	2093.62
325.168	772.62
325.397	241.62
325.626	141.62
325.855	104.62
326.084	119.62
326.313	123.62
326.542	145.62
326.77	220.62
326.999	458.62
327.228	919.62
327.457	1658.62
327.686	1269.62
327.914	339.62
328.143	188.62
328.372	128.62
328.6	117.62
328.829	118.62
329.058	111.62
329.287	116.62
329.515	92.62
329.744	95.62
329.972	104.62
330.201	97.62
330.43	113.62
330.658	102.62
330.887	138.62
331.115	120.62
331.344	94.62
331.572	73.62
331.801	88.62
332.03	104.62
332.258	102.62
332.486	88.62
332.715	85.62
332.943	84.62
333.172	103.62
333.4	100.62
333.629	99.62
333.857	104.62
334.085	117.62
334.314	100.62
334.542	117.62
334.771	112.62
334.999	90.62
335.227	91.62
335.455	86.62
335.684	95.62
335.912	85.62
336.14	87.62
336.369	95.62
336.597	90.62
336.825	99.62
337.053	77.62
337.281	91.62
337.51	85.62
337.738	82.62
337.966	88.62
338.194	74.62
338.422	92.62
338.65	98.62
338.878	85.62
339.106	93.62
339.334	74.62
339.562	84.62
339.79	84.62
340.018	83.62
340.246	92.62
340.474	88.62
340.702	81.62
340.93	92.62
341.158	97.62
341.386	108.62
341.614	80.62
341.842	80.62
342.07	88.62
342.298	94.62
342.526	93.62
342.754	75.62
342.981	72.62
343.209	85.62
343.437	96.62
343.665	79.62
343.893	94.62
344.12	103.62
344.348	76.62
344.576	89.62
344.804	75.62
345.031	86.62
345.259	85.62
345.487	86.62
345.714	86.62
345.942	77.62
346.17	79.62
346.397	89.62
346.625	85.62
346.853	88.62
347.08	88.62
347.308	94.62
347.535	98.62
347.763	87.62
347.99	93.62
348.218	94.62
348.445	95.62
348.673	106.62
348.9	102.62
349.128	87.62
349.355	92.62
349.583	93.62
349.81	95.62
350.037	93.62
350.265	101.62
350.492	95.62
350.72	97.62
350.947	83.62
351.174	84.62
351.402	95.62
351.629	107.62
351.856	95.62
352.083	93.62
352.311	92.62
352.538	114.62
352.765	105.62
352.992	113.62
353.22	101.62
353.447	89.62
353.674	93.62
353.901	83.62
354.128	87.62
354.355	95.62
354.583	88.62
354.81	100.62
355.037	89.62
355.264	93.62
355.491	99.62
355.718	88.62
355.945	91.62
356.172	100.62
356.399	101.62
356.626	86.62
356.853	94.62
357.08	91.62
357.307	95.62
357.534	86.62
357.761	98.62
357.988	87.62
358.215	94.62
358.441	89.62
358.668	87.62
358.895	78.62
359.122	87.62
359.349	91.62
359.576	85.62
359.802	103.62
360.029	106.62
360.256	96.62
360.483	94.62
360.709	85.62
360.936	91.62
361.163	88.62
361.39	74.62
361.616	94.62
361.843	91.62
362.07	93.62
362.296	89.62
362.523	93.62
362.749	89.62
362.976	75.62
363.203	94.62
363.429	92.62
363.656	82.62
363.882	68.62
364.109	88.62
364.335	83.62
364.562	75.62
364.788	84.62
365.015	87.62
365.241	93.62
365.468	98.62
365.694	99.62
365.92	86.62
366.147	94.62
366.373	96.62
366.599	82.62
366.826	81.62
367.052	96.62
367.278	91.62
367.505	92.62
367.731	74.62
367.957	78.62
368.184	100.62
368.41	103.62
368.636	89.62
368.862	115.62
369.089	89.62
369.315	86.62
369.541	90.62
369.767	83.62
369.993	79.62
370.219	79.62
370.445	64.62
370.672	81.62
370.898	87.62
371.124	87.62
371.35	84.62
371.576	79.62
371.802	78.62
372.028	76.62
372.254	81.62
372.48	89.62
372.706	84.62
372.932	99.62
373.158	78.62
373.384	87.62
373.61	95.62
373.835	80.62
374.061	81.62
374.287	94.62
374.513	82.62
374.739	79.62
374.965	87.62
375.191	84.62
375.416	89.62
375.642	82.62
375.868	85.62
376.094	81.62
376.319	91.62
376.545	90.62
376.771	67.62
376.997	89.62
377.222	101.62
377.448	88.62
377.674	85.62
377.899	79.62
378.125	83.62
378.35	81.62
378.576	79.62
378.802	83.62
379.027	87.62
379.253	74.62
379.478	82.62
379.704	98.62
379.929	73.62
380.155	83.62
380.38	93.62
380.606	87.62
380.831	103.62
381.057	107.62
381.282	74.62
381.507	85.62
381.733	89.62
381.958	80.62
382.184	87.62
382.409	87.62
382.634	105.62
382.86	76.62
383.085	84.62
383.31	95.62
383.535	81.62
383.761	96.62
383.986	94.62
384.211	84.62
384.436	90.62
384.662	112.62
384.887	80.62
385.112	91.62
385.337	99.62
385.562	102.62
385.787	97.62
386.013	104.62
386.238	102.62
386.463	96.62
386.688	98.62
386.913	98.62
387.138	95.62
387.363	98.62
387.588	99.62
387.813	108.62
388.038	109.62
388.263	116.62
388.488	108.62
388.713	92.62
388.938	98.62
389.163	82.62
389.387	83.62
389.612	94.62
389.837	98.62
390.062	81.62
390.287	76.62
390.512	90.62
390.736	83.62
390.961	79.62
391.186	88.62
391.411	93.62
391.636	81.62
391.86	98.62
392.085	80.62
392.31	76.62
392.534	71.62
392.759	93.62
392.984	92.62
393.208	85.62
393.433	77.62
393.658	85.62
393.882	79.62
394.107	67.62
394.331	78.62
394.556	80.62
394.78	84.62
395.005	70.62
395.229	77.62
395.454	78.62
395.678	90.62
395.903	86.62
396.127	83.62
396.352	88.62
396.576	86.62
396.801	83.62
397.025	84.62
397.249	78.62
397.474	84.62
397.698	88.62
397.922	92.62
398.147	78.62
398.371	87.62
398.595	97.62
398.82	80.62
399.044	82.62
399.268	79.62
399.492	85.62
399.717	83.62
399.941	98.62
400.165	88.62
400.389	81.62
400.613	79.62
400.837	87.62
401.062	84.62
401.286	79.62
401.51	71.62
401.734	91.62
401.958	84.62
402.182	124.62
402.406	141.62
402.63	101.62
402.854	94.62
403.078	84.62
403.302	86.62
403.526	92.62
403.75	67.62
403.974	84.62
404.198	74.62
404.422	92.62
404.645	83.62
404.869	85.62
405.093	94.62
405.317	72.62
405.541	91.62
405.765	85.62
405.988	99.62
406.212	144.62
406.436	197.62
406.66	126.62
406.883	97.62
407.107	88.62
407.331	94.62
407.555	96.62
407.778	84.62
408.002	98.62
408.226	77.62
408.449	88.62
408.673	83.62
408.896	90.62
409.12	93.62
409.344	88.62
409.567	84.62
409.791	86.62
410.014	90.62
410.238	79.62
410.461	88.62
410.685	84.62
410.908	86.62
411.132	90.62
411.355	100.62
411.578	103.62
411.802	88.62
412.025	79.62
412.249	77.62
412.472	84.62
412.695	84.62
412.919	86.62
413.142	83.62
413.365	92.62
413.589	81.62
413.812	90.62
414.035	86.62
414.258	79.62
414.482	83.62
414.705	90.62
414.928	83.62
415.151	92.62
415.374	100.62
415.597	88.62
415.821	82.62
416.044	82.62
416.267	86.62
416.49	69.62
416.713	89.62
416.936	92.62
417.159	88.62
417.382	92.62
417.605	72.62
417.828	85.62
418.051	102.62
418.274	89.62
418.497	80.62
418.72	96.62
418.943	84.62
419.166	74.62
419.389	96.62
419.611	87.62
419.834	86.62
420.057	89.62
420.28	83.62
420.503	74.62
420.726	95.62
420.948	82.62
421.171	109.62
421.394	85.62
421.617	85.62
421.839	69.62
422.062	68.62
422.285	100.62
422.507	97.62
422.73	95.62
422.953	82.62
423.175	92.62
423.398	83.62
423.621	88.62
423.843	84.62
424.066	78.62
424.288	76.62
424.511	90.62
424.733	91.62
424.956	113.62
425.178	85.62
425.401	80.62
425.623	78.62
425.846	75.62
426.068	85.62
426.291	82.62
426.513	86.62
426.735	72.62
426.958	96.62
427.18	93.62
427.402	122.62
427.625	155.62
427.847	114.62
428.069	97.62
428.292	94.62
428.514	78.62
428.736	85.62
428.958	101.62
429.181	86.62
429.403	76.62
429.625	86.62
429.847	80.62
430.069	89.62
430.292	82.62
430.514	82.62
430.736	83.62
430.958	77.62
431.18	73.62
431.402	81.62
431.624	86.62
431.846	82.62
432.068	95.62
432.29	89.62
432.512	86.62
432.734	70.62
432.956	74.62
433.178	89.62
433.4	74.62
433.622	87.62
433.844	92.62
434.066	80.62
434.287	99.62
434.509	87.62
434.731	73.62
434.953	94.62
435.175	83.62
435.397	83.62
435.618	76.62
435.84	91.62
436.062	112.62
436.284	103.62
436.505	79.62
436.727	89.62
436.949	92.62
437.17	84.62
437.392	88.62
437.614	104.62
437.835	85.62
438.057	103.62
438.278	95.62
438.5	97.62
438.721	117.62
438.943	90.62
439.165	88.62
439.386	74.62
439.608	86.62
439.829	85.62
440.05	113.62
440.272	120.62
440.493	91.62
440.715	88.62
440.936	87.62
441.158	92.62
441.379	77.62
441.6	92.62
441.822	85.62
442.043	95.62
442.264	97.62
442.486	88.62
442.707	94.62
442.928	86.62
443.149	111.62
443.371	107.62
443.592	97.62
443.813	84.62
444.034	98.62
444.255	75.62
444.476	85.62
444.698	89.62
444.919	95.62
445.14	138.62
445.361	100.62
445.582	106.62
445.803	122.62
446.024	123.62
446.245	124.62
446.466	100.62
446.687	91.62
446.908	90.62
447.129	78.62
447.35	89.62
447.571	75.62
447.792	87.62
448.013	104.62
448.234	97.62
448.455	75.62
448.675	101.62
448.896	102.62
449.117	85.62
449.338	87.62
449.559	122.62
449.779	111.62
450	94.62
450.221	61.62
450.442	85.62
450.662	88.62
450.883	113.62
451.104	91.62
451.324	93.62
451.545	91.62
451.766	86.62
451.986	90.62
452.207	65.62
452.428	82.62
452.648	80.62
452.869	102.62
453.089	100.62
453.31	96.62
453.53	87.62
453.751	67.62
453.971	106.62
454.192	94.62
454.412	76.62
454.633	74.62
454.853	83.62
455.073	93.62
455.294	72.62
455.514	85.62
455.734	71.62
455.955	85.62
456.175	85.62
456.395	76.62
456.616	85.62
456.836	87.62
457.056	78.62
457.276	86.62
457.497	69.62
457.717	77.62
457.937	83.62
458.157	91.62
458.377	101.62
458.598	100.62
458.818	127.62
459.038	139.62
459.258	108.62
459.478	93.62
459.698	79.62
459.918	92.62
460.138	85.62
460.358	88.62
460.578	89.62
460.798	74.62
461.018	86.62
461.238	93.62
461.458	78.62
461.678	90.62
461.898	64.62
462.118	68.62
462.338	78.62
462.558	82.62
462.777	81.62
462.997	83.62
463.217	87.62
463.437	86.62
463.657	74.62
463.876	76.62
464.096	91.62
464.316	82.62
464.536	86.62
464.755	104.62
464.975	89.62
465.195	129.62
465.414	133.62
465.634	94.62
465.854	81.62
466.073	82.62
466.293	86.62
466.512	84.62
466.732	87.62
466.951	85.62
467.171	84.62
467.391	98.62
467.61	97.62
467.829	99.62
468.049	92.62
468.268	94.62
468.488	85.62
468.707	81.62
468.927	83.62
469.146	77.62
469.365	77.62
469.585	83.62
469.804	88.62
470.023	94.62
470.243	84.62
470.462	102.62
470.681	97.62
470.901	82.62
471.12	72.62
471.339	84.62
471.558	84.62
471.777	79.62
471.997	77.62
472.216	104.62
472.435	122.62
472.654	82.62
472.873	78.62
473.092	80.62
473.311	91.62
473.53	96.62
473.749	91.62
473.968	90.62
474.187	99.62
474.406	88.62
474.625	84.62
474.844	85.62
475.063	79.62
475.282	86.62
475.501	72.62
475.72	80.62
475.939	84.62
476.158	82.62
476.377	83.62
476.596	79.62
476.814	92.62
477.033	84.62
477.252	92.62
477.471	84.62
477.69	80.62
477.908	82.62
478.127	87.62
478.346	101.62
478.564	87.62
478.783	105.62
479.002	90.62
479.22	74.62
479.439	79.62
479.658	68.62
479.876	90.62
480.095	84.62
480.313	83.62
480.532	96.62
480.751	87.62
480.969	86.62
481.188	146.62
481.406	125.62
481.624	98.62
481.843	83.62
482.061	73.62
482.28	101.62
482.498	70.62
482.717	76.62
482.935	101.62
483.153	83.62
483.372	78.62
483.59	85.62
483.808	85.62
484.027	94.62
484.245	81.62
484.463	85.62
484.681	88.62
484.9	84.62
485.118	73.62
485.336	79.62
485.554	92.62
485.772	102.62
485.99	101.62
486.209	95.62
486.427	93.62
486.645	114.62
486.863	110.62
487.081	95.62
487.299	94.62
487.517	94.62
487.735	90.62
487.953	93.62
488.171	98.62
488.389	91.62
488.607	87.62
488.825	83.62
489.043	83.62
489.261	88.62
489.479	96.62
489.696	84.62
489.914	79.62
490.132	82.62
490.35	91.62
490.568	84.62
490.786	79.62
491.003	87.62
491.221	94.62
491.439	81.62
491.657	89.62
491.874	96.62
492.092	83.62
492.31	80.62
492.527	67.62
492.745	91.62
492.963	88.62
493.18	84.62
493.398	102.62
493.615	86.62
493.833	87.62
494.05	89.62
494.268	73.62
494.485	82.62
494.703	80.62
494.92	79.62
495.138	75.62
495.355	78.62
495.573	86.62
495.79	88.62
496.008	96.62
496.225	85.62
496.442	95.62
496.66	90.62
496.877	101.62
497.094	92.62
497.312	95.62
497.529	107.62
497.746	86.62
497.963	82.62
498.181	94.62
498.398	91.62
498.615	95.62
498.832	102.62
499.049	88.62
499.267	89.62
499.484	90.62
499.701	88.62
499.918	85.62
500.135	85.62
500.352	80.62
500.569	90.62
500.786	99.62
501.003	92.62
501.22	76.62
501.437	87.62
501.654	94.62
501.871	88.62
502.088	88.62
502.305	87.62
502.522	87.62
502.739	97.62
502.956	80.62
503.172	90.62
503.389	94.62
503.606	102.62
503.823	83.62
504.04	82.62
504.256	94.62
504.473	94.62
504.69	92.62
504.907	86.62
505.123	88.62
505.34	96.62
505.557	94.62
505.773	82.62
505.99	88.62
506.207	84.62
506.423	78.62
506.64	98.62
506.856	82.62
507.073	89.62
507.289	88.62
507.506	97.62
507.722	85.62
507.939	98.62
508.155	95.62
508.372	90.62
508.588	89.62
508.805	93.62
509.021	80.62
509.238	98.62
509.454	91.62
509.67	90.62
509.887	99.62
510.103	124.62
510.319	192.62
510.536	640.62
510.752	1975.62
510.968	538.62
511.184	134.62
511.401	101.62
511.617	87.62
511.833	88.62
512.049	77.62
512.265	86.62
512.481	89.62
512.698	71.62
512.914	85.62
513.13	89.62
513.346	91.62
513.562	95.62
513.778	101.62
513.994	87.62
514.21	106.62
514.426	103.62
514.642	122.62
514.858	122.62
515.074	126.62
515.29	391.62
515.506	1199.62
515.721	467.62
515.937	142.62
516.153	106.62
516.369	79.62
516.585	85.62
516.801	93.62
517.016	88.62
517.232	78.62
517.448	95.62
