Data from Circ_2002_H10_HRD10591_00040.txt Node
Date: Wed Jan 03 10:41:06 EST 2024
User: Yrep
Spectrometer: HR+D1059
Trigger mode: 1
Integration Time (sec): 1.000000E-1
Scans to average: 1
Electric dark correction enabled: true
Nonlinearity correction enabled: false
Boxcar width: 0
XAxis mode: Wavelengths
Number of Pixels in Spectrum: 2048
>>>>>Begin Spectral Data<<<<<
223.165	-14.56
223.4	-14.56
223.635	-14.56
223.869	-14.56
224.104	-15.56
224.338	-18.56
224.573	-19.56
224.808	-13.56
225.042	-11.56
225.277	-7.56
225.511	1.44
225.746	8.44
225.98	1.44
226.215	16.44
226.449	17.44
226.683	19.44
226.918	20.44
227.152	30.44
227.387	37.44
227.621	49.44
227.856	41.44
228.09	44.44
228.324	39.44
228.559	47.44
228.793	47.44
229.027	57.44
229.262	65.44
229.496	77.44
229.73	85.44
229.964	72.44
230.199	80.44
230.433	81.44
230.667	92.44
230.901	84.44
231.136	82.44
231.37	73.44
231.604	90.44
231.838	81.44
232.072	78.44
232.306	79.44
232.541	74.44
232.775	88.44
233.009	86.44
233.243	68.44
233.477	74.44
233.711	57.44
233.945	82.44
234.179	86.44
234.413	93.44
234.647	85.44
234.881	88.44
235.115	73.44
235.349	75.44
235.583	75.44
235.817	79.44
236.051	84.44
236.285	76.44
236.519	79.44
236.753	75.44
236.987	86.44
237.221	87.44
237.455	75.44
237.689	72.44
237.922	85.44
238.156	75.44
238.39	76.44
238.624	82.44
238.858	79.44
239.091	56.44
239.325	76.44
239.559	65.44
239.793	81.44
240.027	75.44
240.26	67.44
240.494	88.44
240.728	83.44
240.961	71.44
241.195	70.44
241.429	82.44
241.662	80.44
241.896	83.44
242.13	82.44
242.363	77.44
242.597	83.44
242.83	89.44
243.064	82.44
243.298	82.44
243.531	80.44
243.765	83.44
243.998	80.44
244.232	101.44
244.465	86.44
244.699	93.44
244.932	64.44
245.166	72.44
245.399	82.44
245.633	72.44
245.866	75.44
246.099	81.44
246.333	81.44
246.566	82.44
246.8	79.44
247.033	73.44
247.266	79.44
247.5	82.44
247.733	83.44
247.966	79.44
248.2	79.44
248.433	78.44
248.666	84.44
248.899	83.44
249.133	80.44
249.366	102.44
249.599	84.44
249.832	87.44
250.066	73.44
250.299	85.44
250.532	82.44
250.765	66.44
250.998	80.44
251.231	79.44
251.465	102.44
251.698	79.44
251.931	75.44
252.164	75.44
252.397	81.44
252.63	85.44
252.863	77.44
253.096	84.44
253.329	82.44
253.562	71.44
253.795	76.44
254.028	81.44
254.261	96.44
254.494	80.44
254.727	77.44
254.96	87.44
255.193	92.44
255.426	88.44
255.659	73.44
255.892	100.44
256.124	82.44
256.357	88.44
256.59	87.44
256.823	79.44
257.056	81.44
257.289	82.44
257.521	90.44
257.754	80.44
257.987	82.44
258.22	93.44
258.452	80.44
258.685	103.44
258.918	76.44
259.151	81.44
259.383	91.44
259.616	72.44
259.849	81.44
260.081	81.44
260.314	79.44
260.547	69.44
260.779	85.44
261.012	83.44
261.244	84.44
261.477	87.44
261.71	92.44
261.942	98.44
262.175	115.44
262.407	81.44
262.64	88.44
262.872	88.44
263.105	77.44
263.337	85.44
263.57	83.44
263.802	62.44
264.035	78.44
264.267	90.44
264.499	90.44
264.732	92.44
264.964	90.44
265.197	89.44
265.429	83.44
265.661	77.44
265.894	80.44
266.126	82.44
266.358	79.44
266.591	74.44
266.823	79.44
267.055	75.44
267.287	91.44
267.52	80.44
267.752	82.44
267.984	93.44
268.216	85.44
268.448	84.44
268.681	87.44
268.913	80.44
269.145	89.44
269.377	84.44
269.609	85.44
269.841	99.44
270.073	85.44
270.306	74.44
270.538	93.44
270.77	100.44
271.002	93.44
271.234	68.44
271.466	82.44
271.698	76.44
271.93	76.44
272.162	86.44
272.394	98.44
272.626	90.44
272.858	90.44
273.09	76.44
273.322	97.44
273.553	87.44
273.785	76.44
274.017	93.44
274.249	81.44
274.481	92.44
274.713	86.44
274.945	65.44
275.176	97.44
275.408	85.44
275.64	81.44
275.872	89.44
276.104	84.44
276.335	82.44
276.567	90.44
276.799	109.44
277.031	110.44
277.262	91.44
277.494	93.44
277.726	101.44
277.957	83.44
278.189	83.44
278.421	91.44
278.652	87.44
278.884	81.44
279.115	92.44
279.347	72.44
279.579	81.44
279.81	97.44
280.042	79.44
280.273	88.44
280.505	86.44
280.736	84.44
280.968	92.44
281.199	79.44
281.431	95.44
281.662	73.44
281.894	91.44
282.125	109.44
282.356	121.44
282.588	134.44
282.819	108.44
283.051	85.44
283.282	81.44
283.513	99.44
283.745	82.44
283.976	82.44
284.207	85.44
284.439	85.44
284.67	81.44
284.901	97.44
285.132	88.44
285.364	79.44
285.595	89.44
285.826	83.44
286.057	92.44
286.288	103.44
286.52	95.44
286.751	85.44
286.982	83.44
287.213	77.44
287.444	81.44
287.675	93.44
287.906	90.44
288.138	92.44
288.369	91.44
288.6	83.44
288.831	80.44
289.062	96.44
289.293	93.44
289.524	86.44
289.755	83.44
289.986	85.44
290.217	82.44
290.448	95.44
290.679	83.44
290.91	88.44
291.141	93.44
291.371	102.44
291.602	83.44
291.833	91.44
292.064	84.44
292.295	79.44
292.526	86.44
292.757	102.44
292.987	83.44
293.218	89.44
293.449	100.44
293.68	87.44
293.91	84.44
294.141	90.44
294.372	96.44
294.603	91.44
294.833	98.44
295.064	99.44
295.295	98.44
295.525	90.44
295.756	93.44
295.987	109.44
296.217	124.44
296.448	105.44
296.679	102.44
296.909	89.44
297.14	93.44
297.37	103.44
297.601	89.44
297.831	93.44
298.062	98.44
298.292	94.44
298.523	102.44
298.753	88.44
298.984	90.44
299.214	89.44
299.445	86.44
299.675	92.44
299.905	86.44
300.136	88.44
300.366	96.44
300.597	97.44
300.827	93.44
301.057	106.44
301.288	99.44
301.518	101.44
301.748	82.44
301.979	92.44
302.209	84.44
302.439	91.44
302.669	74.44
302.9	90.44
303.13	91.44
303.36	95.44
303.59	94.44
303.82	103.44
304.051	93.44
304.281	95.44
304.511	104.44
304.741	93.44
304.971	87.44
305.201	97.44
305.431	82.44
305.661	93.44
305.891	100.44
306.121	87.44
306.352	96.44
306.582	90.44
306.812	101.44
307.042	90.44
307.272	93.44
307.502	92.44
307.731	97.44
307.961	85.44
308.191	97.44
308.421	92.44
308.651	99.44
308.881	102.44
309.111	89.44
309.341	97.44
309.571	88.44
309.8	88.44
310.03	88.44
310.26	92.44
310.49	108.44
310.72	88.44
310.949	88.44
311.179	102.44
311.409	90.44
311.639	96.44
311.868	98.44
312.098	82.44
312.328	91.44
312.557	104.44
312.787	105.44
313.017	114.44
313.246	80.44
313.476	85.44
313.706	101.44
313.935	90.44
314.165	99.44
314.394	95.44
314.624	88.44
314.853	98.44
315.083	89.44
315.312	89.44
315.542	100.44
315.771	92.44
316.001	81.44
316.23	89.44
316.46	82.44
316.689	89.44
316.919	97.44
317.148	87.44
317.377	99.44
317.607	103.44
317.836	83.44
318.065	90.44
318.295	78.44
318.524	97.44
318.753	84.44
318.983	83.44
319.212	99.44
319.441	104.44
319.67	90.44
319.9	98.44
320.129	92.44
320.358	99.44
320.587	85.44
320.816	102.44
321.046	97.44
321.275	91.44
321.504	94.44
321.733	97.44
321.962	96.44
322.191	92.44
322.42	105.44
322.649	115.44
322.878	118.44
323.108	104.44
323.337	120.44
323.566	139.44
323.795	147.44
324.024	193.44
324.253	375.44
324.482	760.44
324.71	1603.44
324.939	2086.44
325.168	762.44
325.397	234.44
325.626	133.44
325.855	127.44
326.084	112.44
326.313	117.44
326.542	161.44
326.77	249.44
326.999	430.44
327.228	927.44
327.457	1648.44
327.686	1275.44
327.914	344.44
328.143	173.44
328.372	137.44
328.6	100.44
328.829	109.44
329.058	122.44
329.287	110.44
329.515	116.44
329.744	107.44
329.972	103.44
330.201	106.44
330.43	122.44
330.658	120.44
330.887	155.44
331.115	106.44
331.344	104.44
331.572	102.44
331.801	105.44
332.03	103.44
332.258	93.44
332.486	92.44
332.715	108.44
332.943	102.44
333.172	102.44
333.4	105.44
333.629	87.44
333.857	107.44
334.085	103.44
334.314	108.44
334.542	107.44
334.771	103.44
334.999	100.44
335.227	85.44
335.455	78.44
335.684	97.44
335.912	94.44
336.14	111.44
336.369	102.44
336.597	106.44
336.825	89.44
337.053	96.44
337.281	100.44
337.51	92.44
337.738	100.44
337.966	91.44
338.194	96.44
338.422	107.44
338.65	104.44
338.878	99.44
339.106	92.44
339.334	86.44
339.562	106.44
339.79	85.44
340.018	81.44
340.246	82.44
340.474	87.44
340.702	88.44
340.93	98.44
341.158	97.44
341.386	98.44
341.614	95.44
341.842	93.44
342.07	81.44
342.298	77.44
342.526	92.44
342.754	93.44
342.981	96.44
343.209	101.44
343.437	85.44
343.665	90.44
343.893	83.44
344.12	93.44
344.348	79.44
344.576	85.44
344.804	86.44
345.031	88.44
345.259	72.44
345.487	83.44
345.714	82.44
345.942	89.44
346.17	105.44
346.397	104.44
346.625	80.44
346.853	83.44
347.08	90.44
347.308	83.44
347.535	76.44
347.763	103.44
347.99	111.44
348.218	94.44
348.445	105.44
348.673	98.44
348.9	82.44
349.128	110.44
349.355	93.44
349.583	93.44
349.81	85.44
350.037	98.44
350.265	93.44
350.492	97.44
350.72	92.44
350.947	99.44
351.174	106.44
351.402	122.44
351.629	102.44
351.856	107.44
352.083	89.44
352.311	84.44
352.538	107.44
352.765	111.44
352.992	113.44
353.22	122.44
353.447	120.44
353.674	92.44
353.901	106.44
354.128	97.44
354.355	97.44
354.583	96.44
354.81	109.44
355.037	100.44
355.264	87.44
355.491	107.44
355.718	110.44
355.945	85.44
356.172	92.44
356.399	107.44
356.626	104.44
356.853	103.44
357.08	87.44
357.307	89.44
357.534	83.44
357.761	100.44
357.988	104.44
358.215	99.44
358.441	92.44
358.668	71.44
358.895	99.44
359.122	99.44
359.349	92.44
359.576	106.44
359.802	96.44
360.029	101.44
360.256	111.44
360.483	98.44
360.709	95.44
360.936	99.44
361.163	95.44
361.39	85.44
361.616	81.44
361.843	101.44
362.07	83.44
362.296	99.44
362.523	96.44
362.749	89.44
362.976	89.44
363.203	99.44
363.429	84.44
363.656	89.44
363.882	90.44
364.109	88.44
364.335	103.44
364.562	104.44
364.788	87.44
365.015	99.44
365.241	93.44
365.468	96.44
365.694	108.44
365.92	95.44
366.147	91.44
366.373	102.44
366.599	101.44
366.826	83.44
367.052	69.44
367.278	92.44
367.505	82.44
367.731	100.44
367.957	68.44
368.184	89.44
368.41	96.44
368.636	108.44
368.862	101.44
369.089	98.44
369.315	96.44
369.541	97.44
369.767	97.44
369.993	97.44
370.219	90.44
370.445	91.44
370.672	82.44
370.898	104.44
371.124	66.44
371.35	87.44
371.576	96.44
371.802	85.44
372.028	82.44
372.254	82.44
372.48	88.44
372.706	100.44
372.932	81.44
373.158	87.44
373.384	103.44
373.61	112.44
373.835	95.44
374.061	90.44
374.287	82.44
374.513	105.44
374.739	89.44
374.965	89.44
375.191	86.44
375.416	98.44
375.642	89.44
375.868	103.44
376.094	85.44
376.319	79.44
376.545	88.44
376.771	94.44
376.997	92.44
377.222	100.44
377.448	89.44
377.674	88.44
377.899	89.44
378.125	87.44
378.35	88.44
378.576	88.44
378.802	88.44
379.027	96.44
379.253	102.44
379.478	97.44
379.704	101.44
379.929	100.44
380.155	85.44
380.38	101.44
380.606	101.44
380.831	82.44
381.057	93.44
381.282	85.44
381.507	101.44
381.733	107.44
381.958	100.44
382.184	98.44
382.409	90.44
382.634	105.44
382.86	102.44
383.085	100.44
383.31	104.44
383.535	98.44
383.761	97.44
383.986	105.44
384.211	105.44
384.436	90.44
384.662	111.44
384.887	94.44
385.112	101.44
385.337	99.44
385.562	113.44
385.787	108.44
386.013	112.44
386.238	94.44
386.463	97.44
386.688	109.44
386.913	112.44
387.138	98.44
387.363	108.44
387.588	107.44
387.813	94.44
388.038	108.44
388.263	114.44
388.488	113.44
388.713	97.44
388.938	97.44
389.163	94.44
389.387	99.44
389.612	102.44
389.837	104.44
390.062	98.44
390.287	102.44
390.512	85.44
390.736	99.44
390.961	102.44
391.186	83.44
391.411	102.44
391.636	112.44
391.86	89.44
392.085	95.44
392.31	83.44
392.534	82.44
392.759	88.44
392.984	86.44
393.208	97.44
393.433	97.44
393.658	103.44
393.882	89.44
394.107	92.44
394.331	75.44
394.556	72.44
394.78	90.44
395.005	84.44
395.229	69.44
395.454	79.44
395.678	100.44
395.903	92.44
396.127	89.44
396.352	75.44
396.576	92.44
396.801	86.44
397.025	95.44
397.249	91.44
397.474	89.44
397.698	78.44
397.922	79.44
398.147	81.44
398.371	83.44
398.595	90.44
398.82	91.44
399.044	83.44
399.268	86.44
399.492	85.44
399.717	99.44
399.941	80.44
400.165	101.44
400.389	98.44
400.613	83.44
400.837	71.44
401.062	80.44
401.286	84.44
401.51	99.44
401.734	98.44
401.958	96.44
402.182	105.44
402.406	144.44
402.63	113.44
402.854	101.44
403.078	76.44
403.302	81.44
403.526	106.44
403.75	86.44
403.974	80.44
404.198	104.44
404.422	92.44
404.645	85.44
404.869	99.44
405.093	97.44
405.317	92.44
405.541	90.44
405.765	97.44
405.988	112.44
406.212	155.44
406.436	201.44
406.66	128.44
406.883	83.44
407.107	84.44
407.331	90.44
407.555	85.44
407.778	100.44
408.002	101.44
408.226	88.44
408.449	89.44
408.673	88.44
408.896	84.44
409.12	87.44
409.344	84.44
409.567	79.44
409.791	95.44
410.014	97.44
410.238	89.44
410.461	96.44
410.685	89.44
410.908	86.44
411.132	96.44
411.355	93.44
411.578	93.44
411.802	100.44
412.025	93.44
412.249	86.44
412.472	87.44
412.695	85.44
412.919	78.44
413.142	79.44
413.365	87.44
413.589	94.44
413.812	77.44
414.035	93.44
414.258	92.44
414.482	103.44
414.705	91.44
414.928	97.44
415.151	87.44
415.374	98.44
415.597	75.44
415.821	82.44
416.044	91.44
416.267	92.44
416.49	81.44
416.713	92.44
416.936	84.44
417.159	87.44
417.382	79.44
417.605	99.44
417.828	97.44
418.051	92.44
418.274	86.44
418.497	72.44
418.72	96.44
418.943	96.44
419.166	97.44
419.389	89.44
419.611	98.44
419.834	83.44
420.057	97.44
420.28	72.44
420.503	83.44
420.726	92.44
420.948	89.44
421.171	93.44
421.394	91.44
421.617	90.44
421.839	81.44
422.062	70.44
422.285	103.44
422.507	96.44
422.73	90.44
422.953	84.44
423.175	92.44
423.398	81.44
423.621	85.44
423.843	84.44
424.066	93.44
424.288	92.44
424.511	98.44
424.733	86.44
424.956	111.44
425.178	95.44
425.401	82.44
425.623	89.44
425.846	81.44
426.068	92.44
426.291	85.44
426.513	85.44
426.735	89.44
426.958	93.44
427.18	105.44
427.402	123.44
427.625	149.44
427.847	115.44
428.069	92.44
428.292	89.44
428.514	85.44
428.736	93.44
428.958	89.44
429.181	85.44
429.403	97.44
429.625	85.44
429.847	90.44
430.069	85.44
430.292	89.44
430.514	85.44
430.736	92.44
430.958	85.44
431.18	94.44
431.402	82.44
431.624	88.44
431.846	73.44
432.068	92.44
432.29	84.44
432.512	83.44
432.734	84.44
432.956	87.44
433.178	107.44
433.4	92.44
433.622	94.44
433.844	88.44
434.066	69.44
434.287	93.44
434.509	82.44
434.731	85.44
434.953	88.44
435.175	96.44
435.397	93.44
435.618	98.44
435.84	98.44
436.062	115.44
436.284	118.44
436.505	99.44
436.727	96.44
436.949	85.44
437.17	95.44
437.392	88.44
437.614	86.44
437.835	95.44
438.057	118.44
438.278	110.44
438.5	97.44
438.721	118.44
438.943	97.44
439.165	83.44
439.386	97.44
439.608	75.44
439.829	108.44
440.05	119.44
440.272	122.44
440.493	101.44
440.715	84.44
440.936	71.44
441.158	77.44
441.379	72.44
441.6	88.44
441.822	92.44
442.043	101.44
442.264	87.44
442.486	99.44
442.707	101.44
442.928	117.44
443.149	115.44
443.371	113.44
443.592	84.44
443.813	100.44
444.034	99.44
444.255	97.44
444.476	97.44
444.698	81.44
444.919	87.44
445.14	130.44
445.361	119.44
445.582	97.44
445.803	129.44
446.024	121.44
446.245	120.44
446.466	108.44
446.687	101.44
446.908	91.44
447.129	84.44
447.35	93.44
447.571	79.44
447.792	83.44
448.013	102.44
448.234	103.44
448.455	97.44
448.675	109.44
448.896	115.44
449.117	104.44
449.338	99.44
449.559	133.44
449.779	113.44
450	113.44
450.221	81.44
450.442	82.44
450.662	114.44
450.883	99.44
451.104	110.44
451.324	93.44
451.545	87.44
451.766	81.44
451.986	86.44
452.207	93.44
452.428	98.44
452.648	99.44
452.869	95.44
453.089	93.44
453.31	114.44
453.53	90.44
453.751	83.44
453.971	101.44
454.192	113.44
454.412	83.44
454.633	94.44
454.853	76.44
455.073	88.44
455.294	101.44
455.514	90.44
455.734	86.44
455.955	79.44
456.175	82.44
456.395	92.44
456.616	71.44
456.836	87.44
457.056	81.44
457.276	84.44
457.497	86.44
457.717	91.44
457.937	94.44
458.157	96.44
458.377	94.44
458.598	110.44
458.818	116.44
459.038	134.44
459.258	108.44
459.478	91.44
459.698	86.44
459.918	90.44
460.138	89.44
460.358	88.44
460.578	84.44
460.798	94.44
461.018	89.44
461.238	83.44
461.458	92.44
461.678	90.44
461.898	95.44
462.118	111.44
462.338	93.44
462.558	88.44
462.777	103.44
462.997	82.44
463.217	84.44
463.437	95.44
463.657	79.44
463.876	81.44
464.096	83.44
464.316	86.44
464.536	98.44
464.755	89.44
464.975	109.44
465.195	143.44
465.414	151.44
465.634	101.44
465.854	86.44
466.073	82.44
466.293	83.44
466.512	89.44
466.732	88.44
466.951	74.44
467.171	85.44
467.391	85.44
467.61	100.44
467.829	93.44
468.049	93.44
468.268	81.44
468.488	91.44
468.707	91.44
468.927	86.44
469.146	78.44
469.365	92.44
469.585	85.44
469.804	82.44
470.023	86.44
470.243	97.44
470.462	106.44
470.681	103.44
470.901	93.44
471.12	97.44
471.339	98.44
471.558	93.44
471.777	97.44
471.997	83.44
472.216	93.44
472.435	117.44
472.654	92.44
472.873	92.44
473.092	79.44
473.311	92.44
473.53	86.44
473.749	91.44
473.968	106.44
474.187	100.44
474.406	103.44
474.625	95.44
474.844	99.44
475.063	92.44
475.282	84.44
475.501	93.44
475.72	86.44
475.939	94.44
476.158	90.44
476.377	82.44
476.596	81.44
476.814	102.44
477.033	91.44
477.252	82.44
477.471	72.44
477.69	102.44
477.908	101.44
478.127	88.44
478.346	91.44
478.564	88.44
478.783	88.44
479.002	97.44
479.22	89.44
479.439	93.44
479.658	104.44
479.876	98.44
480.095	97.44
480.313	95.44
480.532	85.44
480.751	82.44
480.969	104.44
481.188	135.44
481.406	116.44
481.624	93.44
481.843	84.44
482.061	90.44
482.28	73.44
482.498	86.44
482.717	76.44
482.935	90.44
483.153	92.44
483.372	90.44
483.59	87.44
483.808	95.44
484.027	92.44
484.245	88.44
484.463	87.44
484.681	100.44
484.9	102.44
485.118	95.44
485.336	88.44
485.554	98.44
485.772	96.44
485.99	102.44
486.209	103.44
486.427	102.44
486.645	107.44
486.863	109.44
487.081	102.44
487.299	100.44
487.517	87.44
487.735	85.44
487.953	93.44
488.171	101.44
488.389	93.44
488.607	110.44
488.825	93.44
489.043	97.44
489.261	97.44
489.479	88.44
489.696	103.44
489.914	71.44
490.132	86.44
490.35	85.44
490.568	80.44
490.786	86.44
491.003	83.44
491.221	94.44
491.439	93.44
491.657	99.44
491.874	87.44
492.092	91.44
492.31	88.44
492.527	90.44
492.745	97.44
492.963	84.44
493.18	84.44
493.398	95.44
493.615	93.44
493.833	107.44
494.05	84.44
494.268	95.44
494.485	93.44
494.703	101.44
494.92	97.44
495.138	94.44
495.355	92.44
495.573	97.44
495.79	88.44
496.008	101.44
496.225	86.44
496.442	87.44
496.66	91.44
496.877	87.44
497.094	102.44
497.312	82.44
497.529	86.44
497.746	88.44
497.963	79.44
498.181	80.44
498.398	91.44
498.615	99.44
498.832	119.44
499.049	93.44
499.267	103.44
499.484	99.44
499.701	88.44
499.918	99.44
500.135	79.44
500.352	101.44
500.569	89.44
500.786	87.44
501.003	84.44
501.22	105.44
501.437	95.44
501.654	92.44
501.871	102.44
502.088	92.44
502.305	90.44
502.522	98.44
502.739	90.44
502.956	87.44
503.172	98.44
503.389	97.44
503.606	93.44
503.823	109.44
504.04	99.44
504.256	90.44
504.473	89.44
504.69	87.44
504.907	97.44
505.123	99.44
505.34	76.44
505.557	84.44
505.773	89.44
505.99	93.44
506.207	89.44
506.423	78.44
506.64	94.44
506.856	84.44
507.073	102.44
507.289	94.44
507.506	97.44
507.722	91.44
507.939	103.44
508.155	87.44
508.372	86.44
508.588	87.44
508.805	93.44
509.021	80.44
509.238	98.44
509.454	84.44
509.67	106.44
509.887	101.44
510.103	123.44
510.319	207.44
510.536	603.44
510.752	1940.44
510.968	562.44
511.184	143.44
511.401	104.44
511.617	98.44
511.833	106.44
512.049	98.44
512.265	95.44
512.481	75.44
512.698	89.44
512.914	106.44
513.13	85.44
513.346	83.44
513.562	92.44
513.778	100.44
513.994	91.44
514.21	102.44
514.426	110.44
514.642	129.44
514.858	128.44
515.074	149.44
515.29	375.44
515.506	1179.44
515.721	432.44
