Data from Circ_2002_H10_HRD10591_00042.txt Node
Date: Wed Jan 03 10:41:06 EST 2024
User: Yrep
Spectrometer: HR+D1059
Trigger mode: 1
Integration Time (sec): 1.000000E-1
Scans to average: 1
Electric dark correction enabled: true
Nonlinearity correction enabled: false
Boxcar width: 0
XAxis mode: Wavelengths
Number of Pixels in Spectrum: 2048
>>>>>Begin Spectral Data<<<<<
223.165	-27.38
223.4	-27.38
223.635	-27.38
223.869	-19.38
224.104	-25.38
224.338	-26.38
224.573	-15.38
224.808	-16.38
225.042	0.62
225.277	-8.38
225.511	-3.38
225.746	-1.38
225.98	13.62
226.215	14.62
226.449	16.62
226.683	39.62
226.918	30.62
227.152	27.62
227.387	33.62
227.621	34.62
227.856	30.62
228.09	43.62
228.324	36.62
228.559	40.62
228.793	55.62
229.027	82.62
229.262	49.62
229.496	68.62
229.73	69.62
229.964	68.62
230.199	74.62
230.433	74.62
230.667	78.62
230.901	92.62
231.136	91.62
231.37	72.62
231.604	84.62
231.838	74.62
232.072	59.62
232.306	88.62
232.541	85.62
232.775	72.62
233.009	80.62
233.243	70.62
233.477	75.62
233.711	82.62
233.945	69.62
234.179	73.62
234.413	84.62
234.647	83.62
234.881	86.62
235.115	78.62
235.349	85.62
235.583	77.62
235.817	80.62
236.051	71.62
236.285	70.62
236.519	79.62
236.753	74.62
236.987	87.62
237.221	89.62
237.455	88.62
237.689	74.62
237.922	68.62
238.156	71.62
238.39	68.62
238.624	67.62
238.858	65.62
239.091	80.62
239.325	77.62
239.559	65.62
239.793	64.62
240.027	64.62
240.26	78.62
240.494	79.62
240.728	74.62
240.961	80.62
241.195	87.62
241.429	80.62
241.662	74.62
241.896	77.62
242.13	87.62
242.363	81.62
242.597	69.62
242.83	79.62
243.064	85.62
243.298	70.62
243.531	66.62
243.765	83.62
243.998	70.62
244.232	87.62
244.465	85.62
244.699	69.62
244.932	70.62
245.166	78.62
245.399	69.62
245.633	77.62
245.866	59.62
246.099	86.62
246.333	76.62
246.566	61.62
246.8	78.62
247.033	93.62
247.266	68.62
247.5	93.62
247.733	60.62
247.966	77.62
248.2	71.62
248.433	76.62
248.666	78.62
248.899	75.62
249.133	89.62
249.366	94.62
249.599	79.62
249.832	81.62
250.066	71.62
250.299	78.62
250.532	67.62
250.765	77.62
250.998	66.62
251.231	70.62
251.465	85.62
251.698	76.62
251.931	76.62
252.164	72.62
252.397	66.62
252.63	58.62
252.863	91.62
253.096	85.62
253.329	67.62
253.562	72.62
253.795	74.62
254.028	63.62
254.261	83.62
254.494	75.62
254.727	81.62
254.96	68.62
255.193	58.62
255.426	83.62
255.659	87.62
255.892	80.62
256.124	88.62
256.357	59.62
256.59	75.62
256.823	72.62
257.056	76.62
257.289	78.62
257.521	86.62
257.754	68.62
257.987	82.62
258.22	91.62
258.452	75.62
258.685	77.62
258.918	86.62
259.151	82.62
259.383	65.62
259.616	88.62
259.849	83.62
260.081	60.62
260.314	73.62
260.547	70.62
260.779	75.62
261.012	83.62
261.244	90.62
261.477	72.62
261.71	91.62
261.942	102.62
262.175	126.62
262.407	74.62
262.64	68.62
262.872	67.62
263.105	78.62
263.337	77.62
263.57	73.62
263.802	76.62
264.035	94.62
264.267	84.62
264.499	88.62
264.732	76.62
264.964	91.62
265.197	87.62
265.429	72.62
265.661	77.62
265.894	80.62
266.126	80.62
266.358	83.62
266.591	70.62
266.823	67.62
267.055	62.62
267.287	76.62
267.52	83.62
267.752	82.62
267.984	66.62
268.216	81.62
268.448	77.62
268.681	68.62
268.913	87.62
269.145	70.62
269.377	76.62
269.609	84.62
269.841	92.62
270.073	64.62
270.306	88.62
270.538	93.62
270.77	78.62
271.002	84.62
271.234	77.62
271.466	79.62
271.698	74.62
271.93	71.62
272.162	84.62
272.394	98.62
272.626	80.62
272.858	77.62
273.09	95.62
273.322	69.62
273.553	71.62
273.785	86.62
274.017	71.62
274.249	76.62
274.481	83.62
274.713	74.62
274.945	90.62
275.176	86.62
275.408	94.62
275.64	88.62
275.872	80.62
276.104	83.62
276.335	87.62
276.567	89.62
276.799	83.62
277.031	94.62
277.262	87.62
277.494	92.62
277.726	83.62
277.957	84.62
278.189	92.62
278.421	85.62
278.652	94.62
278.884	86.62
279.115	71.62
279.347	85.62
279.579	85.62
279.81	84.62
280.042	79.62
280.273	88.62
280.505	88.62
280.736	85.62
280.968	83.62
281.199	85.62
281.431	76.62
281.662	74.62
281.894	82.62
282.125	91.62
282.356	105.62
282.588	130.62
282.819	100.62
283.051	92.62
283.282	85.62
283.513	81.62
283.745	82.62
283.976	94.62
284.207	81.62
284.439	89.62
284.67	92.62
284.901	80.62
285.132	73.62
285.364	85.62
285.595	75.62
285.826	83.62
286.057	72.62
286.288	81.62
286.52	82.62
286.751	83.62
286.982	93.62
287.213	80.62
287.444	87.62
287.675	78.62
287.906	89.62
288.138	87.62
288.369	91.62
288.6	95.62
288.831	71.62
289.062	86.62
289.293	70.62
289.524	87.62
289.755	86.62
289.986	91.62
290.217	70.62
290.448	78.62
290.679	86.62
290.91	88.62
291.141	74.62
291.371	86.62
291.602	84.62
291.833	84.62
292.064	85.62
292.295	85.62
292.526	84.62
292.757	83.62
292.987	88.62
293.218	78.62
293.449	96.62
293.68	85.62
293.91	86.62
294.141	85.62
294.372	81.62
294.603	82.62
294.833	84.62
295.064	78.62
295.295	79.62
295.525	79.62
295.756	88.62
295.987	117.62
296.217	113.62
296.448	110.62
296.679	82.62
296.909	83.62
297.14	83.62
297.37	77.62
297.601	84.62
297.831	85.62
298.062	73.62
298.292	63.62
298.523	78.62
298.753	92.62
298.984	83.62
299.214	80.62
299.445	80.62
299.675	92.62
299.905	91.62
300.136	85.62
300.366	83.62
300.597	93.62
300.827	77.62
301.057	87.62
301.288	93.62
301.518	83.62
301.748	81.62
301.979	106.62
302.209	74.62
302.439	83.62
302.669	75.62
302.9	95.62
303.13	100.62
303.36	94.62
303.59	90.62
303.82	95.62
304.051	84.62
304.281	88.62
304.511	82.62
304.741	90.62
304.971	92.62
305.201	86.62
305.431	90.62
305.661	82.62
305.891	83.62
306.121	97.62
306.352	88.62
306.582	86.62
306.812	83.62
307.042	89.62
307.272	75.62
307.502	75.62
307.731	87.62
307.961	84.62
308.191	92.62
308.421	86.62
308.651	83.62
308.881	83.62
309.111	86.62
309.341	91.62
309.571	95.62
309.8	82.62
310.03	79.62
310.26	99.62
310.49	80.62
310.72	90.62
310.949	94.62
311.179	94.62
311.409	75.62
311.639	79.62
311.868	75.62
312.098	96.62
312.328	87.62
312.557	95.62
312.787	107.62
313.017	95.62
313.246	81.62
313.476	97.62
313.706	88.62
313.935	85.62
314.165	89.62
314.394	86.62
314.624	98.62
314.853	84.62
315.083	77.62
315.312	102.62
315.542	86.62
315.771	76.62
316.001	89.62
316.23	88.62
316.46	84.62
316.689	85.62
316.919	88.62
317.148	88.62
317.377	102.62
317.607	103.62
317.836	101.62
318.065	94.62
318.295	77.62
318.524	61.62
318.753	77.62
318.983	89.62
319.212	98.62
319.441	97.62
319.67	95.62
319.9	70.62
320.129	93.62
320.358	97.62
320.587	84.62
320.816	98.62
321.046	93.62
321.275	92.62
321.504	89.62
321.733	93.62
321.962	91.62
322.191	84.62
322.42	93.62
322.649	96.62
322.878	100.62
323.108	110.62
323.337	106.62
323.566	136.62
323.795	165.62
324.024	176.62
324.253	350.62
324.482	794.62
324.71	1629.62
324.939	2075.62
325.168	777.62
325.397	234.62
325.626	140.62
325.855	107.62
326.084	128.62
326.313	117.62
326.542	124.62
326.77	213.62
326.999	442.62
327.228	911.62
327.457	1632.62
327.686	1282.62
327.914	358.62
328.143	170.62
328.372	121.62
328.6	105.62
328.829	97.62
329.058	103.62
329.287	117.62
329.515	106.62
329.744	96.62
329.972	110.62
330.201	99.62
330.43	108.62
330.658	117.62
330.887	128.62
331.115	92.62
331.344	91.62
331.572	109.62
331.801	97.62
332.03	99.62
332.258	81.62
332.486	77.62
332.715	90.62
332.943	87.62
333.172	96.62
333.4	99.62
333.629	100.62
333.857	98.62
334.085	95.62
334.314	103.62
334.542	112.62
334.771	107.62
334.999	101.62
335.227	92.62
335.455	82.62
335.684	99.62
335.912	82.62
336.14	80.62
336.369	94.62
336.597	93.62
336.825	100.62
337.053	88.62
337.281	92.62
337.51	95.62
337.738	103.62
337.966	87.62
338.194	91.62
338.422	83.62
338.65	91.62
338.878	91.62
339.106	96.62
339.334	88.62
339.562	84.62
339.79	93.62
340.018	83.62
340.246	87.62
340.474	93.62
340.702	98.62
340.93	92.62
341.158	100.62
341.386	81.62
341.614	96.62
341.842	94.62
342.07	82.62
342.298	84.62
342.526	82.62
342.754	92.62
342.981	91.62
343.209	79.62
343.437	88.62
343.665	88.62
343.893	86.62
344.12	83.62
344.348	84.62
344.576	79.62
344.804	88.62
345.031	94.62
345.259	91.62
345.487	85.62
345.714	96.62
345.942	89.62
346.17	87.62
346.397	98.62
346.625	94.62
346.853	88.62
347.08	85.62
347.308	98.62
347.535	87.62
347.763	91.62
347.99	95.62
348.218	94.62
348.445	100.62
348.673	93.62
348.9	90.62
349.128	96.62
349.355	96.62
349.583	86.62
349.81	87.62
350.037	98.62
350.265	94.62
350.492	95.62
350.72	87.62
350.947	76.62
351.174	119.62
351.402	107.62
351.629	100.62
351.856	96.62
352.083	98.62
352.311	103.62
352.538	96.62
352.765	92.62
352.992	118.62
353.22	111.62
353.447	94.62
353.674	93.62
353.901	90.62
354.128	89.62
354.355	89.62
354.583	87.62
354.81	92.62
355.037	90.62
355.264	78.62
355.491	100.62
355.718	92.62
355.945	82.62
356.172	75.62
356.399	107.62
356.626	91.62
356.853	86.62
357.08	86.62
357.307	92.62
357.534	85.62
357.761	86.62
357.988	99.62
358.215	94.62
358.441	96.62
358.668	96.62
358.895	105.62
359.122	82.62
359.349	83.62
359.576	79.62
359.802	90.62
360.029	86.62
360.256	97.62
360.483	103.62
360.709	97.62
360.936	74.62
361.163	110.62
361.39	93.62
361.616	105.62
361.843	82.62
362.07	96.62
362.296	85.62
362.523	85.62
362.749	88.62
362.976	88.62
363.203	90.62
363.429	92.62
363.656	80.62
363.882	79.62
364.109	94.62
364.335	95.62
364.562	88.62
364.788	75.62
365.015	94.62
365.241	80.62
365.468	101.62
365.694	89.62
365.92	95.62
366.147	96.62
366.373	95.62
366.599	99.62
366.826	72.62
367.052	77.62
367.278	95.62
367.505	88.62
367.731	90.62
367.957	91.62
368.184	91.62
368.41	98.62
368.636	107.62
368.862	114.62
369.089	98.62
369.315	89.62
369.541	93.62
369.767	92.62
369.993	83.62
370.219	79.62
370.445	87.62
370.672	81.62
370.898	100.62
371.124	88.62
371.35	70.62
371.576	70.62
371.802	95.62
372.028	87.62
372.254	81.62
372.48	92.62
372.706	102.62
372.932	88.62
373.158	85.62
373.384	75.62
373.61	88.62
373.835	88.62
374.061	86.62
374.287	88.62
374.513	78.62
374.739	88.62
374.965	81.62
375.191	74.62
375.416	85.62
375.642	81.62
375.868	82.62
376.094	86.62
376.319	89.62
376.545	68.62
376.771	76.62
376.997	84.62
377.222	80.62
377.448	76.62
377.674	79.62
377.899	84.62
378.125	99.62
378.35	83.62
378.576	92.62
378.802	81.62
379.027	94.62
379.253	84.62
379.478	77.62
379.704	82.62
379.929	87.62
380.155	83.62
380.38	89.62
380.606	93.62
380.831	100.62
381.057	84.62
381.282	88.62
381.507	94.62
381.733	95.62
381.958	84.62
382.184	105.62
382.409	107.62
382.634	96.62
382.86	89.62
383.085	101.62
383.31	104.62
383.535	110.62
383.761	92.62
383.986	95.62
384.211	90.62
384.436	103.62
384.662	97.62
384.887	101.62
385.112	78.62
385.337	95.62
385.562	96.62
385.787	109.62
386.013	101.62
386.238	109.62
386.463	101.62
386.688	106.62
386.913	90.62
387.138	104.62
387.363	100.62
387.588	83.62
387.813	106.62
388.038	110.62
388.263	116.62
388.488	125.62
388.713	94.62
388.938	83.62
389.163	93.62
389.387	85.62
389.612	93.62
389.837	75.62
390.062	81.62
390.287	95.62
390.512	93.62
390.736	84.62
390.961	94.62
391.186	76.62
391.411	70.62
391.636	90.62
391.86	78.62
392.085	62.62
392.31	75.62
392.534	88.62
392.759	86.62
392.984	82.62
393.208	86.62
393.433	83.62
393.658	94.62
393.882	72.62
394.107	93.62
394.331	73.62
394.556	91.62
394.78	78.62
395.005	77.62
395.229	81.62
395.454	91.62
395.678	86.62
395.903	85.62
396.127	85.62
396.352	85.62
396.576	81.62
396.801	80.62
397.025	91.62
397.249	100.62
397.474	92.62
397.698	88.62
397.922	68.62
398.147	84.62
398.371	79.62
398.595	81.62
398.82	69.62
399.044	79.62
399.268	77.62
399.492	95.62
399.717	80.62
399.941	86.62
400.165	84.62
400.389	90.62
400.613	96.62
400.837	77.62
401.062	91.62
401.286	97.62
401.51	83.62
401.734	91.62
401.958	91.62
402.182	125.62
402.406	144.62
402.63	106.62
402.854	96.62
403.078	102.62
403.302	84.62
403.526	88.62
403.75	82.62
403.974	82.62
404.198	80.62
404.422	76.62
404.645	75.62
404.869	87.62
405.093	96.62
405.317	100.62
405.541	95.62
405.765	96.62
405.988	99.62
406.212	176.62
406.436	199.62
406.66	137.62
406.883	100.62
407.107	88.62
407.331	75.62
407.555	85.62
407.778	94.62
408.002	78.62
408.226	83.62
408.449	80.62
408.673	81.62
408.896	87.62
409.12	93.62
409.344	89.62
409.567	79.62
409.791	86.62
410.014	93.62
410.238	96.62
410.461	76.62
410.685	94.62
410.908	89.62
411.132	103.62
411.355	88.62
411.578	81.62
411.802	84.62
412.025	81.62
412.249	97.62
412.472	105.62
412.695	88.62
412.919	73.62
413.142	93.62
413.365	87.62
413.589	91.62
413.812	96.62
414.035	87.62
414.258	85.62
414.482	79.62
414.705	84.62
414.928	81.62
415.151	97.62
415.374	92.62
415.597	84.62
415.821	78.62
416.044	58.62
416.267	71.62
416.49	84.62
416.713	76.62
416.936	98.62
417.159	83.62
417.382	95.62
417.605	77.62
417.828	88.62
418.051	88.62
418.274	74.62
418.497	73.62
418.72	89.62
418.943	81.62
419.166	89.62
419.389	91.62
419.611	72.62
419.834	87.62
420.057	85.62
420.28	91.62
420.503	72.62
420.726	92.62
420.948	67.62
421.171	89.62
421.394	95.62
421.617	85.62
421.839	86.62
422.062	86.62
422.285	77.62
422.507	86.62
422.73	89.62
422.953	91.62
423.175	94.62
423.398	96.62
423.621	89.62
423.843	91.62
424.066	87.62
424.288	91.62
424.511	78.62
424.733	88.62
424.956	96.62
425.178	95.62
425.401	83.62
425.623	83.62
425.846	85.62
426.068	85.62
426.291	79.62
426.513	91.62
426.735	98.62
426.958	93.62
427.18	106.62
427.402	127.62
427.625	142.62
427.847	94.62
428.069	98.62
428.292	88.62
428.514	91.62
428.736	84.62
428.958	75.62
429.181	77.62
429.403	86.62
429.625	83.62
429.847	88.62
430.069	84.62
430.292	84.62
430.514	77.62
430.736	80.62
430.958	72.62
431.18	87.62
431.402	87.62
431.624	79.62
431.846	81.62
432.068	83.62
432.29	96.62
432.512	83.62
432.734	79.62
432.956	85.62
433.178	84.62
433.4	90.62
433.622	107.62
433.844	87.62
434.066	87.62
434.287	83.62
434.509	86.62
434.731	94.62
434.953	78.62
435.175	83.62
435.397	97.62
435.618	76.62
435.84	80.62
436.062	112.62
436.284	111.62
436.505	100.62
436.727	87.62
436.949	84.62
437.17	85.62
437.392	94.62
437.614	84.62
437.835	106.62
438.057	118.62
438.278	102.62
438.5	93.62
438.721	117.62
438.943	100.62
439.165	95.62
439.386	80.62
439.608	84.62
439.829	79.62
440.05	120.62
440.272	131.62
440.493	98.62
440.715	78.62
440.936	79.62
441.158	101.62
441.379	70.62
441.6	92.62
441.822	76.62
442.043	98.62
442.264	99.62
442.486	91.62
442.707	76.62
442.928	97.62
443.149	114.62
443.371	121.62
443.592	82.62
443.813	92.62
444.034	97.62
444.255	85.62
444.476	71.62
444.698	82.62
444.919	69.62
445.14	119.62
445.361	119.62
445.582	103.62
445.803	123.62
446.024	108.62
446.245	114.62
446.466	104.62
446.687	107.62
446.908	86.62
447.129	102.62
447.35	85.62
447.571	87.62
447.792	79.62
448.013	90.62
448.234	101.62
448.455	101.62
448.675	104.62
448.896	101.62
449.117	94.62
449.338	81.62
449.559	102.62
449.779	125.62
450	78.62
450.221	81.62
450.442	81.62
450.662	91.62
450.883	103.62
451.104	99.62
451.324	84.62
451.545	92.62
451.766	79.62
451.986	84.62
452.207	83.62
452.428	79.62
452.648	99.62
452.869	88.62
453.089	101.62
453.31	85.62
453.53	91.62
453.751	80.62
453.971	98.62
454.192	105.62
454.412	93.62
454.633	74.62
454.853	68.62
455.073	72.62
455.294	86.62
455.514	80.62
455.734	92.62
455.955	84.62
456.175	82.62
456.395	81.62
456.616	83.62
456.836	72.62
457.056	63.62
457.276	79.62
457.497	80.62
457.717	75.62
457.937	82.62
458.157	85.62
458.377	97.62
458.598	91.62
458.818	131.62
459.038	139.62
459.258	110.62
459.478	98.62
459.698	86.62
459.918	92.62
460.138	72.62
460.358	83.62
460.578	88.62
460.798	94.62
461.018	94.62
461.238	90.62
461.458	97.62
461.678	83.62
461.898	75.62
462.118	68.62
462.338	99.62
462.558	84.62
462.777	64.62
462.997	82.62
463.217	82.62
463.437	78.62
463.657	83.62
463.876	86.62
464.096	92.62
464.316	91.62
464.536	92.62
464.755	96.62
464.975	93.62
465.195	149.62
465.414	140.62
465.634	77.62
465.854	84.62
466.073	92.62
466.293	75.62
466.512	108.62
466.732	92.62
466.951	96.62
467.171	76.62
467.391	88.62
467.61	98.62
467.829	99.62
468.049	87.62
468.268	94.62
468.488	82.62
468.707	70.62
468.927	75.62
469.146	88.62
469.365	83.62
469.585	77.62
469.804	85.62
470.023	89.62
470.243	85.62
470.462	81.62
470.681	93.62
470.901	82.62
471.12	87.62
471.339	64.62
471.558	87.62
471.777	93.62
471.997	89.62
472.216	93.62
472.435	114.62
472.654	102.62
472.873	92.62
473.092	80.62
473.311	109.62
473.53	78.62
473.749	90.62
473.968	88.62
474.187	92.62
474.406	95.62
474.625	83.62
474.844	91.62
475.063	75.62
475.282	90.62
475.501	96.62
475.72	84.62
475.939	74.62
476.158	74.62
476.377	81.62
476.596	79.62
476.814	85.62
477.033	95.62
477.252	84.62
477.471	79.62
477.69	92.62
477.908	65.62
478.127	80.62
478.346	89.62
478.564	77.62
478.783	84.62
479.002	80.62
479.22	82.62
479.439	99.62
479.658	80.62
479.876	93.62
480.095	95.62
480.313	93.62
480.532	88.62
480.751	83.62
480.969	90.62
481.188	137.62
481.406	103.62
481.624	82.62
481.843	78.62
482.061	78.62
482.28	78.62
482.498	83.62
482.717	81.62
482.935	77.62
483.153	94.62
483.372	82.62
483.59	74.62
483.808	83.62
484.027	104.62
484.245	83.62
484.463	96.62
484.681	94.62
484.9	103.62
485.118	104.62
485.336	91.62
485.554	70.62
485.772	97.62
485.99	75.62
486.209	111.62
486.427	88.62
486.645	110.62
486.863	94.62
487.081	92.62
487.299	97.62
487.517	83.62
487.735	85.62
487.953	84.62
488.171	86.62
488.389	95.62
488.607	94.62
488.825	93.62
489.043	96.62
489.261	76.62
489.479	76.62
489.696	91.62
489.914	86.62
490.132	79.62
490.35	98.62
490.568	82.62
490.786	73.62
491.003	83.62
491.221	79.62
491.439	72.62
491.657	102.62
491.874	83.62
492.092	84.62
492.31	80.62
492.527	78.62
492.745	84.62
492.963	102.62
493.18	97.62
493.398	80.62
493.615	85.62
493.833	82.62
494.05	91.62
494.268	83.62
494.485	94.62
494.703	85.62
494.92	84.62
495.138	85.62
495.355	93.62
495.573	95.62
495.79	81.62
496.008	89.62
496.225	85.62
496.442	90.62
496.66	92.62
496.877	90.62
497.094	70.62
497.312	88.62
497.529	76.62
497.746	96.62
497.963	86.62
498.181	102.62
498.398	91.62
498.615	105.62
498.832	109.62
499.049	77.62
499.267	88.62
499.484	88.62
499.701	90.62
499.918	92.62
500.135	76.62
500.352	94.62
500.569	87.62
500.786	87.62
501.003	89.62
501.22	92.62
501.437	96.62
501.654	90.62
501.871	106.62
502.088	81.62
502.305	85.62
502.522	80.62
502.739	78.62
502.956	82.62
503.172	94.62
503.389	85.62
503.606	98.62
503.823	97.62
504.04	80.62
504.256	84.62
504.473	80.62
504.69	81.62
504.907	85.62
505.123	76.62
505.34	83.62
505.557	90.62
505.773	101.62
505.99	86.62
506.207	92.62
506.423	91.62
506.64	87.62
506.856	82.62
507.073	89.62
507.289	86.62
507.506	85.62
507.722	89.62
507.939	103.62
508.155	96.62
508.372	101.62
508.588	106.62
508.805	108.62
509.021	104.62
509.238	93.62
509.454	103.62
509.67	90.62
509.887	102.62
510.103	123.62
510.319	193.62
510.536	663.62
510.752	2077.62
510.968	582.62
511.184	135.62
511.401	120.62
511.617	90.62
511.833	84.62
512.049	88.62
512.265	99.62
512.481	91.62
512.698	95.62
512.914	83.62
513.13	89.62
513.346	89.62
513.562	70.62
513.778	82.62
513.994	95.62
514.21	102.62
514.426	100.62
514.642	123.62
514.858	112.62
515.074	135.62
515.29	365.62
515.506	1232.62
515.721	461.62
515.937	151.62
516.153	104.62
516.369	88.62
516.585	90.62
516.801	88.62
517.016	92.62
517.232	95.62
517.448	83.62
