Data from Circ_2002_H10_HRD10591_00091.txt Node
Date: Wed Jan 03 10:41:16 EST 2024
User: Yrep
Spectrometer: HR+D1059
Trigger mode: 1
Integration Time (sec): 1.000000E-1
Scans to average: 1
Electric dark correction enabled: true
Nonlinearity correction enabled: false
Boxcar width: 0
XAxis mode: Wavelengths
Number of Pixels in Spectrum: 2048
>>>>>Begin Spectral Data<<<<<
223.165	-7.25
223.4	-7.25
223.635	-7.25
223.869	-26.25
224.104	-30.25
224.338	-20.25
224.573	-9.25
224.808	-9.25
225.042	-3.25
225.277	-15.25
225.511	-4.25
225.746	0.75
225.98	2.75
226.215	4.75
226.449	33.75
226.683	21.75
226.918	24.75
227.152	36.75
227.387	33.75
227.621	34.75
227.856	55.75
228.09	56.75
228.324	57.75
228.559	64.75
228.793	55.75
229.027	65.75
229.262	64.75
229.496	65.75
229.73	77.75
229.964	77.75
230.199	83.75
230.433	90.75
230.667	83.75
230.901	90.75
231.136	83.75
231.37	66.75
231.604	78.75
231.838	72.75
232.072	81.75
232.306	90.75
232.541	78.75
232.775	88.75
233.009	76.75
233.243	70.75
233.477	90.75
233.711	84.75
233.945	94.75
234.179	89.75
234.413	94.75
234.647	84.75
234.881	75.75
235.115	76.75
235.349	76.75
235.583	81.75
235.817	78.75
236.051	87.75
236.285	64.75
236.519	81.75
236.753	74.75
236.987	85.75
237.221	76.75
237.455	94.75
237.689	75.75
237.922	68.75
238.156	78.75
238.39	61.75
238.624	85.75
238.858	87.75
239.091	61.75
239.325	72.75
239.559	62.75
239.793	86.75
240.027	69.75
240.26	57.75
240.494	78.75
240.728	73.75
240.961	85.75
241.195	79.75
241.429	83.75
241.662	81.75
241.896	81.75
242.13	71.75
242.363	70.75
242.597	79.75
242.83	82.75
243.064	82.75
243.298	75.75
243.531	81.75
243.765	78.75
243.998	96.75
244.232	62.75
244.465	71.75
244.699	82.75
244.932	90.75
245.166	73.75
245.399	84.75
245.633	75.75
245.866	73.75
246.099	69.75
246.333	97.75
246.566	82.75
246.8	80.75
247.033	78.75
247.266	80.75
247.5	86.75
247.733	83.75
247.966	87.75
248.2	73.75
248.433	87.75
248.666	80.75
248.899	85.75
249.133	75.75
249.366	92.75
249.599	84.75
249.832	73.75
250.066	80.75
250.299	76.75
250.532	79.75
250.765	87.75
250.998	85.75
251.231	80.75
251.465	80.75
251.698	62.75
251.931	71.75
252.164	86.75
252.397	89.75
252.63	64.75
252.863	77.75
253.096	73.75
253.329	85.75
253.562	77.75
253.795	86.75
254.028	88.75
254.261	82.75
254.494	72.75
254.727	92.75
254.96	72.75
255.193	80.75
255.426	89.75
255.659	78.75
255.892	93.75
256.124	84.75
256.357	86.75
256.59	96.75
256.823	77.75
257.056	78.75
257.289	84.75
257.521	76.75
257.754	82.75
257.987	83.75
258.22	89.75
258.452	78.75
258.685	76.75
258.918	87.75
259.151	90.75
259.383	92.75
259.616	80.75
259.849	68.75
260.081	78.75
260.314	72.75
260.547	81.75
260.779	64.75
261.012	70.75
261.244	81.75
261.477	104.75
261.71	103.75
261.942	97.75
262.175	109.75
262.407	86.75
262.64	80.75
262.872	91.75
263.105	92.75
263.337	81.75
263.57	94.75
263.802	77.75
264.035	79.75
264.267	91.75
264.499	91.75
264.732	90.75
264.964	86.75
265.197	89.75
265.429	79.75
265.661	92.75
265.894	94.75
266.126	88.75
266.358	72.75
266.591	89.75
266.823	91.75
267.055	101.75
267.287	85.75
267.52	85.75
267.752	72.75
267.984	81.75
268.216	73.75
268.448	91.75
268.681	81.75
268.913	79.75
269.145	84.75
269.377	87.75
269.609	90.75
269.841	78.75
270.073	80.75
270.306	91.75
270.538	82.75
270.77	83.75
271.002	71.75
271.234	87.75
271.466	79.75
271.698	90.75
271.93	94.75
272.162	84.75
272.394	91.75
272.626	83.75
272.858	72.75
273.09	93.75
273.322	88.75
273.553	83.75
273.785	83.75
274.017	95.75
274.249	69.75
274.481	80.75
274.713	98.75
274.945	101.75
275.176	74.75
275.408	75.75
275.64	91.75
275.872	90.75
276.104	94.75
276.335	104.75
276.567	84.75
276.799	87.75
277.031	100.75
277.262	91.75
277.494	81.75
277.726	88.75
277.957	78.75
278.189	80.75
278.421	91.75
278.652	79.75
278.884	69.75
279.115	84.75
279.347	91.75
279.579	94.75
279.81	83.75
280.042	103.75
280.273	95.75
280.505	91.75
280.736	91.75
280.968	84.75
281.199	91.75
281.431	85.75
281.662	86.75
281.894	103.75
282.125	96.75
282.356	108.75
282.588	132.75
282.819	105.75
283.051	94.75
283.282	94.75
283.513	87.75
283.745	72.75
283.976	88.75
284.207	84.75
284.439	88.75
284.67	99.75
284.901	94.75
285.132	77.75
285.364	79.75
285.595	88.75
285.826	83.75
286.057	98.75
286.288	97.75
286.52	88.75
286.751	93.75
286.982	92.75
287.213	88.75
287.444	93.75
287.675	83.75
287.906	90.75
288.138	82.75
288.369	101.75
288.6	94.75
288.831	82.75
289.062	98.75
289.293	87.75
289.524	79.75
289.755	67.75
289.986	84.75
290.217	85.75
290.448	77.75
290.679	86.75
290.91	87.75
291.141	91.75
291.371	87.75
291.602	76.75
291.833	81.75
292.064	92.75
292.295	84.75
292.526	99.75
292.757	84.75
292.987	101.75
293.218	90.75
293.449	74.75
293.68	81.75
293.91	102.75
294.141	86.75
294.372	101.75
294.603	97.75
294.833	90.75
295.064	92.75
295.295	79.75
295.525	93.75
295.756	95.75
295.987	108.75
296.217	132.75
296.448	130.75
296.679	104.75
296.909	107.75
297.14	94.75
297.37	122.75
297.601	77.75
297.831	80.75
298.062	81.75
298.292	70.75
298.523	99.75
298.753	91.75
298.984	89.75
299.214	100.75
299.445	92.75
299.675	90.75
299.905	106.75
300.136	92.75
300.366	89.75
300.597	82.75
300.827	100.75
301.057	97.75
301.288	104.75
301.518	93.75
301.748	93.75
301.979	85.75
302.209	88.75
302.439	103.75
302.669	92.75
302.9	96.75
303.13	88.75
303.36	92.75
303.59	105.75
303.82	104.75
304.051	86.75
304.281	98.75
304.511	90.75
304.741	82.75
304.971	87.75
305.201	91.75
305.431	82.75
305.661	86.75
305.891	97.75
306.121	94.75
306.352	89.75
306.582	85.75
306.812	89.75
307.042	90.75
307.272	97.75
307.502	97.75
307.731	88.75
307.961	105.75
308.191	91.75
308.421	98.75
308.651	91.75
308.881	100.75
309.111	88.75
309.341	107.75
309.571	112.75
309.8	90.75
310.03	99.75
310.26	105.75
310.49	101.75
310.72	97.75
310.949	100.75
311.179	111.75
311.409	92.75
311.639	108.75
311.868	91.75
312.098	89.75
312.328	98.75
312.557	94.75
312.787	89.75
313.017	104.75
313.246	87.75
313.476	90.75
313.706	90.75
313.935	86.75
314.165	87.75
314.394	112.75
314.624	82.75
314.853	86.75
315.083	98.75
315.312	101.75
315.542	93.75
315.771	94.75
316.001	87.75
316.23	93.75
316.46	86.75
316.689	87.75
316.919	89.75
317.148	99.75
317.377	86.75
317.607	80.75
317.836	89.75
318.065	94.75
318.295	94.75
318.524	95.75
318.753	90.75
318.983	87.75
319.212	101.75
319.441	98.75
319.67	101.75
319.9	98.75
320.129	102.75
320.358	97.75
320.587	100.75
320.816	98.75
321.046	126.75
321.275	91.75
321.504	78.75
321.733	102.75
321.962	91.75
322.191	101.75
322.42	97.75
322.649	125.75
322.878	105.75
323.108	115.75
323.337	103.75
323.566	120.75
323.795	160.75
324.024	190.75
324.253	369.75
324.482	773.75
324.71	1601.75
324.939	2094.75
325.168	790.75
325.397	206.75
325.626	144.75
325.855	112.75
326.084	116.75
326.313	124.75
326.542	140.75
326.77	228.75
326.999	449.75
327.228	941.75
327.457	1636.75
327.686	1313.75
327.914	349.75
328.143	182.75
328.372	168.75
328.6	125.75
328.829	122.75
329.058	132.75
329.287	123.75
329.515	112.75
329.744	116.75
329.972	118.75
330.201	138.75
330.43	164.75
330.658	138.75
330.887	132.75
331.115	128.75
331.344	102.75
331.572	98.75
331.801	93.75
332.03	94.75
332.258	98.75
332.486	100.75
332.715	94.75
332.943	93.75
333.172	113.75
333.4	99.75
333.629	117.75
333.857	108.75
334.085	131.75
334.314	140.75
334.542	187.75
334.771	165.75
334.999	113.75
335.227	109.75
335.455	91.75
335.684	99.75
335.912	100.75
336.14	102.75
336.369	102.75
336.597	99.75
336.825	97.75
337.053	103.75
337.281	94.75
337.51	97.75
337.738	90.75
337.966	83.75
338.194	84.75
338.422	93.75
338.65	76.75
338.878	93.75
339.106	101.75
339.334	93.75
339.562	95.75
339.79	88.75
340.018	87.75
340.246	85.75
340.474	90.75
340.702	89.75
340.93	106.75
341.158	84.75
341.386	92.75
341.614	101.75
341.842	99.75
342.07	97.75
342.298	88.75
342.526	77.75
342.754	80.75
342.981	83.75
343.209	90.75
343.437	89.75
343.665	93.75
343.893	90.75
344.12	92.75
344.348	90.75
344.576	83.75
344.804	96.75
345.031	107.75
345.259	81.75
345.487	100.75
345.714	90.75
345.942	108.75
346.17	86.75
346.397	106.75
346.625	93.75
346.853	98.75
347.08	86.75
347.308	89.75
347.535	93.75
347.763	89.75
347.99	103.75
348.218	91.75
348.445	100.75
348.673	98.75
348.9	93.75
349.128	97.75
349.355	102.75
349.583	94.75
349.81	113.75
350.037	93.75
350.265	105.75
350.492	86.75
350.72	92.75
350.947	109.75
351.174	117.75
351.402	90.75
351.629	91.75
351.856	111.75
352.083	105.75
352.311	97.75
352.538	113.75
352.765	113.75
352.992	107.75
353.22	115.75
353.447	100.75
353.674	102.75
353.901	86.75
354.128	92.75
354.355	103.75
354.583	99.75
354.81	100.75
355.037	118.75
355.264	89.75
355.491	101.75
355.718	93.75
355.945	87.75
356.172	98.75
356.399	76.75
356.626	90.75
356.853	105.75
357.08	100.75
357.307	87.75
357.534	95.75
357.761	88.75
357.988	95.75
358.215	112.75
358.441	100.75
358.668	88.75
358.895	100.75
359.122	86.75
359.349	102.75
359.576	93.75
359.802	90.75
360.029	112.75
360.256	109.75
360.483	105.75
360.709	91.75
360.936	95.75
361.163	98.75
361.39	91.75
361.616	90.75
361.843	91.75
362.07	93.75
362.296	83.75
362.523	96.75
362.749	95.75
362.976	102.75
363.203	87.75
363.429	97.75
363.656	94.75
363.882	100.75
364.109	109.75
364.335	100.75
364.562	91.75
364.788	74.75
365.015	94.75
365.241	108.75
365.468	101.75
365.694	101.75
365.92	98.75
366.147	97.75
366.373	100.75
366.599	81.75
366.826	93.75
367.052	104.75
367.278	96.75
367.505	88.75
367.731	89.75
367.957	92.75
368.184	91.75
368.41	96.75
368.636	107.75
368.862	111.75
369.089	104.75
369.315	98.75
369.541	85.75
369.767	94.75
369.993	89.75
370.219	108.75
370.445	80.75
370.672	97.75
370.898	91.75
371.124	98.75
371.35	87.75
371.576	86.75
371.802	89.75
372.028	87.75
372.254	99.75
372.48	94.75
372.706	100.75
372.932	73.75
373.158	85.75
373.384	96.75
373.61	89.75
373.835	98.75
374.061	93.75
374.287	96.75
374.513	90.75
374.739	94.75
374.965	89.75
375.191	93.75
375.416	100.75
375.642	91.75
375.868	89.75
376.094	82.75
376.319	101.75
376.545	86.75
376.771	89.75
376.997	95.75
377.222	105.75
377.448	113.75
377.674	92.75
377.899	109.75
378.125	97.75
378.35	106.75
378.576	93.75
378.802	104.75
379.027	103.75
379.253	97.75
379.478	99.75
379.704	98.75
379.929	93.75
380.155	100.75
380.38	87.75
380.606	93.75
380.831	97.75
381.057	107.75
381.282	99.75
381.507	86.75
381.733	107.75
381.958	91.75
382.184	98.75
382.409	113.75
382.634	97.75
382.86	101.75
383.085	104.75
383.31	99.75
383.535	93.75
383.761	97.75
383.986	99.75
384.211	104.75
384.436	99.75
384.662	98.75
384.887	111.75
385.112	106.75
385.337	98.75
385.562	100.75
385.787	102.75
386.013	121.75
386.238	124.75
386.463	103.75
386.688	116.75
386.913	91.75
387.138	98.75
387.363	90.75
387.588	94.75
387.813	105.75
388.038	109.75
388.263	109.75
388.488	104.75
388.713	90.75
388.938	94.75
389.163	99.75
389.387	106.75
389.612	92.75
389.837	97.75
390.062	109.75
390.287	101.75
390.512	106.75
390.736	87.75
390.961	95.75
391.186	106.75
391.411	87.75
391.636	95.75
391.86	98.75
392.085	89.75
392.31	101.75
392.534	90.75
392.759	86.75
392.984	94.75
393.208	101.75
393.433	96.75
393.658	92.75
393.882	82.75
394.107	73.75
394.331	87.75
394.556	91.75
394.78	103.75
395.005	90.75
395.229	83.75
395.454	94.75
395.678	91.75
395.903	91.75
396.127	110.75
396.352	99.75
396.576	79.75
396.801	81.75
397.025	83.75
397.249	83.75
397.474	97.75
397.698	77.75
397.922	83.75
398.147	87.75
398.371	84.75
398.595	86.75
398.82	88.75
399.044	89.75
399.268	78.75
399.492	87.75
399.717	94.75
399.941	104.75
400.165	85.75
400.389	96.75
400.613	103.75
400.837	83.75
401.062	96.75
401.286	83.75
401.51	90.75
401.734	88.75
401.958	91.75
402.182	129.75
402.406	147.75
402.63	119.75
402.854	93.75
403.078	92.75
403.302	103.75
403.526	83.75
403.75	91.75
403.974	98.75
404.198	86.75
404.422	94.75
404.645	91.75
404.869	92.75
405.093	100.75
405.317	102.75
405.541	82.75
405.765	101.75
405.988	112.75
406.212	145.75
406.436	196.75
406.66	116.75
406.883	113.75
407.107	92.75
407.331	93.75
407.555	99.75
407.778	95.75
408.002	94.75
408.226	97.75
408.449	88.75
408.673	89.75
408.896	94.75
409.12	100.75
409.344	85.75
409.567	92.75
409.791	83.75
410.014	88.75
410.238	89.75
410.461	104.75
410.685	95.75
410.908	108.75
411.132	105.75
411.355	97.75
411.578	87.75
411.802	93.75
412.025	92.75
412.249	98.75
412.472	81.75
412.695	105.75
412.919	105.75
413.142	96.75
413.365	91.75
413.589	88.75
413.812	90.75
414.035	94.75
414.258	93.75
414.482	89.75
414.705	85.75
414.928	100.75
415.151	103.75
415.374	90.75
415.597	83.75
415.821	107.75
416.044	93.75
416.267	96.75
416.49	85.75
416.713	101.75
416.936	99.75
417.159	95.75
417.382	98.75
417.605	102.75
417.828	86.75
418.051	89.75
418.274	77.75
418.497	80.75
418.72	76.75
418.943	86.75
419.166	108.75
419.389	104.75
419.611	99.75
419.834	83.75
420.057	92.75
420.28	80.75
420.503	104.75
420.726	107.75
420.948	86.75
421.171	80.75
421.394	97.75
421.617	84.75
421.839	94.75
422.062	102.75
422.285	91.75
422.507	98.75
422.73	99.75
422.953	92.75
423.175	87.75
423.398	106.75
423.621	73.75
423.843	84.75
424.066	85.75
424.288	89.75
424.511	86.75
424.733	104.75
424.956	103.75
425.178	97.75
425.401	88.75
425.623	103.75
425.846	91.75
426.068	91.75
426.291	97.75
426.513	91.75
426.735	100.75
426.958	91.75
427.18	104.75
427.402	115.75
427.625	149.75
427.847	121.75
428.069	107.75
428.292	105.75
428.514	86.75
428.736	77.75
428.958	90.75
429.181	99.75
429.403	76.75
429.625	78.75
429.847	84.75
430.069	94.75
430.292	97.75
430.514	90.75
430.736	84.75
430.958	74.75
431.18	98.75
431.402	81.75
431.624	89.75
431.846	92.75
432.068	82.75
432.29	84.75
432.512	88.75
432.734	103.75
432.956	98.75
433.178	104.75
433.4	98.75
433.622	88.75
433.844	99.75
434.066	103.75
434.287	100.75
434.509	96.75
434.731	85.75
434.953	94.75
435.175	100.75
435.397	100.75
435.618	92.75
435.84	108.75
436.062	112.75
436.284	99.75
436.505	109.75
436.727	111.75
436.949	84.75
437.17	94.75
437.392	86.75
437.614	86.75
437.835	103.75
438.057	105.75
438.278	93.75
438.5	102.75
438.721	105.75
438.943	108.75
439.165	90.75
439.386	99.75
439.608	95.75
439.829	82.75
440.05	111.75
440.272	132.75
440.493	112.75
440.715	89.75
440.936	88.75
441.158	88.75
441.379	85.75
441.6	90.75
441.822	77.75
442.043	97.75
442.264	96.75
442.486	87.75
442.707	91.75
442.928	94.75
443.149	121.75
443.371	125.75
443.592	103.75
443.813	106.75
444.034	99.75
444.255	77.75
444.476	97.75
444.698	95.75
444.919	97.75
445.14	151.75
445.361	117.75
445.582	95.75
445.803	112.75
446.024	134.75
446.245	122.75
446.466	111.75
446.687	89.75
446.908	68.75
447.129	101.75
447.35	86.75
447.571	85.75
447.792	93.75
448.013	98.75
448.234	82.75
448.455	100.75
448.675	117.75
448.896	111.75
449.117	97.75
449.338	112.75
449.559	108.75
449.779	123.75
450	93.75
450.221	91.75
450.442	95.75
450.662	88.75
450.883	94.75
451.104	104.75
451.324	97.75
451.545	84.75
451.766	85.75
451.986	83.75
452.207	79.75
452.428	87.75
452.648	106.75
452.869	117.75
453.089	116.75
453.31	112.75
453.53	89.75
453.751	92.75
453.971	101.75
454.192	102.75
454.412	96.75
454.633	81.75
454.853	95.75
455.073	79.75
455.294	92.75
455.514	92.75
455.734	84.75
455.955	96.75
456.175	105.75
456.395	94.75
456.616	90.75
456.836	88.75
457.056	76.75
457.276	84.75
457.497	85.75
457.717	92.75
457.937	102.75
458.157	88.75
458.377	97.75
458.598	95.75
458.818	130.75
459.038	143.75
459.258	97.75
459.478	80.75
459.698	93.75
459.918	85.75
460.138	75.75
460.358	72.75
460.578	80.75
460.798	88.75
461.018	83.75
461.238	89.75
461.458	81.75
461.678	91.75
461.898	76.75
462.118	70.75
462.338	72.75
462.558	87.75
462.777	86.75
462.997	85.75
463.217	82.75
463.437	87.75
463.657	83.75
463.876	77.75
464.096	76.75
464.316	92.75
464.536	93.75
464.755	109.75
464.975	94.75
465.195	132.75
465.414	150.75
465.634	100.75
465.854	88.75
466.073	84.75
466.293	81.75
466.512	92.75
466.732	101.75
466.951	84.75
467.171	80.75
467.391	84.75
467.61	103.75
467.829	93.75
468.049	101.75
468.268	118.75
468.488	89.75
468.707	105.75
468.927	90.75
469.146	96.75
469.365	93.75
469.585	96.75
469.804	96.75
470.023	108.75
470.243	94.75
470.462	88.75
470.681	94.75
470.901	98.75
471.12	88.75
471.339	90.75
471.558	100.75
471.777	97.75
471.997	87.75
472.216	130.75
472.435	214.75
472.654	100.75
472.873	92.75
473.092	94.75
473.311	92.75
473.53	95.75
473.749	78.75
473.968	91.75
474.187	102.75
474.406	95.75
474.625	84.75
474.844	97.75
475.063	110.75
475.282	91.75
475.501	88.75
475.72	93.75
475.939	94.75
476.158	81.75
476.377	75.75
476.596	95.75
476.814	100.75
477.033	99.75
477.252	73.75
477.471	99.75
477.69	93.75
477.908	91.75
478.127	86.75
478.346	90.75
478.564	93.75
478.783	104.75
479.002	99.75
479.22	86.75
479.439	98.75
479.658	102.75
479.876	89.75
480.095	95.75
480.313	92.75
480.532	97.75
480.751	100.75
480.969	147.75
481.188	310.75
481.406	228.75
481.624	101.75
481.843	80.75
482.061	91.75
482.28	91.75
482.498	76.75
482.717	91.75
482.935	90.75
483.153	95.75
483.372	88.75
483.59	93.75
483.808	86.75
484.027	96.75
484.245	86.75
484.463	97.75
484.681	100.75
484.9	86.75
485.118	81.75
485.336	93.75
485.554	116.75
485.772	98.75
485.99	98.75
486.209	102.75
486.427	121.75
486.645	109.75
486.863	109.75
487.081	95.75
487.299	84.75
487.517	86.75
487.735	110.75
487.953	97.75
488.171	98.75
488.389	84.75
488.607	97.75
488.825	93.75
489.043	84.75
489.261	104.75
489.479	98.75
489.696	97.75
489.914	84.75
490.132	96.75
490.35	98.75
490.568	94.75
490.786	91.75
491.003	92.75
491.221	73.75
491.439	81.75
491.657	113.75
491.874	94.75
492.092	93.75
492.31	80.75
492.527	97.75
492.745	88.75
492.963	98.75
493.18	91.75
493.398	95.75
493.615	98.75
493.833	100.75
494.05	81.75
494.268	98.75
494.485	84.75
494.703	88.75
494.92	105.75
495.138	83.75
495.355	93.75
495.573	76.75
495.79	77.75
496.008	93.75
496.225	93.75
496.442	88.75
496.66	96.75
496.877	91.75
497.094	86.75
497.312	101.75
497.529	101.75
497.746	95.75
497.963	85.75
498.181	88.75
498.398	96.75
498.615	97.75
498.832	99.75
499.049	93.75
499.267	84.75
499.484	92.75
499.701	99.75
499.918	101.75
500.135	93.75
500.352	77.75
500.569	89.75
500.786	103.75
501.003	75.75
501.22	96.75
501.437	78.75
501.654	101.75
501.871	110.75
502.088	99.75
502.305	80.75
502.522	94.75
502.739	94.75
502.956	94.75
503.172	92.75
503.389	110.75
503.606	105.75
503.823	87.75
504.04	94.75
504.256	101.75
504.473	82.75
504.69	97.75
504.907	91.75
505.123	85.75
505.34	88.75
505.557	77.75
505.773	71.75
505.99	115.75
506.207	89.75
506.423	93.75
506.64	97.75
506.856	85.75
507.073	91.75
507.289	92.75
507.506	104.75
507.722	115.75
507.939	84.75
508.155	84.75
508.372	92.75
508.588	94.75
508.805	106.75
509.021	95.75
509.238	98.75
509.454	93.75
509.67	109.75
509.887	99.75
510.103	133.75
510.319	169.75
510.536	603.75
510.752	1898.75
510.968	528.75
511.184	162.75
511.401	113.75
511.617	103.75
511.833	87.75
512.049	93.75
512.265	84.75
512.481	95.75
512.698	80.75
512.914	91.75
513.13	82.75
513.346	80.75
513.562	82.75
513.778	101.75
513.994	103.75
514.21	105.75
514.426	116.75
514.642	116.75
514.858	94.75
515.074	143.75
515.29	374.75
