Data from Circ_2002_H10_HRD10591_00060.txt Node
Date: Wed Jan 03 10:41:10 EST 2024
User: Yrep
Spectrometer: HR+D1059
Trigger mode: 1
Integration Time (sec): 1.000000E-1
Scans to average: 1
Electric dark correction enabled: true
Nonlinearity correction enabled: false
Boxcar width: 0
XAxis mode: Wavelengths
Number of Pixels in Spectrum: 2048
>>>>>Begin Spectral Data<<<<<
223.165	-14.75
223.4	-14.75
223.635	-14.75
223.869	-11.75
224.104	-3.75
224.338	-17.75
224.573	-22.75
224.808	-3.75
225.042	-14.75
225.277	-13.75
225.511	0.25
225.746	5.25
225.98	-5.75
226.215	12.25
226.449	13.25
226.683	15.25
226.918	26.25
227.152	36.25
227.387	31.25
227.621	44.25
227.856	43.25
228.09	47.25
228.324	49.25
228.559	56.25
228.793	73.25
229.027	69.25
229.262	67.25
229.496	77.25
229.73	82.25
229.964	89.25
230.199	76.25
230.433	78.25
230.667	79.25
230.901	68.25
231.136	71.25
231.37	79.25
231.604	79.25
231.838	90.25
232.072	84.25
232.306	93.25
232.541	82.25
232.775	84.25
233.009	80.25
233.243	72.25
233.477	93.25
233.711	88.25
233.945	86.25
234.179	83.25
234.413	87.25
234.647	76.25
234.881	73.25
235.115	92.25
235.349	82.25
235.583	78.25
235.817	74.25
236.051	76.25
236.285	86.25
236.519	92.25
236.753	70.25
236.987	88.25
237.221	100.25
237.455	86.25
237.689	67.25
237.922	84.25
238.156	79.25
238.39	60.25
238.624	70.25
238.858	75.25
239.091	76.25
239.325	78.25
239.559	90.25
239.793	97.25
240.027	76.25
240.26	70.25
240.494	95.25
240.728	86.25
240.961	79.25
241.195	94.25
241.429	93.25
241.662	76.25
241.896	64.25
242.13	75.25
242.363	90.25
242.597	79.25
242.83	82.25
243.064	76.25
243.298	91.25
243.531	74.25
243.765	86.25
243.998	82.25
244.232	76.25
244.465	73.25
244.699	94.25
244.932	80.25
245.166	86.25
245.399	75.25
245.633	85.25
245.866	79.25
246.099	88.25
246.333	78.25
246.566	87.25
246.8	73.25
247.033	86.25
247.266	81.25
247.5	84.25
247.733	79.25
247.966	74.25
248.2	74.25
248.433	81.25
248.666	77.25
248.899	79.25
249.133	91.25
249.366	91.25
249.599	97.25
249.832	83.25
250.066	88.25
250.299	83.25
250.532	91.25
250.765	71.25
250.998	74.25
251.231	84.25
251.465	88.25
251.698	71.25
251.931	84.25
252.164	90.25
252.397	83.25
252.63	89.25
252.863	100.25
253.096	85.25
253.329	89.25
253.562	87.25
253.795	87.25
254.028	87.25
254.261	85.25
254.494	84.25
254.727	91.25
254.96	78.25
255.193	77.25
255.426	79.25
255.659	76.25
255.892	73.25
256.124	89.25
256.357	93.25
256.59	79.25
256.823	86.25
257.056	66.25
257.289	83.25
257.521	76.25
257.754	86.25
257.987	83.25
258.22	100.25
258.452	79.25
258.685	93.25
258.918	70.25
259.151	91.25
259.383	87.25
259.616	76.25
259.849	76.25
260.081	101.25
260.314	83.25
260.547	85.25
260.779	78.25
261.012	83.25
261.244	70.25
261.477	90.25
261.71	87.25
261.942	113.25
262.175	115.25
262.407	74.25
262.64	78.25
262.872	73.25
263.105	77.25
263.337	90.25
263.57	89.25
263.802	92.25
264.035	93.25
264.267	103.25
264.499	102.25
264.732	85.25
264.964	82.25
265.197	99.25
265.429	81.25
265.661	76.25
265.894	85.25
266.126	83.25
266.358	83.25
266.591	93.25
266.823	83.25
267.055	84.25
267.287	89.25
267.52	84.25
267.752	92.25
267.984	78.25
268.216	83.25
268.448	107.25
268.681	94.25
268.913	84.25
269.145	84.25
269.377	93.25
269.609	85.25
269.841	74.25
270.073	90.25
270.306	77.25
270.538	77.25
270.77	92.25
271.002	77.25
271.234	87.25
271.466	94.25
271.698	87.25
271.93	79.25
272.162	89.25
272.394	92.25
272.626	91.25
272.858	85.25
273.09	79.25
273.322	101.25
273.553	91.25
273.785	85.25
274.017	83.25
274.249	76.25
274.481	86.25
274.713	83.25
274.945	80.25
275.176	74.25
275.408	94.25
275.64	89.25
275.872	84.25
276.104	78.25
276.335	105.25
276.567	92.25
276.799	93.25
277.031	93.25
277.262	85.25
277.494	88.25
277.726	86.25
277.957	90.25
278.189	89.25
278.421	87.25
278.652	91.25
278.884	81.25
279.115	95.25
279.347	88.25
279.579	88.25
279.81	83.25
280.042	91.25
280.273	98.25
280.505	89.25
280.736	96.25
280.968	99.25
281.199	93.25
281.431	92.25
281.662	82.25
281.894	92.25
282.125	105.25
282.356	130.25
282.588	113.25
282.819	110.25
283.051	90.25
283.282	87.25
283.513	92.25
283.745	83.25
283.976	83.25
284.207	108.25
284.439	90.25
284.67	87.25
284.901	92.25
285.132	94.25
285.364	85.25
285.595	83.25
285.826	75.25
286.057	88.25
286.288	94.25
286.52	82.25
286.751	74.25
286.982	92.25
287.213	87.25
287.444	91.25
287.675	88.25
287.906	81.25
288.138	94.25
288.369	90.25
288.6	85.25
288.831	94.25
289.062	104.25
289.293	87.25
289.524	89.25
289.755	83.25
289.986	95.25
290.217	93.25
290.448	103.25
290.679	93.25
290.91	95.25
291.141	86.25
291.371	92.25
291.602	101.25
291.833	91.25
292.064	89.25
292.295	86.25
292.526	81.25
292.757	83.25
292.987	86.25
293.218	89.25
293.449	92.25
293.68	92.25
293.91	86.25
294.141	96.25
294.372	96.25
294.603	101.25
294.833	93.25
295.064	101.25
295.295	94.25
295.525	91.25
295.756	90.25
295.987	104.25
296.217	117.25
296.448	113.25
296.679	103.25
296.909	77.25
297.14	76.25
297.37	83.25
297.601	99.25
297.831	99.25
298.062	98.25
298.292	105.25
298.523	86.25
298.753	90.25
298.984	94.25
299.214	94.25
299.445	103.25
299.675	83.25
299.905	108.25
300.136	102.25
300.366	87.25
300.597	85.25
300.827	90.25
301.057	99.25
301.288	95.25
301.518	95.25
301.748	102.25
301.979	102.25
302.209	89.25
302.439	85.25
302.669	81.25
302.9	115.25
303.13	90.25
303.36	98.25
303.59	93.25
303.82	112.25
304.051	92.25
304.281	89.25
304.511	91.25
304.741	89.25
304.971	93.25
305.201	94.25
305.431	105.25
305.661	102.25
305.891	94.25
306.121	96.25
306.352	87.25
306.582	95.25
306.812	83.25
307.042	97.25
307.272	93.25
307.502	87.25
307.731	94.25
307.961	92.25
308.191	98.25
308.421	88.25
308.651	124.25
308.881	102.25
309.111	88.25
309.341	105.25
309.571	101.25
309.8	107.25
310.03	93.25
310.26	101.25
310.49	85.25
310.72	98.25
310.949	100.25
311.179	98.25
311.409	88.25
311.639	94.25
311.868	91.25
312.098	85.25
312.328	104.25
312.557	87.25
312.787	99.25
313.017	89.25
313.246	83.25
313.476	96.25
313.706	112.25
313.935	84.25
314.165	102.25
314.394	98.25
314.624	100.25
314.853	104.25
315.083	107.25
315.312	95.25
315.542	94.25
315.771	92.25
316.001	96.25
316.23	109.25
316.46	95.25
316.689	90.25
316.919	92.25
317.148	87.25
317.377	99.25
317.607	102.25
317.836	93.25
318.065	103.25
318.295	105.25
318.524	106.25
318.753	101.25
318.983	94.25
319.212	109.25
319.441	95.25
319.67	111.25
319.9	98.25
320.129	100.25
320.358	103.25
320.587	99.25
320.816	84.25
321.046	91.25
321.275	95.25
321.504	93.25
321.733	93.25
321.962	76.25
322.191	109.25
322.42	121.25
322.649	112.25
322.878	110.25
323.108	111.25
323.337	119.25
323.566	123.25
323.795	135.25
324.024	173.25
324.253	326.25
324.482	683.25
324.71	1317.25
324.939	1705.25
325.168	637.25
325.397	201.25
325.626	140.25
325.855	131.25
326.084	128.25
326.313	137.25
326.542	145.25
326.77	208.25
326.999	368.25
327.228	781.25
327.457	1371.25
327.686	1067.25
327.914	299.25
328.143	156.25
328.372	119.25
328.6	125.25
328.829	125.25
329.058	123.25
329.287	119.25
329.515	105.25
329.744	102.25
329.972	118.25
330.201	126.25
330.43	119.25
330.658	129.25
330.887	128.25
331.115	111.25
331.344	101.25
331.572	106.25
331.801	96.25
332.03	107.25
332.258	83.25
332.486	97.25
332.715	89.25
332.943	99.25
333.172	91.25
333.4	99.25
333.629	102.25
333.857	114.25
334.085	95.25
334.314	117.25
334.542	127.25
334.771	150.25
334.999	95.25
335.227	96.25
335.455	110.25
335.684	107.25
335.912	93.25
336.14	97.25
336.369	93.25
336.597	94.25
336.825	105.25
337.053	95.25
337.281	103.25
337.51	80.25
337.738	101.25
337.966	105.25
338.194	94.25
338.422	101.25
338.65	105.25
338.878	89.25
339.106	93.25
339.334	93.25
339.562	81.25
339.79	89.25
340.018	87.25
340.246	93.25
340.474	85.25
340.702	101.25
340.93	82.25
341.158	106.25
341.386	93.25
341.614	91.25
341.842	92.25
342.07	94.25
342.298	100.25
342.526	90.25
342.754	103.25
342.981	92.25
343.209	98.25
343.437	99.25
343.665	99.25
343.893	95.25
344.12	102.25
344.348	101.25
344.576	92.25
344.804	103.25
345.031	103.25
345.259	98.25
345.487	94.25
345.714	115.25
345.942	99.25
346.17	92.25
346.397	85.25
346.625	82.25
346.853	85.25
347.08	75.25
347.308	102.25
347.535	99.25
347.763	95.25
347.99	110.25
348.218	109.25
348.445	98.25
348.673	103.25
348.9	105.25
349.128	83.25
349.355	79.25
349.583	95.25
349.81	102.25
350.037	103.25
350.265	103.25
350.492	93.25
350.72	103.25
350.947	102.25
351.174	117.25
351.402	111.25
351.629	91.25
351.856	106.25
352.083	112.25
352.311	114.25
352.538	101.25
352.765	105.25
352.992	102.25
353.22	113.25
353.447	103.25
353.674	101.25
353.901	99.25
354.128	92.25
354.355	99.25
354.583	99.25
354.81	100.25
355.037	97.25
355.264	108.25
355.491	96.25
355.718	97.25
355.945	90.25
356.172	95.25
356.399	89.25
356.626	89.25
356.853	93.25
357.08	93.25
357.307	91.25
357.534	102.25
357.761	99.25
357.988	88.25
358.215	92.25
358.441	95.25
358.668	96.25
358.895	95.25
359.122	90.25
359.349	88.25
359.576	75.25
359.802	87.25
360.029	96.25
360.256	96.25
360.483	91.25
360.709	97.25
360.936	95.25
361.163	114.25
361.39	92.25
361.616	93.25
361.843	80.25
362.07	94.25
362.296	85.25
362.523	97.25
362.749	100.25
362.976	90.25
363.203	86.25
363.429	93.25
363.656	89.25
363.882	100.25
364.109	87.25
364.335	82.25
364.562	100.25
364.788	88.25
365.015	105.25
365.241	101.25
365.468	106.25
365.694	98.25
365.92	92.25
366.147	85.25
366.373	88.25
366.599	98.25
366.826	101.25
367.052	96.25
367.278	97.25
367.505	88.25
367.731	108.25
367.957	93.25
368.184	93.25
368.41	90.25
368.636	120.25
368.862	119.25
369.089	114.25
369.315	91.25
369.541	95.25
369.767	90.25
369.993	113.25
370.219	102.25
370.445	93.25
370.672	97.25
370.898	99.25
371.124	84.25
371.35	82.25
371.576	96.25
371.802	97.25
372.028	78.25
372.254	101.25
372.48	74.25
372.706	101.25
372.932	89.25
373.158	98.25
373.384	98.25
373.61	102.25
373.835	84.25
374.061	81.25
374.287	99.25
374.513	102.25
374.739	90.25
374.965	97.25
375.191	98.25
375.416	90.25
375.642	89.25
375.868	90.25
376.094	95.25
376.319	86.25
376.545	83.25
376.771	87.25
376.997	95.25
377.222	97.25
377.448	92.25
377.674	95.25
377.899	93.25
378.125	81.25
378.35	98.25
378.576	98.25
378.802	94.25
379.027	104.25
379.253	100.25
379.478	72.25
379.704	107.25
379.929	93.25
380.155	96.25
380.38	95.25
380.606	98.25
380.831	99.25
381.057	129.25
381.282	91.25
381.507	99.25
381.733	99.25
381.958	88.25
382.184	99.25
382.409	109.25
382.634	99.25
382.86	110.25
383.085	120.25
383.31	118.25
383.535	97.25
383.761	105.25
383.986	108.25
384.211	104.25
384.436	107.25
384.662	95.25
384.887	104.25
385.112	103.25
385.337	107.25
385.562	99.25
385.787	108.25
386.013	108.25
386.238	106.25
386.463	114.25
386.688	108.25
386.913	114.25
387.138	111.25
387.363	114.25
387.588	101.25
387.813	99.25
388.038	106.25
388.263	103.25
388.488	120.25
388.713	90.25
388.938	97.25
389.163	100.25
389.387	102.25
389.612	111.25
389.837	97.25
390.062	100.25
390.287	102.25
390.512	91.25
390.736	97.25
390.961	95.25
391.186	98.25
391.411	81.25
391.636	95.25
391.86	92.25
392.085	79.25
392.31	87.25
392.534	87.25
392.759	93.25
392.984	92.25
393.208	91.25
393.433	92.25
393.658	95.25
393.882	87.25
394.107	86.25
394.331	94.25
394.556	77.25
394.78	109.25
395.005	84.25
395.229	82.25
395.454	84.25
395.678	103.25
395.903	82.25
396.127	101.25
396.352	89.25
396.576	86.25
396.801	92.25
397.025	98.25
397.249	83.25
397.474	90.25
397.698	80.25
397.922	87.25
398.147	95.25
398.371	90.25
398.595	83.25
398.82	98.25
399.044	91.25
399.268	97.25
399.492	103.25
399.717	91.25
399.941	94.25
400.165	85.25
400.389	88.25
400.613	90.25
400.837	87.25
401.062	90.25
401.286	77.25
401.51	107.25
401.734	75.25
401.958	105.25
402.182	131.25
402.406	144.25
402.63	109.25
402.854	101.25
403.078	81.25
403.302	102.25
403.526	93.25
403.75	93.25
403.974	91.25
404.198	81.25
404.422	93.25
404.645	91.25
404.869	107.25
405.093	81.25
405.317	107.25
405.541	101.25
405.765	121.25
405.988	113.25
406.212	147.25
406.436	168.25
406.66	131.25
406.883	99.25
407.107	73.25
407.331	100.25
407.555	117.25
407.778	93.25
408.002	99.25
408.226	87.25
408.449	87.25
408.673	99.25
408.896	95.25
409.12	98.25
409.344	103.25
409.567	80.25
409.791	90.25
410.014	94.25
410.238	111.25
410.461	76.25
410.685	99.25
410.908	90.25
411.132	98.25
411.355	103.25
411.578	101.25
411.802	81.25
412.025	85.25
412.249	93.25
412.472	84.25
412.695	98.25
412.919	94.25
413.142	95.25
413.365	89.25
413.589	85.25
413.812	81.25
414.035	108.25
414.258	100.25
414.482	95.25
414.705	96.25
414.928	90.25
415.151	98.25
415.374	111.25
415.597	87.25
415.821	93.25
416.044	99.25
416.267	94.25
416.49	91.25
416.713	106.25
416.936	97.25
417.159	79.25
417.382	94.25
417.605	90.25
417.828	87.25
418.051	110.25
418.274	83.25
418.497	92.25
418.72	92.25
418.943	83.25
419.166	79.25
419.389	105.25
419.611	86.25
419.834	94.25
420.057	103.25
420.28	89.25
420.503	83.25
420.726	85.25
420.948	91.25
421.171	90.25
421.394	93.25
421.617	104.25
421.839	88.25
422.062	92.25
422.285	98.25
422.507	112.25
422.73	114.25
422.953	88.25
423.175	102.25
423.398	96.25
423.621	79.25
423.843	87.25
424.066	107.25
424.288	85.25
424.511	78.25
424.733	87.25
424.956	101.25
425.178	93.25
425.401	90.25
425.623	102.25
425.846	98.25
426.068	96.25
426.291	86.25
426.513	91.25
426.735	79.25
426.958	102.25
427.18	94.25
427.402	131.25
427.625	133.25
427.847	126.25
428.069	115.25
428.292	107.25
428.514	103.25
428.736	84.25
428.958	93.25
429.181	92.25
429.403	84.25
429.625	85.25
429.847	93.25
430.069	87.25
430.292	79.25
430.514	76.25
430.736	97.25
430.958	91.25
431.18	83.25
431.402	89.25
431.624	101.25
431.846	86.25
432.068	101.25
432.29	94.25
432.512	95.25
432.734	81.25
432.956	93.25
433.178	101.25
433.4	96.25
433.622	100.25
433.844	102.25
434.066	92.25
434.287	99.25
434.509	86.25
434.731	109.25
434.953	91.25
435.175	89.25
435.397	91.25
435.618	81.25
435.84	107.25
436.062	115.25
436.284	114.25
436.505	100.25
436.727	89.25
436.949	88.25
437.17	92.25
437.392	98.25
437.614	95.25
437.835	105.25
438.057	92.25
438.278	104.25
438.5	113.25
438.721	120.25
438.943	103.25
439.165	91.25
439.386	96.25
439.608	86.25
439.829	90.25
440.05	123.25
440.272	129.25
440.493	91.25
440.715	93.25
440.936	88.25
441.158	77.25
441.379	88.25
441.6	99.25
441.822	93.25
442.043	85.25
442.264	103.25
442.486	95.25
442.707	101.25
442.928	106.25
443.149	123.25
443.371	110.25
443.592	99.25
443.813	111.25
444.034	104.25
444.255	95.25
444.476	87.25
444.698	95.25
444.919	89.25
445.14	127.25
445.361	114.25
445.582	107.25
445.803	103.25
446.024	106.25
446.245	106.25
446.466	107.25
446.687	89.25
446.908	93.25
447.129	71.25
447.35	95.25
447.571	91.25
447.792	94.25
448.013	109.25
448.234	108.25
448.455	91.25
448.675	102.25
448.896	105.25
449.117	99.25
449.338	111.25
449.559	102.25
449.779	111.25
450	78.25
450.221	103.25
450.442	94.25
450.662	82.25
450.883	89.25
451.104	108.25
451.324	98.25
451.545	90.25
451.766	90.25
451.986	101.25
452.207	85.25
452.428	90.25
452.648	94.25
452.869	106.25
453.089	94.25
453.31	101.25
453.53	79.25
453.751	98.25
453.971	100.25
454.192	99.25
454.412	100.25
454.633	105.25
454.853	95.25
455.073	96.25
455.294	93.25
455.514	104.25
455.734	85.25
455.955	78.25
456.175	83.25
456.395	98.25
456.616	104.25
456.836	90.25
457.056	88.25
457.276	93.25
457.497	84.25
457.717	71.25
457.937	91.25
458.157	91.25
458.377	102.25
458.598	103.25
458.818	115.25
459.038	120.25
459.258	93.25
459.478	94.25
459.698	80.25
459.918	107.25
460.138	89.25
460.358	89.25
460.578	85.25
460.798	100.25
461.018	82.25
461.238	94.25
461.458	99.25
461.678	92.25
461.898	92.25
462.118	105.25
462.338	70.25
462.558	102.25
462.777	93.25
462.997	88.25
463.217	85.25
463.437	102.25
463.657	90.25
463.876	87.25
464.096	82.25
464.316	95.25
464.536	97.25
464.755	108.25
464.975	96.25
465.195	137.25
465.414	126.25
465.634	103.25
465.854	83.25
466.073	82.25
466.293	72.25
466.512	86.25
466.732	87.25
466.951	99.25
467.171	91.25
467.391	103.25
467.61	85.25
467.829	89.25
468.049	88.25
468.268	111.25
468.488	88.25
468.707	85.25
468.927	89.25
469.146	79.25
469.365	71.25
469.585	91.25
469.804	95.25
470.023	97.25
470.243	89.25
470.462	87.25
470.681	110.25
470.901	84.25
471.12	77.25
471.339	89.25
471.558	103.25
471.777	90.25
471.997	89.25
472.216	119.25
472.435	153.25
472.654	107.25
472.873	91.25
473.092	95.25
473.311	99.25
473.53	94.25
473.749	85.25
473.968	105.25
474.187	98.25
474.406	98.25
474.625	78.25
474.844	85.25
475.063	83.25
475.282	92.25
475.501	91.25
475.72	84.25
475.939	75.25
476.158	90.25
476.377	88.25
476.596	93.25
476.814	84.25
477.033	98.25
477.252	81.25
477.471	86.25
477.69	90.25
477.908	101.25
478.127	94.25
478.346	93.25
478.564	92.25
478.783	86.25
479.002	91.25
479.22	118.25
479.439	110.25
479.658	88.25
479.876	93.25
480.095	94.25
480.313	92.25
480.532	99.25
480.751	98.25
480.969	115.25
481.188	207.25
481.406	149.25
481.624	102.25
481.843	85.25
482.061	93.25
482.28	94.25
482.498	96.25
482.717	85.25
482.935	91.25
483.153	89.25
483.372	88.25
483.59	105.25
483.808	87.25
484.027	84.25
484.245	85.25
484.463	95.25
484.681	91.25
484.9	86.25
485.118	95.25
485.336	77.25
485.554	99.25
485.772	100.25
485.99	107.25
486.209	109.25
486.427	114.25
486.645	113.25
486.863	120.25
487.081	108.25
487.299	102.25
487.517	95.25
487.735	102.25
487.953	102.25
488.171	94.25
488.389	94.25
488.607	85.25
488.825	99.25
489.043	85.25
489.261	100.25
489.479	92.25
489.696	98.25
489.914	87.25
490.132	97.25
490.35	88.25
490.568	89.25
490.786	91.25
491.003	99.25
491.221	91.25
491.439	111.25
491.657	94.25
491.874	81.25
492.092	78.25
492.31	92.25
492.527	78.25
492.745	87.25
492.963	84.25
493.18	89.25
493.398	103.25
493.615	90.25
493.833	100.25
494.05	93.25
494.268	106.25
494.485	99.25
494.703	93.25
494.92	100.25
495.138	89.25
495.355	89.25
495.573	102.25
495.79	91.25
496.008	93.25
496.225	105.25
496.442	102.25
496.66	89.25
496.877	93.25
497.094	91.25
497.312	94.25
497.529	94.25
497.746	87.25
497.963	91.25
498.181	92.25
498.398	83.25
498.615	83.25
498.832	104.25
499.049	85.25
499.267	102.25
499.484	93.25
499.701	93.25
499.918	84.25
500.135	92.25
500.352	88.25
500.569	98.25
500.786	91.25
501.003	88.25
501.22	85.25
501.437	93.25
501.654	78.25
501.871	98.25
502.088	85.25
502.305	98.25
502.522	99.25
502.739	98.25
502.956	88.25
503.172	87.25
503.389	90.25
503.606	90.25
503.823	89.25
504.04	92.25
504.256	97.25
504.473	90.25
504.69	92.25
504.907	107.25
505.123	86.25
505.34	90.25
505.557	91.25
505.773	91.25
505.99	106.25
506.207	102.25
506.423	93.25
506.64	92.25
506.856	99.25
507.073	85.25
507.289	99.25
507.506	105.25
507.722	98.25
507.939	95.25
508.155	97.25
508.372	104.25
508.588	94.25
508.805	91.25
509.021	85.25
509.238	101.25
509.454	105.25
509.67	101.25
509.887	101.25
510.103	126.25
510.319	180.25
510.536	542.25
510.752	1685.25
510.968	502.25
511.184	141.25
511.401	112.25
511.617	108.25
511.833	99.25
512.049	110.25
512.265	88.25
512.481	81.25
512.698	90.25
512.914	94.25
513.13	102.25
513.346	90.25
513.562	94.25
513.778	96.25
513.994	111.25
514.21	92.25
514.426	99.25
514.642	119.25
514.858	110.25
