Data from Circ_2002_H10_HRD10591_00085.txt Node
Date: Wed Jan 03 10:41:15 EST 2024
User: Yrep
Spectrometer: HR+D1059
Trigger mode: 1
Integration Time (sec): 1.000000E-1
Scans to average: 1
Electric dark correction enabled: true
Nonlinearity correction enabled: false
Boxcar width: 0
XAxis mode: Wavelengths
Number of Pixels in Spectrum: 2048
>>>>>Begin Spectral Data<<<<<
223.165	-16.31
223.4	-16.31
223.635	-16.31
223.869	-8.31
224.104	-10.31
224.338	-17.31
224.573	-11.31
224.808	-17.31
225.042	-14.31
225.277	4.69
225.511	-4.31
225.746	-6.31
225.98	2.69
226.215	12.69
226.449	7.69
226.683	21.69
226.918	24.69
227.152	31.69
227.387	23.69
227.621	40.69
227.856	51.69
228.09	50.69
228.324	36.69
228.559	47.69
228.793	59.69
229.027	63.69
229.262	48.69
229.496	71.69
229.73	85.69
229.964	79.69
230.199	62.69
230.433	70.69
230.667	78.69
230.901	66.69
231.136	83.69
231.37	67.69
231.604	80.69
231.838	76.69
232.072	81.69
232.306	67.69
232.541	79.69
232.775	81.69
233.009	94.69
233.243	89.69
233.477	77.69
233.711	72.69
233.945	77.69
234.179	78.69
234.413	84.69
234.647	78.69
234.881	65.69
235.115	67.69
235.349	61.69
235.583	79.69
235.817	67.69
236.051	80.69
236.285	69.69
236.519	71.69
236.753	79.69
236.987	83.69
237.221	74.69
237.455	84.69
237.689	71.69
237.922	67.69
238.156	84.69
238.39	59.69
238.624	71.69
238.858	79.69
239.091	70.69
239.325	68.69
239.559	83.69
239.793	85.69
240.027	79.69
240.26	70.69
240.494	83.69
240.728	65.69
240.961	77.69
241.195	78.69
241.429	74.69
241.662	78.69
241.896	67.69
242.13	72.69
242.363	71.69
242.597	79.69
242.83	84.69
243.064	78.69
243.298	83.69
243.531	83.69
243.765	76.69
243.998	81.69
244.232	78.69
244.465	79.69
244.699	95.69
244.932	69.69
245.166	75.69
245.399	80.69
245.633	85.69
245.866	91.69
246.099	82.69
246.333	73.69
246.566	70.69
246.8	80.69
247.033	80.69
247.266	78.69
247.5	68.69
247.733	84.69
247.966	88.69
248.2	67.69
248.433	80.69
248.666	75.69
248.899	86.69
249.133	80.69
249.366	85.69
249.599	84.69
249.832	76.69
250.066	83.69
250.299	76.69
250.532	73.69
250.765	75.69
250.998	68.69
251.231	72.69
251.465	79.69
251.698	87.69
251.931	78.69
252.164	87.69
252.397	70.69
252.63	90.69
252.863	78.69
253.096	63.69
253.329	92.69
253.562	79.69
253.795	75.69
254.028	69.69
254.261	88.69
254.494	91.69
254.727	73.69
254.96	84.69
255.193	90.69
255.426	88.69
255.659	68.69
255.892	75.69
256.124	76.69
256.357	76.69
256.59	77.69
256.823	81.69
257.056	76.69
257.289	71.69
257.521	75.69
257.754	80.69
257.987	79.69
258.22	75.69
258.452	80.69
258.685	76.69
258.918	77.69
259.151	84.69
259.383	79.69
259.616	68.69
259.849	80.69
260.081	74.69
260.314	65.69
260.547	68.69
260.779	68.69
261.012	81.69
261.244	69.69
261.477	88.69
261.71	75.69
261.942	99.69
262.175	102.69
262.407	74.69
262.64	88.69
262.872	86.69
263.105	91.69
263.337	96.69
263.57	84.69
263.802	81.69
264.035	88.69
264.267	72.69
264.499	84.69
264.732	76.69
264.964	87.69
265.197	72.69
265.429	63.69
265.661	71.69
265.894	80.69
266.126	75.69
266.358	84.69
266.591	73.69
266.823	73.69
267.055	67.69
267.287	76.69
267.52	81.69
267.752	96.69
267.984	81.69
268.216	72.69
268.448	82.69
268.681	72.69
268.913	83.69
269.145	72.69
269.377	88.69
269.609	85.69
269.841	80.69
270.073	77.69
270.306	83.69
270.538	75.69
270.77	63.69
271.002	87.69
271.234	80.69
271.466	81.69
271.698	78.69
271.93	77.69
272.162	73.69
272.394	75.69
272.626	81.69
272.858	86.69
273.09	99.69
273.322	89.69
273.553	99.69
273.785	87.69
274.017	86.69
274.249	82.69
274.481	69.69
274.713	75.69
274.945	77.69
275.176	89.69
275.408	80.69
275.64	74.69
275.872	83.69
276.104	85.69
276.335	84.69
276.567	97.69
276.799	79.69
277.031	106.69
277.262	77.69
277.494	86.69
277.726	86.69
277.957	74.69
278.189	89.69
278.421	86.69
278.652	80.69
278.884	82.69
279.115	77.69
279.347	78.69
279.579	78.69
279.81	94.69
280.042	91.69
280.273	88.69
280.505	84.69
280.736	80.69
280.968	85.69
281.199	83.69
281.431	85.69
281.662	79.69
281.894	98.69
282.125	91.69
282.356	102.69
282.588	118.69
282.819	114.69
283.051	97.69
283.282	73.69
283.513	107.69
283.745	81.69
283.976	85.69
284.207	86.69
284.439	80.69
284.67	77.69
284.901	64.69
285.132	77.69
285.364	90.69
285.595	85.69
285.826	85.69
286.057	83.69
286.288	86.69
286.52	83.69
286.751	84.69
286.982	96.69
287.213	73.69
287.444	93.69
287.675	84.69
287.906	81.69
288.138	90.69
288.369	83.69
288.6	85.69
288.831	88.69
289.062	85.69
289.293	84.69
289.524	97.69
289.755	87.69
289.986	86.69
290.217	87.69
290.448	83.69
290.679	69.69
290.91	99.69
291.141	87.69
291.371	85.69
291.602	107.69
291.833	79.69
292.064	84.69
292.295	81.69
292.526	69.69
292.757	88.69
292.987	82.69
293.218	87.69
293.449	91.69
293.68	86.69
293.91	95.69
294.141	83.69
294.372	85.69
294.603	72.69
294.833	76.69
295.064	78.69
295.295	73.69
295.525	91.69
295.756	88.69
295.987	106.69
296.217	116.69
296.448	103.69
296.679	88.69
296.909	88.69
297.14	89.69
297.37	75.69
297.601	89.69
297.831	82.69
298.062	91.69
298.292	84.69
298.523	77.69
298.753	96.69
298.984	78.69
299.214	83.69
299.445	83.69
299.675	89.69
299.905	86.69
300.136	93.69
300.366	82.69
300.597	85.69
300.827	97.69
301.057	84.69
301.288	84.69
301.518	91.69
301.748	83.69
301.979	108.69
302.209	85.69
302.439	85.69
302.669	84.69
302.9	92.69
303.13	105.69
303.36	79.69
303.59	96.69
303.82	85.69
304.051	98.69
304.281	94.69
304.511	76.69
304.741	79.69
304.971	95.69
305.201	82.69
305.431	99.69
305.661	84.69
305.891	84.69
306.121	72.69
306.352	93.69
306.582	110.69
306.812	80.69
307.042	82.69
307.272	94.69
307.502	89.69
307.731	93.69
307.961	88.69
308.191	82.69
308.421	79.69
308.651	77.69
308.881	88.69
309.111	80.69
309.341	84.69
309.571	79.69
309.8	115.69
310.03	92.69
310.26	85.69
310.49	91.69
310.72	88.69
310.949	95.69
311.179	96.69
311.409	88.69
311.639	88.69
311.868	91.69
312.098	85.69
312.328	87.69
312.557	94.69
312.787	86.69
313.017	93.69
313.246	88.69
313.476	82.69
313.706	108.69
313.935	97.69
314.165	70.69
314.394	94.69
314.624	77.69
314.853	88.69
315.083	64.69
315.312	83.69
315.542	80.69
315.771	79.69
316.001	78.69
316.23	98.69
316.46	99.69
316.689	81.69
316.919	79.69
317.148	95.69
317.377	90.69
317.607	77.69
317.836	87.69
318.065	82.69
318.295	86.69
318.524	75.69
318.753	84.69
318.983	92.69
319.212	95.69
319.441	92.69
319.67	95.69
319.9	84.69
320.129	85.69
320.358	89.69
320.587	95.69
320.816	101.69
321.046	101.69
321.275	80.69
321.504	79.69
321.733	104.69
321.962	87.69
322.191	99.69
322.42	98.69
322.649	104.69
322.878	98.69
323.108	105.69
323.337	104.69
323.566	119.69
323.795	141.69
324.024	191.69
324.253	343.69
324.482	684.69
324.71	1435.69
324.939	1909.69
325.168	698.69
325.397	207.69
325.626	127.69
325.855	108.69
326.084	102.69
326.313	126.69
326.542	146.69
326.77	220.69
326.999	411.69
327.228	846.69
327.457	1531.69
327.686	1173.69
327.914	312.69
328.143	168.69
328.372	143.69
328.6	121.69
328.829	118.69
329.058	115.69
329.287	116.69
329.515	101.69
329.744	100.69
329.972	114.69
330.201	140.69
330.43	156.69
330.658	128.69
330.887	145.69
331.115	117.69
331.344	98.69
331.572	92.69
331.801	93.69
332.03	93.69
332.258	101.69
332.486	88.69
332.715	78.69
332.943	76.69
333.172	78.69
333.4	81.69
333.629	104.69
333.857	105.69
334.085	112.69
334.314	137.69
334.542	147.69
334.771	146.69
334.999	111.69
335.227	96.69
335.455	81.69
335.684	83.69
335.912	98.69
336.14	101.69
336.369	98.69
336.597	89.69
336.825	78.69
337.053	95.69
337.281	87.69
337.51	86.69
337.738	103.69
337.966	92.69
338.194	93.69
338.422	96.69
338.65	92.69
338.878	83.69
339.106	89.69
339.334	87.69
339.562	76.69
339.79	78.69
340.018	94.69
340.246	84.69
340.474	98.69
340.702	89.69
340.93	74.69
341.158	80.69
341.386	89.69
341.614	100.69
341.842	93.69
342.07	94.69
342.298	85.69
342.526	89.69
342.754	80.69
342.981	98.69
343.209	88.69
343.437	93.69
343.665	94.69
343.893	79.69
344.12	95.69
344.348	85.69
344.576	97.69
344.804	85.69
345.031	94.69
345.259	96.69
345.487	96.69
345.714	94.69
345.942	82.69
346.17	92.69
346.397	79.69
346.625	68.69
346.853	81.69
347.08	82.69
347.308	91.69
347.535	96.69
347.763	89.69
347.99	87.69
348.218	87.69
348.445	95.69
348.673	89.69
348.9	89.69
349.128	94.69
349.355	88.69
349.583	98.69
349.81	99.69
350.037	99.69
350.265	88.69
350.492	95.69
350.72	104.69
350.947	77.69
351.174	104.69
351.402	100.69
351.629	84.69
351.856	96.69
352.083	96.69
352.311	100.69
352.538	96.69
352.765	90.69
352.992	99.69
353.22	104.69
353.447	102.69
353.674	97.69
353.901	89.69
354.128	89.69
354.355	99.69
354.583	98.69
354.81	95.69
355.037	85.69
355.264	95.69
355.491	87.69
355.718	100.69
355.945	93.69
356.172	87.69
356.399	87.69
356.626	91.69
356.853	87.69
357.08	94.69
357.307	103.69
357.534	85.69
357.761	88.69
357.988	81.69
358.215	105.69
358.441	92.69
358.668	80.69
358.895	91.69
359.122	103.69
359.349	86.69
359.576	97.69
359.802	98.69
360.029	103.69
360.256	79.69
360.483	79.69
360.709	88.69
360.936	90.69
361.163	76.69
361.39	93.69
361.616	90.69
361.843	83.69
362.07	91.69
362.296	87.69
362.523	83.69
362.749	77.69
362.976	83.69
363.203	88.69
363.429	81.69
363.656	81.69
363.882	107.69
364.109	83.69
364.335	86.69
364.562	86.69
364.788	81.69
365.015	80.69
365.241	99.69
365.468	93.69
365.694	114.69
365.92	86.69
366.147	83.69
366.373	89.69
366.599	82.69
366.826	80.69
367.052	79.69
367.278	96.69
367.505	106.69
367.731	92.69
367.957	88.69
368.184	83.69
368.41	96.69
368.636	82.69
368.862	113.69
369.089	95.69
369.315	89.69
369.541	92.69
369.767	72.69
369.993	81.69
370.219	87.69
370.445	86.69
370.672	88.69
370.898	82.69
371.124	76.69
371.35	81.69
371.576	89.69
371.802	78.69
372.028	81.69
372.254	87.69
372.48	95.69
372.706	94.69
372.932	86.69
373.158	74.69
373.384	93.69
373.61	93.69
373.835	93.69
374.061	84.69
374.287	78.69
374.513	99.69
374.739	73.69
374.965	82.69
375.191	83.69
375.416	103.69
375.642	78.69
375.868	84.69
376.094	82.69
376.319	76.69
376.545	71.69
376.771	74.69
376.997	83.69
377.222	70.69
377.448	90.69
377.674	91.69
377.899	85.69
378.125	68.69
378.35	98.69
378.576	85.69
378.802	87.69
379.027	88.69
379.253	108.69
379.478	88.69
379.704	84.69
379.929	85.69
380.155	80.69
380.38	93.69
380.606	85.69
380.831	92.69
381.057	88.69
381.282	85.69
381.507	88.69
381.733	98.69
381.958	97.69
382.184	88.69
382.409	79.69
382.634	101.69
382.86	94.69
383.085	86.69
383.31	102.69
383.535	99.69
383.761	101.69
383.986	93.69
384.211	101.69
384.436	91.69
384.662	87.69
384.887	94.69
385.112	93.69
385.337	91.69
385.562	83.69
385.787	93.69
386.013	110.69
386.238	104.69
386.463	102.69
386.688	110.69
386.913	93.69
387.138	95.69
387.363	107.69
387.588	103.69
387.813	83.69
388.038	114.69
388.263	99.69
388.488	104.69
388.713	93.69
388.938	99.69
389.163	99.69
389.387	77.69
389.612	89.69
389.837	101.69
390.062	80.69
390.287	81.69
390.512	84.69
390.736	84.69
390.961	78.69
391.186	77.69
391.411	103.69
391.636	78.69
391.86	88.69
392.085	94.69
392.31	71.69
392.534	77.69
392.759	83.69
392.984	94.69
393.208	82.69
393.433	87.69
393.658	77.69
393.882	89.69
394.107	93.69
394.331	87.69
394.556	82.69
394.78	78.69
395.005	83.69
395.229	61.69
395.454	73.69
395.678	81.69
395.903	91.69
396.127	93.69
396.352	88.69
396.576	71.69
396.801	75.69
397.025	98.69
397.249	88.69
397.474	71.69
397.698	70.69
397.922	88.69
398.147	78.69
398.371	84.69
398.595	82.69
398.82	81.69
399.044	93.69
399.268	76.69
399.492	85.69
399.717	80.69
399.941	87.69
400.165	89.69
400.389	69.69
400.613	75.69
400.837	85.69
401.062	79.69
401.286	92.69
401.51	92.69
401.734	75.69
401.958	86.69
402.182	107.69
402.406	129.69
402.63	103.69
402.854	86.69
403.078	82.69
403.302	75.69
403.526	76.69
403.75	80.69
403.974	87.69
404.198	93.69
404.422	85.69
404.645	85.69
404.869	80.69
405.093	80.69
405.317	92.69
405.541	83.69
405.765	90.69
405.988	107.69
406.212	161.69
406.436	175.69
406.66	131.69
406.883	93.69
407.107	94.69
407.331	84.69
407.555	97.69
407.778	104.69
408.002	88.69
408.226	81.69
408.449	87.69
408.673	83.69
408.896	88.69
409.12	98.69
409.344	73.69
409.567	88.69
409.791	94.69
410.014	93.69
410.238	93.69
410.461	86.69
410.685	84.69
410.908	76.69
411.132	125.69
411.355	95.69
411.578	101.69
411.802	72.69
412.025	89.69
412.249	87.69
412.472	84.69
412.695	87.69
412.919	100.69
413.142	77.69
413.365	81.69
413.589	82.69
413.812	85.69
414.035	97.69
414.258	92.69
414.482	82.69
414.705	99.69
414.928	89.69
415.151	79.69
415.374	100.69
415.597	92.69
415.821	82.69
416.044	85.69
416.267	91.69
416.49	84.69
416.713	84.69
416.936	86.69
417.159	79.69
417.382	75.69
417.605	85.69
417.828	91.69
418.051	92.69
418.274	73.69
418.497	82.69
418.72	83.69
418.943	79.69
419.166	96.69
419.389	79.69
419.611	81.69
419.834	77.69
420.057	88.69
420.28	87.69
420.503	83.69
420.726	91.69
420.948	72.69
421.171	83.69
421.394	102.69
421.617	94.69
421.839	78.69
422.062	78.69
422.285	97.69
422.507	97.69
422.73	86.69
422.953	84.69
423.175	87.69
423.398	80.69
423.621	82.69
423.843	98.69
424.066	79.69
424.288	77.69
424.511	98.69
424.733	80.69
424.956	88.69
425.178	94.69
425.401	82.69
425.623	84.69
425.846	86.69
426.068	98.69
426.291	83.69
426.513	79.69
426.735	74.69
426.958	73.69
427.18	93.69
427.402	114.69
427.625	150.69
427.847	127.69
428.069	120.69
428.292	83.69
428.514	90.69
428.736	72.69
428.958	90.69
429.181	82.69
429.403	92.69
429.625	97.69
429.847	93.69
430.069	92.69
430.292	94.69
430.514	83.69
430.736	75.69
430.958	80.69
431.18	77.69
431.402	69.69
431.624	71.69
431.846	71.69
432.068	77.69
432.29	91.69
432.512	88.69
432.734	91.69
432.956	79.69
433.178	89.69
433.4	94.69
433.622	99.69
433.844	79.69
434.066	93.69
434.287	83.69
434.509	83.69
434.731	86.69
434.953	84.69
435.175	74.69
435.397	91.69
435.618	87.69
435.84	108.69
436.062	101.69
436.284	116.69
436.505	94.69
436.727	92.69
436.949	98.69
437.17	91.69
437.392	88.69
437.614	99.69
437.835	116.69
438.057	103.69
438.278	108.69
438.5	101.69
438.721	107.69
438.943	91.69
439.165	72.69
439.386	85.69
439.608	87.69
439.829	98.69
440.05	112.69
440.272	131.69
440.493	101.69
440.715	100.69
440.936	76.69
441.158	94.69
441.379	83.69
441.6	79.69
441.822	84.69
442.043	86.69
442.264	85.69
442.486	101.69
442.707	79.69
442.928	100.69
443.149	111.69
443.371	114.69
443.592	99.69
443.813	98.69
444.034	96.69
444.255	92.69
444.476	83.69
444.698	73.69
444.919	84.69
445.14	128.69
445.361	114.69
445.582	101.69
445.803	132.69
446.024	127.69
446.245	132.69
446.466	105.69
446.687	88.69
446.908	84.69
447.129	87.69
447.35	79.69
447.571	87.69
447.792	77.69
448.013	92.69
448.234	91.69
448.455	89.69
448.675	100.69
448.896	100.69
449.117	99.69
449.338	103.69
449.559	116.69
449.779	120.69
450	76.69
450.221	70.69
450.442	68.69
450.662	76.69
450.883	101.69
451.104	104.69
451.324	88.69
451.545	71.69
451.766	76.69
451.986	86.69
452.207	86.69
452.428	89.69
452.648	90.69
452.869	96.69
453.089	89.69
453.31	106.69
453.53	89.69
453.751	84.69
453.971	86.69
454.192	101.69
454.412	98.69
454.633	77.69
454.853	86.69
455.073	93.69
455.294	83.69
455.514	84.69
455.734	77.69
455.955	63.69
456.175	85.69
456.395	84.69
456.616	96.69
456.836	81.69
457.056	101.69
457.276	74.69
457.497	69.69
457.717	90.69
457.937	88.69
458.157	71.69
458.377	81.69
458.598	90.69
458.818	114.69
459.038	125.69
459.258	86.69
459.478	78.69
459.698	89.69
459.918	78.69
460.138	99.69
460.358	87.69
460.578	93.69
460.798	97.69
461.018	85.69
461.238	86.69
461.458	84.69
461.678	78.69
461.898	89.69
462.118	87.69
462.338	101.69
462.558	83.69
462.777	80.69
462.997	80.69
463.217	96.69
463.437	81.69
463.657	91.69
463.876	85.69
464.096	100.69
464.316	69.69
464.536	100.69
464.755	93.69
464.975	98.69
465.195	144.69
465.414	138.69
465.634	96.69
465.854	80.69
466.073	87.69
466.293	86.69
466.512	88.69
466.732	83.69
466.951	89.69
467.171	82.69
467.391	96.69
467.61	92.69
467.829	109.69
468.049	116.69
468.268	108.69
468.488	75.69
468.707	98.69
468.927	89.69
469.146	80.69
469.365	83.69
469.585	89.69
469.804	95.69
470.023	104.69
470.243	85.69
470.462	82.69
470.681	95.69
470.901	86.69
471.12	81.69
471.339	84.69
471.558	82.69
471.777	97.69
471.997	94.69
472.216	113.69
472.435	195.69
472.654	114.69
472.873	83.69
473.092	73.69
473.311	96.69
473.53	76.69
473.749	72.69
473.968	73.69
474.187	93.69
474.406	89.69
474.625	82.69
474.844	94.69
475.063	76.69
475.282	82.69
475.501	79.69
475.72	79.69
475.939	79.69
476.158	80.69
476.377	83.69
476.596	79.69
476.814	84.69
477.033	71.69
477.252	91.69
477.471	91.69
477.69	90.69
477.908	81.69
478.127	88.69
478.346	93.69
478.564	85.69
478.783	80.69
479.002	99.69
479.22	101.69
479.439	100.69
479.658	108.69
479.876	89.69
480.095	71.69
480.313	74.69
480.532	91.69
480.751	84.69
480.969	123.69
481.188	262.69
481.406	189.69
481.624	100.69
481.843	92.69
482.061	85.69
482.28	90.69
482.498	82.69
482.717	80.69
482.935	98.69
483.153	84.69
483.372	95.69
483.59	96.69
483.808	84.69
484.027	79.69
484.245	86.69
484.463	89.69
484.681	101.69
484.9	99.69
485.118	103.69
485.336	88.69
485.554	92.69
485.772	98.69
485.99	95.69
486.209	93.69
486.427	100.69
486.645	108.69
486.863	116.69
487.081	92.69
487.299	115.69
487.517	89.69
487.735	80.69
487.953	88.69
488.171	92.69
488.389	89.69
488.607	93.69
488.825	71.69
489.043	86.69
489.261	102.69
489.479	86.69
489.696	76.69
489.914	96.69
490.132	88.69
490.35	85.69
490.568	91.69
490.786	83.69
491.003	89.69
491.221	109.69
491.439	96.69
491.657	86.69
491.874	84.69
492.092	90.69
492.31	88.69
492.527	86.69
492.745	95.69
492.963	76.69
493.18	84.69
493.398	100.69
493.615	103.69
493.833	95.69
494.05	91.69
494.268	77.69
494.485	87.69
494.703	63.69
494.92	78.69
495.138	80.69
495.355	81.69
495.573	97.69
495.79	75.69
496.008	88.69
496.225	103.69
496.442	84.69
496.66	107.69
496.877	89.69
497.094	96.69
497.312	105.69
497.529	84.69
497.746	81.69
497.963	86.69
498.181	95.69
498.398	86.69
498.615	95.69
498.832	98.69
499.049	83.69
499.267	85.69
499.484	81.69
499.701	79.69
499.918	84.69
500.135	71.69
500.352	84.69
500.569	76.69
500.786	69.69
501.003	91.69
501.22	81.69
501.437	93.69
501.654	88.69
501.871	109.69
502.088	84.69
502.305	84.69
502.522	85.69
502.739	96.69
502.956	83.69
503.172	96.69
503.389	91.69
503.606	99.69
503.823	91.69
504.04	93.69
504.256	72.69
504.473	82.69
504.69	87.69
504.907	94.69
505.123	91.69
505.34	81.69
505.557	95.69
505.773	76.69
505.99	91.69
506.207	95.69
506.423	87.69
506.64	85.69
506.856	95.69
507.073	98.69
507.289	91.69
507.506	87.69
507.722	110.69
507.939	106.69
508.155	88.69
508.372	98.69
508.588	83.69
508.805	96.69
509.021	91.69
509.238	93.69
509.454	100.69
509.67	94.69
509.887	94.69
510.103	128.69
510.319	188.69
510.536	577.69
510.752	1790.69
510.968	514.69
511.184	125.69
511.401	105.69
511.617	86.69
511.833	89.69
512.049	72.69
512.265	86.69
512.481	91.69
512.698	94.69
512.914	83.69
513.13	91.69
513.346	88.69
513.562	77.69
513.778	97.69
513.994	91.69
514.21	91.69
514.426	110.69
514.642	119.69
514.858	108.69
515.074	141.69
515.29	344.69
515.506	1076.69
515.721	403.69
515.937	155.69
516.153	98.69
516.369	98.69
516.585	84.69
516.801	97.69
517.016	81.69
517.232	80.69
