Data from Circ_2002_H10_HRD10591_00036.txt Node
Date: Wed Jan 03 10:41:05 EST 2024
User: Yrep
Spectrometer: HR+D1059
Trigger mode: 1
Integration Time (sec): 1.000000E-1
Scans to average: 1
Electric dark correction enabled: true
Nonlinearity correction enabled: false
Boxcar width: 0
XAxis mode: Wavelengths
Number of Pixels in Spectrum: 2048
>>>>>Begin Spectral Data<<<<<
223.165	-33.81
223.4	-33.81
223.635	-33.81
223.869	-21.81
224.104	-8.81
224.338	-9.81
224.573	-2.81
224.808	-5.81
225.042	-20.81
225.277	-7.81
225.511	0.19
225.746	-1.81
225.98	11.19
226.215	2.19
226.449	20.19
226.683	27.19
226.918	18.19
227.152	34.19
227.387	33.19
227.621	43.19
227.856	37.19
228.09	37.19
228.324	50.19
228.559	62.19
228.793	66.19
229.027	67.19
229.262	64.19
229.496	67.19
229.73	76.19
229.964	63.19
230.199	77.19
230.433	75.19
230.667	69.19
230.901	87.19
231.136	81.19
231.37	67.19
231.604	83.19
231.838	78.19
232.072	77.19
232.306	84.19
232.541	78.19
232.775	85.19
233.009	81.19
233.243	82.19
233.477	93.19
233.711	89.19
233.945	76.19
234.179	74.19
234.413	87.19
234.647	83.19
234.881	88.19
235.115	85.19
235.349	80.19
235.583	73.19
235.817	76.19
236.051	67.19
236.285	83.19
236.519	65.19
236.753	72.19
236.987	70.19
237.221	69.19
237.455	74.19
237.689	85.19
237.922	93.19
238.156	61.19
238.39	77.19
238.624	67.19
238.858	78.19
239.091	73.19
239.325	67.19
239.559	78.19
239.793	69.19
240.027	81.19
240.26	85.19
240.494	83.19
240.728	81.19
240.961	73.19
241.195	70.19
241.429	81.19
241.662	88.19
241.896	79.19
242.13	71.19
242.363	81.19
242.597	80.19
242.83	67.19
243.064	75.19
243.298	67.19
243.531	79.19
243.765	80.19
243.998	70.19
244.232	89.19
244.465	70.19
244.699	97.19
244.932	86.19
245.166	67.19
245.399	86.19
245.633	64.19
245.866	73.19
246.099	69.19
246.333	77.19
246.566	90.19
246.8	74.19
247.033	74.19
247.266	70.19
247.5	74.19
247.733	77.19
247.966	74.19
248.2	81.19
248.433	59.19
248.666	66.19
248.899	85.19
249.133	95.19
249.366	103.19
249.599	101.19
249.832	87.19
250.066	71.19
250.299	95.19
250.532	86.19
250.765	79.19
250.998	87.19
251.231	77.19
251.465	82.19
251.698	63.19
251.931	90.19
252.164	82.19
252.397	84.19
252.63	98.19
252.863	69.19
253.096	73.19
253.329	91.19
253.562	82.19
253.795	85.19
254.028	65.19
254.261	70.19
254.494	79.19
254.727	85.19
254.96	85.19
255.193	68.19
255.426	91.19
255.659	72.19
255.892	88.19
256.124	83.19
256.357	90.19
256.59	85.19
256.823	91.19
257.056	87.19
257.289	79.19
257.521	61.19
257.754	67.19
257.987	85.19
258.22	88.19
258.452	75.19
258.685	73.19
258.918	83.19
259.151	83.19
259.383	76.19
259.616	77.19
259.849	81.19
260.081	80.19
260.314	78.19
260.547	76.19
260.779	82.19
261.012	91.19
261.244	90.19
261.477	78.19
261.71	84.19
261.942	103.19
262.175	122.19
262.407	83.19
262.64	72.19
262.872	66.19
263.105	89.19
263.337	82.19
263.57	77.19
263.802	73.19
264.035	87.19
264.267	81.19
264.499	76.19
264.732	90.19
264.964	96.19
265.197	81.19
265.429	75.19
265.661	90.19
265.894	83.19
266.126	80.19
266.358	80.19
266.591	74.19
266.823	86.19
267.055	85.19
267.287	84.19
267.52	85.19
267.752	76.19
267.984	79.19
268.216	85.19
268.448	76.19
268.681	75.19
268.913	91.19
269.145	90.19
269.377	88.19
269.609	89.19
269.841	78.19
270.073	79.19
270.306	97.19
270.538	84.19
270.77	78.19
271.002	72.19
271.234	69.19
271.466	82.19
271.698	79.19
271.93	67.19
272.162	90.19
272.394	88.19
272.626	83.19
272.858	89.19
273.09	74.19
273.322	73.19
273.553	69.19
273.785	78.19
274.017	81.19
274.249	84.19
274.481	81.19
274.713	86.19
274.945	88.19
275.176	90.19
275.408	78.19
275.64	77.19
275.872	81.19
276.104	78.19
276.335	97.19
276.567	93.19
276.799	112.19
277.031	95.19
277.262	79.19
277.494	74.19
277.726	81.19
277.957	71.19
278.189	84.19
278.421	78.19
278.652	79.19
278.884	86.19
279.115	86.19
279.347	82.19
279.579	108.19
279.81	77.19
280.042	82.19
280.273	84.19
280.505	89.19
280.736	72.19
280.968	80.19
281.199	80.19
281.431	82.19
281.662	89.19
281.894	87.19
282.125	96.19
282.356	130.19
282.588	139.19
282.819	114.19
283.051	99.19
283.282	100.19
283.513	74.19
283.745	86.19
283.976	73.19
284.207	77.19
284.439	86.19
284.67	89.19
284.901	93.19
285.132	96.19
285.364	80.19
285.595	93.19
285.826	89.19
286.057	86.19
286.288	73.19
286.52	84.19
286.751	82.19
286.982	87.19
287.213	90.19
287.444	92.19
287.675	98.19
287.906	82.19
288.138	94.19
288.369	95.19
288.6	97.19
288.831	95.19
289.062	90.19
289.293	88.19
289.524	74.19
289.755	72.19
289.986	83.19
290.217	96.19
290.448	86.19
290.679	84.19
290.91	89.19
291.141	85.19
291.371	92.19
291.602	84.19
291.833	74.19
292.064	77.19
292.295	93.19
292.526	80.19
292.757	92.19
292.987	86.19
293.218	83.19
293.449	81.19
293.68	82.19
293.91	82.19
294.141	81.19
294.372	87.19
294.603	87.19
294.833	85.19
295.064	89.19
295.295	67.19
295.525	81.19
295.756	107.19
295.987	111.19
296.217	140.19
296.448	145.19
296.679	87.19
296.909	87.19
297.14	89.19
297.37	96.19
297.601	77.19
297.831	78.19
298.062	80.19
298.292	85.19
298.523	87.19
298.753	86.19
298.984	90.19
299.214	109.19
299.445	79.19
299.675	94.19
299.905	102.19
300.136	81.19
300.366	98.19
300.597	90.19
300.827	96.19
301.057	97.19
301.288	88.19
301.518	89.19
301.748	81.19
301.979	109.19
302.209	91.19
302.439	89.19
302.669	84.19
302.9	74.19
303.13	100.19
303.36	91.19
303.59	103.19
303.82	102.19
304.051	92.19
304.281	85.19
304.511	95.19
304.741	89.19
304.971	98.19
305.201	85.19
305.431	89.19
305.661	102.19
305.891	85.19
306.121	79.19
306.352	90.19
306.582	110.19
306.812	77.19
307.042	87.19
307.272	91.19
307.502	105.19
307.731	96.19
307.961	94.19
308.191	88.19
308.421	81.19
308.651	86.19
308.881	89.19
309.111	96.19
309.341	103.19
309.571	101.19
309.8	83.19
310.03	107.19
310.26	96.19
310.49	85.19
310.72	107.19
310.949	98.19
311.179	105.19
311.409	87.19
311.639	99.19
311.868	101.19
312.098	97.19
312.328	82.19
312.557	97.19
312.787	121.19
313.017	113.19
313.246	95.19
313.476	95.19
313.706	92.19
313.935	96.19
314.165	101.19
314.394	89.19
314.624	101.19
314.853	90.19
315.083	96.19
315.312	91.19
315.542	85.19
315.771	85.19
316.001	91.19
316.23	94.19
316.46	99.19
316.689	93.19
316.919	76.19
317.148	87.19
317.377	91.19
317.607	87.19
317.836	87.19
318.065	104.19
318.295	89.19
318.524	84.19
318.753	95.19
318.983	82.19
319.212	97.19
319.441	97.19
319.67	117.19
319.9	105.19
320.129	81.19
320.358	96.19
320.587	81.19
320.816	101.19
321.046	99.19
321.275	107.19
321.504	103.19
321.733	101.19
321.962	96.19
322.191	102.19
322.42	109.19
322.649	106.19
322.878	120.19
323.108	117.19
323.337	139.19
323.566	130.19
323.795	163.19
324.024	229.19
324.253	445.19
324.482	985.19
324.71	2002.19
324.939	2572.19
325.168	920.19
325.397	260.19
325.626	145.19
325.855	132.19
326.084	134.19
326.313	134.19
326.542	167.19
326.77	257.19
326.999	546.19
327.228	1110.19
327.457	2029.19
327.686	1592.19
327.914	396.19
328.143	197.19
328.372	171.19
328.6	133.19
328.829	116.19
329.058	147.19
329.287	134.19
329.515	118.19
329.744	107.19
329.972	90.19
330.201	112.19
330.43	110.19
330.658	121.19
330.887	142.19
331.115	122.19
331.344	98.19
331.572	99.19
331.801	103.19
332.03	117.19
332.258	103.19
332.486	107.19
332.715	90.19
332.943	90.19
333.172	86.19
333.4	95.19
333.629	109.19
333.857	108.19
334.085	98.19
334.314	125.19
334.542	122.19
334.771	103.19
334.999	98.19
335.227	102.19
335.455	85.19
335.684	98.19
335.912	90.19
336.14	94.19
336.369	106.19
336.597	87.19
336.825	82.19
337.053	90.19
337.281	96.19
337.51	88.19
337.738	85.19
337.966	84.19
338.194	106.19
338.422	99.19
338.65	95.19
338.878	99.19
339.106	91.19
339.334	87.19
339.562	81.19
339.79	101.19
340.018	78.19
340.246	78.19
340.474	91.19
340.702	92.19
340.93	96.19
341.158	105.19
341.386	90.19
341.614	117.19
341.842	88.19
342.07	84.19
342.298	83.19
342.526	98.19
342.754	90.19
342.981	90.19
343.209	88.19
343.437	94.19
343.665	85.19
343.893	96.19
344.12	91.19
344.348	91.19
344.576	101.19
344.804	90.19
345.031	90.19
345.259	104.19
345.487	96.19
345.714	98.19
345.942	99.19
346.17	92.19
346.397	84.19
346.625	95.19
346.853	81.19
347.08	106.19
347.308	86.19
347.535	98.19
347.763	101.19
347.99	101.19
348.218	93.19
348.445	91.19
348.673	97.19
348.9	92.19
349.128	89.19
349.355	88.19
349.583	86.19
349.81	79.19
350.037	91.19
350.265	111.19
350.492	105.19
350.72	92.19
350.947	99.19
351.174	110.19
351.402	104.19
351.629	96.19
351.856	102.19
352.083	113.19
352.311	93.19
352.538	97.19
352.765	111.19
352.992	105.19
353.22	106.19
353.447	101.19
353.674	104.19
353.901	95.19
354.128	102.19
354.355	98.19
354.583	90.19
354.81	92.19
355.037	88.19
355.264	99.19
355.491	93.19
355.718	80.19
355.945	87.19
356.172	93.19
356.399	88.19
356.626	102.19
356.853	88.19
357.08	96.19
357.307	100.19
357.534	97.19
357.761	87.19
357.988	89.19
358.215	94.19
358.441	99.19
358.668	74.19
358.895	79.19
359.122	78.19
359.349	90.19
359.576	90.19
359.802	103.19
360.029	117.19
360.256	120.19
360.483	104.19
360.709	84.19
360.936	87.19
361.163	94.19
361.39	97.19
361.616	98.19
361.843	98.19
362.07	92.19
362.296	85.19
362.523	86.19
362.749	85.19
362.976	89.19
363.203	85.19
363.429	90.19
363.656	87.19
363.882	91.19
364.109	91.19
364.335	85.19
364.562	90.19
364.788	99.19
365.015	88.19
365.241	104.19
365.468	110.19
365.694	103.19
365.92	91.19
366.147	90.19
366.373	97.19
366.599	85.19
366.826	92.19
367.052	93.19
367.278	86.19
367.505	96.19
367.731	105.19
367.957	97.19
368.184	90.19
368.41	99.19
368.636	112.19
368.862	119.19
369.089	105.19
369.315	90.19
369.541	97.19
369.767	88.19
369.993	96.19
370.219	96.19
370.445	83.19
370.672	77.19
370.898	86.19
371.124	76.19
371.35	79.19
371.576	80.19
371.802	83.19
372.028	72.19
372.254	91.19
372.48	86.19
372.706	100.19
372.932	101.19
373.158	88.19
373.384	87.19
373.61	103.19
373.835	89.19
374.061	102.19
374.287	84.19
374.513	95.19
374.739	89.19
374.965	94.19
375.191	93.19
375.416	89.19
375.642	87.19
375.868	80.19
376.094	85.19
376.319	86.19
376.545	83.19
376.771	101.19
376.997	90.19
377.222	100.19
377.448	86.19
377.674	85.19
377.899	96.19
378.125	90.19
378.35	95.19
378.576	96.19
378.802	95.19
379.027	90.19
379.253	83.19
379.478	93.19
379.704	86.19
379.929	103.19
380.155	104.19
380.38	94.19
380.606	89.19
380.831	99.19
381.057	90.19
381.282	87.19
381.507	114.19
381.733	99.19
381.958	88.19
382.184	104.19
382.409	81.19
382.634	120.19
382.86	107.19
383.085	107.19
383.31	110.19
383.535	101.19
383.761	102.19
383.986	92.19
384.211	111.19
384.436	111.19
384.662	94.19
384.887	101.19
385.112	106.19
385.337	109.19
385.562	97.19
385.787	101.19
386.013	103.19
386.238	125.19
386.463	109.19
386.688	102.19
386.913	101.19
387.138	99.19
387.363	113.19
387.588	108.19
387.813	107.19
388.038	103.19
388.263	124.19
388.488	125.19
388.713	98.19
388.938	106.19
389.163	87.19
389.387	95.19
389.612	106.19
389.837	106.19
390.062	92.19
390.287	98.19
390.512	96.19
390.736	91.19
390.961	89.19
391.186	85.19
391.411	94.19
391.636	89.19
391.86	85.19
392.085	87.19
392.31	73.19
392.534	67.19
392.759	82.19
392.984	81.19
393.208	98.19
393.433	102.19
393.658	95.19
393.882	96.19
394.107	87.19
394.331	86.19
394.556	95.19
394.78	99.19
395.005	88.19
395.229	84.19
395.454	78.19
395.678	84.19
395.903	102.19
396.127	88.19
396.352	83.19
396.576	90.19
396.801	85.19
397.025	99.19
397.249	102.19
397.474	81.19
397.698	85.19
397.922	92.19
398.147	58.19
398.371	72.19
398.595	96.19
398.82	77.19
399.044	91.19
399.268	94.19
399.492	98.19
399.717	94.19
399.941	98.19
400.165	91.19
400.389	78.19
400.613	97.19
400.837	87.19
401.062	83.19
401.286	101.19
401.51	99.19
401.734	98.19
401.958	108.19
402.182	119.19
402.406	144.19
402.63	121.19
402.854	75.19
403.078	85.19
403.302	89.19
403.526	110.19
403.75	88.19
403.974	79.19
404.198	89.19
404.422	94.19
404.645	67.19
404.869	84.19
405.093	91.19
405.317	104.19
405.541	114.19
405.765	100.19
405.988	115.19
406.212	166.19
406.436	226.19
406.66	144.19
406.883	103.19
407.107	89.19
407.331	95.19
407.555	96.19
407.778	86.19
408.002	87.19
408.226	94.19
408.449	91.19
408.673	81.19
408.896	97.19
409.12	87.19
409.344	93.19
409.567	85.19
409.791	100.19
410.014	96.19
410.238	98.19
410.461	96.19
410.685	106.19
410.908	98.19
411.132	108.19
411.355	101.19
411.578	91.19
411.802	84.19
412.025	87.19
412.249	85.19
412.472	89.19
412.695	98.19
412.919	100.19
413.142	94.19
413.365	81.19
413.589	84.19
413.812	112.19
414.035	97.19
414.258	97.19
414.482	89.19
414.705	83.19
414.928	90.19
415.151	104.19
415.374	105.19
415.597	84.19
415.821	93.19
416.044	74.19
416.267	80.19
416.49	83.19
416.713	106.19
416.936	102.19
417.159	67.19
417.382	79.19
417.605	83.19
417.828	89.19
418.051	86.19
418.274	89.19
418.497	90.19
418.72	77.19
418.943	95.19
419.166	87.19
419.389	83.19
419.611	87.19
419.834	89.19
420.057	88.19
420.28	78.19
420.503	87.19
420.726	80.19
420.948	82.19
421.171	106.19
421.394	86.19
421.617	95.19
421.839	94.19
422.062	89.19
422.285	92.19
422.507	91.19
422.73	117.19
422.953	82.19
423.175	104.19
423.398	88.19
423.621	85.19
423.843	89.19
424.066	91.19
424.288	88.19
424.511	85.19
424.733	93.19
424.956	102.19
425.178	101.19
425.401	99.19
425.623	95.19
425.846	101.19
426.068	86.19
426.291	91.19
426.513	98.19
426.735	92.19
426.958	97.19
427.18	119.19
427.402	141.19
427.625	158.19
427.847	122.19
428.069	113.19
428.292	89.19
428.514	82.19
428.736	90.19
428.958	96.19
429.181	77.19
429.403	95.19
429.625	72.19
429.847	88.19
430.069	86.19
430.292	93.19
430.514	82.19
430.736	90.19
430.958	94.19
431.18	81.19
431.402	98.19
431.624	96.19
431.846	87.19
432.068	82.19
432.29	89.19
432.512	83.19
432.734	79.19
432.956	95.19
433.178	102.19
433.4	112.19
433.622	98.19
433.844	76.19
434.066	95.19
434.287	99.19
434.509	83.19
434.731	92.19
434.953	72.19
435.175	80.19
435.397	95.19
435.618	89.19
435.84	93.19
436.062	114.19
436.284	130.19
436.505	105.19
436.727	91.19
436.949	95.19
437.17	90.19
437.392	82.19
437.614	85.19
437.835	114.19
438.057	124.19
438.278	114.19
438.5	109.19
438.721	132.19
438.943	94.19
439.165	85.19
439.386	87.19
439.608	94.19
439.829	116.19
440.05	129.19
440.272	129.19
440.493	101.19
440.715	83.19
440.936	95.19
441.158	80.19
441.379	88.19
441.6	90.19
441.822	73.19
442.043	97.19
442.264	99.19
442.486	111.19
442.707	98.19
442.928	108.19
443.149	122.19
443.371	141.19
443.592	89.19
443.813	103.19
444.034	103.19
444.255	80.19
444.476	89.19
444.698	90.19
444.919	98.19
445.14	130.19
445.361	129.19
445.582	131.19
445.803	149.19
446.024	144.19
446.245	133.19
446.466	121.19
446.687	79.19
446.908	94.19
447.129	84.19
447.35	87.19
447.571	86.19
447.792	97.19
448.013	97.19
448.234	109.19
448.455	90.19
448.675	110.19
448.896	107.19
449.117	98.19
449.338	104.19
449.559	128.19
449.779	129.19
450	78.19
450.221	84.19
450.442	82.19
450.662	100.19
450.883	106.19
451.104	108.19
451.324	86.19
451.545	95.19
451.766	86.19
451.986	86.19
452.207	70.19
452.428	98.19
452.648	89.19
452.869	102.19
453.089	100.19
453.31	118.19
453.53	103.19
453.751	87.19
453.971	94.19
454.192	103.19
454.412	97.19
454.633	79.19
454.853	91.19
455.073	90.19
455.294	90.19
455.514	101.19
455.734	100.19
455.955	64.19
456.175	78.19
456.395	81.19
456.616	76.19
456.836	73.19
457.056	80.19
457.276	85.19
457.497	88.19
457.717	85.19
457.937	93.19
458.157	76.19
458.377	99.19
458.598	110.19
458.818	143.19
459.038	170.19
459.258	125.19
459.478	94.19
459.698	82.19
459.918	81.19
460.138	99.19
460.358	84.19
460.578	88.19
460.798	88.19
461.018	98.19
461.238	84.19
461.458	74.19
461.678	85.19
461.898	95.19
462.118	92.19
462.338	91.19
462.558	87.19
462.777	85.19
462.997	87.19
463.217	79.19
463.437	86.19
463.657	93.19
463.876	85.19
464.096	84.19
464.316	91.19
464.536	97.19
464.755	91.19
464.975	104.19
465.195	161.19
465.414	156.19
465.634	105.19
465.854	97.19
466.073	79.19
466.293	73.19
466.512	97.19
466.732	88.19
466.951	94.19
467.171	75.19
467.391	81.19
467.61	85.19
467.829	104.19
468.049	95.19
468.268	85.19
468.488	96.19
468.707	85.19
468.927	88.19
469.146	100.19
469.365	85.19
469.585	95.19
469.804	90.19
470.023	86.19
470.243	93.19
470.462	95.19
470.681	113.19
470.901	92.19
471.12	80.19
471.339	81.19
471.558	67.19
471.777	85.19
471.997	90.19
472.216	101.19
472.435	122.19
472.654	102.19
472.873	86.19
473.092	97.19
473.311	78.19
473.53	90.19
473.749	97.19
473.968	104.19
474.187	100.19
474.406	93.19
474.625	93.19
474.844	102.19
475.063	72.19
475.282	89.19
475.501	74.19
475.72	89.19
475.939	80.19
476.158	92.19
476.377	80.19
476.596	98.19
476.814	93.19
477.033	85.19
477.252	91.19
477.471	89.19
477.69	94.19
477.908	86.19
478.127	100.19
478.346	88.19
478.564	89.19
478.783	96.19
479.002	78.19
479.22	86.19
479.439	98.19
479.658	96.19
479.876	89.19
480.095	94.19
480.313	101.19
480.532	101.19
480.751	101.19
480.969	116.19
481.188	145.19
481.406	133.19
481.624	84.19
481.843	82.19
482.061	72.19
482.28	99.19
482.498	98.19
482.717	102.19
482.935	79.19
483.153	91.19
483.372	91.19
483.59	78.19
483.808	82.19
484.027	96.19
484.245	101.19
484.463	107.19
484.681	104.19
484.9	89.19
485.118	85.19
485.336	89.19
485.554	98.19
485.772	95.19
485.99	90.19
486.209	103.19
486.427	106.19
486.645	101.19
486.863	117.19
487.081	86.19
487.299	97.19
487.517	89.19
487.735	100.19
487.953	79.19
488.171	98.19
488.389	94.19
488.607	99.19
488.825	78.19
489.043	97.19
489.261	92.19
489.479	102.19
489.696	83.19
489.914	94.19
490.132	90.19
490.35	86.19
490.568	95.19
490.786	88.19
491.003	86.19
491.221	86.19
491.439	96.19
491.657	80.19
491.874	88.19
492.092	102.19
492.31	85.19
492.527	77.19
492.745	75.19
492.963	85.19
493.18	88.19
493.398	99.19
493.615	105.19
493.833	82.19
494.05	89.19
494.268	96.19
494.485	96.19
494.703	90.19
494.92	87.19
495.138	100.19
495.355	89.19
495.573	96.19
495.79	93.19
496.008	87.19
496.225	85.19
496.442	75.19
496.66	83.19
496.877	96.19
497.094	95.19
497.312	93.19
497.529	82.19
497.746	90.19
497.963	86.19
498.181	91.19
498.398	96.19
498.615	105.19
498.832	86.19
499.049	96.19
499.267	89.19
499.484	77.19
499.701	89.19
499.918	89.19
500.135	92.19
500.352	92.19
500.569	105.19
500.786	96.19
501.003	74.19
501.22	89.19
501.437	91.19
501.654	83.19
501.871	97.19
502.088	85.19
502.305	73.19
502.522	85.19
502.739	105.19
502.956	91.19
503.172	103.19
503.389	89.19
503.606	122.19
503.823	99.19
504.04	87.19
504.256	90.19
504.473	83.19
504.69	97.19
504.907	102.19
505.123	96.19
505.34	93.19
505.557	84.19
505.773	86.19
505.99	86.19
506.207	112.19
506.423	82.19
506.64	82.19
506.856	82.19
507.073	94.19
507.289	85.19
507.506	82.19
507.722	118.19
507.939	115.19
508.155	91.19
508.372	88.19
508.588	96.19
508.805	92.19
509.021	100.19
509.238	94.19
509.454	81.19
509.67	100.19
509.887	111.19
510.103	130.19
510.319	213.19
510.536	752.19
510.752	2377.19
510.968	657.19
511.184	161.19
511.401	102.19
511.617	88.19
511.833	90.19
512.049	82.19
512.265	97.19
512.481	96.19
512.698	92.19
512.914	87.19
513.13	89.19
513.346	105.19
513.562	102.19
513.778	93.19
513.994	110.19
514.21	110.19
514.426	106.19
514.642	141.19
514.858	121.19
515.074	168.19
515.29	444.19
515.506	1579.19
515.721	575.19
