Data from Circ_2002_H10_HRD10591_00049.txt Node
Date: Wed Jan 03 10:41:08 EST 2024
User: Yrep
Spectrometer: HR+D1059
Trigger mode: 1
Integration Time (sec): 1.000000E-1
Scans to average: 1
Electric dark correction enabled: true
Nonlinearity correction enabled: false
Boxcar width: 0
XAxis mode: Wavelengths
Number of Pixels in Spectrum: 2048
>>>>>Begin Spectral Data<<<<<
223.165	-14.12
223.4	-14.12
223.635	-14.12
223.869	-20.12
224.104	-1.12
224.338	-19.12
224.573	-20.12
224.808	-6.12
225.042	-10.12
225.277	-18.12
225.511	1.88
225.746	13.88
225.98	6.88
226.215	1.88
226.449	19.88
226.683	16.88
226.918	16.88
227.152	30.88
227.387	28.88
227.621	41.88
227.856	43.88
228.09	38.88
228.324	57.88
228.559	59.88
228.793	61.88
229.027	51.88
229.262	65.88
229.496	50.88
229.73	82.88
229.964	88.88
230.199	69.88
230.433	82.88
230.667	74.88
230.901	72.88
231.136	66.88
231.37	88.88
231.604	83.88
231.838	70.88
232.072	89.88
232.306	78.88
232.541	69.88
232.775	75.88
233.009	77.88
233.243	84.88
233.477	81.88
233.711	91.88
233.945	71.88
234.179	68.88
234.413	77.88
234.647	94.88
234.881	75.88
235.115	86.88
235.349	80.88
235.583	76.88
235.817	75.88
236.051	76.88
236.285	73.88
236.519	84.88
236.753	71.88
236.987	67.88
237.221	84.88
237.455	81.88
237.689	79.88
237.922	79.88
238.156	56.88
238.39	77.88
238.624	84.88
238.858	65.88
239.091	82.88
239.325	73.88
239.559	73.88
239.793	72.88
240.027	78.88
240.26	75.88
240.494	80.88
240.728	68.88
240.961	68.88
241.195	88.88
241.429	75.88
241.662	71.88
241.896	71.88
242.13	82.88
242.363	72.88
242.597	71.88
242.83	82.88
243.064	65.88
243.298	74.88
243.531	82.88
243.765	78.88
243.998	78.88
244.232	70.88
244.465	86.88
244.699	70.88
244.932	72.88
245.166	80.88
245.399	70.88
245.633	77.88
245.866	64.88
246.099	75.88
246.333	73.88
246.566	90.88
246.8	68.88
247.033	89.88
247.266	78.88
247.5	76.88
247.733	83.88
247.966	91.88
248.2	79.88
248.433	83.88
248.666	83.88
248.899	82.88
249.133	72.88
249.366	108.88
249.599	95.88
249.832	79.88
250.066	92.88
250.299	79.88
250.532	83.88
250.765	79.88
250.998	74.88
251.231	79.88
251.465	91.88
251.698	86.88
251.931	72.88
252.164	67.88
252.397	91.88
252.63	79.88
252.863	76.88
253.096	90.88
253.329	78.88
253.562	77.88
253.795	73.88
254.028	78.88
254.261	77.88
254.494	75.88
254.727	87.88
254.96	82.88
255.193	88.88
255.426	57.88
255.659	81.88
255.892	86.88
256.124	87.88
256.357	87.88
256.59	82.88
256.823	82.88
257.056	85.88
257.289	83.88
257.521	90.88
257.754	88.88
257.987	78.88
258.22	83.88
258.452	90.88
258.685	81.88
258.918	68.88
259.151	87.88
259.383	77.88
259.616	67.88
259.849	82.88
260.081	64.88
260.314	87.88
260.547	91.88
260.779	86.88
261.012	80.88
261.244	68.88
261.477	88.88
261.71	89.88
261.942	100.88
262.175	106.88
262.407	81.88
262.64	82.88
262.872	98.88
263.105	73.88
263.337	61.88
263.57	84.88
263.802	69.88
264.035	95.88
264.267	65.88
264.499	72.88
264.732	88.88
264.964	82.88
265.197	89.88
265.429	77.88
265.661	88.88
265.894	84.88
266.126	86.88
266.358	77.88
266.591	75.88
266.823	73.88
267.055	85.88
267.287	85.88
267.52	65.88
267.752	71.88
267.984	83.88
268.216	89.88
268.448	86.88
268.681	93.88
268.913	77.88
269.145	85.88
269.377	100.88
269.609	80.88
269.841	78.88
270.073	90.88
270.306	73.88
270.538	87.88
270.77	89.88
271.002	83.88
271.234	81.88
271.466	83.88
271.698	86.88
271.93	81.88
272.162	85.88
272.394	79.88
272.626	91.88
272.858	83.88
273.09	74.88
273.322	73.88
273.553	75.88
273.785	96.88
274.017	87.88
274.249	85.88
274.481	88.88
274.713	87.88
274.945	91.88
275.176	74.88
275.408	71.88
275.64	89.88
275.872	77.88
276.104	82.88
276.335	77.88
276.567	86.88
276.799	95.88
277.031	99.88
277.262	84.88
277.494	80.88
277.726	66.88
277.957	100.88
278.189	81.88
278.421	75.88
278.652	86.88
278.884	84.88
279.115	98.88
279.347	85.88
279.579	86.88
279.81	77.88
280.042	85.88
280.273	79.88
280.505	79.88
280.736	84.88
280.968	88.88
281.199	90.88
281.431	90.88
281.662	85.88
281.894	86.88
282.125	100.88
282.356	114.88
282.588	108.88
282.819	88.88
283.051	90.88
283.282	79.88
283.513	109.88
283.745	82.88
283.976	85.88
284.207	77.88
284.439	83.88
284.67	83.88
284.901	95.88
285.132	94.88
285.364	85.88
285.595	87.88
285.826	86.88
286.057	101.88
286.288	85.88
286.52	90.88
286.751	75.88
286.982	94.88
287.213	71.88
287.444	90.88
287.675	85.88
287.906	73.88
288.138	85.88
288.369	78.88
288.6	89.88
288.831	85.88
289.062	79.88
289.293	90.88
289.524	70.88
289.755	92.88
289.986	85.88
290.217	88.88
290.448	72.88
290.679	81.88
290.91	80.88
291.141	79.88
291.371	81.88
291.602	78.88
291.833	82.88
292.064	80.88
292.295	70.88
292.526	102.88
292.757	90.88
292.987	86.88
293.218	87.88
293.449	85.88
293.68	82.88
293.91	74.88
294.141	80.88
294.372	85.88
294.603	92.88
294.833	81.88
295.064	77.88
295.295	91.88
295.525	81.88
295.756	72.88
295.987	106.88
296.217	122.88
296.448	117.88
296.679	86.88
296.909	93.88
297.14	72.88
297.37	85.88
297.601	82.88
297.831	96.88
298.062	87.88
298.292	88.88
298.523	87.88
298.753	82.88
298.984	83.88
299.214	85.88
299.445	87.88
299.675	86.88
299.905	85.88
300.136	82.88
300.366	83.88
300.597	58.88
300.827	101.88
301.057	99.88
301.288	106.88
301.518	95.88
301.748	97.88
301.979	87.88
302.209	86.88
302.439	89.88
302.669	97.88
302.9	88.88
303.13	99.88
303.36	85.88
303.59	92.88
303.82	91.88
304.051	89.88
304.281	83.88
304.511	92.88
304.741	95.88
304.971	93.88
305.201	98.88
305.431	78.88
305.661	98.88
305.891	86.88
306.121	96.88
306.352	99.88
306.582	121.88
306.812	94.88
307.042	98.88
307.272	95.88
307.502	91.88
307.731	89.88
307.961	82.88
308.191	74.88
308.421	89.88
308.651	98.88
308.881	105.88
309.111	87.88
309.341	95.88
309.571	99.88
309.8	88.88
310.03	101.88
310.26	88.88
310.49	78.88
310.72	98.88
310.949	105.88
311.179	93.88
311.409	84.88
311.639	98.88
311.868	97.88
312.098	80.88
312.328	94.88
312.557	111.88
312.787	96.88
313.017	112.88
313.246	91.88
313.476	78.88
313.706	83.88
313.935	87.88
314.165	92.88
314.394	99.88
314.624	93.88
314.853	92.88
315.083	81.88
315.312	76.88
315.542	98.88
315.771	96.88
316.001	85.88
316.23	86.88
316.46	79.88
316.689	100.88
316.919	93.88
317.148	83.88
317.377	85.88
317.607	95.88
317.836	99.88
318.065	80.88
318.295	84.88
318.524	85.88
318.753	83.88
318.983	97.88
319.212	98.88
319.441	94.88
319.67	95.88
319.9	87.88
320.129	102.88
320.358	81.88
320.587	110.88
320.816	106.88
321.046	90.88
321.275	87.88
321.504	114.88
321.733	88.88
321.962	93.88
322.191	94.88
322.42	88.88
322.649	91.88
322.878	106.88
323.108	109.88
323.337	105.88
323.566	126.88
323.795	145.88
324.024	195.88
324.253	344.88
324.482	735.88
324.71	1529.88
324.939	1973.88
325.168	713.88
325.397	217.88
325.626	148.88
325.855	121.88
326.084	107.88
326.313	119.88
326.542	142.88
326.77	209.88
326.999	428.88
327.228	886.88
327.457	1590.88
327.686	1254.88
327.914	330.88
328.143	169.88
328.372	131.88
328.6	129.88
328.829	102.88
329.058	118.88
329.287	128.88
329.515	97.88
329.744	94.88
329.972	102.88
330.201	92.88
330.43	104.88
330.658	110.88
330.887	127.88
331.115	121.88
331.344	102.88
331.572	95.88
331.801	97.88
332.03	104.88
332.258	85.88
332.486	91.88
332.715	88.88
332.943	96.88
333.172	102.88
333.4	100.88
333.629	99.88
333.857	97.88
334.085	88.88
334.314	108.88
334.542	118.88
334.771	118.88
334.999	97.88
335.227	81.88
335.455	71.88
335.684	91.88
335.912	85.88
336.14	95.88
336.369	99.88
336.597	95.88
336.825	102.88
337.053	82.88
337.281	91.88
337.51	88.88
337.738	88.88
337.966	80.88
338.194	92.88
338.422	94.88
338.65	97.88
338.878	93.88
339.106	88.88
339.334	91.88
339.562	99.88
339.79	74.88
340.018	94.88
340.246	89.88
340.474	85.88
340.702	91.88
340.93	77.88
341.158	95.88
341.386	75.88
341.614	100.88
341.842	99.88
342.07	89.88
342.298	83.88
342.526	88.88
342.754	95.88
342.981	97.88
343.209	94.88
343.437	98.88
343.665	73.88
343.893	79.88
344.12	74.88
344.348	87.88
344.576	85.88
344.804	91.88
345.031	94.88
345.259	116.88
345.487	89.88
345.714	84.88
345.942	88.88
346.17	80.88
346.397	85.88
346.625	85.88
346.853	85.88
347.08	79.88
347.308	91.88
347.535	82.88
347.763	89.88
347.99	90.88
348.218	102.88
348.445	100.88
348.673	92.88
348.9	90.88
349.128	97.88
349.355	97.88
349.583	80.88
349.81	88.88
350.037	98.88
350.265	95.88
350.492	106.88
350.72	96.88
350.947	84.88
351.174	106.88
351.402	94.88
351.629	99.88
351.856	103.88
352.083	92.88
352.311	82.88
352.538	114.88
352.765	92.88
352.992	108.88
353.22	110.88
353.447	97.88
353.674	112.88
353.901	90.88
354.128	104.88
354.355	94.88
354.583	90.88
354.81	86.88
355.037	77.88
355.264	105.88
355.491	93.88
355.718	104.88
355.945	92.88
356.172	104.88
356.399	89.88
356.626	93.88
356.853	80.88
357.08	91.88
357.307	85.88
357.534	98.88
357.761	100.88
357.988	93.88
358.215	86.88
358.441	112.88
358.668	93.88
358.895	91.88
359.122	94.88
359.349	101.88
359.576	83.88
359.802	102.88
360.029	101.88
360.256	112.88
360.483	107.88
360.709	82.88
360.936	97.88
361.163	83.88
361.39	94.88
361.616	96.88
361.843	91.88
362.07	89.88
362.296	82.88
362.523	93.88
362.749	83.88
362.976	83.88
363.203	88.88
363.429	79.88
363.656	83.88
363.882	100.88
364.109	91.88
364.335	93.88
364.562	90.88
364.788	74.88
365.015	83.88
365.241	83.88
365.468	94.88
365.694	93.88
365.92	97.88
366.147	90.88
366.373	87.88
366.599	97.88
366.826	83.88
367.052	90.88
367.278	78.88
367.505	96.88
367.731	85.88
367.957	96.88
368.184	79.88
368.41	87.88
368.636	96.88
368.862	103.88
369.089	92.88
369.315	94.88
369.541	85.88
369.767	90.88
369.993	91.88
370.219	87.88
370.445	72.88
370.672	83.88
370.898	79.88
371.124	77.88
371.35	84.88
371.576	88.88
371.802	83.88
372.028	79.88
372.254	89.88
372.48	61.88
372.706	80.88
372.932	90.88
373.158	95.88
373.384	104.88
373.61	96.88
373.835	83.88
374.061	80.88
374.287	86.88
374.513	93.88
374.739	77.88
374.965	81.88
375.191	88.88
375.416	84.88
375.642	79.88
375.868	91.88
376.094	92.88
376.319	83.88
376.545	73.88
376.771	83.88
376.997	95.88
377.222	97.88
377.448	93.88
377.674	99.88
377.899	89.88
378.125	96.88
378.35	84.88
378.576	102.88
378.802	66.88
379.027	84.88
379.253	96.88
379.478	79.88
379.704	97.88
379.929	78.88
380.155	73.88
380.38	98.88
380.606	99.88
380.831	85.88
381.057	87.88
381.282	75.88
381.507	86.88
381.733	84.88
381.958	89.88
382.184	101.88
382.409	95.88
382.634	100.88
382.86	91.88
383.085	97.88
383.31	88.88
383.535	99.88
383.761	102.88
383.986	94.88
384.211	93.88
384.436	97.88
384.662	83.88
384.887	89.88
385.112	99.88
385.337	119.88
385.562	104.88
385.787	96.88
386.013	106.88
386.238	98.88
386.463	100.88
386.688	107.88
386.913	103.88
387.138	113.88
387.363	108.88
387.588	106.88
387.813	116.88
388.038	102.88
388.263	115.88
388.488	105.88
388.713	97.88
388.938	91.88
389.163	96.88
389.387	93.88
389.612	101.88
389.837	83.88
390.062	88.88
390.287	81.88
390.512	94.88
390.736	95.88
390.961	89.88
391.186	94.88
391.411	99.88
391.636	101.88
391.86	89.88
392.085	81.88
392.31	74.88
392.534	78.88
392.759	80.88
392.984	79.88
393.208	105.88
393.433	103.88
393.658	91.88
393.882	82.88
394.107	83.88
394.331	99.88
394.556	63.88
394.78	80.88
395.005	79.88
395.229	82.88
395.454	101.88
395.678	95.88
395.903	91.88
396.127	96.88
396.352	98.88
396.576	81.88
396.801	93.88
397.025	85.88
397.249	89.88
397.474	91.88
397.698	101.88
397.922	87.88
398.147	85.88
398.371	87.88
398.595	87.88
398.82	101.88
399.044	83.88
399.268	74.88
399.492	88.88
399.717	82.88
399.941	98.88
400.165	82.88
400.389	91.88
400.613	88.88
400.837	87.88
401.062	87.88
401.286	89.88
401.51	91.88
401.734	85.88
401.958	106.88
402.182	101.88
402.406	111.88
402.63	105.88
402.854	93.88
403.078	98.88
403.302	86.88
403.526	90.88
403.75	87.88
403.974	78.88
404.198	95.88
404.422	79.88
404.645	81.88
404.869	87.88
405.093	74.88
405.317	99.88
405.541	96.88
405.765	90.88
405.988	106.88
406.212	138.88
406.436	190.88
406.66	115.88
406.883	90.88
407.107	90.88
407.331	98.88
407.555	86.88
407.778	94.88
408.002	97.88
408.226	91.88
408.449	91.88
408.673	70.88
408.896	101.88
409.12	92.88
409.344	95.88
409.567	107.88
409.791	85.88
410.014	103.88
410.238	88.88
410.461	97.88
410.685	88.88
410.908	91.88
411.132	105.88
411.355	102.88
411.578	88.88
411.802	82.88
412.025	89.88
412.249	79.88
412.472	89.88
412.695	88.88
412.919	97.88
413.142	89.88
413.365	79.88
413.589	89.88
413.812	92.88
414.035	88.88
414.258	88.88
414.482	76.88
414.705	97.88
414.928	80.88
415.151	88.88
415.374	86.88
415.597	90.88
415.821	94.88
416.044	92.88
416.267	95.88
416.49	77.88
416.713	82.88
416.936	86.88
417.159	80.88
417.382	79.88
417.605	90.88
417.828	82.88
418.051	94.88
418.274	104.88
418.497	89.88
418.72	90.88
418.943	100.88
419.166	93.88
419.389	80.88
419.611	83.88
419.834	90.88
420.057	98.88
420.28	93.88
420.503	84.88
420.726	89.88
420.948	102.88
421.171	81.88
421.394	101.88
421.617	95.88
421.839	97.88
422.062	87.88
422.285	79.88
422.507	94.88
422.73	105.88
422.953	96.88
423.175	89.88
423.398	97.88
423.621	84.88
423.843	91.88
424.066	72.88
424.288	80.88
424.511	96.88
424.733	95.88
424.956	96.88
425.178	102.88
425.401	89.88
425.623	98.88
425.846	93.88
426.068	83.88
426.291	78.88
426.513	86.88
426.735	80.88
426.958	87.88
427.18	95.88
427.402	142.88
427.625	144.88
427.847	133.88
428.069	90.88
428.292	91.88
428.514	90.88
428.736	87.88
428.958	72.88
429.181	79.88
429.403	79.88
429.625	95.88
429.847	94.88
430.069	96.88
430.292	102.88
430.514	88.88
430.736	84.88
430.958	79.88
431.18	61.88
431.402	83.88
431.624	85.88
431.846	86.88
432.068	86.88
432.29	92.88
432.512	103.88
432.734	98.88
432.956	87.88
433.178	105.88
433.4	99.88
433.622	92.88
433.844	95.88
434.066	95.88
434.287	96.88
434.509	88.88
434.731	99.88
434.953	91.88
435.175	67.88
435.397	79.88
435.618	107.88
435.84	107.88
436.062	102.88
436.284	112.88
436.505	100.88
436.727	109.88
436.949	89.88
437.17	90.88
437.392	83.88
437.614	85.88
437.835	89.88
438.057	124.88
438.278	104.88
438.5	91.88
438.721	118.88
438.943	94.88
439.165	88.88
439.386	84.88
439.608	90.88
439.829	97.88
440.05	118.88
440.272	134.88
440.493	100.88
440.715	77.88
440.936	83.88
441.158	70.88
441.379	87.88
441.6	95.88
441.822	88.88
442.043	84.88
442.264	98.88
442.486	71.88
442.707	88.88
442.928	94.88
443.149	108.88
443.371	106.88
443.592	93.88
443.813	117.88
444.034	114.88
444.255	81.88
444.476	85.88
444.698	94.88
444.919	90.88
445.14	133.88
445.361	101.88
445.582	93.88
445.803	126.88
446.024	138.88
446.245	125.88
446.466	102.88
446.687	94.88
446.908	83.88
447.129	94.88
447.35	87.88
447.571	86.88
447.792	87.88
448.013	86.88
448.234	96.88
448.455	89.88
448.675	109.88
448.896	102.88
449.117	84.88
449.338	91.88
449.559	114.88
449.779	103.88
450	87.88
450.221	88.88
450.442	81.88
450.662	103.88
450.883	91.88
451.104	104.88
451.324	96.88
451.545	77.88
451.766	91.88
451.986	80.88
452.207	79.88
452.428	65.88
452.648	93.88
452.869	94.88
453.089	102.88
453.31	117.88
453.53	93.88
453.751	92.88
453.971	108.88
454.192	102.88
454.412	80.88
454.633	89.88
454.853	92.88
455.073	90.88
455.294	89.88
455.514	89.88
455.734	79.88
455.955	76.88
456.175	72.88
456.395	77.88
456.616	91.88
456.836	82.88
457.056	85.88
457.276	73.88
457.497	87.88
457.717	80.88
457.937	87.88
458.157	90.88
458.377	77.88
458.598	85.88
458.818	120.88
459.038	143.88
459.258	116.88
459.478	105.88
459.698	91.88
459.918	78.88
460.138	85.88
460.358	102.88
460.578	86.88
460.798	82.88
461.018	95.88
461.238	81.88
461.458	83.88
461.678	84.88
461.898	85.88
462.118	72.88
462.338	70.88
462.558	88.88
462.777	79.88
462.997	82.88
463.217	75.88
463.437	103.88
463.657	85.88
463.876	79.88
464.096	78.88
464.316	83.88
464.536	76.88
464.755	95.88
464.975	85.88
465.195	137.88
465.414	141.88
465.634	88.88
465.854	81.88
466.073	94.88
466.293	91.88
466.512	81.88
466.732	82.88
466.951	89.88
467.171	94.88
467.391	86.88
467.61	97.88
467.829	84.88
468.049	95.88
468.268	101.88
468.488	72.88
468.707	88.88
468.927	83.88
469.146	83.88
469.365	89.88
469.585	87.88
469.804	86.88
470.023	84.88
470.243	98.88
470.462	103.88
470.681	105.88
470.901	86.88
471.12	85.88
471.339	87.88
471.558	66.88
471.777	73.88
471.997	96.88
472.216	114.88
472.435	121.88
472.654	101.88
472.873	75.88
473.092	95.88
473.311	72.88
473.53	77.88
473.749	96.88
473.968	78.88
474.187	94.88
474.406	103.88
474.625	97.88
474.844	97.88
475.063	88.88
475.282	79.88
475.501	84.88
475.72	94.88
475.939	80.88
476.158	89.88
476.377	91.88
476.596	88.88
476.814	84.88
477.033	104.88
477.252	81.88
477.471	88.88
477.69	95.88
477.908	90.88
478.127	89.88
478.346	100.88
478.564	78.88
478.783	97.88
479.002	84.88
479.22	87.88
479.439	104.88
479.658	98.88
479.876	78.88
480.095	80.88
480.313	101.88
480.532	89.88
480.751	89.88
480.969	101.88
481.188	156.88
481.406	117.88
481.624	97.88
481.843	81.88
482.061	87.88
482.28	99.88
482.498	85.88
482.717	79.88
482.935	87.88
483.153	81.88
483.372	89.88
483.59	77.88
483.808	89.88
484.027	90.88
484.245	68.88
484.463	96.88
484.681	90.88
484.9	91.88
485.118	89.88
485.336	97.88
485.554	91.88
485.772	85.88
485.99	79.88
486.209	100.88
486.427	103.88
486.645	103.88
486.863	99.88
487.081	92.88
487.299	92.88
487.517	96.88
487.735	113.88
487.953	96.88
488.171	99.88
488.389	104.88
488.607	98.88
488.825	104.88
489.043	79.88
489.261	94.88
489.479	95.88
489.696	96.88
489.914	89.88
490.132	82.88
490.35	90.88
490.568	80.88
490.786	81.88
491.003	75.88
491.221	85.88
491.439	93.88
491.657	83.88
491.874	80.88
492.092	89.88
492.31	76.88
492.527	79.88
492.745	75.88
492.963	87.88
493.18	102.88
493.398	100.88
493.615	84.88
493.833	91.88
494.05	100.88
494.268	95.88
494.485	104.88
494.703	95.88
494.92	89.88
495.138	96.88
495.355	82.88
495.573	83.88
495.79	86.88
496.008	86.88
496.225	90.88
496.442	79.88
496.66	103.88
496.877	91.88
497.094	89.88
497.312	91.88
497.529	86.88
497.746	93.88
497.963	77.88
498.181	77.88
498.398	93.88
498.615	110.88
498.832	106.88
499.049	78.88
499.267	81.88
499.484	93.88
499.701	95.88
499.918	98.88
500.135	89.88
500.352	79.88
500.569	96.88
500.786	91.88
501.003	75.88
501.22	102.88
501.437	79.88
501.654	85.88
501.871	104.88
502.088	87.88
502.305	88.88
502.522	104.88
502.739	87.88
502.956	75.88
503.172	88.88
503.389	57.88
503.606	98.88
503.823	99.88
504.04	88.88
504.256	94.88
504.473	92.88
504.69	71.88
504.907	93.88
505.123	87.88
505.34	90.88
505.557	84.88
505.773	85.88
505.99	96.88
506.207	85.88
506.423	89.88
506.64	87.88
506.856	91.88
507.073	88.88
507.289	99.88
507.506	97.88
507.722	88.88
507.939	102.88
508.155	86.88
508.372	91.88
508.588	81.88
508.805	97.88
509.021	92.88
509.238	90.88
509.454	93.88
509.67	94.88
509.887	96.88
510.103	118.88
510.319	187.88
510.536	606.88
510.752	1828.88
510.968	515.88
511.184	149.88
511.401	92.88
511.617	85.88
511.833	96.88
512.049	99.88
512.265	81.88
512.481	92.88
512.698	99.88
512.914	79.88
513.13	85.88
513.346	71.88
513.562	102.88
513.778	92.88
513.994	102.88
514.21	85.88
514.426	114.88
514.642	113.88
514.858	122.88
515.074	141.88
515.29	358.88
515.506	1117.88
515.721	429.88
515.937	123.88
516.153	95.88
516.369	91.88
516.585	90.88
516.801	95.88
