Data from Circ_2002_H10_HRD10591_00092.txt Node
Date: Wed Jan 03 10:41:16 EST 2024
User: Yrep
Spectrometer: HR+D1059
Trigger mode: 1
Integration Time (sec): 1.000000E-1
Scans to average: 1
Electric dark correction enabled: true
Nonlinearity correction enabled: false
Boxcar width: 0
XAxis mode: Wavelengths
Number of Pixels in Spectrum: 2048
>>>>>Begin Spectral Data<<<<<
223.165	-27.06
223.4	-27.06
223.635	-27.06
223.869	-18.06
224.104	-17.06
224.338	-18.06
224.573	-19.06
224.808	-22.06
225.042	-11.06
225.277	5.94
225.511	-10.06
225.746	3.94
225.98	15.94
226.215	14.94
226.449	11.94
226.683	23.94
226.918	28.94
227.152	36.94
227.387	43.94
227.621	37.94
227.856	40.94
228.09	39.94
228.324	69.94
228.559	67.94
228.793	58.94
229.027	65.94
229.262	74.94
229.496	85.94
229.73	78.94
229.964	83.94
230.199	77.94
230.433	88.94
230.667	91.94
230.901	84.94
231.136	85.94
231.37	77.94
231.604	81.94
231.838	95.94
232.072	84.94
232.306	78.94
232.541	75.94
232.775	87.94
233.009	64.94
233.243	73.94
233.477	83.94
233.711	93.94
233.945	94.94
234.179	81.94
234.413	88.94
234.647	80.94
234.881	77.94
235.115	84.94
235.349	91.94
235.583	91.94
235.817	84.94
236.051	65.94
236.285	90.94
236.519	84.94
236.753	78.94
236.987	86.94
237.221	94.94
237.455	95.94
237.689	82.94
237.922	89.94
238.156	78.94
238.39	71.94
238.624	77.94
238.858	104.94
239.091	81.94
239.325	89.94
239.559	83.94
239.793	88.94
240.027	80.94
240.26	60.94
240.494	78.94
240.728	84.94
240.961	82.94
241.195	76.94
241.429	74.94
241.662	82.94
241.896	79.94
242.13	92.94
242.363	74.94
242.597	77.94
242.83	93.94
243.064	84.94
243.298	84.94
243.531	81.94
243.765	85.94
243.998	89.94
244.232	88.94
244.465	87.94
244.699	78.94
244.932	76.94
245.166	77.94
245.399	91.94
245.633	95.94
245.866	74.94
246.099	56.94
246.333	79.94
246.566	86.94
246.8	75.94
247.033	82.94
247.266	85.94
247.5	61.94
247.733	76.94
247.966	90.94
248.2	85.94
248.433	82.94
248.666	83.94
248.899	81.94
249.133	91.94
249.366	82.94
249.599	87.94
249.832	82.94
250.066	94.94
250.299	73.94
250.532	75.94
250.765	89.94
250.998	69.94
251.231	77.94
251.465	96.94
251.698	80.94
251.931	89.94
252.164	79.94
252.397	90.94
252.63	77.94
252.863	80.94
253.096	75.94
253.329	85.94
253.562	89.94
253.795	91.94
254.028	97.94
254.261	95.94
254.494	85.94
254.727	79.94
254.96	70.94
255.193	81.94
255.426	71.94
255.659	69.94
255.892	90.94
256.124	90.94
256.357	83.94
256.59	89.94
256.823	70.94
257.056	80.94
257.289	97.94
257.521	72.94
257.754	90.94
257.987	90.94
258.22	91.94
258.452	86.94
258.685	82.94
258.918	71.94
259.151	86.94
259.383	86.94
259.616	97.94
259.849	86.94
260.081	78.94
260.314	95.94
260.547	83.94
260.779	91.94
261.012	91.94
261.244	85.94
261.477	101.94
261.71	99.94
261.942	107.94
262.175	117.94
262.407	99.94
262.64	97.94
262.872	84.94
263.105	90.94
263.337	90.94
263.57	95.94
263.802	87.94
264.035	88.94
264.267	90.94
264.499	86.94
264.732	87.94
264.964	96.94
265.197	76.94
265.429	73.94
265.661	92.94
265.894	73.94
266.126	90.94
266.358	82.94
266.591	79.94
266.823	81.94
267.055	87.94
267.287	84.94
267.52	80.94
267.752	89.94
267.984	95.94
268.216	87.94
268.448	94.94
268.681	89.94
268.913	86.94
269.145	100.94
269.377	100.94
269.609	81.94
269.841	92.94
270.073	81.94
270.306	66.94
270.538	90.94
270.77	87.94
271.002	90.94
271.234	85.94
271.466	93.94
271.698	94.94
271.93	82.94
272.162	87.94
272.394	95.94
272.626	84.94
272.858	90.94
273.09	77.94
273.322	74.94
273.553	95.94
273.785	95.94
274.017	100.94
274.249	110.94
274.481	86.94
274.713	85.94
274.945	79.94
275.176	97.94
275.408	86.94
275.64	91.94
275.872	94.94
276.104	83.94
276.335	100.94
276.567	90.94
276.799	103.94
277.031	113.94
277.262	87.94
277.494	93.94
277.726	78.94
277.957	92.94
278.189	89.94
278.421	93.94
278.652	94.94
278.884	95.94
279.115	79.94
279.347	87.94
279.579	89.94
279.81	82.94
280.042	95.94
280.273	91.94
280.505	102.94
280.736	81.94
280.968	91.94
281.199	94.94
281.431	94.94
281.662	93.94
281.894	92.94
282.125	91.94
282.356	112.94
282.588	131.94
282.819	117.94
283.051	89.94
283.282	88.94
283.513	85.94
283.745	83.94
283.976	88.94
284.207	90.94
284.439	90.94
284.67	91.94
284.901	91.94
285.132	94.94
285.364	90.94
285.595	81.94
285.826	84.94
286.057	84.94
286.288	83.94
286.52	97.94
286.751	82.94
286.982	75.94
287.213	98.94
287.444	107.94
287.675	103.94
287.906	93.94
288.138	88.94
288.369	85.94
288.6	87.94
288.831	86.94
289.062	94.94
289.293	87.94
289.524	101.94
289.755	91.94
289.986	85.94
290.217	89.94
290.448	88.94
290.679	67.94
290.91	86.94
291.141	95.94
291.371	87.94
291.602	86.94
291.833	92.94
292.064	88.94
292.295	89.94
292.526	88.94
292.757	91.94
292.987	94.94
293.218	86.94
293.449	82.94
293.68	90.94
293.91	83.94
294.141	86.94
294.372	82.94
294.603	92.94
294.833	91.94
295.064	85.94
295.295	104.94
295.525	78.94
295.756	91.94
295.987	119.94
296.217	124.94
296.448	127.94
296.679	98.94
296.909	103.94
297.14	85.94
297.37	104.94
297.601	84.94
297.831	96.94
298.062	86.94
298.292	97.94
298.523	99.94
298.753	103.94
298.984	79.94
299.214	78.94
299.445	96.94
299.675	87.94
299.905	95.94
300.136	91.94
300.366	104.94
300.597	89.94
300.827	90.94
301.057	97.94
301.288	115.94
301.518	91.94
301.748	91.94
301.979	100.94
302.209	98.94
302.439	94.94
302.669	89.94
302.9	95.94
303.13	94.94
303.36	90.94
303.59	102.94
303.82	108.94
304.051	78.94
304.281	92.94
304.511	92.94
304.741	94.94
304.971	75.94
305.201	95.94
305.431	104.94
305.661	81.94
305.891	95.94
306.121	90.94
306.352	107.94
306.582	104.94
306.812	87.94
307.042	95.94
307.272	99.94
307.502	99.94
307.731	110.94
307.961	97.94
308.191	98.94
308.421	94.94
308.651	100.94
308.881	81.94
309.111	111.94
309.341	92.94
309.571	92.94
309.8	84.94
310.03	102.94
310.26	101.94
310.49	102.94
310.72	101.94
310.949	100.94
311.179	90.94
311.409	112.94
311.639	100.94
311.868	100.94
312.098	95.94
312.328	91.94
312.557	109.94
312.787	110.94
313.017	93.94
313.246	95.94
313.476	97.94
313.706	90.94
313.935	96.94
314.165	100.94
314.394	107.94
314.624	92.94
314.853	97.94
315.083	96.94
315.312	97.94
315.542	108.94
315.771	94.94
316.001	87.94
316.23	100.94
316.46	95.94
316.689	93.94
316.919	92.94
317.148	86.94
317.377	88.94
317.607	95.94
317.836	94.94
318.065	87.94
318.295	90.94
318.524	94.94
318.753	99.94
318.983	109.94
319.212	108.94
319.441	110.94
319.67	110.94
319.9	95.94
320.129	105.94
320.358	103.94
320.587	97.94
320.816	86.94
321.046	95.94
321.275	103.94
321.504	103.94
321.733	93.94
321.962	91.94
322.191	101.94
322.42	90.94
322.649	115.94
322.878	113.94
323.108	133.94
323.337	113.94
323.566	136.94
323.795	146.94
324.024	190.94
324.253	390.94
324.482	796.94
324.71	1609.94
324.939	2030.94
325.168	771.94
325.397	234.94
325.626	153.94
325.855	126.94
326.084	118.94
326.313	133.94
326.542	139.94
326.77	226.94
326.999	438.94
327.228	892.94
327.457	1657.94
327.686	1301.94
327.914	381.94
328.143	210.94
328.372	173.94
328.6	135.94
328.829	117.94
329.058	110.94
329.287	118.94
329.515	112.94
329.744	100.94
329.972	128.94
330.201	159.94
330.43	183.94
330.658	133.94
330.887	130.94
331.115	116.94
331.344	101.94
331.572	120.94
331.801	108.94
332.03	106.94
332.258	101.94
332.486	84.94
332.715	97.94
332.943	99.94
333.172	104.94
333.4	110.94
333.629	100.94
333.857	116.94
334.085	138.94
334.314	160.94
334.542	216.94
334.771	209.94
334.999	111.94
335.227	101.94
335.455	101.94
335.684	88.94
335.912	97.94
336.14	105.94
336.369	98.94
336.597	99.94
336.825	105.94
337.053	101.94
337.281	111.94
337.51	87.94
337.738	99.94
337.966	86.94
338.194	102.94
338.422	103.94
338.65	81.94
338.878	98.94
339.106	90.94
339.334	109.94
339.562	98.94
339.79	93.94
340.018	85.94
340.246	89.94
340.474	87.94
340.702	79.94
340.93	83.94
341.158	103.94
341.386	108.94
341.614	105.94
341.842	83.94
342.07	87.94
342.298	102.94
342.526	93.94
342.754	104.94
342.981	105.94
343.209	97.94
343.437	96.94
343.665	94.94
343.893	91.94
344.12	81.94
344.348	102.94
344.576	89.94
344.804	95.94
345.031	105.94
345.259	104.94
345.487	95.94
345.714	93.94
345.942	91.94
346.17	97.94
346.397	113.94
346.625	94.94
346.853	91.94
347.08	106.94
347.308	95.94
347.535	96.94
347.763	105.94
347.99	99.94
348.218	84.94
348.445	110.94
348.673	103.94
348.9	87.94
349.128	102.94
349.355	92.94
349.583	93.94
349.81	95.94
350.037	99.94
350.265	91.94
350.492	92.94
350.72	103.94
350.947	99.94
351.174	108.94
351.402	109.94
351.629	108.94
351.856	100.94
352.083	108.94
352.311	95.94
352.538	104.94
352.765	115.94
352.992	104.94
353.22	113.94
353.447	92.94
353.674	117.94
353.901	91.94
354.128	108.94
354.355	102.94
354.583	87.94
354.81	86.94
355.037	103.94
355.264	90.94
355.491	109.94
355.718	91.94
355.945	89.94
356.172	106.94
356.399	103.94
356.626	98.94
356.853	96.94
357.08	94.94
357.307	95.94
357.534	100.94
357.761	88.94
357.988	99.94
358.215	107.94
358.441	93.94
358.668	83.94
358.895	80.94
359.122	86.94
359.349	97.94
359.576	102.94
359.802	100.94
360.029	111.94
360.256	114.94
360.483	89.94
360.709	89.94
360.936	99.94
361.163	90.94
361.39	98.94
361.616	93.94
361.843	86.94
362.07	100.94
362.296	89.94
362.523	88.94
362.749	83.94
362.976	87.94
363.203	83.94
363.429	99.94
363.656	112.94
363.882	103.94
364.109	94.94
364.335	84.94
364.562	81.94
364.788	81.94
365.015	90.94
365.241	91.94
365.468	109.94
365.694	104.94
365.92	90.94
366.147	98.94
366.373	101.94
366.599	100.94
366.826	103.94
367.052	85.94
367.278	94.94
367.505	100.94
367.731	95.94
367.957	99.94
368.184	87.94
368.41	99.94
368.636	117.94
368.862	116.94
369.089	95.94
369.315	101.94
369.541	83.94
369.767	99.94
369.993	90.94
370.219	104.94
370.445	95.94
370.672	95.94
370.898	87.94
371.124	95.94
371.35	76.94
371.576	87.94
371.802	96.94
372.028	90.94
372.254	82.94
372.48	82.94
372.706	85.94
372.932	92.94
373.158	82.94
373.384	90.94
373.61	87.94
373.835	90.94
374.061	92.94
374.287	86.94
374.513	84.94
374.739	91.94
374.965	92.94
375.191	83.94
375.416	87.94
375.642	87.94
375.868	95.94
376.094	94.94
376.319	81.94
376.545	91.94
376.771	93.94
376.997	85.94
377.222	88.94
377.448	105.94
377.674	83.94
377.899	87.94
378.125	77.94
378.35	88.94
378.576	85.94
378.802	100.94
379.027	108.94
379.253	96.94
379.478	90.94
379.704	101.94
379.929	95.94
380.155	95.94
380.38	110.94
380.606	96.94
380.831	94.94
381.057	83.94
381.282	104.94
381.507	88.94
381.733	107.94
381.958	76.94
382.184	98.94
382.409	95.94
382.634	99.94
382.86	107.94
383.085	93.94
383.31	76.94
383.535	100.94
383.761	81.94
383.986	89.94
384.211	92.94
384.436	97.94
384.662	98.94
384.887	101.94
385.112	105.94
385.337	102.94
385.562	113.94
385.787	111.94
386.013	105.94
386.238	110.94
386.463	93.94
386.688	109.94
386.913	92.94
387.138	95.94
387.363	95.94
387.588	102.94
387.813	104.94
388.038	105.94
388.263	99.94
388.488	103.94
388.713	106.94
388.938	92.94
389.163	94.94
389.387	96.94
389.612	99.94
389.837	81.94
390.062	90.94
390.287	83.94
390.512	90.94
390.736	91.94
390.961	96.94
391.186	81.94
391.411	86.94
391.636	93.94
391.86	91.94
392.085	97.94
392.31	92.94
392.534	81.94
392.759	93.94
392.984	89.94
393.208	90.94
393.433	93.94
393.658	108.94
393.882	86.94
394.107	93.94
394.331	83.94
394.556	77.94
394.78	101.94
395.005	96.94
395.229	80.94
395.454	89.94
395.678	92.94
395.903	90.94
396.127	96.94
396.352	98.94
396.576	91.94
396.801	85.94
397.025	104.94
397.249	82.94
397.474	92.94
397.698	107.94
397.922	93.94
398.147	78.94
398.371	85.94
398.595	81.94
398.82	92.94
399.044	103.94
399.268	93.94
399.492	93.94
399.717	88.94
399.941	79.94
400.165	83.94
400.389	103.94
400.613	86.94
400.837	87.94
401.062	94.94
401.286	89.94
401.51	85.94
401.734	88.94
401.958	91.94
402.182	127.94
402.406	140.94
402.63	100.94
402.854	99.94
403.078	89.94
403.302	88.94
403.526	94.94
403.75	93.94
403.974	90.94
404.198	75.94
404.422	90.94
404.645	100.94
404.869	85.94
405.093	105.94
405.317	89.94
405.541	94.94
405.765	99.94
405.988	105.94
406.212	156.94
406.436	220.94
406.66	130.94
406.883	92.94
407.107	103.94
407.331	92.94
407.555	87.94
407.778	85.94
408.002	94.94
408.226	100.94
408.449	98.94
408.673	89.94
408.896	104.94
409.12	94.94
409.344	79.94
409.567	100.94
409.791	90.94
410.014	99.94
410.238	101.94
410.461	98.94
410.685	99.94
410.908	94.94
411.132	117.94
411.355	93.94
411.578	89.94
411.802	90.94
412.025	96.94
412.249	75.94
412.472	95.94
412.695	90.94
412.919	93.94
413.142	92.94
413.365	105.94
413.589	66.94
413.812	88.94
414.035	85.94
414.258	90.94
414.482	78.94
414.705	85.94
414.928	86.94
415.151	90.94
415.374	95.94
415.597	79.94
415.821	92.94
416.044	87.94
416.267	82.94
416.49	80.94
416.713	91.94
416.936	69.94
417.159	83.94
417.382	93.94
417.605	93.94
417.828	93.94
418.051	103.94
418.274	103.94
418.497	90.94
418.72	91.94
418.943	78.94
419.166	91.94
419.389	93.94
419.611	73.94
419.834	100.94
420.057	93.94
420.28	84.94
420.503	97.94
420.726	83.94
420.948	83.94
421.171	87.94
421.394	87.94
421.617	96.94
421.839	92.94
422.062	88.94
422.285	98.94
422.507	100.94
422.73	94.94
422.953	91.94
423.175	97.94
423.398	108.94
423.621	81.94
423.843	93.94
424.066	89.94
424.288	109.94
424.511	92.94
424.733	84.94
424.956	100.94
425.178	107.94
425.401	96.94
425.623	99.94
425.846	111.94
426.068	90.94
426.291	98.94
426.513	97.94
426.735	87.94
426.958	100.94
427.18	90.94
427.402	126.94
427.625	163.94
427.847	133.94
428.069	125.94
428.292	94.94
428.514	84.94
428.736	75.94
428.958	98.94
429.181	93.94
429.403	90.94
429.625	78.94
429.847	86.94
430.069	91.94
430.292	89.94
430.514	83.94
430.736	89.94
430.958	87.94
431.18	90.94
431.402	83.94
431.624	84.94
431.846	84.94
432.068	97.94
432.29	88.94
432.512	81.94
432.734	95.94
432.956	95.94
433.178	94.94
433.4	90.94
433.622	100.94
433.844	104.94
434.066	104.94
434.287	92.94
434.509	104.94
434.731	87.94
434.953	96.94
435.175	91.94
435.397	91.94
435.618	84.94
435.84	97.94
436.062	113.94
436.284	109.94
436.505	101.94
436.727	106.94
436.949	95.94
437.17	84.94
437.392	69.94
437.614	100.94
437.835	100.94
438.057	116.94
438.278	109.94
438.5	101.94
438.721	113.94
438.943	107.94
439.165	93.94
439.386	82.94
439.608	101.94
439.829	129.94
440.05	123.94
440.272	123.94
440.493	81.94
440.715	87.94
440.936	86.94
441.158	103.94
441.379	89.94
441.6	92.94
441.822	104.94
442.043	97.94
442.264	88.94
442.486	90.94
442.707	103.94
442.928	120.94
443.149	127.94
443.371	110.94
443.592	108.94
443.813	101.94
444.034	103.94
444.255	93.94
444.476	84.94
444.698	70.94
444.919	97.94
445.14	132.94
445.361	133.94
445.582	121.94
445.803	108.94
446.024	121.94
446.245	129.94
446.466	118.94
446.687	88.94
446.908	88.94
447.129	93.94
447.35	103.94
447.571	84.94
447.792	85.94
448.013	98.94
448.234	95.94
448.455	93.94
448.675	120.94
448.896	107.94
449.117	98.94
449.338	107.94
449.559	123.94
449.779	118.94
450	92.94
450.221	84.94
450.442	89.94
450.662	105.94
450.883	93.94
451.104	119.94
451.324	99.94
451.545	91.94
451.766	81.94
451.986	104.94
452.207	104.94
452.428	84.94
452.648	97.94
452.869	103.94
453.089	106.94
453.31	120.94
453.53	100.94
453.751	88.94
453.971	107.94
454.192	108.94
454.412	104.94
454.633	92.94
454.853	90.94
455.073	98.94
455.294	94.94
455.514	95.94
455.734	101.94
455.955	98.94
456.175	78.94
456.395	93.94
456.616	90.94
456.836	93.94
457.056	84.94
457.276	88.94
457.497	101.94
457.717	82.94
457.937	86.94
458.157	80.94
458.377	89.94
458.598	95.94
458.818	137.94
459.038	140.94
459.258	102.94
459.478	92.94
459.698	83.94
459.918	89.94
460.138	73.94
460.358	85.94
460.578	95.94
460.798	89.94
461.018	87.94
461.238	92.94
461.458	85.94
461.678	93.94
461.898	71.94
462.118	103.94
462.338	93.94
462.558	88.94
462.777	83.94
462.997	86.94
463.217	81.94
463.437	85.94
463.657	93.94
463.876	83.94
464.096	90.94
464.316	85.94
464.536	92.94
464.755	107.94
464.975	119.94
465.195	139.94
465.414	156.94
465.634	84.94
465.854	98.94
466.073	88.94
466.293	101.94
466.512	95.94
466.732	93.94
466.951	77.94
467.171	99.94
467.391	84.94
467.61	99.94
467.829	96.94
468.049	120.94
468.268	147.94
468.488	107.94
468.707	89.94
468.927	93.94
469.146	63.94
469.365	85.94
469.585	80.94
469.804	87.94
470.023	86.94
470.243	95.94
470.462	106.94
470.681	106.94
470.901	103.94
471.12	83.94
471.339	90.94
471.558	100.94
471.777	102.94
471.997	104.94
472.216	170.94
472.435	253.94
472.654	96.94
472.873	85.94
473.092	100.94
473.311	89.94
473.53	83.94
473.749	90.94
473.968	95.94
474.187	111.94
474.406	113.94
474.625	94.94
474.844	85.94
475.063	85.94
475.282	102.94
475.501	85.94
475.72	95.94
475.939	100.94
476.158	99.94
476.377	99.94
476.596	90.94
476.814	94.94
477.033	106.94
477.252	83.94
477.471	103.94
477.69	85.94
477.908	93.94
478.127	91.94
478.346	92.94
478.564	82.94
478.783	99.94
479.002	93.94
479.22	94.94
479.439	92.94
479.658	100.94
479.876	88.94
480.095	103.94
480.313	93.94
480.532	103.94
480.751	107.94
480.969	158.94
481.188	397.94
481.406	265.94
481.624	113.94
481.843	90.94
482.061	100.94
482.28	88.94
482.498	91.94
482.717	83.94
482.935	72.94
483.153	90.94
483.372	92.94
483.59	95.94
483.808	84.94
484.027	99.94
484.245	90.94
484.463	91.94
484.681	103.94
484.9	100.94
485.118	90.94
485.336	101.94
485.554	101.94
485.772	95.94
485.99	97.94
486.209	105.94
486.427	100.94
486.645	100.94
486.863	102.94
487.081	107.94
487.299	98.94
487.517	91.94
487.735	90.94
487.953	84.94
488.171	86.94
488.389	91.94
488.607	102.94
488.825	90.94
489.043	105.94
489.261	85.94
489.479	93.94
489.696	88.94
489.914	90.94
490.132	79.94
490.35	74.94
490.568	92.94
490.786	106.94
491.003	83.94
491.221	90.94
491.439	99.94
491.657	97.94
491.874	82.94
492.092	85.94
492.31	94.94
492.527	88.94
492.745	96.94
492.963	99.94
493.18	88.94
493.398	88.94
493.615	94.94
493.833	105.94
494.05	96.94
494.268	87.94
494.485	94.94
494.703	97.94
494.92	94.94
495.138	84.94
495.355	79.94
495.573	86.94
495.79	90.94
496.008	95.94
496.225	105.94
496.442	87.94
496.66	99.94
496.877	89.94
497.094	97.94
497.312	82.94
497.529	94.94
497.746	86.94
497.963	89.94
498.181	92.94
498.398	104.94
498.615	117.94
498.832	101.94
499.049	88.94
499.267	82.94
499.484	93.94
499.701	102.94
499.918	95.94
500.135	88.94
500.352	93.94
500.569	87.94
500.786	92.94
501.003	95.94
501.22	97.94
501.437	89.94
501.654	113.94
501.871	94.94
502.088	93.94
502.305	98.94
502.522	76.94
502.739	83.94
502.956	80.94
503.172	93.94
503.389	95.94
503.606	100.94
503.823	103.94
504.04	95.94
504.256	92.94
504.473	99.94
504.69	97.94
504.907	84.94
505.123	85.94
505.34	88.94
505.557	96.94
505.773	92.94
505.99	92.94
506.207	98.94
506.423	91.94
506.64	91.94
506.856	84.94
507.073	89.94
507.289	86.94
507.506	101.94
507.722	106.94
507.939	101.94
508.155	88.94
508.372	103.94
508.588	86.94
508.805	101.94
509.021	103.94
509.238	93.94
509.454	111.94
509.67	103.94
509.887	96.94
510.103	124.94
510.319	188.94
510.536	636.94
510.752	2055.94
510.968	584.94
511.184	153.94
511.401	93.94
511.617	95.94
511.833	88.94
512.049	89.94
512.265	94.94
512.481	90.94
512.698	95.94
512.914	94.94
513.13	97.94
513.346	101.94
513.562	91.94
513.778	108.94
513.994	89.94
514.21	107.94
514.426	122.94
514.642	130.94
514.858	118.94
