Data from Circ_2002_H10_HRD10591_00027.txt Node
Date: Wed Jan 03 10:41:03 EST 2024
User: Yrep
Spectrometer: HR+D1059
Trigger mode: 1
Integration Time (sec): 1.000000E-1
Scans to average: 1
Electric dark correction enabled: true
Nonlinearity correction enabled: false
Boxcar width: 0
XAxis mode: Wavelengths
Number of Pixels in Spectrum: 2048
>>>>>Begin Spectral Data<<<<<
223.165	-18.19
223.4	-18.19
223.635	-18.19
223.869	-27.19
224.104	-16.19
224.338	-6.19
224.573	-11.19
224.808	-7.19
225.042	-11.19
225.277	7.81
225.511	-9.19
225.746	3.81
225.98	11.81
226.215	13.81
226.449	16.81
226.683	11.81
226.918	23.81
227.152	16.81
227.387	32.81
227.621	42.81
227.856	39.81
228.09	48.81
228.324	50.81
228.559	59.81
228.793	59.81
229.027	65.81
229.262	71.81
229.496	78.81
229.73	73.81
229.964	74.81
230.199	69.81
230.433	75.81
230.667	84.81
230.901	79.81
231.136	64.81
231.37	71.81
231.604	72.81
231.838	77.81
232.072	76.81
232.306	71.81
232.541	73.81
232.775	70.81
233.009	75.81
233.243	75.81
233.477	68.81
233.711	77.81
233.945	72.81
234.179	81.81
234.413	64.81
234.647	76.81
234.881	69.81
235.115	78.81
235.349	88.81
235.583	83.81
235.817	72.81
236.051	81.81
236.285	63.81
236.519	69.81
236.753	75.81
236.987	72.81
237.221	93.81
237.455	100.81
237.689	84.81
237.922	86.81
238.156	54.81
238.39	92.81
238.624	75.81
238.858	65.81
239.091	83.81
239.325	60.81
239.559	77.81
239.793	83.81
240.027	76.81
240.26	79.81
240.494	69.81
240.728	65.81
240.961	74.81
241.195	81.81
241.429	92.81
241.662	77.81
241.896	71.81
242.13	75.81
242.363	69.81
242.597	77.81
242.83	64.81
243.064	76.81
243.298	64.81
243.531	66.81
243.765	77.81
243.998	52.81
244.232	71.81
244.465	66.81
244.699	91.81
244.932	86.81
245.166	84.81
245.399	67.81
245.633	78.81
245.866	73.81
246.099	55.81
246.333	71.81
246.566	78.81
246.8	91.81
247.033	78.81
247.266	67.81
247.5	82.81
247.733	82.81
247.966	80.81
248.2	72.81
248.433	66.81
248.666	67.81
248.899	80.81
249.133	72.81
249.366	88.81
249.599	94.81
249.832	90.81
250.066	86.81
250.299	77.81
250.532	75.81
250.765	80.81
250.998	75.81
251.231	68.81
251.465	75.81
251.698	69.81
251.931	65.81
252.164	70.81
252.397	72.81
252.63	59.81
252.863	79.81
253.096	88.81
253.329	73.81
253.562	66.81
253.795	79.81
254.028	71.81
254.261	68.81
254.494	65.81
254.727	82.81
254.96	73.81
255.193	88.81
255.426	73.81
255.659	87.81
255.892	74.81
256.124	78.81
256.357	76.81
256.59	79.81
256.823	70.81
257.056	78.81
257.289	77.81
257.521	87.81
257.754	68.81
257.987	83.81
258.22	75.81
258.452	68.81
258.685	84.81
258.918	72.81
259.151	77.81
259.383	86.81
259.616	90.81
259.849	90.81
260.081	68.81
260.314	80.81
260.547	78.81
260.779	88.81
261.012	62.81
261.244	81.81
261.477	100.81
261.71	100.81
261.942	111.81
262.175	126.81
262.407	87.81
262.64	83.81
262.872	75.81
263.105	79.81
263.337	72.81
263.57	79.81
263.802	80.81
264.035	72.81
264.267	79.81
264.499	66.81
264.732	82.81
264.964	76.81
265.197	74.81
265.429	77.81
265.661	85.81
265.894	88.81
266.126	80.81
266.358	68.81
266.591	83.81
266.823	75.81
267.055	72.81
267.287	77.81
267.52	89.81
267.752	77.81
267.984	81.81
268.216	67.81
268.448	93.81
268.681	81.81
268.913	88.81
269.145	91.81
269.377	82.81
269.609	81.81
269.841	80.81
270.073	75.81
270.306	74.81
270.538	68.81
270.77	83.81
271.002	61.81
271.234	68.81
271.466	75.81
271.698	87.81
271.93	82.81
272.162	75.81
272.394	85.81
272.626	77.81
272.858	92.81
273.09	93.81
273.322	83.81
273.553	85.81
273.785	85.81
274.017	71.81
274.249	100.81
274.481	78.81
274.713	69.81
274.945	88.81
275.176	80.81
275.408	88.81
275.64	71.81
275.872	85.81
276.104	93.81
276.335	101.81
276.567	97.81
276.799	101.81
277.031	89.81
277.262	88.81
277.494	84.81
277.726	80.81
277.957	80.81
278.189	76.81
278.421	90.81
278.652	87.81
278.884	85.81
279.115	78.81
279.347	88.81
279.579	104.81
279.81	81.81
280.042	83.81
280.273	80.81
280.505	96.81
280.736	87.81
280.968	75.81
281.199	79.81
281.431	85.81
281.662	85.81
281.894	89.81
282.125	99.81
282.356	103.81
282.588	132.81
282.819	115.81
283.051	84.81
283.282	101.81
283.513	93.81
283.745	80.81
283.976	83.81
284.207	97.81
284.439	79.81
284.67	82.81
284.901	87.81
285.132	93.81
285.364	77.81
285.595	100.81
285.826	77.81
286.057	81.81
286.288	77.81
286.52	80.81
286.751	82.81
286.982	84.81
287.213	91.81
287.444	87.81
287.675	92.81
287.906	92.81
288.138	87.81
288.369	79.81
288.6	87.81
288.831	83.81
289.062	95.81
289.293	82.81
289.524	76.81
289.755	82.81
289.986	78.81
290.217	91.81
290.448	82.81
290.679	75.81
290.91	75.81
291.141	95.81
291.371	91.81
291.602	83.81
291.833	87.81
292.064	78.81
292.295	92.81
292.526	87.81
292.757	95.81
292.987	96.81
293.218	87.81
293.449	86.81
293.68	84.81
293.91	83.81
294.141	81.81
294.372	88.81
294.603	74.81
294.833	87.81
295.064	89.81
295.295	93.81
295.525	101.81
295.756	108.81
295.987	117.81
296.217	125.81
296.448	137.81
296.679	89.81
296.909	91.81
297.14	76.81
297.37	92.81
297.601	89.81
297.831	80.81
298.062	88.81
298.292	80.81
298.523	78.81
298.753	91.81
298.984	92.81
299.214	93.81
299.445	91.81
299.675	84.81
299.905	92.81
300.136	93.81
300.366	80.81
300.597	87.81
300.827	97.81
301.057	89.81
301.288	114.81
301.518	101.81
301.748	88.81
301.979	98.81
302.209	83.81
302.439	97.81
302.669	71.81
302.9	82.81
303.13	93.81
303.36	86.81
303.59	99.81
303.82	112.81
304.051	97.81
304.281	91.81
304.511	94.81
304.741	77.81
304.971	71.81
305.201	75.81
305.431	86.81
305.661	82.81
305.891	94.81
306.121	85.81
306.352	90.81
306.582	113.81
306.812	88.81
307.042	77.81
307.272	101.81
307.502	81.81
307.731	93.81
307.961	95.81
308.191	80.81
308.421	78.81
308.651	95.81
308.881	98.81
309.111	85.81
309.341	95.81
309.571	83.81
309.8	90.81
310.03	105.81
310.26	91.81
310.49	84.81
310.72	89.81
310.949	90.81
311.179	97.81
311.409	102.81
311.639	94.81
311.868	104.81
312.098	95.81
312.328	99.81
312.557	89.81
312.787	97.81
313.017	96.81
313.246	96.81
313.476	80.81
313.706	95.81
313.935	96.81
314.165	93.81
314.394	99.81
314.624	85.81
314.853	96.81
315.083	89.81
315.312	91.81
315.542	98.81
315.771	96.81
316.001	92.81
316.23	93.81
316.46	91.81
316.689	92.81
316.919	78.81
317.148	98.81
317.377	91.81
317.607	104.81
317.836	94.81
318.065	88.81
318.295	88.81
318.524	95.81
318.753	97.81
318.983	87.81
319.212	95.81
319.441	108.81
319.67	93.81
319.9	101.81
320.129	94.81
320.358	96.81
320.587	99.81
320.816	86.81
321.046	104.81
321.275	99.81
321.504	86.81
321.733	86.81
321.962	101.81
322.191	103.81
322.42	115.81
322.649	120.81
322.878	117.81
323.108	118.81
323.337	120.81
323.566	128.81
323.795	155.81
324.024	226.81
324.253	471.81
324.482	946.81
324.71	2012.81
324.939	2661.81
325.168	967.81
325.397	272.81
325.626	172.81
325.855	135.81
326.084	116.81
326.313	141.81
326.542	151.81
326.77	257.81
326.999	538.81
327.228	1096.81
327.457	2022.81
327.686	1607.81
327.914	425.81
328.143	218.81
328.372	160.81
328.6	136.81
328.829	115.81
329.058	147.81
329.287	133.81
329.515	119.81
329.744	105.81
329.972	104.81
330.201	106.81
330.43	118.81
330.658	120.81
330.887	163.81
331.115	118.81
331.344	95.81
331.572	103.81
331.801	119.81
332.03	109.81
332.258	110.81
332.486	90.81
332.715	86.81
332.943	88.81
333.172	89.81
333.4	107.81
333.629	88.81
333.857	121.81
334.085	108.81
334.314	117.81
334.542	97.81
334.771	104.81
334.999	91.81
335.227	99.81
335.455	87.81
335.684	102.81
335.912	87.81
336.14	95.81
336.369	93.81
336.597	106.81
336.825	96.81
337.053	86.81
337.281	85.81
337.51	89.81
337.738	102.81
337.966	87.81
338.194	101.81
338.422	83.81
338.65	98.81
338.878	99.81
339.106	96.81
339.334	88.81
339.562	91.81
339.79	80.81
340.018	87.81
340.246	88.81
340.474	99.81
340.702	95.81
340.93	80.81
341.158	97.81
341.386	102.81
341.614	93.81
341.842	103.81
342.07	95.81
342.298	89.81
342.526	91.81
342.754	83.81
342.981	87.81
343.209	100.81
343.437	107.81
343.665	80.81
343.893	85.81
344.12	78.81
344.348	85.81
344.576	86.81
344.804	82.81
345.031	89.81
345.259	97.81
345.487	103.81
345.714	103.81
345.942	95.81
346.17	94.81
346.397	95.81
346.625	89.81
346.853	80.81
347.08	96.81
347.308	99.81
347.535	97.81
347.763	93.81
347.99	80.81
348.218	94.81
348.445	106.81
348.673	99.81
348.9	103.81
349.128	85.81
349.355	93.81
349.583	89.81
349.81	86.81
350.037	95.81
350.265	96.81
350.492	98.81
350.72	90.81
350.947	95.81
351.174	111.81
351.402	111.81
351.629	89.81
351.856	97.81
352.083	107.81
352.311	105.81
352.538	106.81
352.765	123.81
352.992	113.81
353.22	105.81
353.447	100.81
353.674	90.81
353.901	79.81
354.128	83.81
354.355	98.81
354.583	97.81
354.81	84.81
355.037	94.81
355.264	89.81
355.491	88.81
355.718	94.81
355.945	90.81
356.172	87.81
356.399	85.81
356.626	84.81
356.853	118.81
357.08	83.81
357.307	109.81
357.534	94.81
357.761	100.81
357.988	91.81
358.215	97.81
358.441	92.81
358.668	89.81
358.895	86.81
359.122	101.81
359.349	92.81
359.576	90.81
359.802	104.81
360.029	125.81
360.256	118.81
360.483	98.81
360.709	87.81
360.936	92.81
361.163	101.81
361.39	99.81
361.616	106.81
361.843	90.81
362.07	92.81
362.296	107.81
362.523	77.81
362.749	86.81
362.976	83.81
363.203	103.81
363.429	83.81
363.656	83.81
363.882	83.81
364.109	97.81
364.335	80.81
364.562	77.81
364.788	87.81
365.015	89.81
365.241	93.81
365.468	114.81
365.694	110.81
365.92	97.81
366.147	91.81
366.373	92.81
366.599	81.81
366.826	93.81
367.052	87.81
367.278	87.81
367.505	95.81
367.731	87.81
367.957	81.81
368.184	95.81
368.41	108.81
368.636	102.81
368.862	123.81
369.089	98.81
369.315	73.81
369.541	85.81
369.767	98.81
369.993	72.81
370.219	88.81
370.445	85.81
370.672	71.81
370.898	88.81
371.124	82.81
371.35	83.81
371.576	95.81
371.802	90.81
372.028	95.81
372.254	75.81
372.48	103.81
372.706	101.81
372.932	103.81
373.158	81.81
373.384	82.81
373.61	78.81
373.835	87.81
374.061	89.81
374.287	83.81
374.513	92.81
374.739	93.81
374.965	92.81
375.191	95.81
375.416	93.81
375.642	88.81
375.868	104.81
376.094	95.81
376.319	94.81
376.545	95.81
376.771	85.81
376.997	70.81
377.222	96.81
377.448	85.81
377.674	104.81
377.899	99.81
378.125	85.81
378.35	79.81
378.576	91.81
378.802	88.81
379.027	93.81
379.253	85.81
379.478	86.81
379.704	86.81
379.929	87.81
380.155	100.81
380.38	99.81
380.606	84.81
380.831	88.81
381.057	97.81
381.282	88.81
381.507	97.81
381.733	90.81
381.958	96.81
382.184	93.81
382.409	98.81
382.634	113.81
382.86	98.81
383.085	100.81
383.31	92.81
383.535	108.81
383.761	86.81
383.986	107.81
384.211	95.81
384.436	97.81
384.662	109.81
384.887	101.81
385.112	114.81
385.337	93.81
385.562	111.81
385.787	104.81
386.013	98.81
386.238	136.81
386.463	127.81
386.688	122.81
386.913	116.81
387.138	112.81
387.363	98.81
387.588	103.81
387.813	97.81
388.038	102.81
388.263	108.81
388.488	104.81
388.713	99.81
388.938	89.81
389.163	86.81
389.387	85.81
389.612	86.81
389.837	88.81
390.062	80.81
390.287	93.81
390.512	96.81
390.736	86.81
390.961	92.81
391.186	89.81
391.411	94.81
391.636	88.81
391.86	78.81
392.085	83.81
392.31	85.81
392.534	101.81
392.759	87.81
392.984	80.81
393.208	93.81
393.433	104.81
393.658	92.81
393.882	75.81
394.107	81.81
394.331	84.81
394.556	91.81
394.78	85.81
395.005	94.81
395.229	89.81
395.454	80.81
395.678	81.81
395.903	86.81
396.127	92.81
396.352	96.81
396.576	86.81
396.801	86.81
397.025	101.81
397.249	93.81
397.474	93.81
397.698	78.81
397.922	84.81
398.147	74.81
398.371	94.81
398.595	98.81
398.82	70.81
399.044	83.81
399.268	76.81
399.492	76.81
399.717	100.81
399.941	89.81
400.165	84.81
400.389	95.81
400.613	93.81
400.837	85.81
401.062	78.81
401.286	85.81
401.51	83.81
401.734	94.81
401.958	118.81
402.182	125.81
402.406	147.81
402.63	122.81
402.854	91.81
403.078	101.81
403.302	93.81
403.526	79.81
403.75	94.81
403.974	76.81
404.198	93.81
404.422	81.81
404.645	94.81
404.869	60.81
405.093	101.81
405.317	106.81
405.541	90.81
405.765	98.81
405.988	119.81
406.212	167.81
406.436	255.81
406.66	151.81
406.883	99.81
407.107	89.81
407.331	101.81
407.555	94.81
407.778	93.81
408.002	89.81
408.226	97.81
408.449	99.81
408.673	80.81
408.896	81.81
409.12	92.81
409.344	89.81
409.567	66.81
409.791	82.81
410.014	100.81
410.238	80.81
410.461	95.81
410.685	83.81
410.908	93.81
411.132	98.81
411.355	97.81
411.578	76.81
411.802	77.81
412.025	69.81
412.249	101.81
412.472	85.81
412.695	100.81
412.919	91.81
413.142	88.81
413.365	81.81
413.589	89.81
413.812	80.81
414.035	85.81
414.258	89.81
414.482	87.81
414.705	88.81
414.928	89.81
415.151	86.81
415.374	105.81
415.597	99.81
415.821	88.81
416.044	83.81
416.267	85.81
416.49	88.81
416.713	83.81
416.936	89.81
417.159	89.81
417.382	76.81
417.605	86.81
417.828	85.81
418.051	84.81
418.274	87.81
418.497	86.81
418.72	87.81
418.943	85.81
419.166	78.81
419.389	79.81
419.611	106.81
419.834	88.81
420.057	83.81
420.28	69.81
420.503	80.81
420.726	98.81
420.948	88.81
421.171	91.81
421.394	85.81
421.617	79.81
421.839	78.81
422.062	90.81
422.285	104.81
422.507	93.81
422.73	102.81
422.953	103.81
423.175	89.81
423.398	92.81
423.621	106.81
423.843	92.81
424.066	77.81
424.288	80.81
424.511	105.81
424.733	100.81
424.956	109.81
425.178	95.81
425.401	89.81
425.623	96.81
425.846	97.81
426.068	92.81
426.291	82.81
426.513	89.81
426.735	87.81
426.958	92.81
427.18	108.81
427.402	146.81
427.625	197.81
427.847	129.81
428.069	96.81
428.292	88.81
428.514	79.81
428.736	93.81
428.958	84.81
429.181	98.81
429.403	85.81
429.625	90.81
429.847	84.81
430.069	98.81
430.292	92.81
430.514	80.81
430.736	84.81
430.958	95.81
431.18	87.81
431.402	86.81
431.624	83.81
431.846	93.81
432.068	72.81
432.29	83.81
432.512	85.81
432.734	95.81
432.956	100.81
433.178	100.81
433.4	93.81
433.622	92.81
433.844	80.81
434.066	89.81
434.287	85.81
434.509	87.81
434.731	80.81
434.953	87.81
435.175	85.81
435.397	82.81
435.618	96.81
435.84	105.81
436.062	114.81
436.284	101.81
436.505	81.81
436.727	116.81
436.949	94.81
437.17	100.81
437.392	86.81
437.614	96.81
437.835	100.81
438.057	120.81
438.278	116.81
438.5	102.81
438.721	114.81
438.943	121.81
439.165	87.81
439.386	92.81
439.608	93.81
439.829	97.81
440.05	123.81
440.272	157.81
440.493	89.81
440.715	92.81
440.936	94.81
441.158	83.81
441.379	79.81
441.6	72.81
441.822	86.81
442.043	99.81
442.264	103.81
442.486	110.81
442.707	85.81
442.928	108.81
443.149	124.81
443.371	139.81
443.592	118.81
443.813	115.81
444.034	128.81
444.255	89.81
444.476	85.81
444.698	80.81
444.919	96.81
445.14	139.81
445.361	123.81
445.582	105.81
445.803	152.81
446.024	129.81
446.245	153.81
446.466	124.81
446.687	86.81
446.908	91.81
447.129	89.81
447.35	84.81
447.571	93.81
447.792	88.81
448.013	101.81
448.234	112.81
448.455	97.81
448.675	126.81
448.896	126.81
449.117	98.81
449.338	120.81
449.559	144.81
449.779	147.81
450	95.81
450.221	88.81
450.442	77.81
450.662	87.81
450.883	100.81
451.104	109.81
451.324	89.81
451.545	80.81
451.766	86.81
451.986	102.81
452.207	95.81
452.428	76.81
452.648	105.81
452.869	114.81
453.089	107.81
453.31	108.81
453.53	96.81
453.751	83.81
453.971	101.81
454.192	119.81
454.412	85.81
454.633	95.81
454.853	79.81
455.073	94.81
455.294	99.81
455.514	92.81
455.734	83.81
455.955	89.81
456.175	95.81
456.395	85.81
456.616	80.81
456.836	87.81
457.056	82.81
457.276	83.81
457.497	83.81
457.717	78.81
457.937	72.81
458.157	86.81
458.377	94.81
458.598	104.81
458.818	149.81
459.038	177.81
459.258	123.81
459.478	83.81
459.698	81.81
459.918	102.81
460.138	81.81
460.358	73.81
460.578	70.81
460.798	79.81
461.018	89.81
461.238	92.81
461.458	87.81
461.678	75.81
461.898	84.81
462.118	95.81
462.338	83.81
462.558	82.81
462.777	93.81
462.997	86.81
463.217	84.81
463.437	83.81
463.657	68.81
463.876	72.81
464.096	77.81
464.316	85.81
464.536	88.81
464.755	87.81
464.975	92.81
465.195	174.81
465.414	181.81
465.634	113.81
465.854	87.81
466.073	89.81
466.293	92.81
466.512	100.81
466.732	86.81
466.951	80.81
467.171	86.81
467.391	92.81
467.61	98.81
467.829	88.81
468.049	88.81
468.268	91.81
468.488	68.81
468.707	63.81
468.927	68.81
469.146	79.81
469.365	99.81
469.585	95.81
469.804	86.81
470.023	94.81
470.243	99.81
470.462	107.81
470.681	110.81
470.901	87.81
471.12	105.81
471.339	85.81
471.558	85.81
471.777	87.81
471.997	80.81
472.216	100.81
472.435	111.81
472.654	92.81
472.873	87.81
473.092	69.81
473.311	91.81
473.53	81.81
473.749	87.81
473.968	89.81
474.187	108.81
474.406	90.81
474.625	85.81
474.844	82.81
475.063	84.81
475.282	83.81
475.501	88.81
475.72	77.81
475.939	85.81
476.158	81.81
476.377	90.81
476.596	91.81
476.814	89.81
477.033	90.81
477.252	75.81
477.471	88.81
477.69	87.81
477.908	85.81
478.127	88.81
478.346	86.81
478.564	86.81
478.783	79.81
479.002	73.81
479.22	86.81
479.439	94.81
479.658	87.81
479.876	102.81
480.095	93.81
480.313	86.81
480.532	94.81
480.751	111.81
480.969	99.81
481.188	122.81
481.406	105.81
481.624	94.81
481.843	85.81
482.061	89.81
482.28	81.81
482.498	81.81
482.717	92.81
482.935	92.81
483.153	88.81
483.372	80.81
483.59	82.81
483.808	99.81
484.027	87.81
484.245	94.81
484.463	84.81
484.681	84.81
484.9	92.81
485.118	80.81
485.336	95.81
485.554	89.81
485.772	100.81
485.99	97.81
486.209	85.81
486.427	99.81
486.645	113.81
486.863	117.81
487.081	105.81
487.299	115.81
487.517	80.81
487.735	86.81
487.953	88.81
488.171	90.81
488.389	99.81
488.607	99.81
488.825	87.81
489.043	92.81
489.261	84.81
489.479	104.81
489.696	92.81
489.914	96.81
490.132	71.81
490.35	100.81
490.568	81.81
490.786	87.81
491.003	73.81
491.221	97.81
491.439	70.81
491.657	95.81
491.874	90.81
492.092	82.81
492.31	89.81
492.527	87.81
492.745	83.81
492.963	86.81
493.18	75.81
493.398	82.81
493.615	102.81
493.833	97.81
494.05	97.81
494.268	86.81
494.485	85.81
494.703	81.81
494.92	89.81
495.138	84.81
495.355	92.81
495.573	74.81
495.79	86.81
496.008	95.81
496.225	88.81
496.442	91.81
496.66	71.81
496.877	80.81
497.094	95.81
497.312	92.81
497.529	99.81
497.746	101.81
497.963	94.81
498.181	88.81
498.398	96.81
498.615	104.81
498.832	103.81
499.049	91.81
499.267	90.81
499.484	77.81
499.701	89.81
499.918	79.81
500.135	95.81
500.352	89.81
500.569	95.81
500.786	94.81
501.003	83.81
501.22	86.81
501.437	97.81
501.654	87.81
501.871	105.81
502.088	89.81
502.305	80.81
502.522	89.81
502.739	78.81
502.956	85.81
503.172	73.81
503.389	84.81
503.606	96.81
503.823	90.81
504.04	80.81
504.256	97.81
504.473	89.81
504.69	89.81
504.907	90.81
505.123	87.81
505.34	84.81
505.557	99.81
505.773	98.81
505.99	96.81
506.207	82.81
506.423	92.81
506.64	86.81
506.856	93.81
507.073	75.81
507.289	87.81
507.506	87.81
507.722	116.81
507.939	100.81
508.155	97.81
508.372	88.81
508.588	96.81
508.805	90.81
509.021	98.81
509.238	103.81
509.454	107.81
509.67	103.81
509.887	89.81
510.103	115.81
510.319	217.81
510.536	769.81
510.752	2533.81
510.968	701.81
511.184	163.81
511.401	118.81
511.617	91.81
511.833	85.81
512.049	98.81
512.265	97.81
512.481	104.81
512.698	91.81
512.914	100.81
513.13	88.81
513.346	97.81
513.562	92.81
513.778	98.81
513.994	101.81
514.21	114.81
514.426	121.81
514.642	149.81
514.858	117.81
515.074	187.81
515.29	525.81
515.506	1716.81
515.721	635.81
515.937	165.81
516.153	109.81
