Data from Circ_2002_H10_HRD10591_00070.txt Node
Date: Wed Jan 03 10:41:12 EST 2024
User: Yrep
Spectrometer: HR+D1059
Trigger mode: 1
Integration Time (sec): 1.000000E-1
Scans to average: 1
Electric dark correction enabled: true
Nonlinearity correction enabled: false
Boxcar width: 0
XAxis mode: Wavelengths
Number of Pixels in Spectrum: 2048
>>>>>Begin Spectral Data<<<<<
223.165	-17.25
223.4	-17.25
223.635	-17.25
223.869	-19.25
224.104	-24.25
224.338	-25.25
224.573	-0.25
224.808	-11.25
225.042	-19.25
225.277	-5.25
225.511	13.75
225.746	3.75
225.98	8.75
226.215	13.75
226.449	6.75
226.683	18.75
226.918	22.75
227.152	33.75
227.387	41.75
227.621	32.75
227.856	42.75
228.09	42.75
228.324	40.75
228.559	64.75
228.793	72.75
229.027	48.75
229.262	62.75
229.496	76.75
229.73	65.75
229.964	81.75
230.199	70.75
230.433	71.75
230.667	75.75
230.901	76.75
231.136	62.75
231.37	84.75
231.604	86.75
231.838	89.75
232.072	82.75
232.306	74.75
232.541	80.75
232.775	77.75
233.009	80.75
233.243	80.75
233.477	84.75
233.711	86.75
233.945	84.75
234.179	87.75
234.413	79.75
234.647	57.75
234.881	77.75
235.115	86.75
235.349	89.75
235.583	80.75
235.817	70.75
236.051	79.75
236.285	67.75
236.519	71.75
236.753	61.75
236.987	81.75
237.221	80.75
237.455	85.75
237.689	76.75
237.922	87.75
238.156	73.75
238.39	69.75
238.624	72.75
238.858	71.75
239.091	70.75
239.325	76.75
239.559	87.75
239.793	84.75
240.027	79.75
240.26	82.75
240.494	69.75
240.728	64.75
240.961	83.75
241.195	76.75
241.429	78.75
241.662	74.75
241.896	74.75
242.13	76.75
242.363	66.75
242.597	69.75
242.83	75.75
243.064	66.75
243.298	76.75
243.531	81.75
243.765	75.75
243.998	75.75
244.232	79.75
244.465	81.75
244.699	78.75
244.932	70.75
245.166	76.75
245.399	75.75
245.633	79.75
245.866	78.75
246.099	66.75
246.333	74.75
246.566	68.75
246.8	78.75
247.033	62.75
247.266	61.75
247.5	79.75
247.733	77.75
247.966	83.75
248.2	88.75
248.433	81.75
248.666	73.75
248.899	83.75
249.133	89.75
249.366	88.75
249.599	84.75
249.832	83.75
250.066	69.75
250.299	80.75
250.532	93.75
250.765	68.75
250.998	78.75
251.231	73.75
251.465	79.75
251.698	71.75
251.931	85.75
252.164	81.75
252.397	74.75
252.63	73.75
252.863	70.75
253.096	77.75
253.329	67.75
253.562	72.75
253.795	84.75
254.028	80.75
254.261	71.75
254.494	71.75
254.727	81.75
254.96	70.75
255.193	81.75
255.426	95.75
255.659	75.75
255.892	77.75
256.124	80.75
256.357	66.75
256.59	80.75
256.823	80.75
257.056	71.75
257.289	63.75
257.521	83.75
257.754	78.75
257.987	79.75
258.22	88.75
258.452	77.75
258.685	77.75
258.918	86.75
259.151	74.75
259.383	85.75
259.616	68.75
259.849	73.75
260.081	81.75
260.314	76.75
260.547	85.75
260.779	78.75
261.012	69.75
261.244	86.75
261.477	76.75
261.71	89.75
261.942	84.75
262.175	93.75
262.407	97.75
262.64	63.75
262.872	65.75
263.105	75.75
263.337	71.75
263.57	86.75
263.802	78.75
264.035	87.75
264.267	87.75
264.499	72.75
264.732	89.75
264.964	69.75
265.197	85.75
265.429	83.75
265.661	87.75
265.894	74.75
266.126	76.75
266.358	77.75
266.591	77.75
266.823	80.75
267.055	60.75
267.287	71.75
267.52	72.75
267.752	84.75
267.984	84.75
268.216	86.75
268.448	88.75
268.681	76.75
268.913	85.75
269.145	71.75
269.377	77.75
269.609	73.75
269.841	65.75
270.073	71.75
270.306	82.75
270.538	81.75
270.77	74.75
271.002	88.75
271.234	93.75
271.466	95.75
271.698	81.75
271.93	82.75
272.162	82.75
272.394	84.75
272.626	68.75
272.858	78.75
273.09	83.75
273.322	86.75
273.553	93.75
273.785	95.75
274.017	89.75
274.249	72.75
274.481	72.75
274.713	84.75
274.945	80.75
275.176	78.75
275.408	81.75
275.64	87.75
275.872	84.75
276.104	80.75
276.335	82.75
276.567	89.75
276.799	88.75
277.031	70.75
277.262	78.75
277.494	66.75
277.726	80.75
277.957	80.75
278.189	93.75
278.421	67.75
278.652	89.75
278.884	74.75
279.115	75.75
279.347	86.75
279.579	74.75
279.81	74.75
280.042	89.75
280.273	100.75
280.505	70.75
280.736	74.75
280.968	94.75
281.199	85.75
281.431	83.75
281.662	72.75
281.894	70.75
282.125	87.75
282.356	86.75
282.588	97.75
282.819	96.75
283.051	86.75
283.282	79.75
283.513	78.75
283.745	66.75
283.976	73.75
284.207	90.75
284.439	89.75
284.67	89.75
284.901	80.75
285.132	96.75
285.364	90.75
285.595	84.75
285.826	83.75
286.057	73.75
286.288	85.75
286.52	83.75
286.751	81.75
286.982	66.75
287.213	83.75
287.444	76.75
287.675	83.75
287.906	77.75
288.138	81.75
288.369	91.75
288.6	79.75
288.831	86.75
289.062	81.75
289.293	85.75
289.524	82.75
289.755	88.75
289.986	88.75
290.217	95.75
290.448	76.75
290.679	85.75
290.91	87.75
291.141	64.75
291.371	87.75
291.602	79.75
291.833	88.75
292.064	80.75
292.295	80.75
292.526	76.75
292.757	88.75
292.987	88.75
293.218	85.75
293.449	75.75
293.68	90.75
293.91	80.75
294.141	84.75
294.372	73.75
294.603	76.75
294.833	85.75
295.064	74.75
295.295	97.75
295.525	83.75
295.756	91.75
295.987	114.75
296.217	99.75
296.448	97.75
296.679	83.75
296.909	87.75
297.14	81.75
297.37	71.75
297.601	88.75
297.831	83.75
298.062	85.75
298.292	81.75
298.523	100.75
298.753	88.75
298.984	77.75
299.214	90.75
299.445	92.75
299.675	79.75
299.905	72.75
300.136	76.75
300.366	93.75
300.597	81.75
300.827	80.75
301.057	78.75
301.288	96.75
301.518	95.75
301.748	72.75
301.979	100.75
302.209	90.75
302.439	80.75
302.669	93.75
302.9	90.75
303.13	81.75
303.36	82.75
303.59	88.75
303.82	95.75
304.051	99.75
304.281	77.75
304.511	69.75
304.741	96.75
304.971	73.75
305.201	79.75
305.431	72.75
305.661	80.75
305.891	81.75
306.121	88.75
306.352	87.75
306.582	95.75
306.812	84.75
307.042	76.75
307.272	97.75
307.502	78.75
307.731	94.75
307.961	89.75
308.191	82.75
308.421	94.75
308.651	76.75
308.881	71.75
309.111	73.75
309.341	88.75
309.571	74.75
309.8	98.75
310.03	80.75
310.26	91.75
310.49	98.75
310.72	94.75
310.949	79.75
311.179	87.75
311.409	81.75
311.639	77.75
311.868	77.75
312.098	86.75
312.328	83.75
312.557	99.75
312.787	84.75
313.017	71.75
313.246	90.75
313.476	86.75
313.706	86.75
313.935	85.75
314.165	87.75
314.394	88.75
314.624	91.75
314.853	80.75
315.083	88.75
315.312	87.75
315.542	85.75
315.771	87.75
316.001	76.75
316.23	73.75
316.46	84.75
316.689	70.75
316.919	90.75
317.148	89.75
317.377	86.75
317.607	84.75
317.836	82.75
318.065	89.75
318.295	80.75
318.524	82.75
318.753	74.75
318.983	87.75
319.212	83.75
319.441	96.75
319.67	92.75
319.9	72.75
320.129	76.75
320.358	93.75
320.587	74.75
320.816	82.75
321.046	84.75
321.275	83.75
321.504	86.75
321.733	94.75
321.962	84.75
322.191	88.75
322.42	83.75
322.649	96.75
322.878	81.75
323.108	89.75
323.337	101.75
323.566	100.75
323.795	109.75
324.024	113.75
324.253	186.75
324.482	322.75
324.71	551.75
324.939	711.75
325.168	332.75
325.397	134.75
325.626	121.75
325.855	102.75
326.084	100.75
326.313	100.75
326.542	110.75
326.77	131.75
326.999	185.75
327.228	339.75
327.457	522.75
327.686	423.75
327.914	165.75
328.143	130.75
328.372	120.75
328.6	106.75
328.829	93.75
329.058	84.75
329.287	102.75
329.515	92.75
329.744	99.75
329.972	83.75
330.201	86.75
330.43	106.75
330.658	97.75
330.887	99.75
331.115	84.75
331.344	84.75
331.572	91.75
331.801	105.75
332.03	81.75
332.258	89.75
332.486	91.75
332.715	81.75
332.943	85.75
333.172	87.75
333.4	79.75
333.629	89.75
333.857	101.75
334.085	92.75
334.314	102.75
334.542	106.75
334.771	96.75
334.999	85.75
335.227	90.75
335.455	84.75
335.684	88.75
335.912	72.75
336.14	92.75
336.369	93.75
336.597	87.75
336.825	84.75
337.053	80.75
337.281	94.75
337.51	82.75
337.738	93.75
337.966	77.75
338.194	85.75
338.422	86.75
338.65	86.75
338.878	85.75
339.106	82.75
339.334	91.75
339.562	86.75
339.79	72.75
340.018	92.75
340.246	88.75
340.474	86.75
340.702	90.75
340.93	89.75
341.158	69.75
341.386	90.75
341.614	84.75
341.842	89.75
342.07	71.75
342.298	89.75
342.526	83.75
342.754	76.75
342.981	87.75
343.209	80.75
343.437	89.75
343.665	76.75
343.893	85.75
344.12	73.75
344.348	81.75
344.576	81.75
344.804	82.75
345.031	94.75
345.259	85.75
345.487	74.75
345.714	94.75
345.942	89.75
346.17	84.75
346.397	82.75
346.625	82.75
346.853	71.75
347.08	79.75
347.308	81.75
347.535	90.75
347.763	83.75
347.99	83.75
348.218	96.75
348.445	94.75
348.673	82.75
348.9	78.75
349.128	78.75
349.355	89.75
349.583	77.75
349.81	85.75
350.037	92.75
350.265	85.75
350.492	82.75
350.72	79.75
350.947	76.75
351.174	76.75
351.402	88.75
351.629	73.75
351.856	70.75
352.083	96.75
352.311	84.75
352.538	83.75
352.765	90.75
352.992	98.75
353.22	82.75
353.447	76.75
353.674	82.75
353.901	74.75
354.128	88.75
354.355	83.75
354.583	83.75
354.81	78.75
355.037	77.75
355.264	83.75
355.491	82.75
355.718	81.75
355.945	84.75
356.172	72.75
356.399	85.75
356.626	81.75
356.853	77.75
357.08	94.75
357.307	88.75
357.534	92.75
357.761	102.75
357.988	85.75
358.215	81.75
358.441	78.75
358.668	83.75
358.895	83.75
359.122	82.75
359.349	70.75
359.576	87.75
359.802	88.75
360.029	79.75
360.256	76.75
360.483	83.75
360.709	84.75
360.936	84.75
361.163	80.75
361.39	92.75
361.616	80.75
361.843	86.75
362.07	77.75
362.296	84.75
362.523	62.75
362.749	74.75
362.976	83.75
363.203	78.75
363.429	86.75
363.656	98.75
363.882	93.75
364.109	73.75
364.335	79.75
364.562	84.75
364.788	76.75
365.015	92.75
365.241	94.75
365.468	95.75
365.694	74.75
365.92	85.75
366.147	90.75
366.373	82.75
366.599	80.75
366.826	80.75
367.052	64.75
367.278	82.75
367.505	66.75
367.731	85.75
367.957	94.75
368.184	93.75
368.41	87.75
368.636	90.75
368.862	103.75
369.089	101.75
369.315	80.75
369.541	98.75
369.767	83.75
369.993	86.75
370.219	81.75
370.445	72.75
370.672	83.75
370.898	79.75
371.124	102.75
371.35	90.75
371.576	76.75
371.802	79.75
372.028	86.75
372.254	85.75
372.48	82.75
372.706	86.75
372.932	87.75
373.158	88.75
373.384	82.75
373.61	76.75
373.835	75.75
374.061	79.75
374.287	83.75
374.513	72.75
374.739	81.75
374.965	70.75
375.191	87.75
375.416	93.75
375.642	81.75
375.868	82.75
376.094	82.75
376.319	79.75
376.545	73.75
376.771	86.75
376.997	84.75
377.222	88.75
377.448	79.75
377.674	70.75
377.899	81.75
378.125	79.75
378.35	82.75
378.576	86.75
378.802	86.75
379.027	72.75
379.253	81.75
379.478	87.75
379.704	84.75
379.929	79.75
380.155	82.75
380.38	82.75
380.606	88.75
380.831	69.75
381.057	86.75
381.282	98.75
381.507	84.75
381.733	84.75
381.958	75.75
382.184	78.75
382.409	85.75
382.634	94.75
382.86	102.75
383.085	88.75
383.31	91.75
383.535	76.75
383.761	80.75
383.986	82.75
384.211	92.75
384.436	93.75
384.662	79.75
384.887	89.75
385.112	90.75
385.337	76.75
385.562	91.75
385.787	79.75
386.013	74.75
386.238	97.75
386.463	68.75
386.688	93.75
386.913	100.75
387.138	80.75
387.363	84.75
387.588	94.75
387.813	84.75
388.038	71.75
388.263	90.75
388.488	83.75
388.713	72.75
388.938	68.75
389.163	90.75
389.387	73.75
389.612	80.75
389.837	94.75
390.062	69.75
390.287	84.75
390.512	82.75
390.736	81.75
390.961	80.75
391.186	75.75
391.411	70.75
391.636	73.75
391.86	80.75
392.085	70.75
392.31	67.75
392.534	86.75
392.759	87.75
392.984	82.75
393.208	87.75
393.433	81.75
393.658	91.75
393.882	80.75
394.107	81.75
394.331	88.75
394.556	91.75
394.78	90.75
395.005	78.75
395.229	77.75
395.454	86.75
395.678	86.75
395.903	87.75
396.127	92.75
396.352	73.75
396.576	79.75
396.801	81.75
397.025	80.75
397.249	81.75
397.474	90.75
397.698	101.75
397.922	83.75
398.147	82.75
398.371	92.75
398.595	73.75
398.82	71.75
399.044	93.75
399.268	85.75
399.492	81.75
399.717	77.75
399.941	79.75
400.165	68.75
400.389	84.75
400.613	75.75
400.837	77.75
401.062	89.75
401.286	92.75
401.51	72.75
401.734	82.75
401.958	73.75
402.182	100.75
402.406	119.75
402.63	92.75
402.854	82.75
403.078	93.75
403.302	71.75
403.526	81.75
403.75	96.75
403.974	83.75
404.198	82.75
404.422	66.75
404.645	71.75
404.869	89.75
405.093	77.75
405.317	88.75
405.541	77.75
405.765	78.75
405.988	101.75
406.212	140.75
406.436	172.75
406.66	116.75
406.883	89.75
407.107	72.75
407.331	75.75
407.555	85.75
407.778	80.75
408.002	80.75
408.226	90.75
408.449	68.75
408.673	69.75
408.896	71.75
409.12	76.75
409.344	68.75
409.567	82.75
409.791	76.75
410.014	73.75
410.238	81.75
410.461	78.75
410.685	84.75
410.908	74.75
411.132	88.75
411.355	83.75
411.578	97.75
411.802	80.75
412.025	85.75
412.249	91.75
412.472	67.75
412.695	83.75
412.919	87.75
413.142	84.75
413.365	85.75
413.589	79.75
413.812	85.75
414.035	93.75
414.258	98.75
414.482	92.75
414.705	87.75
414.928	95.75
415.151	81.75
415.374	72.75
415.597	69.75
415.821	68.75
416.044	88.75
416.267	89.75
416.49	76.75
416.713	68.75
416.936	71.75
417.159	93.75
417.382	86.75
417.605	80.75
417.828	58.75
418.051	79.75
418.274	74.75
418.497	89.75
418.72	82.75
418.943	80.75
419.166	88.75
419.389	81.75
419.611	90.75
419.834	69.75
420.057	84.75
420.28	86.75
420.503	88.75
420.726	71.75
420.948	82.75
421.171	94.75
421.394	92.75
421.617	78.75
421.839	92.75
422.062	89.75
422.285	84.75
422.507	78.75
422.73	93.75
422.953	92.75
423.175	83.75
423.398	82.75
423.621	71.75
423.843	69.75
424.066	71.75
424.288	74.75
424.511	81.75
424.733	71.75
424.956	72.75
425.178	94.75
425.401	83.75
425.623	69.75
425.846	66.75
426.068	84.75
426.291	77.75
426.513	80.75
426.735	85.75
426.958	84.75
427.18	78.75
427.402	86.75
427.625	99.75
427.847	94.75
428.069	101.75
428.292	86.75
428.514	88.75
428.736	86.75
428.958	82.75
429.181	83.75
429.403	73.75
429.625	87.75
429.847	85.75
430.069	101.75
430.292	87.75
430.514	69.75
430.736	68.75
430.958	88.75
431.18	75.75
431.402	79.75
431.624	81.75
431.846	78.75
432.068	80.75
432.29	85.75
432.512	80.75
432.734	85.75
432.956	69.75
433.178	87.75
433.4	78.75
433.622	87.75
433.844	86.75
434.066	95.75
434.287	93.75
434.509	76.75
434.731	84.75
434.953	72.75
435.175	84.75
435.397	86.75
435.618	75.75
435.84	89.75
436.062	82.75
436.284	91.75
436.505	66.75
436.727	94.75
436.949	86.75
437.17	79.75
437.392	80.75
437.614	68.75
437.835	64.75
438.057	79.75
438.278	93.75
438.5	67.75
438.721	100.75
438.943	87.75
439.165	80.75
439.386	84.75
439.608	102.75
439.829	89.75
440.05	96.75
440.272	84.75
440.493	79.75
440.715	72.75
440.936	90.75
441.158	91.75
441.379	84.75
441.6	87.75
441.822	85.75
442.043	76.75
442.264	87.75
442.486	73.75
442.707	93.75
442.928	89.75
443.149	87.75
443.371	86.75
443.592	80.75
443.813	74.75
444.034	90.75
444.255	87.75
444.476	83.75
444.698	92.75
444.919	98.75
445.14	143.75
445.361	104.75
445.582	98.75
445.803	91.75
446.024	80.75
446.245	87.75
446.466	86.75
446.687	77.75
446.908	75.75
447.129	81.75
447.35	74.75
447.571	82.75
447.792	71.75
448.013	86.75
448.234	82.75
448.455	77.75
448.675	78.75
448.896	88.75
449.117	91.75
449.338	88.75
449.559	84.75
449.779	85.75
450	70.75
450.221	85.75
450.442	85.75
450.662	97.75
450.883	82.75
451.104	105.75
451.324	94.75
451.545	98.75
451.766	87.75
451.986	82.75
452.207	82.75
452.428	85.75
452.648	86.75
452.869	92.75
453.089	102.75
453.31	94.75
453.53	83.75
453.751	94.75
453.971	87.75
454.192	87.75
454.412	90.75
454.633	89.75
454.853	93.75
455.073	82.75
455.294	88.75
455.514	77.75
455.734	73.75
455.955	62.75
456.175	73.75
456.395	87.75
456.616	96.75
456.836	92.75
457.056	82.75
457.276	79.75
457.497	74.75
457.717	81.75
457.937	78.75
458.157	88.75
458.377	91.75
458.598	96.75
458.818	117.75
459.038	111.75
459.258	78.75
459.478	66.75
459.698	89.75
459.918	78.75
460.138	80.75
460.358	79.75
460.578	81.75
460.798	72.75
461.018	98.75
461.238	78.75
461.458	87.75
461.678	62.75
461.898	84.75
462.118	71.75
462.338	80.75
462.558	80.75
462.777	68.75
462.997	79.75
463.217	85.75
463.437	82.75
463.657	62.75
463.876	81.75
464.096	85.75
464.316	82.75
464.536	87.75
464.755	79.75
464.975	81.75
465.195	106.75
465.414	116.75
465.634	89.75
465.854	86.75
466.073	89.75
466.293	82.75
466.512	75.75
466.732	66.75
466.951	87.75
467.171	89.75
467.391	76.75
467.61	95.75
467.829	79.75
468.049	90.75
468.268	86.75
468.488	93.75
468.707	75.75
468.927	73.75
469.146	81.75
469.365	78.75
469.585	80.75
469.804	82.75
470.023	82.75
470.243	74.75
470.462	92.75
470.681	101.75
470.901	88.75
471.12	83.75
471.339	79.75
471.558	85.75
471.777	75.75
471.997	89.75
472.216	90.75
472.435	116.75
472.654	88.75
472.873	89.75
473.092	91.75
473.311	83.75
473.53	81.75
473.749	89.75
473.968	80.75
474.187	83.75
474.406	80.75
474.625	88.75
474.844	74.75
475.063	83.75
475.282	92.75
475.501	80.75
475.72	88.75
475.939	80.75
476.158	94.75
476.377	76.75
476.596	86.75
476.814	61.75
477.033	78.75
477.252	90.75
477.471	72.75
477.69	92.75
477.908	86.75
478.127	71.75
478.346	76.75
478.564	84.75
478.783	83.75
479.002	75.75
479.22	75.75
479.439	94.75
479.658	78.75
479.876	79.75
480.095	90.75
480.313	80.75
480.532	73.75
480.751	82.75
480.969	100.75
481.188	149.75
481.406	124.75
481.624	82.75
481.843	99.75
482.061	73.75
482.28	78.75
482.498	88.75
482.717	82.75
482.935	80.75
483.153	73.75
483.372	88.75
483.59	82.75
483.808	87.75
484.027	72.75
484.245	77.75
484.463	73.75
484.681	81.75
484.9	78.75
485.118	89.75
485.336	103.75
485.554	82.75
485.772	91.75
485.99	70.75
486.209	86.75
486.427	87.75
486.645	91.75
486.863	82.75
487.081	88.75
487.299	84.75
487.517	94.75
487.735	77.75
487.953	73.75
488.171	77.75
488.389	82.75
488.607	73.75
488.825	73.75
489.043	78.75
489.261	91.75
489.479	78.75
489.696	82.75
489.914	71.75
490.132	76.75
490.35	88.75
490.568	65.75
490.786	76.75
491.003	86.75
491.221	82.75
491.439	78.75
491.657	93.75
491.874	83.75
492.092	81.75
492.31	81.75
492.527	96.75
492.745	81.75
492.963	68.75
493.18	83.75
493.398	80.75
493.615	77.75
493.833	79.75
494.05	84.75
494.268	85.75
494.485	84.75
494.703	89.75
494.92	89.75
495.138	78.75
495.355	88.75
495.573	76.75
495.79	88.75
496.008	84.75
496.225	78.75
496.442	75.75
496.66	88.75
496.877	85.75
497.094	71.75
497.312	71.75
497.529	77.75
497.746	78.75
497.963	81.75
498.181	97.75
498.398	87.75
498.615	83.75
498.832	93.75
499.049	86.75
499.267	76.75
499.484	86.75
499.701	83.75
499.918	83.75
500.135	87.75
500.352	83.75
500.569	96.75
500.786	88.75
501.003	84.75
501.22	74.75
501.437	86.75
501.654	79.75
501.871	81.75
502.088	93.75
502.305	97.75
502.522	85.75
502.739	67.75
502.956	76.75
503.172	79.75
503.389	86.75
503.606	90.75
503.823	81.75
504.04	77.75
504.256	94.75
504.473	95.75
504.69	77.75
504.907	74.75
505.123	80.75
505.34	90.75
505.557	95.75
505.773	78.75
505.99	85.75
506.207	92.75
506.423	74.75
506.64	89.75
506.856	76.75
507.073	85.75
507.289	88.75
507.506	73.75
507.722	104.75
507.939	91.75
508.155	69.75
508.372	80.75
508.588	71.75
508.805	80.75
509.021	83.75
509.238	73.75
509.454	67.75
509.67	85.75
509.887	88.75
510.103	100.75
510.319	158.75
510.536	430.75
510.752	1376.75
510.968	432.75
511.184	107.75
511.401	96.75
511.617	98.75
511.833	91.75
512.049	86.75
512.265	76.75
512.481	59.75
512.698	77.75
512.914	78.75
513.13	87.75
513.346	77.75
513.562	98.75
513.778	88.75
513.994	85.75
514.21	78.75
514.426	97.75
514.642	116.75
514.858	95.75
515.074	120.75
515.29	262.75
515.506	870.75
515.721	336.75
515.937	118.75
516.153	82.75
516.369	88.75
516.585	85.75
516.801	85.75
517.016	76.75
517.232	82.75
517.448	91.75
517.664	86.75
517.879	76.75
518.095	89.75
518.311	92.75
518.527	80.75
518.742	83.75
518.958	87.75
519.173	81.75
