Data from Circ_2002_H10_HRD10591_00099.txt Node
Date: Wed Jan 03 10:41:18 EST 2024
User: Yrep
Spectrometer: HR+D1059
Trigger mode: 1
Integration Time (sec): 1.000000E-1
Scans to average: 1
Electric dark correction enabled: true
Nonlinearity correction enabled: false
Boxcar width: 0
XAxis mode: Wavelengths
Number of Pixels in Spectrum: 2048
>>>>>Begin Spectral Data<<<<<
223.165	-23.94
223.4	-23.94
223.635	-23.94
223.869	-17.94
224.104	-13.94
224.338	-11.94
224.573	0.06
224.808	-5.94
225.042	-6.94
225.277	-1.94
225.511	-11.94
225.746	-1.94
225.98	-7.94
226.215	17.06
226.449	16.06
226.683	16.06
226.918	25.06
227.152	30.06
227.387	44.06
227.621	53.06
227.856	30.06
228.09	50.06
228.324	53.06
228.559	58.06
228.793	154.06
229.027	419.06
229.262	474.06
229.496	558.06
229.73	748.06
229.964	747.06
230.199	503.06
230.433	453.06
230.667	422.06
230.901	430.06
231.136	404.06
231.37	419.06
231.604	438.06
231.838	451.06
232.072	427.06
232.306	441.06
232.541	439.06
232.775	459.06
233.009	464.06
233.243	436.06
233.477	471.06
233.711	458.06
233.945	470.06
234.179	480.06
234.413	502.06
234.647	484.06
234.881	495.06
235.115	497.06
235.349	524.06
235.583	529.06
235.817	562.06
236.051	619.06
236.285	575.06
236.519	577.06
236.753	645.06
236.987	857.06
237.221	1292.06
237.455	1372.06
237.689	860.06
237.922	698.06
238.156	675.06
238.39	642.06
238.624	644.06
238.858	632.06
239.091	641.06
239.325	614.06
239.559	651.06
239.793	661.06
240.027	740.06
240.26	850.06
240.494	896.06
240.728	903.06
240.961	829.06
241.195	771.06
241.429	748.06
241.662	743.06
241.896	722.06
242.13	741.06
242.363	745.06
242.597	775.06
242.83	779.06
243.064	806.06
243.298	812.06
243.531	784.06
243.765	787.06
243.998	804.06
244.232	824.06
244.465	847.06
244.699	884.06
244.932	849.06
245.166	848.06
245.399	895.06
245.633	848.06
245.866	874.06
246.099	892.06
246.333	914.06
246.566	896.06
246.8	946.06
247.033	973.06
247.266	995.06
247.5	1033.06
247.733	1088.06
247.966	1056.06
248.2	1086.06
248.433	1088.06
248.666	1189.06
248.899	1258.06
249.133	1361.06
249.366	1362.06
249.599	1284.06
249.832	1204.06
250.066	1239.06
250.299	1386.06
250.532	1588.06
250.765	1698.06
250.998	1733.06
251.231	1626.06
251.465	1449.06
251.698	1402.06
251.931	1309.06
252.164	1360.06
252.397	1342.06
252.63	1405.06
252.863	1479.06
253.096	1627.06
253.329	1661.06
253.562	1542.06
253.795	1497.06
254.028	1509.06
254.261	1538.06
254.494	1716.06
254.727	2033.06
254.96	2118.06
255.193	1880.06
255.426	1745.06
255.659	1738.06
255.892	1960.06
256.124	2261.06
256.357	2090.06
256.59	1808.06
256.823	1631.06
257.056	1570.06
257.289	1561.06
257.521	1534.06
257.754	1544.06
257.987	1505.06
258.22	1485.06
258.452	1479.06
258.685	1490.06
258.918	1518.06
259.151	1586.06
259.383	1605.06
259.616	1654.06
259.849	1705.06
260.081	1825.06
260.314	1960.06
260.547	1907.06
260.779	1742.06
261.012	1697.06
261.244	1626.06
261.477	1612.06
261.71	1608.06
261.942	1655.06
262.175	1689.06
262.407	1625.06
262.64	1584.06
262.872	1581.06
263.105	1599.06
263.337	1597.06
263.57	1605.06
263.802	1600.06
264.035	1610.06
264.267	1616.06
264.499	1619.06
264.732	1609.06
264.964	1614.06
265.197	1623.06
265.429	1680.06
265.661	1680.06
265.894	1654.06
266.126	1630.06
266.358	1678.06
266.591	1753.06
266.823	1783.06
267.055	1791.06
267.287	1768.06
267.52	1803.06
267.752	1766.06
267.984	1804.06
268.216	1847.06
268.448	1840.06
268.681	1912.06
268.913	2045.06
269.145	2235.06
269.377	2271.06
269.609	2157.06
269.841	2150.06
270.073	2224.06
270.306	2487.06
270.538	2622.06
270.77	2518.06
271.002	2336.06
271.234	2348.06
271.466	2489.06
271.698	2567.06
271.93	2574.06
272.162	2557.06
272.394	2519.06
272.626	2434.06
272.858	2271.06
273.09	2213.06
273.322	2141.06
273.553	2164.06
273.785	2148.06
274.017	2124.06
274.249	2116.06
274.481	2204.06
274.713	2203.06
274.945	2229.06
275.176	2219.06
275.408	2167.06
275.64	2178.06
275.872	2213.06
276.104	2209.06
276.335	2264.06
276.567	2340.06
276.799	2475.06
277.031	2689.06
277.262	2816.06
277.494	2655.06
277.726	2498.06
277.957	2482.06
278.189	2383.06
278.421	2328.06
278.652	2351.06
278.884	2304.06
279.115	2301.06
279.347	2327.06
279.579	2335.06
279.81	2355.06
280.042	2441.06
280.273	2394.06
280.505	2408.06
280.736	2372.06
280.968	2355.06
281.199	2353.06
281.431	2415.06
281.662	2447.06
281.894	2431.06
282.125	2453.06
282.356	2610.06
282.588	2737.06
282.819	2601.06
283.051	2485.06
283.282	2462.06
283.513	2468.06
283.745	2604.06
283.976	2585.06
284.207	2613.06
284.439	2585.06
284.67	2574.06
284.901	2587.06
285.132	2526.06
285.364	2516.06
285.595	2523.06
285.826	2573.06
286.057	2563.06
286.288	2588.06
286.52	2601.06
286.751	2662.06
286.982	2611.06
287.213	2706.06
287.444	2656.06
287.675	2768.06
287.906	2812.06
288.138	2848.06
288.369	2855.06
288.6	2874.06
288.831	2822.06
289.062	2722.06
289.293	2711.06
289.524	2737.06
289.755	2725.06
289.986	2755.06
290.217	2749.06
290.448	2738.06
290.679	2715.06
290.91	2749.06
291.141	2725.06
291.371	2721.06
291.602	2766.06
291.833	2748.06
292.064	2757.06
292.295	2783.06
292.526	2823.06
292.757	2758.06
292.987	2736.06
293.218	2710.06
293.449	2811.06
293.68	2826.06
293.91	2814.06
294.141	2773.06
294.372	2729.06
294.603	2802.06
294.833	2805.06
295.064	2801.06
295.295	2820.06
295.525	2822.06
295.756	2866.06
295.987	2915.06
296.217	3084.06
296.448	3056.06
296.679	2891.06
296.909	2864.06
297.14	2919.06
297.37	2938.06
297.601	2951.06
297.831	3016.06
298.062	3039.06
298.292	3037.06
298.523	3022.06
298.753	3037.06
298.984	3053.06
299.214	3021.06
299.445	3052.06
299.675	3030.06
299.905	3099.06
300.136	3042.06
300.366	3084.06
300.597	3117.06
300.827	3200.06
301.057	3276.06
301.288	3350.06
301.518	3263.06
301.748	3294.06
301.979	3316.06
302.209	3352.06
302.439	3284.06
302.669	3231.06
302.9	3242.06
303.13	3223.06
303.36	3305.06
303.59	3248.06
303.82	3328.06
304.051	3277.06
304.281	3257.06
304.511	3180.06
304.741	3206.06
304.971	3221.06
305.201	3245.06
305.431	3197.06
305.661	3161.06
305.891	3168.06
306.121	3198.06
306.352	3237.06
306.582	3225.06
306.812	3174.06
307.042	3250.06
307.272	3262.06
307.502	3247.06
307.731	3274.06
307.961	3201.06
308.191	3211.06
308.421	3176.06
308.651	3277.06
308.881	3226.06
309.111	3282.06
309.341	3345.06
309.571	3417.06
309.8	3476.06
310.03	3519.06
310.26	3494.06
310.49	3490.06
310.72	3610.06
310.949	3674.06
311.179	3639.06
311.409	3544.06
311.639	3605.06
311.868	3569.06
312.098	3598.06
312.328	3746.06
312.557	3862.06
312.787	3854.06
313.017	3746.06
313.246	3710.06
313.476	3693.06
313.706	3699.06
313.935	3760.06
314.165	3889.06
314.394	3880.06
314.624	3885.06
314.853	3678.06
315.083	3666.06
315.312	3693.06
315.542	3648.06
315.771	3614.06
316.001	3580.06
316.23	3615.06
316.46	3643.06
316.689	3679.06
316.919	3691.06
317.148	3743.06
317.377	3695.06
317.607	3721.06
317.836	3658.06
318.065	3596.06
318.295	3629.06
318.524	3572.06
318.753	3600.06
318.983	3654.06
319.212	3608.06
319.441	3688.06
319.67	3752.06
319.9	3651.06
320.129	3636.06
320.358	3647.06
320.587	3652.06
320.816	3775.06
321.046	3782.06
321.275	3739.06
321.504	3775.06
321.733	3823.06
321.962	3853.06
322.191	3920.06
322.42	4064.06
322.649	4106.06
322.878	4181.06
323.108	4253.06
323.337	4464.06
323.566	4570.06
323.795	4962.06
324.024	5417.06
324.253	7002.06
324.482	10597.06
324.71	14872.06
324.939	15610.06
325.168	12008.06
325.397	6332.06
325.626	5128.06
325.855	4790.06
326.084	4704.06
326.313	4753.06
326.542	4838.06
326.77	5499.06
326.999	6876.06
327.228	10061.06
327.457	14009.06
327.686	13107.06
327.914	7219.06
328.143	6066.06
328.372	5833.06
328.6	5469.06
328.829	5277.06
329.058	5375.06
329.287	5320.06
329.515	5160.06
329.744	5118.06
329.972	5485.06
330.201	6032.06
330.43	6305.06
330.658	6029.06
330.887	5920.06
331.115	5433.06
331.344	5061.06
331.572	4957.06
331.801	5063.06
332.03	5060.06
332.258	4966.06
332.486	5082.06
332.715	5212.06
332.943	5348.06
333.172	5609.06
333.4	5607.06
333.629	5864.06
333.857	6173.06
334.085	6325.06
334.314	7020.06
334.542	7622.06
334.771	7192.06
334.999	6016.06
335.227	5582.06
335.455	5328.06
335.684	5264.06
335.912	5101.06
336.14	5037.06
336.369	4959.06
336.597	5016.06
336.825	4976.06
337.053	4861.06
337.281	4771.06
337.51	4790.06
337.738	4764.06
337.966	4644.06
338.194	4685.06
338.422	4565.06
338.65	4516.06
338.878	4542.06
339.106	4488.06
339.334	4460.06
339.562	4354.06
339.79	4385.06
340.018	4298.06
340.246	4362.06
340.474	4358.06
340.702	4334.06
340.93	4379.06
341.158	4396.06
341.386	4388.06
341.614	4381.06
341.842	4348.06
342.07	4271.06
342.298	4311.06
342.526	4244.06
342.754	4249.06
342.981	4314.06
343.209	4335.06
343.437	4591.06
343.665	4824.06
343.893	5120.06
344.12	5072.06
344.348	4896.06
344.576	4757.06
344.804	4622.06
345.031	4536.06
345.259	4458.06
345.487	4370.06
345.714	4284.06
345.942	4184.06
346.17	4188.06
346.397	4156.06
346.625	4160.06
346.853	4120.06
347.08	4078.06
347.308	4165.06
347.535	4176.06
347.763	4266.06
347.99	4246.06
348.218	4246.06
348.445	4258.06
348.673	4149.06
348.9	4062.06
349.128	4056.06
349.355	4061.06
349.583	4065.06
349.81	4008.06
350.037	3997.06
350.265	3998.06
350.492	3972.06
350.72	4032.06
350.947	4053.06
351.174	4103.06
351.402	4183.06
351.629	4065.06
351.856	4097.06
352.083	4175.06
352.311	4152.06
352.538	4142.06
352.765	4126.06
352.992	4071.06
353.22	4092.06
353.447	4054.06
353.674	3952.06
353.901	3964.06
354.128	3933.06
354.355	3915.06
354.583	3897.06
354.81	3965.06
355.037	3906.06
355.264	3921.06
355.491	3912.06
355.718	3912.06
355.945	3934.06
356.172	3930.06
356.399	3891.06
356.626	3957.06
356.853	4007.06
357.08	3869.06
357.307	3892.06
357.534	3956.06
357.761	3957.06
357.988	3947.06
358.215	3967.06
358.441	3945.06
358.668	3921.06
358.895	4021.06
359.122	4023.06
359.349	4063.06
359.576	4187.06
359.802	4318.06
360.029	4511.06
360.256	4437.06
360.483	4302.06
360.709	4182.06
360.936	4132.06
361.163	4162.06
361.39	4182.06
361.616	4109.06
361.843	4148.06
362.07	4136.06
362.296	4118.06
362.523	4096.06
362.749	4153.06
362.976	4090.06
363.203	3997.06
363.429	3978.06
363.656	4018.06
363.882	3991.06
364.109	4013.06
364.335	3996.06
364.562	4013.06
364.788	3964.06
365.015	3994.06
365.241	4044.06
365.468	4108.06
365.694	4031.06
365.92	4046.06
366.147	4016.06
366.373	3983.06
366.599	3998.06
366.826	3946.06
367.052	3978.06
367.278	4062.06
367.505	3977.06
367.731	4064.06
367.957	3986.06
368.184	4025.06
368.41	4189.06
368.636	4180.06
368.862	4162.06
369.089	4153.06
369.315	4047.06
369.541	4054.06
369.767	4167.06
369.993	4129.06
370.219	4166.06
370.445	4189.06
370.672	4197.06
370.898	4169.06
371.124	4231.06
371.35	4289.06
371.576	4285.06
371.802	4210.06
372.028	4232.06
372.254	4311.06
372.48	4338.06
372.706	4394.06
372.932	4469.06
373.158	4380.06
373.384	4339.06
373.61	4297.06
373.835	4314.06
374.061	4348.06
374.287	4392.06
374.513	4419.06
374.739	4606.06
374.965	4742.06
375.191	4677.06
375.416	4591.06
375.642	4451.06
375.868	4389.06
376.094	4399.06
376.319	4327.06
376.545	4234.06
376.771	4294.06
376.997	4285.06
377.222	4293.06
377.448	4285.06
377.674	4268.06
377.899	4150.06
378.125	4235.06
378.35	4175.06
378.576	4189.06
378.802	4224.06
379.027	4260.06
379.253	4264.06
379.478	4184.06
379.704	4235.06
379.929	4248.06
380.155	4257.06
380.38	4209.06
380.606	4312.06
380.831	4254.06
381.057	4324.06
381.282	4256.06
381.507	4302.06
381.733	4323.06
381.958	4378.06
382.184	4500.06
382.409	4512.06
382.634	4522.06
382.86	4546.06
383.085	4554.06
383.31	4614.06
383.535	4699.06
383.761	4744.06
383.986	4804.06
384.211	4903.06
384.436	4994.06
384.662	5036.06
384.887	5099.06
385.112	5021.06
385.337	5130.06
385.562	5166.06
385.787	5200.06
386.013	5254.06
386.238	5286.06
386.463	5250.06
386.688	5210.06
386.913	5116.06
387.138	5096.06
387.363	5111.06
387.588	5058.06
387.813	5152.06
388.038	5103.06
388.263	5149.06
388.488	5197.06
388.713	5146.06
388.938	5143.06
389.163	5020.06
389.387	5041.06
389.612	5042.06
389.837	5031.06
390.062	5015.06
390.287	5096.06
390.512	5046.06
390.736	5083.06
390.961	5203.06
391.186	5241.06
391.411	5432.06
391.636	5609.06
391.86	5687.06
392.085	5774.06
392.31	5677.06
392.534	5497.06
392.759	5418.06
392.984	5314.06
393.208	5293.06
393.433	5306.06
393.658	5350.06
393.882	5299.06
394.107	5377.06
394.331	5418.06
394.556	5437.06
394.78	5464.06
395.005	5433.06
395.229	5464.06
395.454	5664.06
395.678	5719.06
395.903	5800.06
396.127	5845.06
396.352	5607.06
396.576	5457.06
396.801	5377.06
397.025	5464.06
397.249	5575.06
397.474	5740.06
397.698	5776.06
397.922	5857.06
398.147	5983.06
398.371	6048.06
398.595	6164.06
398.82	6435.06
399.044	7178.06
399.268	7887.06
399.492	8944.06
399.717	9521.06
399.941	9241.06
400.165	8668.06
400.389	8028.06
400.613	7155.06
400.837	6803.06
401.062	6683.06
401.286	6524.06
401.51	6562.06
401.734	6415.06
401.958	6580.06
402.182	6660.06
402.406	6738.06
402.63	6957.06
402.854	6953.06
403.078	6983.06
403.302	7157.06
403.526	7280.06
403.75	7311.06
403.974	7464.06
404.198	7398.06
404.422	7544.06
404.645	7593.06
404.869	7572.06
405.093	7954.06
405.317	8243.06
405.541	8148.06
405.765	7529.06
405.988	7305.06
406.212	7510.06
406.436	7509.06
406.66	7719.06
406.883	7762.06
407.107	8301.06
407.331	8718.06
407.555	9296.06
407.778	8933.06
408.002	8208.06
408.226	7798.06
408.449	7698.06
408.673	7616.06
408.896	7752.06
409.12	7937.06
409.344	7482.06
409.567	7119.06
409.791	7061.06
410.014	7004.06
410.238	6961.06
410.461	6967.06
410.685	7004.06
410.908	7086.06
411.132	7287.06
411.355	7281.06
411.578	6949.06
411.802	6776.06
412.025	6868.06
412.249	7158.06
412.472	7510.06
412.695	7711.06
412.919	7194.06
413.142	6944.06
413.365	6663.06
413.589	6606.06
413.812	6496.06
414.035	6396.06
414.258	6469.06
414.482	6483.06
414.705	6564.06
414.928	6456.06
415.151	6382.06
415.374	6430.06
415.597	6337.06
415.821	6342.06
416.044	6289.06
416.267	6242.06
416.49	6243.06
416.713	6125.06
416.936	6206.06
417.159	6222.06
417.382	6354.06
417.605	6432.06
417.828	6493.06
418.051	6588.06
418.274	6447.06
418.497	6439.06
418.72	6584.06
418.943	6447.06
419.166	6808.06
419.389	7190.06
419.611	7150.06
419.834	7051.06
420.057	6998.06
420.28	7001.06
420.503	6864.06
420.726	6676.06
420.948	6683.06
421.171	7057.06
421.394	7019.06
421.617	6558.06
421.839	6499.06
422.062	6583.06
422.285	6736.06
422.507	7341.06
422.73	7781.06
422.953	7257.06
423.175	6963.06
423.398	6896.06
423.621	6930.06
423.843	7147.06
424.066	7150.06
424.288	7007.06
424.511	7274.06
424.733	7730.06
424.956	8066.06
425.178	7646.06
425.401	7692.06
425.623	7621.06
425.846	6692.06
426.068	6545.06
426.291	6494.06
426.513	6517.06
426.735	6627.06
426.958	7028.06
427.18	7755.06
427.402	8904.06
427.625	8974.06
427.847	7772.06
428.069	7302.06
428.292	6592.06
428.514	6055.06
428.736	5950.06
428.958	5853.06
429.181	5716.06
429.403	5784.06
429.625	5930.06
429.847	6282.06
430.069	6742.06
430.292	6253.06
430.514	5762.06
430.736	5677.06
430.958	5675.06
431.18	5645.06
431.402	5576.06
431.624	5572.06
431.846	5650.06
432.068	5652.06
432.29	5736.06
432.512	5646.06
432.734	5783.06
432.956	5684.06
433.178	5784.06
433.4	5781.06
433.622	5644.06
433.844	5745.06
434.066	5742.06
434.287	5805.06
434.509	6068.06
434.731	6304.06
434.953	6407.06
435.175	6513.06
435.397	6539.06
435.618	6483.06
435.84	6813.06
436.062	7727.06
436.284	7544.06
436.505	6308.06
436.727	6133.06
436.949	5900.06
437.17	5695.06
437.392	5672.06
437.614	5955.06
437.835	6354.06
438.057	7063.06
438.278	7800.06
438.5	7622.06
438.721	8419.06
438.943	7372.06
439.165	6288.06
439.386	6153.06
439.608	6209.06
439.829	6252.06
440.05	6497.06
440.272	6846.06
440.493	6309.06
440.715	6021.06
440.936	6054.06
441.158	6050.06
441.379	6198.06
441.6	6477.06
441.822	6689.06
442.043	7167.06
442.264	7820.06
442.486	7667.06
442.707	6808.06
442.928	6658.06
443.149	6773.06
443.371	6995.06
443.592	7572.06
443.813	8529.06
444.034	8316.06
444.255	7413.06
444.476	7348.06
444.698	7374.06
444.919	7492.06
445.14	7373.06
445.361	7179.06
445.582	7269.06
445.803	7776.06
446.024	8456.06
446.245	8035.06
446.466	7312.06
446.687	6366.06
446.908	6068.06
447.129	5749.06
447.35	5608.06
447.571	5601.06
447.792	5451.06
448.013	5590.06
448.234	5765.06
448.455	6389.06
448.675	7408.06
448.896	7931.06
449.117	6450.06
449.338	6810.06
449.559	7998.06
449.779	8195.06
450	6322.06
450.221	5675.06
450.442	5440.06
450.662	5385.06
450.883	5484.06
451.104	5463.06
451.324	5346.06
451.545	5166.06
451.766	5091.06
451.986	4994.06
452.207	5022.06
452.428	4973.06
452.648	5061.06
452.869	4987.06
453.089	5057.06
453.31	5146.06
453.53	4969.06
453.751	4946.06
453.971	5018.06
454.192	5103.06
454.412	4907.06
454.633	4834.06
454.853	4783.06
455.073	4890.06
455.294	5284.06
455.514	5717.06
455.734	5239.06
455.955	4708.06
456.175	4655.06
456.395	4577.06
456.616	4572.06
456.836	4676.06
457.056	4585.06
457.276	4513.06
457.497	4688.06
457.717	4648.06
457.937	4769.06
458.157	4828.06
458.377	4954.06
458.598	5199.06
458.818	5847.06
459.038	6603.06
459.258	6519.06
459.478	5797.06
459.698	5757.06
459.918	5793.06
460.138	6060.06
460.358	6166.06
460.578	6264.06
460.798	6269.06
461.018	6404.06
461.238	6150.06
461.458	6105.06
461.678	6100.06
461.898	6230.06
462.118	6307.06
462.338	6712.06
462.558	6895.06
462.777	7077.06
462.997	7573.06
463.217	8098.06
463.437	7866.06
463.657	7292.06
463.876	7104.06
464.096	7076.06
464.316	7161.06
464.536	7186.06
464.755	6992.06
464.975	6805.06
465.195	6995.06
465.414	6947.06
465.634	6193.06
465.854	5836.06
466.073	5561.06
466.293	5471.06
466.512	5370.06
466.732	5207.06
466.951	5150.06
467.171	5149.06
467.391	5287.06
467.61	5343.06
467.829	5326.06
468.049	5362.06
468.268	5367.06
468.488	5115.06
468.707	5040.06
468.927	5018.06
469.146	4952.06
469.365	5056.06
469.585	5163.06
469.804	5265.06
470.023	5386.06
470.243	5354.06
470.462	5459.06
470.681	5591.06
470.901	5542.06
471.12	5367.06
471.339	5294.06
471.558	5238.06
471.777	5207.06
471.997	5198.06
472.216	5634.06
472.435	6285.06
472.654	5655.06
472.873	5206.06
473.092	5145.06
473.311	5033.06
473.53	5077.06
473.749	5167.06
473.968	5685.06
474.187	6608.06
474.406	6154.06
474.625	5269.06
474.844	5058.06
475.063	5010.06
475.282	4972.06
475.501	5053.06
475.72	5178.06
475.939	5058.06
476.158	5097.06
476.377	5166.06
476.596	5174.06
476.814	5310.06
477.033	5365.06
477.252	5392.06
477.471	5536.06
477.69	5619.06
477.908	5700.06
478.127	5948.06
478.346	5968.06
478.564	6089.06
478.783	6080.06
479.002	6248.06
479.22	6261.06
479.439	6380.06
479.658	6416.06
479.876	6573.06
480.095	6833.06
480.313	7132.06
480.532	7079.06
480.751	7122.06
480.969	7358.06
481.188	8785.06
481.406	8449.06
481.624	7127.06
481.843	6503.06
482.061	6350.06
482.28	6178.06
482.498	6129.06
482.717	5944.06
482.935	5956.06
483.153	5873.06
483.372	5951.06
483.59	5865.06
483.808	5901.06
484.027	5877.06
484.245	5920.06
484.463	5971.06
484.681	6053.06
484.9	6090.06
485.118	6102.06
485.336	6137.06
485.554	6215.06
485.772	6272.06
485.99	6192.06
486.209	6315.06
486.427	6288.06
486.645	6371.06
486.863	6446.06
487.081	6422.06
487.299	6272.06
487.517	6392.06
487.735	6281.06
487.953	6341.06
