Data from Circ_2002_H10_HRD10591_00065.txt Node
Date: Wed Jan 03 10:41:11 EST 2024
User: Yrep
Spectrometer: HR+D1059
Trigger mode: 1
Integration Time (sec): 1.000000E-1
Scans to average: 1
Electric dark correction enabled: true
Nonlinearity correction enabled: false
Boxcar width: 0
XAxis mode: Wavelengths
Number of Pixels in Spectrum: 2048
>>>>>Begin Spectral Data<<<<<
223.165	-11.81
223.4	-11.81
223.635	-11.81
223.869	-24.81
224.104	-23.81
224.338	-12.81
224.573	-16.81
224.808	-5.81
225.042	-7.81
225.277	5.19
225.511	-7.81
225.746	3.19
225.98	-0.81
226.215	10.19
226.449	14.19
226.683	29.19
226.918	22.19
227.152	28.19
227.387	33.19
227.621	44.19
227.856	42.19
228.09	46.19
228.324	47.19
228.559	64.19
228.793	52.19
229.027	66.19
229.262	67.19
229.496	73.19
229.73	80.19
229.964	81.19
230.199	76.19
230.433	61.19
230.667	87.19
230.901	81.19
231.136	86.19
231.37	88.19
231.604	83.19
231.838	80.19
232.072	86.19
232.306	81.19
232.541	87.19
232.775	77.19
233.009	73.19
233.243	76.19
233.477	68.19
233.711	86.19
233.945	83.19
234.179	85.19
234.413	88.19
234.647	72.19
234.881	83.19
235.115	88.19
235.349	77.19
235.583	76.19
235.817	77.19
236.051	79.19
236.285	78.19
236.519	77.19
236.753	86.19
236.987	64.19
237.221	82.19
237.455	84.19
237.689	68.19
237.922	88.19
238.156	87.19
238.39	84.19
238.624	73.19
238.858	81.19
239.091	81.19
239.325	74.19
239.559	75.19
239.793	83.19
240.027	74.19
240.26	73.19
240.494	74.19
240.728	70.19
240.961	68.19
241.195	70.19
241.429	75.19
241.662	79.19
241.896	76.19
242.13	69.19
242.363	71.19
242.597	81.19
242.83	73.19
243.064	91.19
243.298	75.19
243.531	87.19
243.765	78.19
243.998	88.19
244.232	83.19
244.465	75.19
244.699	74.19
244.932	82.19
245.166	62.19
245.399	72.19
245.633	87.19
245.866	81.19
246.099	78.19
246.333	83.19
246.566	71.19
246.8	73.19
247.033	84.19
247.266	69.19
247.5	75.19
247.733	81.19
247.966	91.19
248.2	82.19
248.433	78.19
248.666	76.19
248.899	79.19
249.133	82.19
249.366	80.19
249.599	90.19
249.832	73.19
250.066	82.19
250.299	83.19
250.532	79.19
250.765	82.19
250.998	81.19
251.231	78.19
251.465	79.19
251.698	79.19
251.931	61.19
252.164	67.19
252.397	84.19
252.63	66.19
252.863	96.19
253.096	70.19
253.329	85.19
253.562	88.19
253.795	90.19
254.028	63.19
254.261	94.19
254.494	84.19
254.727	93.19
254.96	87.19
255.193	75.19
255.426	81.19
255.659	90.19
255.892	71.19
256.124	87.19
256.357	81.19
256.59	90.19
256.823	88.19
257.056	80.19
257.289	76.19
257.521	84.19
257.754	77.19
257.987	89.19
258.22	84.19
258.452	84.19
258.685	84.19
258.918	87.19
259.151	82.19
259.383	88.19
259.616	86.19
259.849	77.19
260.081	83.19
260.314	82.19
260.547	93.19
260.779	90.19
261.012	77.19
261.244	97.19
261.477	96.19
261.71	100.19
261.942	96.19
262.175	112.19
262.407	80.19
262.64	72.19
262.872	97.19
263.105	79.19
263.337	92.19
263.57	83.19
263.802	79.19
264.035	77.19
264.267	81.19
264.499	79.19
264.732	69.19
264.964	81.19
265.197	76.19
265.429	88.19
265.661	81.19
265.894	85.19
266.126	88.19
266.358	83.19
266.591	79.19
266.823	78.19
267.055	69.19
267.287	99.19
267.52	84.19
267.752	79.19
267.984	85.19
268.216	84.19
268.448	85.19
268.681	83.19
268.913	88.19
269.145	86.19
269.377	95.19
269.609	79.19
269.841	78.19
270.073	101.19
270.306	79.19
270.538	72.19
270.77	68.19
271.002	76.19
271.234	100.19
271.466	103.19
271.698	93.19
271.93	88.19
272.162	73.19
272.394	77.19
272.626	91.19
272.858	91.19
273.09	96.19
273.322	83.19
273.553	90.19
273.785	77.19
274.017	80.19
274.249	85.19
274.481	79.19
274.713	83.19
274.945	75.19
275.176	84.19
275.408	85.19
275.64	96.19
275.872	80.19
276.104	87.19
276.335	90.19
276.567	86.19
276.799	89.19
277.031	85.19
277.262	87.19
277.494	70.19
277.726	89.19
277.957	88.19
278.189	87.19
278.421	99.19
278.652	74.19
278.884	90.19
279.115	78.19
279.347	91.19
279.579	77.19
279.81	74.19
280.042	91.19
280.273	77.19
280.505	104.19
280.736	92.19
280.968	81.19
281.199	89.19
281.431	79.19
281.662	83.19
281.894	95.19
282.125	104.19
282.356	101.19
282.588	118.19
282.819	106.19
283.051	93.19
283.282	93.19
283.513	82.19
283.745	75.19
283.976	72.19
284.207	102.19
284.439	95.19
284.67	97.19
284.901	72.19
285.132	81.19
285.364	102.19
285.595	85.19
285.826	91.19
286.057	85.19
286.288	91.19
286.52	85.19
286.751	92.19
286.982	88.19
287.213	90.19
287.444	81.19
287.675	88.19
287.906	83.19
288.138	86.19
288.369	93.19
288.6	84.19
288.831	73.19
289.062	101.19
289.293	86.19
289.524	71.19
289.755	85.19
289.986	79.19
290.217	92.19
290.448	96.19
290.679	83.19
290.91	99.19
291.141	75.19
291.371	94.19
291.602	88.19
291.833	81.19
292.064	90.19
292.295	76.19
292.526	84.19
292.757	100.19
292.987	77.19
293.218	84.19
293.449	87.19
293.68	84.19
293.91	87.19
294.141	82.19
294.372	88.19
294.603	81.19
294.833	99.19
295.064	85.19
295.295	105.19
295.525	101.19
295.756	102.19
295.987	103.19
296.217	114.19
296.448	121.19
296.679	107.19
296.909	103.19
297.14	92.19
297.37	91.19
297.601	91.19
297.831	99.19
298.062	90.19
298.292	89.19
298.523	105.19
298.753	98.19
298.984	105.19
299.214	98.19
299.445	99.19
299.675	93.19
299.905	88.19
300.136	90.19
300.366	101.19
300.597	80.19
300.827	87.19
301.057	96.19
301.288	87.19
301.518	89.19
301.748	95.19
301.979	107.19
302.209	89.19
302.439	97.19
302.669	87.19
302.9	82.19
303.13	95.19
303.36	94.19
303.59	99.19
303.82	99.19
304.051	108.19
304.281	91.19
304.511	81.19
304.741	74.19
304.971	97.19
305.201	89.19
305.431	88.19
305.661	83.19
305.891	98.19
306.121	92.19
306.352	112.19
306.582	99.19
306.812	91.19
307.042	98.19
307.272	86.19
307.502	106.19
307.731	73.19
307.961	90.19
308.191	97.19
308.421	86.19
308.651	95.19
308.881	104.19
309.111	87.19
309.341	85.19
309.571	88.19
309.8	91.19
310.03	87.19
310.26	98.19
310.49	83.19
310.72	91.19
310.949	107.19
311.179	94.19
311.409	95.19
311.639	92.19
311.868	90.19
312.098	93.19
312.328	92.19
312.557	98.19
312.787	100.19
313.017	87.19
313.246	92.19
313.476	90.19
313.706	92.19
313.935	94.19
314.165	95.19
314.394	85.19
314.624	83.19
314.853	77.19
315.083	98.19
315.312	93.19
315.542	92.19
315.771	87.19
316.001	99.19
316.23	86.19
316.46	106.19
316.689	89.19
316.919	95.19
317.148	88.19
317.377	89.19
317.607	93.19
317.836	76.19
318.065	88.19
318.295	85.19
318.524	114.19
318.753	98.19
318.983	88.19
319.212	102.19
319.441	98.19
319.67	96.19
319.9	92.19
320.129	80.19
320.358	100.19
320.587	101.19
320.816	89.19
321.046	104.19
321.275	100.19
321.504	93.19
321.733	93.19
321.962	86.19
322.191	93.19
322.42	108.19
322.649	105.19
322.878	112.19
323.108	119.19
323.337	119.19
323.566	131.19
323.795	143.19
324.024	181.19
324.253	333.19
324.482	689.19
324.71	1415.19
324.939	1826.19
325.168	684.19
325.397	205.19
325.626	136.19
325.855	117.19
326.084	112.19
326.313	121.19
326.542	138.19
326.77	217.19
326.999	421.19
327.228	867.19
327.457	1483.19
327.686	1137.19
327.914	327.19
328.143	168.19
328.372	137.19
328.6	124.19
328.829	110.19
329.058	98.19
329.287	115.19
329.515	113.19
329.744	108.19
329.972	99.19
330.201	117.19
330.43	129.19
330.658	118.19
330.887	122.19
331.115	136.19
331.344	108.19
331.572	93.19
331.801	96.19
332.03	90.19
332.258	95.19
332.486	83.19
332.715	84.19
332.943	82.19
333.172	95.19
333.4	101.19
333.629	108.19
333.857	110.19
334.085	121.19
334.314	114.19
334.542	129.19
334.771	126.19
334.999	109.19
335.227	83.19
335.455	99.19
335.684	88.19
335.912	90.19
336.14	97.19
336.369	103.19
336.597	91.19
336.825	102.19
337.053	90.19
337.281	83.19
337.51	80.19
337.738	87.19
337.966	81.19
338.194	87.19
338.422	90.19
338.65	107.19
338.878	84.19
339.106	83.19
339.334	95.19
339.562	88.19
339.79	76.19
340.018	87.19
340.246	101.19
340.474	102.19
340.702	104.19
340.93	102.19
341.158	86.19
341.386	76.19
341.614	83.19
341.842	87.19
342.07	75.19
342.298	98.19
342.526	97.19
342.754	97.19
342.981	82.19
343.209	93.19
343.437	101.19
343.665	106.19
343.893	81.19
344.12	91.19
344.348	96.19
344.576	90.19
344.804	84.19
345.031	94.19
345.259	104.19
345.487	91.19
345.714	95.19
345.942	95.19
346.17	111.19
346.397	99.19
346.625	96.19
346.853	93.19
347.08	100.19
347.308	95.19
347.535	89.19
347.763	90.19
347.99	95.19
348.218	89.19
348.445	97.19
348.673	99.19
348.9	95.19
349.128	94.19
349.355	85.19
349.583	94.19
349.81	97.19
350.037	105.19
350.265	90.19
350.492	94.19
350.72	103.19
350.947	88.19
351.174	108.19
351.402	95.19
351.629	100.19
351.856	82.19
352.083	95.19
352.311	98.19
352.538	93.19
352.765	93.19
352.992	107.19
353.22	113.19
353.447	106.19
353.674	91.19
353.901	102.19
354.128	107.19
354.355	94.19
354.583	87.19
354.81	90.19
355.037	92.19
355.264	96.19
355.491	93.19
355.718	95.19
355.945	101.19
356.172	91.19
356.399	91.19
356.626	96.19
356.853	101.19
357.08	83.19
357.307	93.19
357.534	100.19
357.761	86.19
357.988	82.19
358.215	88.19
358.441	91.19
358.668	97.19
358.895	90.19
359.122	84.19
359.349	87.19
359.576	101.19
359.802	99.19
360.029	104.19
360.256	99.19
360.483	112.19
360.709	97.19
360.936	94.19
361.163	104.19
361.39	82.19
361.616	113.19
361.843	95.19
362.07	85.19
362.296	84.19
362.523	91.19
362.749	103.19
362.976	88.19
363.203	89.19
363.429	94.19
363.656	91.19
363.882	93.19
364.109	101.19
364.335	95.19
364.562	103.19
364.788	83.19
365.015	96.19
365.241	94.19
365.468	96.19
365.694	97.19
365.92	99.19
366.147	99.19
366.373	82.19
366.599	90.19
366.826	100.19
367.052	92.19
367.278	82.19
367.505	97.19
367.731	96.19
367.957	98.19
368.184	91.19
368.41	93.19
368.636	103.19
368.862	104.19
369.089	90.19
369.315	81.19
369.541	97.19
369.767	92.19
369.993	91.19
370.219	91.19
370.445	92.19
370.672	76.19
370.898	80.19
371.124	72.19
371.35	80.19
371.576	90.19
371.802	92.19
372.028	82.19
372.254	97.19
372.48	94.19
372.706	83.19
372.932	95.19
373.158	91.19
373.384	95.19
373.61	83.19
373.835	68.19
374.061	89.19
374.287	104.19
374.513	94.19
374.739	92.19
374.965	92.19
375.191	81.19
375.416	100.19
375.642	89.19
375.868	84.19
376.094	88.19
376.319	97.19
376.545	83.19
376.771	92.19
376.997	90.19
377.222	87.19
377.448	77.19
377.674	97.19
377.899	86.19
378.125	81.19
378.35	104.19
378.576	96.19
378.802	79.19
379.027	88.19
379.253	86.19
379.478	98.19
379.704	98.19
379.929	89.19
380.155	88.19
380.38	82.19
380.606	99.19
380.831	105.19
381.057	99.19
381.282	95.19
381.507	98.19
381.733	91.19
381.958	101.19
382.184	101.19
382.409	90.19
382.634	111.19
382.86	85.19
383.085	100.19
383.31	90.19
383.535	108.19
383.761	104.19
383.986	105.19
384.211	87.19
384.436	98.19
384.662	121.19
384.887	99.19
385.112	100.19
385.337	95.19
385.562	103.19
385.787	91.19
386.013	104.19
386.238	109.19
386.463	108.19
386.688	113.19
386.913	104.19
387.138	108.19
387.363	96.19
387.588	96.19
387.813	91.19
388.038	112.19
388.263	109.19
388.488	103.19
388.713	100.19
388.938	86.19
389.163	91.19
389.387	112.19
389.612	98.19
389.837	90.19
390.062	106.19
390.287	99.19
390.512	95.19
390.736	93.19
390.961	86.19
391.186	87.19
391.411	98.19
391.636	95.19
391.86	85.19
392.085	107.19
392.31	97.19
392.534	60.19
392.759	85.19
392.984	88.19
393.208	88.19
393.433	80.19
393.658	88.19
393.882	77.19
394.107	86.19
394.331	91.19
394.556	83.19
394.78	84.19
395.005	85.19
395.229	91.19
395.454	97.19
395.678	83.19
395.903	69.19
396.127	76.19
396.352	88.19
396.576	96.19
396.801	96.19
397.025	85.19
397.249	83.19
397.474	103.19
397.698	87.19
397.922	100.19
398.147	91.19
398.371	86.19
398.595	77.19
398.82	92.19
399.044	89.19
399.268	88.19
399.492	93.19
399.717	99.19
399.941	88.19
400.165	99.19
400.389	87.19
400.613	80.19
400.837	87.19
401.062	87.19
401.286	99.19
401.51	102.19
401.734	93.19
401.958	93.19
402.182	113.19
402.406	136.19
402.63	103.19
402.854	84.19
403.078	87.19
403.302	87.19
403.526	83.19
403.75	74.19
403.974	79.19
404.198	88.19
404.422	87.19
404.645	106.19
404.869	90.19
405.093	85.19
405.317	109.19
405.541	109.19
405.765	93.19
405.988	111.19
406.212	123.19
406.436	175.19
406.66	110.19
406.883	96.19
407.107	84.19
407.331	97.19
407.555	97.19
407.778	85.19
408.002	89.19
408.226	86.19
408.449	95.19
408.673	77.19
408.896	83.19
409.12	95.19
409.344	87.19
409.567	101.19
409.791	91.19
410.014	100.19
410.238	90.19
410.461	100.19
410.685	96.19
410.908	100.19
411.132	107.19
411.355	94.19
411.578	100.19
411.802	80.19
412.025	90.19
412.249	106.19
412.472	92.19
412.695	100.19
412.919	94.19
413.142	92.19
413.365	93.19
413.589	81.19
413.812	90.19
414.035	95.19
414.258	82.19
414.482	92.19
414.705	100.19
414.928	91.19
415.151	101.19
415.374	89.19
415.597	101.19
415.821	88.19
416.044	107.19
416.267	95.19
416.49	80.19
416.713	93.19
416.936	97.19
417.159	89.19
417.382	84.19
417.605	85.19
417.828	97.19
418.051	85.19
418.274	81.19
418.497	79.19
418.72	84.19
418.943	87.19
419.166	84.19
419.389	105.19
419.611	96.19
419.834	83.19
420.057	88.19
420.28	84.19
420.503	90.19
420.726	80.19
420.948	107.19
421.171	101.19
421.394	80.19
421.617	85.19
421.839	97.19
422.062	81.19
422.285	93.19
422.507	82.19
422.73	107.19
422.953	104.19
423.175	83.19
423.398	81.19
423.621	74.19
423.843	83.19
424.066	82.19
424.288	90.19
424.511	78.19
424.733	93.19
424.956	92.19
425.178	77.19
425.401	89.19
425.623	101.19
425.846	95.19
426.068	79.19
426.291	75.19
426.513	95.19
426.735	83.19
426.958	98.19
427.18	104.19
427.402	113.19
427.625	151.19
427.847	138.19
428.069	112.19
428.292	99.19
428.514	85.19
428.736	85.19
428.958	83.19
429.181	80.19
429.403	90.19
429.625	97.19
429.847	97.19
430.069	92.19
430.292	95.19
430.514	80.19
430.736	95.19
430.958	84.19
431.18	83.19
431.402	85.19
431.624	92.19
431.846	88.19
432.068	98.19
432.29	94.19
432.512	77.19
432.734	79.19
432.956	80.19
433.178	99.19
433.4	92.19
433.622	97.19
433.844	94.19
434.066	91.19
434.287	87.19
434.509	77.19
434.731	80.19
434.953	96.19
435.175	94.19
435.397	89.19
435.618	76.19
435.84	96.19
436.062	109.19
436.284	99.19
436.505	100.19
436.727	101.19
436.949	104.19
437.17	99.19
437.392	85.19
437.614	80.19
437.835	103.19
438.057	111.19
438.278	107.19
438.5	104.19
438.721	111.19
438.943	80.19
439.165	88.19
439.386	95.19
439.608	89.19
439.829	92.19
440.05	107.19
440.272	119.19
440.493	99.19
440.715	85.19
440.936	81.19
441.158	92.19
441.379	95.19
441.6	86.19
441.822	74.19
442.043	85.19
442.264	83.19
442.486	93.19
442.707	96.19
442.928	80.19
443.149	103.19
443.371	101.19
443.592	94.19
443.813	87.19
444.034	112.19
444.255	90.19
444.476	69.19
444.698	85.19
444.919	81.19
445.14	143.19
445.361	118.19
445.582	101.19
445.803	104.19
446.024	111.19
446.245	125.19
446.466	100.19
446.687	91.19
446.908	95.19
447.129	66.19
447.35	96.19
447.571	75.19
447.792	101.19
448.013	101.19
448.234	104.19
448.455	83.19
448.675	91.19
448.896	107.19
449.117	76.19
449.338	106.19
449.559	121.19
449.779	113.19
450	84.19
450.221	93.19
450.442	85.19
450.662	85.19
450.883	93.19
451.104	97.19
451.324	90.19
451.545	110.19
451.766	97.19
451.986	85.19
452.207	88.19
452.428	85.19
452.648	91.19
452.869	101.19
453.089	102.19
453.31	109.19
453.53	80.19
453.751	81.19
453.971	103.19
454.192	102.19
454.412	90.19
454.633	87.19
454.853	90.19
455.073	91.19
455.294	94.19
455.514	93.19
455.734	83.19
455.955	74.19
456.175	103.19
456.395	93.19
456.616	92.19
456.836	83.19
457.056	87.19
457.276	83.19
457.497	86.19
457.717	77.19
457.937	79.19
458.157	85.19
458.377	95.19
458.598	91.19
458.818	115.19
459.038	128.19
459.258	97.19
459.478	86.19
459.698	84.19
459.918	80.19
460.138	89.19
460.358	92.19
460.578	88.19
460.798	84.19
461.018	93.19
461.238	84.19
461.458	84.19
461.678	65.19
461.898	78.19
462.118	88.19
462.338	93.19
462.558	98.19
462.777	81.19
462.997	87.19
463.217	82.19
463.437	93.19
463.657	79.19
463.876	83.19
464.096	87.19
464.316	92.19
464.536	104.19
464.755	98.19
464.975	96.19
465.195	140.19
465.414	135.19
465.634	90.19
465.854	92.19
466.073	76.19
466.293	91.19
466.512	84.19
466.732	89.19
466.951	73.19
467.171	82.19
467.391	97.19
467.61	99.19
467.829	84.19
468.049	106.19
468.268	95.19
468.488	96.19
468.707	80.19
468.927	84.19
469.146	89.19
469.365	84.19
469.585	88.19
469.804	88.19
470.023	101.19
470.243	86.19
470.462	87.19
470.681	104.19
470.901	99.19
471.12	91.19
471.339	74.19
471.558	85.19
471.777	92.19
471.997	86.19
472.216	132.19
472.435	136.19
472.654	87.19
472.873	84.19
473.092	89.19
473.311	84.19
473.53	85.19
473.749	97.19
473.968	110.19
474.187	100.19
474.406	96.19
474.625	83.19
474.844	92.19
475.063	88.19
475.282	86.19
475.501	80.19
475.72	89.19
475.939	76.19
476.158	70.19
476.377	79.19
476.596	89.19
476.814	83.19
477.033	83.19
477.252	93.19
477.471	99.19
477.69	81.19
477.908	90.19
478.127	85.19
478.346	85.19
478.564	98.19
478.783	95.19
479.002	87.19
479.22	80.19
479.439	107.19
479.658	95.19
479.876	90.19
480.095	77.19
480.313	89.19
480.532	76.19
480.751	90.19
480.969	117.19
481.188	221.19
481.406	153.19
481.624	83.19
481.843	99.19
482.061	105.19
482.28	87.19
482.498	82.19
482.717	84.19
482.935	98.19
483.153	74.19
483.372	88.19
483.59	91.19
483.808	91.19
484.027	100.19
484.245	97.19
484.463	96.19
484.681	105.19
484.9	96.19
485.118	83.19
485.336	108.19
485.554	119.19
485.772	99.19
485.99	97.19
486.209	105.19
486.427	95.19
486.645	99.19
486.863	103.19
487.081	103.19
487.299	104.19
487.517	97.19
487.735	98.19
487.953	91.19
488.171	94.19
488.389	82.19
488.607	72.19
488.825	87.19
489.043	95.19
489.261	89.19
489.479	92.19
489.696	98.19
489.914	85.19
490.132	106.19
490.35	76.19
490.568	83.19
490.786	76.19
491.003	86.19
491.221	98.19
491.439	91.19
491.657	91.19
491.874	77.19
492.092	76.19
492.31	89.19
492.527	91.19
492.745	76.19
492.963	80.19
493.18	88.19
493.398	108.19
493.615	105.19
493.833	89.19
494.05	91.19
494.268	82.19
494.485	73.19
494.703	65.19
494.92	91.19
495.138	92.19
495.355	86.19
495.573	80.19
495.79	88.19
496.008	102.19
496.225	77.19
496.442	89.19
496.66	95.19
496.877	95.19
497.094	94.19
497.312	89.19
497.529	92.19
497.746	90.19
497.963	78.19
498.181	89.19
498.398	98.19
498.615	101.19
498.832	109.19
499.049	85.19
499.267	97.19
499.484	76.19
499.701	82.19
499.918	83.19
500.135	92.19
500.352	99.19
500.569	76.19
500.786	91.19
501.003	79.19
501.22	96.19
501.437	92.19
501.654	93.19
501.871	81.19
502.088	102.19
502.305	88.19
502.522	92.19
502.739	98.19
502.956	84.19
503.172	91.19
503.389	102.19
503.606	93.19
503.823	86.19
504.04	102.19
504.256	105.19
504.473	76.19
504.69	90.19
504.907	87.19
505.123	91.19
505.34	79.19
505.557	87.19
505.773	86.19
505.99	88.19
506.207	82.19
506.423	100.19
506.64	82.19
506.856	89.19
507.073	79.19
507.289	90.19
507.506	92.19
507.722	96.19
507.939	91.19
508.155	97.19
508.372	91.19
508.588	81.19
508.805	104.19
509.021	98.19
509.238	96.19
509.454	95.19
509.67	88.19
509.887	105.19
510.103	114.19
510.319	171.19
510.536	557.19
510.752	1649.19
510.968	490.19
511.184	123.19
511.401	89.19
511.617	94.19
511.833	100.19
512.049	105.19
512.265	83.19
512.481	76.19
512.698	85.19
512.914	81.19
513.13	102.19
513.346	106.19
513.562	99.19
513.778	104.19
513.994	74.19
514.21	91.19
514.426	115.19
514.642	127.19
514.858	111.19
515.074	118.19
515.29	347.19
515.506	937.19
515.721	379.19
515.937	131.19
516.153	102.19
