Data from Circ_2002_H10_HRD10591_00059.txt Node
Date: Wed Jan 03 10:41:10 EST 2024
User: Yrep
Spectrometer: HR+D1059
Trigger mode: 1
Integration Time (sec): 1.000000E-1
Scans to average: 1
Electric dark correction enabled: true
Nonlinearity correction enabled: false
Boxcar width: 0
XAxis mode: Wavelengths
Number of Pixels in Spectrum: 2048
>>>>>Begin Spectral Data<<<<<
223.165	-19.25
223.4	-19.25
223.635	-19.25
223.869	-20.25
224.104	-15.25
224.338	-13.25
224.573	-12.25
224.808	-9.25
225.042	-8.25
225.277	-9.25
225.511	3.75
225.746	-2.25
225.98	5.75
226.215	14.75
226.449	14.75
226.683	7.75
226.918	26.75
227.152	35.75
227.387	39.75
227.621	50.75
227.856	39.75
228.09	46.75
228.324	50.75
228.559	65.75
228.793	58.75
229.027	51.75
229.262	62.75
229.496	72.75
229.73	61.75
229.964	79.75
230.199	80.75
230.433	80.75
230.667	70.75
230.901	70.75
231.136	68.75
231.37	80.75
231.604	82.75
231.838	91.75
232.072	74.75
232.306	82.75
232.541	85.75
232.775	82.75
233.009	73.75
233.243	90.75
233.477	75.75
233.711	85.75
233.945	79.75
234.179	79.75
234.413	83.75
234.647	72.75
234.881	81.75
235.115	88.75
235.349	79.75
235.583	82.75
235.817	73.75
236.051	86.75
236.285	65.75
236.519	77.75
236.753	77.75
236.987	70.75
237.221	77.75
237.455	94.75
237.689	76.75
237.922	68.75
238.156	85.75
238.39	74.75
238.624	78.75
238.858	75.75
239.091	74.75
239.325	72.75
239.559	81.75
239.793	83.75
240.027	77.75
240.26	73.75
240.494	94.75
240.728	80.75
240.961	77.75
241.195	62.75
241.429	82.75
241.662	76.75
241.896	66.75
242.13	67.75
242.363	80.75
242.597	69.75
242.83	78.75
243.064	72.75
243.298	55.75
243.531	71.75
243.765	78.75
243.998	78.75
244.232	79.75
244.465	79.75
244.699	79.75
244.932	87.75
245.166	90.75
245.399	85.75
245.633	91.75
245.866	64.75
246.099	68.75
246.333	80.75
246.566	83.75
246.8	83.75
247.033	87.75
247.266	76.75
247.5	78.75
247.733	84.75
247.966	97.75
248.2	89.75
248.433	89.75
248.666	74.75
248.899	86.75
249.133	81.75
249.366	89.75
249.599	91.75
249.832	71.75
250.066	84.75
250.299	89.75
250.532	71.75
250.765	72.75
250.998	73.75
251.231	75.75
251.465	71.75
251.698	79.75
251.931	80.75
252.164	92.75
252.397	87.75
252.63	77.75
252.863	74.75
253.096	66.75
253.329	66.75
253.562	81.75
253.795	91.75
254.028	79.75
254.261	84.75
254.494	88.75
254.727	79.75
254.96	74.75
255.193	75.75
255.426	77.75
255.659	77.75
255.892	83.75
256.124	86.75
256.357	95.75
256.59	94.75
256.823	84.75
257.056	75.75
257.289	84.75
257.521	74.75
257.754	79.75
257.987	66.75
258.22	90.75
258.452	81.75
258.685	79.75
258.918	78.75
259.151	90.75
259.383	93.75
259.616	69.75
259.849	89.75
260.081	82.75
260.314	80.75
260.547	89.75
260.779	82.75
261.012	83.75
261.244	89.75
261.477	83.75
261.71	88.75
261.942	106.75
262.175	110.75
262.407	90.75
262.64	95.75
262.872	83.75
263.105	83.75
263.337	101.75
263.57	92.75
263.802	85.75
264.035	82.75
264.267	86.75
264.499	75.75
264.732	86.75
264.964	76.75
265.197	74.75
265.429	80.75
265.661	97.75
265.894	84.75
266.126	87.75
266.358	85.75
266.591	73.75
266.823	89.75
267.055	88.75
267.287	74.75
267.52	71.75
267.752	90.75
267.984	90.75
268.216	91.75
268.448	90.75
268.681	91.75
268.913	86.75
269.145	78.75
269.377	80.75
269.609	86.75
269.841	82.75
270.073	81.75
270.306	72.75
270.538	75.75
270.77	91.75
271.002	85.75
271.234	77.75
271.466	77.75
271.698	75.75
271.93	84.75
272.162	84.75
272.394	88.75
272.626	91.75
272.858	61.75
273.09	87.75
273.322	88.75
273.553	86.75
273.785	82.75
274.017	94.75
274.249	83.75
274.481	72.75
274.713	87.75
274.945	87.75
275.176	101.75
275.408	92.75
275.64	89.75
275.872	91.75
276.104	78.75
276.335	88.75
276.567	86.75
276.799	109.75
277.031	99.75
277.262	97.75
277.494	97.75
277.726	82.75
277.957	91.75
278.189	88.75
278.421	84.75
278.652	101.75
278.884	81.75
279.115	87.75
279.347	79.75
279.579	89.75
279.81	97.75
280.042	85.75
280.273	89.75
280.505	85.75
280.736	79.75
280.968	60.75
281.199	73.75
281.431	76.75
281.662	85.75
281.894	95.75
282.125	96.75
282.356	111.75
282.588	125.75
282.819	100.75
283.051	81.75
283.282	89.75
283.513	93.75
283.745	88.75
283.976	80.75
284.207	90.75
284.439	96.75
284.67	72.75
284.901	82.75
285.132	98.75
285.364	85.75
285.595	77.75
285.826	87.75
286.057	89.75
286.288	74.75
286.52	85.75
286.751	94.75
286.982	88.75
287.213	71.75
287.444	96.75
287.675	99.75
287.906	103.75
288.138	79.75
288.369	106.75
288.6	87.75
288.831	89.75
289.062	84.75
289.293	96.75
289.524	90.75
289.755	83.75
289.986	87.75
290.217	73.75
290.448	93.75
290.679	107.75
290.91	78.75
291.141	87.75
291.371	93.75
291.602	100.75
291.833	94.75
292.064	90.75
292.295	85.75
292.526	98.75
292.757	87.75
292.987	82.75
293.218	84.75
293.449	65.75
293.68	91.75
293.91	93.75
294.141	87.75
294.372	85.75
294.603	86.75
294.833	87.75
295.064	80.75
295.295	88.75
295.525	94.75
295.756	94.75
295.987	106.75
296.217	126.75
296.448	111.75
296.679	97.75
296.909	109.75
297.14	91.75
297.37	89.75
297.601	94.75
297.831	90.75
298.062	88.75
298.292	100.75
298.523	97.75
298.753	71.75
298.984	93.75
299.214	88.75
299.445	87.75
299.675	80.75
299.905	104.75
300.136	98.75
300.366	97.75
300.597	103.75
300.827	94.75
301.057	89.75
301.288	89.75
301.518	88.75
301.748	90.75
301.979	80.75
302.209	91.75
302.439	74.75
302.669	74.75
302.9	100.75
303.13	90.75
303.36	91.75
303.59	106.75
303.82	102.75
304.051	104.75
304.281	109.75
304.511	97.75
304.741	89.75
304.971	83.75
305.201	101.75
305.431	91.75
305.661	92.75
305.891	87.75
306.121	97.75
306.352	110.75
306.582	95.75
306.812	98.75
307.042	85.75
307.272	93.75
307.502	88.75
307.731	99.75
307.961	85.75
308.191	90.75
308.421	76.75
308.651	97.75
308.881	81.75
309.111	95.75
309.341	87.75
309.571	83.75
309.8	97.75
310.03	82.75
310.26	92.75
310.49	105.75
310.72	102.75
310.949	87.75
311.179	103.75
311.409	87.75
311.639	86.75
311.868	91.75
312.098	93.75
312.328	97.75
312.557	85.75
312.787	96.75
313.017	102.75
313.246	104.75
313.476	97.75
313.706	87.75
313.935	104.75
314.165	85.75
314.394	96.75
314.624	97.75
314.853	95.75
315.083	93.75
315.312	98.75
315.542	100.75
315.771	90.75
316.001	84.75
316.23	94.75
316.46	81.75
316.689	87.75
316.919	85.75
317.148	94.75
317.377	107.75
317.607	95.75
317.836	101.75
318.065	95.75
318.295	102.75
318.524	104.75
318.753	84.75
318.983	78.75
319.212	104.75
319.441	95.75
319.67	108.75
319.9	89.75
320.129	96.75
320.358	106.75
320.587	89.75
320.816	97.75
321.046	100.75
321.275	89.75
321.504	92.75
321.733	100.75
321.962	95.75
322.191	98.75
322.42	93.75
322.649	103.75
322.878	108.75
323.108	103.75
323.337	113.75
323.566	105.75
323.795	128.75
324.024	176.75
324.253	354.75
324.482	731.75
324.71	1494.75
324.939	1952.75
325.168	730.75
325.397	234.75
325.626	148.75
325.855	112.75
326.084	131.75
326.313	125.75
326.542	135.75
326.77	221.75
326.999	427.75
327.228	893.75
327.457	1561.75
327.686	1222.75
327.914	337.75
328.143	171.75
328.372	145.75
328.6	120.75
328.829	103.75
329.058	115.75
329.287	109.75
329.515	95.75
329.744	107.75
329.972	101.75
330.201	116.75
330.43	137.75
330.658	115.75
330.887	126.75
331.115	106.75
331.344	101.75
331.572	87.75
331.801	85.75
332.03	96.75
332.258	100.75
332.486	95.75
332.715	93.75
332.943	94.75
333.172	99.75
333.4	67.75
333.629	104.75
333.857	111.75
334.085	102.75
334.314	110.75
334.542	156.75
334.771	129.75
334.999	108.75
335.227	91.75
335.455	88.75
335.684	107.75
335.912	97.75
336.14	99.75
336.369	105.75
336.597	91.75
336.825	93.75
337.053	89.75
337.281	83.75
337.51	86.75
337.738	89.75
337.966	90.75
338.194	79.75
338.422	89.75
338.65	91.75
338.878	86.75
339.106	97.75
339.334	90.75
339.562	83.75
339.79	89.75
340.018	99.75
340.246	93.75
340.474	90.75
340.702	96.75
340.93	90.75
341.158	96.75
341.386	91.75
341.614	98.75
341.842	103.75
342.07	94.75
342.298	88.75
342.526	95.75
342.754	87.75
342.981	83.75
343.209	85.75
343.437	87.75
343.665	81.75
343.893	88.75
344.12	98.75
344.348	85.75
344.576	86.75
344.804	85.75
345.031	94.75
345.259	91.75
345.487	87.75
345.714	106.75
345.942	94.75
346.17	89.75
346.397	83.75
346.625	96.75
346.853	79.75
347.08	84.75
347.308	70.75
347.535	96.75
347.763	97.75
347.99	94.75
348.218	100.75
348.445	93.75
348.673	83.75
348.9	101.75
349.128	89.75
349.355	91.75
349.583	103.75
349.81	93.75
350.037	94.75
350.265	88.75
350.492	109.75
350.72	94.75
350.947	91.75
351.174	111.75
351.402	109.75
351.629	90.75
351.856	110.75
352.083	104.75
352.311	104.75
352.538	96.75
352.765	102.75
352.992	97.75
353.22	95.75
353.447	106.75
353.674	104.75
353.901	102.75
354.128	96.75
354.355	98.75
354.583	104.75
354.81	92.75
355.037	86.75
355.264	100.75
355.491	85.75
355.718	81.75
355.945	95.75
356.172	109.75
356.399	111.75
356.626	91.75
356.853	95.75
357.08	85.75
357.307	92.75
357.534	88.75
357.761	107.75
357.988	94.75
358.215	89.75
358.441	102.75
358.668	103.75
358.895	89.75
359.122	77.75
359.349	69.75
359.576	91.75
359.802	98.75
360.029	103.75
360.256	102.75
360.483	94.75
360.709	78.75
360.936	95.75
361.163	95.75
361.39	87.75
361.616	90.75
361.843	105.75
362.07	97.75
362.296	87.75
362.523	98.75
362.749	88.75
362.976	82.75
363.203	90.75
363.429	84.75
363.656	91.75
363.882	83.75
364.109	89.75
364.335	95.75
364.562	86.75
364.788	94.75
365.015	102.75
365.241	91.75
365.468	96.75
365.694	96.75
365.92	87.75
366.147	101.75
366.373	91.75
366.599	82.75
366.826	88.75
367.052	84.75
367.278	89.75
367.505	86.75
367.731	102.75
367.957	74.75
368.184	84.75
368.41	83.75
368.636	96.75
368.862	104.75
369.089	97.75
369.315	95.75
369.541	89.75
369.767	96.75
369.993	101.75
370.219	91.75
370.445	90.75
370.672	89.75
370.898	78.75
371.124	90.75
371.35	88.75
371.576	96.75
371.802	91.75
372.028	91.75
372.254	81.75
372.48	80.75
372.706	86.75
372.932	82.75
373.158	89.75
373.384	80.75
373.61	87.75
373.835	78.75
374.061	99.75
374.287	77.75
374.513	96.75
374.739	83.75
374.965	93.75
375.191	95.75
375.416	89.75
375.642	89.75
375.868	102.75
376.094	95.75
376.319	93.75
376.545	83.75
376.771	91.75
376.997	98.75
377.222	94.75
377.448	82.75
377.674	82.75
377.899	91.75
378.125	99.75
378.35	91.75
378.576	80.75
378.802	91.75
379.027	90.75
379.253	90.75
379.478	81.75
379.704	103.75
379.929	88.75
380.155	103.75
380.38	94.75
380.606	97.75
380.831	87.75
381.057	91.75
381.282	108.75
381.507	97.75
381.733	106.75
381.958	99.75
382.184	101.75
382.409	94.75
382.634	106.75
382.86	99.75
383.085	108.75
383.31	87.75
383.535	93.75
383.761	91.75
383.986	78.75
384.211	93.75
384.436	90.75
384.662	96.75
384.887	104.75
385.112	108.75
385.337	101.75
385.562	107.75
385.787	110.75
386.013	109.75
386.238	107.75
386.463	102.75
386.688	102.75
386.913	94.75
387.138	89.75
387.363	97.75
387.588	94.75
387.813	103.75
388.038	97.75
388.263	102.75
388.488	117.75
388.713	104.75
388.938	93.75
389.163	91.75
389.387	91.75
389.612	89.75
389.837	92.75
390.062	101.75
390.287	103.75
390.512	91.75
390.736	94.75
390.961	78.75
391.186	87.75
391.411	94.75
391.636	89.75
391.86	82.75
392.085	89.75
392.31	77.75
392.534	82.75
392.759	95.75
392.984	81.75
393.208	90.75
393.433	91.75
393.658	84.75
393.882	73.75
394.107	79.75
394.331	78.75
394.556	86.75
394.78	88.75
395.005	84.75
395.229	94.75
395.454	93.75
395.678	86.75
395.903	75.75
396.127	81.75
396.352	66.75
396.576	98.75
396.801	90.75
397.025	95.75
397.249	89.75
397.474	96.75
397.698	83.75
397.922	89.75
398.147	93.75
398.371	82.75
398.595	73.75
398.82	68.75
399.044	80.75
399.268	84.75
399.492	87.75
399.717	95.75
399.941	87.75
400.165	81.75
400.389	85.75
400.613	69.75
400.837	90.75
401.062	94.75
401.286	75.75
401.51	97.75
401.734	91.75
401.958	90.75
402.182	128.75
402.406	135.75
402.63	129.75
402.854	101.75
403.078	94.75
403.302	94.75
403.526	100.75
403.75	98.75
403.974	83.75
404.198	79.75
404.422	82.75
404.645	98.75
404.869	91.75
405.093	95.75
405.317	91.75
405.541	99.75
405.765	88.75
405.988	87.75
406.212	151.75
406.436	185.75
406.66	132.75
406.883	99.75
407.107	91.75
407.331	99.75
407.555	103.75
407.778	91.75
408.002	75.75
408.226	91.75
408.449	85.75
408.673	87.75
408.896	83.75
409.12	86.75
409.344	93.75
409.567	98.75
409.791	89.75
410.014	78.75
410.238	87.75
410.461	108.75
410.685	97.75
410.908	112.75
411.132	98.75
411.355	93.75
411.578	83.75
411.802	84.75
412.025	85.75
412.249	95.75
412.472	68.75
412.695	95.75
412.919	97.75
413.142	88.75
413.365	93.75
413.589	86.75
413.812	95.75
414.035	91.75
414.258	91.75
414.482	97.75
414.705	83.75
414.928	85.75
415.151	86.75
415.374	78.75
415.597	72.75
415.821	87.75
416.044	90.75
416.267	74.75
416.49	90.75
416.713	94.75
416.936	87.75
417.159	83.75
417.382	86.75
417.605	80.75
417.828	87.75
418.051	87.75
418.274	91.75
418.497	89.75
418.72	71.75
418.943	72.75
419.166	85.75
419.389	74.75
419.611	86.75
419.834	95.75
420.057	93.75
420.28	90.75
420.503	78.75
420.726	86.75
420.948	73.75
421.171	81.75
421.394	82.75
421.617	85.75
421.839	89.75
422.062	96.75
422.285	92.75
422.507	75.75
422.73	95.75
422.953	94.75
423.175	87.75
423.398	89.75
423.621	93.75
423.843	89.75
424.066	85.75
424.288	82.75
424.511	91.75
424.733	83.75
424.956	121.75
425.178	99.75
425.401	90.75
425.623	90.75
425.846	98.75
426.068	95.75
426.291	78.75
426.513	87.75
426.735	97.75
426.958	97.75
427.18	107.75
427.402	111.75
427.625	151.75
427.847	111.75
428.069	103.75
428.292	104.75
428.514	86.75
428.736	82.75
428.958	94.75
429.181	81.75
429.403	81.75
429.625	85.75
429.847	89.75
430.069	106.75
430.292	98.75
430.514	87.75
430.736	93.75
430.958	86.75
431.18	78.75
431.402	89.75
431.624	80.75
431.846	89.75
432.068	92.75
432.29	73.75
432.512	85.75
432.734	90.75
432.956	90.75
433.178	93.75
433.4	104.75
433.622	89.75
433.844	89.75
434.066	90.75
434.287	103.75
434.509	90.75
434.731	83.75
434.953	88.75
435.175	74.75
435.397	101.75
435.618	85.75
435.84	99.75
436.062	111.75
436.284	105.75
436.505	91.75
436.727	98.75
436.949	87.75
437.17	76.75
437.392	92.75
437.614	82.75
437.835	103.75
438.057	101.75
438.278	103.75
438.5	113.75
438.721	116.75
438.943	106.75
439.165	108.75
439.386	67.75
439.608	87.75
439.829	86.75
440.05	114.75
440.272	131.75
440.493	97.75
440.715	78.75
440.936	99.75
441.158	89.75
441.379	88.75
441.6	96.75
441.822	97.75
442.043	77.75
442.264	89.75
442.486	103.75
442.707	87.75
442.928	83.75
443.149	113.75
443.371	127.75
443.592	100.75
443.813	104.75
444.034	90.75
444.255	88.75
444.476	82.75
444.698	89.75
444.919	85.75
445.14	118.75
445.361	113.75
445.582	109.75
445.803	121.75
446.024	122.75
446.245	121.75
446.466	106.75
446.687	94.75
446.908	92.75
447.129	81.75
447.35	104.75
447.571	94.75
447.792	101.75
448.013	105.75
448.234	96.75
448.455	94.75
448.675	103.75
448.896	111.75
449.117	82.75
449.338	89.75
449.559	120.75
449.779	137.75
450	89.75
450.221	93.75
450.442	99.75
450.662	85.75
450.883	96.75
451.104	94.75
451.324	97.75
451.545	85.75
451.766	91.75
451.986	88.75
452.207	85.75
452.428	96.75
452.648	79.75
452.869	96.75
453.089	97.75
453.31	108.75
453.53	90.75
453.751	101.75
453.971	95.75
454.192	91.75
454.412	95.75
454.633	85.75
454.853	80.75
455.073	99.75
455.294	93.75
455.514	98.75
455.734	99.75
455.955	80.75
456.175	82.75
456.395	97.75
456.616	74.75
456.836	90.75
457.056	83.75
457.276	87.75
457.497	85.75
457.717	79.75
457.937	94.75
458.157	74.75
458.377	79.75
458.598	96.75
458.818	114.75
459.038	122.75
459.258	106.75
459.478	79.75
459.698	75.75
459.918	85.75
460.138	79.75
460.358	89.75
460.578	85.75
460.798	86.75
461.018	100.75
461.238	93.75
461.458	91.75
461.678	80.75
461.898	96.75
462.118	77.75
462.338	78.75
462.558	87.75
462.777	89.75
462.997	76.75
463.217	99.75
463.437	87.75
463.657	98.75
463.876	87.75
464.096	85.75
464.316	87.75
464.536	94.75
464.755	97.75
464.975	91.75
465.195	129.75
465.414	131.75
465.634	104.75
465.854	76.75
466.073	89.75
466.293	88.75
466.512	97.75
466.732	82.75
466.951	80.75
467.171	104.75
467.391	97.75
467.61	84.75
467.829	101.75
468.049	109.75
468.268	102.75
468.488	72.75
468.707	79.75
468.927	76.75
469.146	88.75
469.365	99.75
469.585	91.75
469.804	86.75
470.023	98.75
470.243	85.75
470.462	93.75
470.681	86.75
470.901	88.75
471.12	88.75
471.339	95.75
471.558	82.75
471.777	100.75
471.997	111.75
472.216	120.75
472.435	128.75
472.654	89.75
472.873	85.75
473.092	79.75
473.311	83.75
473.53	83.75
473.749	102.75
473.968	87.75
474.187	104.75
474.406	90.75
474.625	93.75
474.844	85.75
475.063	74.75
475.282	88.75
475.501	85.75
475.72	91.75
475.939	84.75
476.158	87.75
476.377	89.75
476.596	90.75
476.814	92.75
477.033	91.75
477.252	100.75
477.471	87.75
477.69	82.75
477.908	89.75
478.127	71.75
478.346	89.75
478.564	75.75
478.783	105.75
479.002	87.75
479.22	88.75
479.439	95.75
479.658	85.75
479.876	99.75
480.095	96.75
480.313	82.75
480.532	89.75
480.751	83.75
480.969	94.75
481.188	193.75
481.406	142.75
481.624	92.75
481.843	85.75
482.061	88.75
482.28	88.75
482.498	87.75
482.717	81.75
482.935	82.75
483.153	79.75
483.372	94.75
483.59	70.75
483.808	81.75
484.027	95.75
484.245	90.75
484.463	86.75
484.681	109.75
484.9	84.75
485.118	102.75
485.336	88.75
485.554	103.75
485.772	90.75
485.99	109.75
486.209	103.75
486.427	103.75
486.645	103.75
486.863	115.75
487.081	87.75
487.299	111.75
487.517	108.75
487.735	82.75
487.953	91.75
488.171	81.75
488.389	93.75
488.607	96.75
488.825	91.75
489.043	97.75
489.261	90.75
489.479	91.75
489.696	90.75
489.914	97.75
490.132	75.75
490.35	91.75
490.568	86.75
490.786	87.75
491.003	101.75
491.221	78.75
491.439	89.75
491.657	86.75
491.874	90.75
492.092	92.75
492.31	89.75
492.527	89.75
492.745	90.75
492.963	91.75
493.18	91.75
493.398	88.75
493.615	99.75
493.833	107.75
494.05	89.75
494.268	81.75
494.485	84.75
494.703	97.75
494.92	94.75
495.138	69.75
495.355	87.75
495.573	83.75
495.79	101.75
496.008	76.75
496.225	85.75
496.442	75.75
496.66	86.75
496.877	92.75
497.094	91.75
497.312	93.75
497.529	102.75
497.746	102.75
497.963	92.75
498.181	83.75
498.398	89.75
498.615	103.75
498.832	91.75
499.049	81.75
499.267	90.75
499.484	90.75
499.701	87.75
499.918	82.75
500.135	96.75
500.352	97.75
500.569	99.75
500.786	94.75
501.003	99.75
501.22	84.75
501.437	104.75
501.654	85.75
501.871	95.75
502.088	94.75
502.305	85.75
502.522	99.75
502.739	90.75
502.956	98.75
503.172	100.75
503.389	100.75
503.606	94.75
503.823	91.75
504.04	87.75
504.256	78.75
504.473	93.75
504.69	85.75
504.907	84.75
505.123	89.75
505.34	97.75
505.557	88.75
505.773	87.75
505.99	89.75
506.207	86.75
506.423	80.75
506.64	87.75
506.856	88.75
507.073	82.75
507.289	106.75
507.506	86.75
507.722	96.75
507.939	101.75
508.155	92.75
508.372	101.75
508.588	79.75
508.805	70.75
509.021	92.75
509.238	97.75
509.454	98.75
509.67	89.75
509.887	97.75
510.103	115.75
510.319	177.75
510.536	581.75
510.752	1815.75
510.968	533.75
511.184	130.75
511.401	105.75
511.617	98.75
511.833	81.75
512.049	85.75
512.265	78.75
512.481	96.75
512.698	73.75
512.914	67.75
513.13	73.75
513.346	93.75
513.562	86.75
513.778	97.75
513.994	96.75
514.21	79.75
514.426	110.75
514.642	114.75
514.858	115.75
515.074	132.75
515.29	349.75
515.506	1099.75
515.721	420.75
515.937	135.75
516.153	90.75
516.369	96.75
