Data from Circ_2002_H10_HRD10591_00094.txt Node
Date: Wed Jan 03 10:41:17 EST 2024
User: Yrep
Spectrometer: HR+D1059
Trigger mode: 1
Integration Time (sec): 1.000000E-1
Scans to average: 1
Electric dark correction enabled: true
Nonlinearity correction enabled: false
Boxcar width: 0
XAxis mode: Wavelengths
Number of Pixels in Spectrum: 2048
>>>>>Begin Spectral Data<<<<<
223.165	-27.25
223.4	-27.25
223.635	-27.25
223.869	-14.25
224.104	-13.25
224.338	-15.25
224.573	-6.25
224.808	-1.25
225.042	-20.25
225.277	-4.25
225.511	-2.25
225.746	6.75
225.98	10.75
226.215	14.75
226.449	15.75
226.683	19.75
226.918	12.75
227.152	23.75
227.387	35.75
227.621	23.75
227.856	32.75
228.09	49.75
228.324	53.75
228.559	58.75
228.793	64.75
229.027	64.75
229.262	66.75
229.496	60.75
229.73	87.75
229.964	82.75
230.199	78.75
230.433	64.75
230.667	89.75
230.901	74.75
231.136	84.75
231.37	78.75
231.604	71.75
231.838	66.75
232.072	89.75
232.306	86.75
232.541	88.75
232.775	76.75
233.009	74.75
233.243	89.75
233.477	80.75
233.711	74.75
233.945	68.75
234.179	77.75
234.413	86.75
234.647	81.75
234.881	76.75
235.115	76.75
235.349	82.75
235.583	71.75
235.817	74.75
236.051	78.75
236.285	70.75
236.519	74.75
236.753	82.75
236.987	65.75
237.221	94.75
237.455	76.75
237.689	62.75
237.922	78.75
238.156	70.75
238.39	77.75
238.624	76.75
238.858	72.75
239.091	82.75
239.325	83.75
239.559	80.75
239.793	83.75
240.027	83.75
240.26	92.75
240.494	87.75
240.728	74.75
240.961	82.75
241.195	80.75
241.429	83.75
241.662	83.75
241.896	77.75
242.13	68.75
242.363	78.75
242.597	71.75
242.83	83.75
243.064	86.75
243.298	75.75
243.531	90.75
243.765	69.75
243.998	80.75
244.232	88.75
244.465	73.75
244.699	84.75
244.932	87.75
245.166	70.75
245.399	73.75
245.633	78.75
245.866	83.75
246.099	78.75
246.333	74.75
246.566	74.75
246.8	78.75
247.033	74.75
247.266	74.75
247.5	75.75
247.733	81.75
247.966	71.75
248.2	79.75
248.433	80.75
248.666	75.75
248.899	82.75
249.133	94.75
249.366	90.75
249.599	76.75
249.832	75.75
250.066	79.75
250.299	79.75
250.532	90.75
250.765	91.75
250.998	72.75
251.231	80.75
251.465	90.75
251.698	83.75
251.931	89.75
252.164	77.75
252.397	79.75
252.63	74.75
252.863	83.75
253.096	76.75
253.329	88.75
253.562	68.75
253.795	71.75
254.028	82.75
254.261	87.75
254.494	79.75
254.727	84.75
254.96	75.75
255.193	78.75
255.426	85.75
255.659	59.75
255.892	85.75
256.124	75.75
256.357	83.75
256.59	91.75
256.823	88.75
257.056	86.75
257.289	98.75
257.521	94.75
257.754	82.75
257.987	71.75
258.22	88.75
258.452	74.75
258.685	84.75
258.918	81.75
259.151	79.75
259.383	86.75
259.616	81.75
259.849	84.75
260.081	79.75
260.314	83.75
260.547	88.75
260.779	69.75
261.012	77.75
261.244	88.75
261.477	78.75
261.71	82.75
261.942	104.75
262.175	121.75
262.407	82.75
262.64	80.75
262.872	84.75
263.105	91.75
263.337	70.75
263.57	90.75
263.802	80.75
264.035	96.75
264.267	86.75
264.499	85.75
264.732	90.75
264.964	78.75
265.197	88.75
265.429	85.75
265.661	86.75
265.894	83.75
266.126	81.75
266.358	92.75
266.591	86.75
266.823	75.75
267.055	82.75
267.287	83.75
267.52	73.75
267.752	75.75
267.984	82.75
268.216	87.75
268.448	86.75
268.681	77.75
268.913	95.75
269.145	81.75
269.377	91.75
269.609	93.75
269.841	82.75
270.073	69.75
270.306	87.75
270.538	103.75
270.77	90.75
271.002	89.75
271.234	81.75
271.466	73.75
271.698	82.75
271.93	81.75
272.162	99.75
272.394	98.75
272.626	88.75
272.858	88.75
273.09	88.75
273.322	92.75
273.553	69.75
273.785	96.75
274.017	98.75
274.249	86.75
274.481	80.75
274.713	82.75
274.945	84.75
275.176	85.75
275.408	93.75
275.64	96.75
275.872	73.75
276.104	104.75
276.335	76.75
276.567	94.75
276.799	101.75
277.031	92.75
277.262	96.75
277.494	91.75
277.726	88.75
277.957	87.75
278.189	92.75
278.421	90.75
278.652	95.75
278.884	80.75
279.115	71.75
279.347	86.75
279.579	90.75
279.81	83.75
280.042	92.75
280.273	86.75
280.505	90.75
280.736	84.75
280.968	91.75
281.199	93.75
281.431	99.75
281.662	97.75
281.894	93.75
282.125	77.75
282.356	111.75
282.588	118.75
282.819	115.75
283.051	100.75
283.282	95.75
283.513	91.75
283.745	90.75
283.976	89.75
284.207	79.75
284.439	88.75
284.67	82.75
284.901	82.75
285.132	86.75
285.364	83.75
285.595	86.75
285.826	82.75
286.057	81.75
286.288	64.75
286.52	96.75
286.751	92.75
286.982	81.75
287.213	84.75
287.444	90.75
287.675	87.75
287.906	102.75
288.138	99.75
288.369	86.75
288.6	87.75
288.831	97.75
289.062	86.75
289.293	86.75
289.524	87.75
289.755	82.75
289.986	86.75
290.217	87.75
290.448	84.75
290.679	98.75
290.91	85.75
291.141	86.75
291.371	86.75
291.602	85.75
291.833	92.75
292.064	79.75
292.295	87.75
292.526	84.75
292.757	98.75
292.987	84.75
293.218	103.75
293.449	80.75
293.68	97.75
293.91	70.75
294.141	101.75
294.372	91.75
294.603	83.75
294.833	90.75
295.064	95.75
295.295	95.75
295.525	91.75
295.756	102.75
295.987	99.75
296.217	112.75
296.448	126.75
296.679	89.75
296.909	80.75
297.14	84.75
297.37	107.75
297.601	92.75
297.831	101.75
298.062	86.75
298.292	98.75
298.523	94.75
298.753	75.75
298.984	92.75
299.214	96.75
299.445	89.75
299.675	92.75
299.905	91.75
300.136	82.75
300.366	89.75
300.597	102.75
300.827	101.75
301.057	96.75
301.288	107.75
301.518	95.75
301.748	87.75
301.979	104.75
302.209	81.75
302.439	90.75
302.669	91.75
302.9	94.75
303.13	89.75
303.36	95.75
303.59	83.75
303.82	96.75
304.051	88.75
304.281	88.75
304.511	95.75
304.741	82.75
304.971	90.75
305.201	84.75
305.431	89.75
305.661	99.75
305.891	96.75
306.121	88.75
306.352	99.75
306.582	88.75
306.812	90.75
307.042	87.75
307.272	82.75
307.502	91.75
307.731	97.75
307.961	112.75
308.191	94.75
308.421	81.75
308.651	83.75
308.881	96.75
309.111	100.75
309.341	97.75
309.571	111.75
309.8	96.75
310.03	95.75
310.26	88.75
310.49	96.75
310.72	90.75
310.949	97.75
311.179	100.75
311.409	96.75
311.639	94.75
311.868	104.75
312.098	86.75
312.328	82.75
312.557	90.75
312.787	121.75
313.017	99.75
313.246	101.75
313.476	85.75
313.706	100.75
313.935	98.75
314.165	107.75
314.394	88.75
314.624	89.75
314.853	82.75
315.083	91.75
315.312	89.75
315.542	86.75
315.771	97.75
316.001	87.75
316.23	90.75
316.46	91.75
316.689	82.75
316.919	98.75
317.148	90.75
317.377	90.75
317.607	79.75
317.836	85.75
318.065	94.75
318.295	99.75
318.524	87.75
318.753	93.75
318.983	105.75
319.212	108.75
319.441	105.75
319.67	118.75
319.9	98.75
320.129	89.75
320.358	94.75
320.587	89.75
320.816	90.75
321.046	120.75
321.275	107.75
321.504	87.75
321.733	92.75
321.962	102.75
322.191	106.75
322.42	97.75
322.649	116.75
322.878	107.75
323.108	104.75
323.337	112.75
323.566	115.75
323.795	162.75
324.024	208.75
324.253	364.75
324.482	803.75
324.71	1648.75
324.939	2138.75
325.168	786.75
325.397	252.75
325.626	153.75
325.855	134.75
326.084	117.75
326.313	130.75
326.542	146.75
326.77	217.75
326.999	472.75
327.228	946.75
327.457	1680.75
327.686	1350.75
327.914	360.75
328.143	190.75
328.372	160.75
328.6	126.75
328.829	129.75
329.058	125.75
329.287	139.75
329.515	132.75
329.744	110.75
329.972	131.75
330.201	144.75
330.43	168.75
330.658	142.75
330.887	142.75
331.115	111.75
331.344	96.75
331.572	86.75
331.801	98.75
332.03	98.75
332.258	98.75
332.486	97.75
332.715	82.75
332.943	96.75
333.172	102.75
333.4	96.75
333.629	101.75
333.857	117.75
334.085	110.75
334.314	146.75
334.542	192.75
334.771	175.75
334.999	117.75
335.227	104.75
335.455	88.75
335.684	93.75
335.912	93.75
336.14	108.75
336.369	102.75
336.597	91.75
336.825	106.75
337.053	83.75
337.281	98.75
337.51	85.75
337.738	82.75
337.966	97.75
338.194	89.75
338.422	95.75
338.65	91.75
338.878	95.75
339.106	96.75
339.334	90.75
339.562	98.75
339.79	93.75
340.018	91.75
340.246	92.75
340.474	88.75
340.702	84.75
340.93	88.75
341.158	97.75
341.386	89.75
341.614	102.75
341.842	85.75
342.07	103.75
342.298	94.75
342.526	78.75
342.754	82.75
342.981	98.75
343.209	97.75
343.437	101.75
343.665	84.75
343.893	94.75
344.12	78.75
344.348	95.75
344.576	91.75
344.804	95.75
345.031	97.75
345.259	101.75
345.487	104.75
345.714	96.75
345.942	91.75
346.17	90.75
346.397	95.75
346.625	95.75
346.853	91.75
347.08	84.75
347.308	81.75
347.535	93.75
347.763	102.75
347.99	86.75
348.218	92.75
348.445	97.75
348.673	101.75
348.9	108.75
349.128	84.75
349.355	87.75
349.583	97.75
349.81	90.75
350.037	90.75
350.265	103.75
350.492	101.75
350.72	108.75
350.947	104.75
351.174	101.75
351.402	97.75
351.629	97.75
351.856	104.75
352.083	102.75
352.311	108.75
352.538	108.75
352.765	112.75
352.992	100.75
353.22	111.75
353.447	89.75
353.674	100.75
353.901	85.75
354.128	91.75
354.355	103.75
354.583	98.75
354.81	105.75
355.037	92.75
355.264	92.75
355.491	102.75
355.718	98.75
355.945	89.75
356.172	102.75
356.399	86.75
356.626	102.75
356.853	104.75
357.08	77.75
357.307	96.75
357.534	101.75
357.761	85.75
357.988	86.75
358.215	101.75
358.441	86.75
358.668	100.75
358.895	92.75
359.122	83.75
359.349	81.75
359.576	87.75
359.802	88.75
360.029	102.75
360.256	97.75
360.483	93.75
360.709	82.75
360.936	87.75
361.163	98.75
361.39	89.75
361.616	98.75
361.843	90.75
362.07	88.75
362.296	86.75
362.523	91.75
362.749	87.75
362.976	98.75
363.203	78.75
363.429	95.75
363.656	92.75
363.882	75.75
364.109	94.75
364.335	105.75
364.562	92.75
364.788	84.75
365.015	88.75
365.241	90.75
365.468	114.75
365.694	103.75
365.92	100.75
366.147	112.75
366.373	88.75
366.599	95.75
366.826	97.75
367.052	85.75
367.278	85.75
367.505	89.75
367.731	104.75
367.957	82.75
368.184	84.75
368.41	101.75
368.636	112.75
368.862	121.75
369.089	100.75
369.315	89.75
369.541	101.75
369.767	94.75
369.993	87.75
370.219	96.75
370.445	93.75
370.672	86.75
370.898	86.75
371.124	87.75
371.35	80.75
371.576	79.75
371.802	87.75
372.028	91.75
372.254	87.75
372.48	101.75
372.706	78.75
372.932	77.75
373.158	87.75
373.384	94.75
373.61	88.75
373.835	88.75
374.061	91.75
374.287	87.75
374.513	87.75
374.739	86.75
374.965	74.75
375.191	91.75
375.416	98.75
375.642	88.75
375.868	91.75
376.094	95.75
376.319	96.75
376.545	103.75
376.771	91.75
376.997	93.75
377.222	78.75
377.448	74.75
377.674	84.75
377.899	76.75
378.125	79.75
378.35	99.75
378.576	89.75
378.802	96.75
379.027	96.75
379.253	81.75
379.478	91.75
379.704	99.75
379.929	100.75
380.155	92.75
380.38	104.75
380.606	97.75
380.831	99.75
381.057	109.75
381.282	83.75
381.507	94.75
381.733	86.75
381.958	105.75
382.184	104.75
382.409	101.75
382.634	102.75
382.86	103.75
383.085	94.75
383.31	87.75
383.535	92.75
383.761	111.75
383.986	89.75
384.211	104.75
384.436	95.75
384.662	78.75
384.887	110.75
385.112	110.75
385.337	85.75
385.562	89.75
385.787	97.75
386.013	103.75
386.238	100.75
386.463	107.75
386.688	110.75
386.913	99.75
387.138	95.75
387.363	105.75
387.588	90.75
387.813	98.75
388.038	91.75
388.263	100.75
388.488	102.75
388.713	96.75
388.938	92.75
389.163	84.75
389.387	106.75
389.612	91.75
389.837	100.75
390.062	96.75
390.287	98.75
390.512	86.75
390.736	93.75
390.961	86.75
391.186	97.75
391.411	90.75
391.636	99.75
391.86	90.75
392.085	83.75
392.31	93.75
392.534	89.75
392.759	98.75
392.984	86.75
393.208	73.75
393.433	82.75
393.658	82.75
393.882	96.75
394.107	90.75
394.331	74.75
394.556	74.75
394.78	109.75
395.005	88.75
395.229	88.75
395.454	92.75
395.678	75.75
395.903	82.75
396.127	87.75
396.352	82.75
396.576	79.75
396.801	91.75
397.025	90.75
397.249	81.75
397.474	89.75
397.698	98.75
397.922	89.75
398.147	88.75
398.371	101.75
398.595	78.75
398.82	86.75
399.044	79.75
399.268	90.75
399.492	88.75
399.717	84.75
399.941	86.75
400.165	95.75
400.389	91.75
400.613	91.75
400.837	91.75
401.062	95.75
401.286	79.75
401.51	81.75
401.734	80.75
401.958	91.75
402.182	127.75
402.406	134.75
402.63	103.75
402.854	91.75
403.078	79.75
403.302	77.75
403.526	76.75
403.75	85.75
403.974	79.75
404.198	88.75
404.422	85.75
404.645	91.75
404.869	90.75
405.093	93.75
405.317	99.75
405.541	108.75
405.765	98.75
405.988	114.75
406.212	155.75
406.436	196.75
406.66	138.75
406.883	119.75
407.107	92.75
407.331	102.75
407.555	101.75
407.778	104.75
408.002	78.75
408.226	89.75
408.449	98.75
408.673	78.75
408.896	98.75
409.12	82.75
409.344	84.75
409.567	107.75
409.791	84.75
410.014	86.75
410.238	103.75
410.461	88.75
410.685	97.75
410.908	106.75
411.132	107.75
411.355	97.75
411.578	99.75
411.802	72.75
412.025	109.75
412.249	84.75
412.472	104.75
412.695	80.75
412.919	83.75
413.142	93.75
413.365	84.75
413.589	90.75
413.812	92.75
414.035	79.75
414.258	92.75
414.482	80.75
414.705	89.75
414.928	94.75
415.151	105.75
415.374	95.75
415.597	93.75
415.821	94.75
416.044	71.75
416.267	84.75
416.49	81.75
416.713	84.75
416.936	79.75
417.159	105.75
417.382	92.75
417.605	93.75
417.828	87.75
418.051	88.75
418.274	96.75
418.497	102.75
418.72	79.75
418.943	90.75
419.166	94.75
419.389	91.75
419.611	95.75
419.834	96.75
420.057	81.75
420.28	80.75
420.503	86.75
420.726	90.75
420.948	71.75
421.171	87.75
421.394	98.75
421.617	91.75
421.839	89.75
422.062	86.75
422.285	89.75
422.507	82.75
422.73	94.75
422.953	91.75
423.175	88.75
423.398	91.75
423.621	88.75
423.843	76.75
424.066	81.75
424.288	92.75
424.511	84.75
424.733	92.75
424.956	97.75
425.178	108.75
425.401	86.75
425.623	94.75
425.846	93.75
426.068	99.75
426.291	97.75
426.513	84.75
426.735	89.75
426.958	95.75
427.18	102.75
427.402	137.75
427.625	155.75
427.847	134.75
428.069	120.75
428.292	78.75
428.514	92.75
428.736	78.75
428.958	88.75
429.181	80.75
429.403	96.75
429.625	88.75
429.847	87.75
430.069	90.75
430.292	91.75
430.514	80.75
430.736	96.75
430.958	89.75
431.18	96.75
431.402	101.75
431.624	100.75
431.846	72.75
432.068	85.75
432.29	88.75
432.512	95.75
432.734	83.75
432.956	87.75
433.178	88.75
433.4	100.75
433.622	103.75
433.844	88.75
434.066	76.75
434.287	89.75
434.509	83.75
434.731	80.75
434.953	92.75
435.175	79.75
435.397	81.75
435.618	109.75
435.84	101.75
436.062	112.75
436.284	116.75
436.505	103.75
436.727	113.75
436.949	92.75
437.17	91.75
437.392	91.75
437.614	92.75
437.835	83.75
438.057	108.75
438.278	102.75
438.5	119.75
438.721	113.75
438.943	92.75
439.165	96.75
439.386	88.75
439.608	81.75
439.829	85.75
440.05	101.75
440.272	121.75
440.493	101.75
440.715	90.75
440.936	97.75
441.158	89.75
441.379	91.75
441.6	81.75
441.822	73.75
442.043	93.75
442.264	96.75
442.486	98.75
442.707	104.75
442.928	116.75
443.149	111.75
443.371	102.75
443.592	101.75
443.813	102.75
444.034	82.75
444.255	94.75
444.476	93.75
444.698	87.75
444.919	84.75
445.14	128.75
445.361	122.75
445.582	101.75
445.803	122.75
446.024	122.75
446.245	115.75
446.466	102.75
446.687	95.75
446.908	78.75
447.129	91.75
447.35	92.75
447.571	86.75
447.792	78.75
448.013	95.75
448.234	102.75
448.455	88.75
448.675	111.75
448.896	100.75
449.117	97.75
449.338	96.75
449.559	117.75
449.779	132.75
450	91.75
450.221	100.75
450.442	94.75
450.662	76.75
450.883	102.75
451.104	123.75
451.324	90.75
451.545	89.75
451.766	83.75
451.986	96.75
452.207	92.75
452.428	93.75
452.648	82.75
452.869	109.75
453.089	117.75
453.31	97.75
453.53	87.75
453.751	98.75
453.971	94.75
454.192	113.75
454.412	89.75
454.633	86.75
454.853	86.75
455.073	71.75
455.294	94.75
455.514	103.75
455.734	82.75
455.955	81.75
456.175	87.75
456.395	79.75
456.616	81.75
456.836	64.75
457.056	78.75
457.276	75.75
457.497	69.75
457.717	93.75
457.937	95.75
458.157	101.75
458.377	90.75
458.598	101.75
458.818	105.75
459.038	133.75
459.258	115.75
459.478	96.75
459.698	87.75
459.918	86.75
460.138	76.75
460.358	95.75
460.578	85.75
460.798	91.75
461.018	96.75
461.238	81.75
461.458	82.75
461.678	80.75
461.898	95.75
462.118	80.75
462.338	71.75
462.558	86.75
462.777	77.75
462.997	69.75
463.217	80.75
463.437	96.75
463.657	91.75
463.876	74.75
464.096	84.75
464.316	85.75
464.536	97.75
464.755	83.75
464.975	110.75
465.195	154.75
465.414	130.75
465.634	94.75
465.854	90.75
466.073	84.75
466.293	91.75
466.512	96.75
466.732	85.75
466.951	88.75
467.171	95.75
467.391	103.75
467.61	98.75
467.829	106.75
468.049	108.75
468.268	107.75
468.488	92.75
468.707	83.75
468.927	89.75
469.146	89.75
469.365	80.75
469.585	93.75
469.804	92.75
470.023	90.75
470.243	81.75
470.462	88.75
470.681	101.75
470.901	74.75
471.12	85.75
471.339	101.75
471.558	83.75
471.777	86.75
471.997	101.75
472.216	147.75
472.435	212.75
472.654	107.75
472.873	100.75
473.092	77.75
473.311	92.75
473.53	87.75
473.749	82.75
473.968	86.75
474.187	102.75
474.406	100.75
474.625	92.75
474.844	85.75
475.063	80.75
475.282	102.75
475.501	82.75
475.72	84.75
475.939	77.75
476.158	60.75
476.377	83.75
476.596	88.75
476.814	69.75
477.033	89.75
477.252	88.75
477.471	74.75
477.69	88.75
477.908	88.75
478.127	79.75
478.346	81.75
478.564	76.75
478.783	87.75
479.002	99.75
479.22	91.75
479.439	106.75
479.658	100.75
479.876	105.75
480.095	87.75
480.313	96.75
480.532	96.75
480.751	99.75
480.969	143.75
481.188	355.75
481.406	230.75
481.624	80.75
481.843	95.75
482.061	104.75
482.28	84.75
482.498	78.75
482.717	94.75
482.935	87.75
483.153	82.75
483.372	85.75
483.59	92.75
483.808	94.75
484.027	102.75
484.245	83.75
484.463	99.75
484.681	87.75
484.9	81.75
485.118	89.75
485.336	80.75
485.554	85.75
485.772	99.75
485.99	89.75
486.209	104.75
486.427	99.75
486.645	133.75
486.863	96.75
487.081	105.75
487.299	103.75
487.517	84.75
487.735	73.75
487.953	78.75
488.171	81.75
488.389	82.75
488.607	113.75
488.825	97.75
489.043	101.75
489.261	105.75
489.479	89.75
489.696	99.75
489.914	84.75
490.132	88.75
490.35	89.75
490.568	89.75
490.786	78.75
491.003	81.75
491.221	90.75
491.439	88.75
491.657	96.75
491.874	102.75
492.092	97.75
492.31	82.75
492.527	90.75
492.745	88.75
492.963	75.75
493.18	86.75
493.398	91.75
493.615	88.75
493.833	93.75
494.05	96.75
494.268	94.75
494.485	82.75
494.703	81.75
494.92	71.75
495.138	76.75
495.355	86.75
495.573	90.75
495.79	79.75
496.008	93.75
496.225	91.75
496.442	84.75
496.66	92.75
496.877	84.75
497.094	108.75
497.312	91.75
497.529	85.75
497.746	81.75
497.963	92.75
498.181	101.75
498.398	83.75
498.615	111.75
498.832	100.75
499.049	92.75
499.267	85.75
499.484	89.75
499.701	98.75
499.918	84.75
500.135	80.75
500.352	98.75
500.569	98.75
500.786	86.75
501.003	100.75
501.22	78.75
501.437	99.75
501.654	84.75
501.871	100.75
502.088	92.75
502.305	87.75
502.522	86.75
502.739	96.75
502.956	88.75
503.172	97.75
503.389	91.75
503.606	100.75
503.823	100.75
504.04	87.75
504.256	99.75
504.473	102.75
504.69	89.75
504.907	92.75
505.123	78.75
505.34	91.75
505.557	91.75
505.773	82.75
505.99	84.75
506.207	101.75
506.423	86.75
506.64	85.75
506.856	89.75
507.073	82.75
507.289	84.75
507.506	90.75
507.722	108.75
507.939	93.75
508.155	75.75
508.372	80.75
508.588	95.75
508.805	97.75
509.021	81.75
509.238	102.75
509.454	99.75
509.67	94.75
509.887	103.75
510.103	126.75
510.319	188.75
510.536	646.75
510.752	2022.75
510.968	576.75
511.184	144.75
511.401	106.75
511.617	102.75
511.833	99.75
512.049	90.75
512.265	82.75
512.481	70.75
512.698	90.75
512.914	83.75
513.13	87.75
513.346	91.75
513.562	97.75
513.778	102.75
513.994	96.75
514.21	95.75
514.426	103.75
514.642	116.75
514.858	117.75
515.074	163.75
515.29	375.75
515.506	1228.75
515.721	471.75
515.937	142.75
