Data from Circ_2002_H10_HRD10591_00079.txt Node
Date: Wed Jan 03 10:41:14 EST 2024
User: Yrep
Spectrometer: HR+D1059
Trigger mode: 1
Integration Time (sec): 1.000000E-1
Scans to average: 1
Electric dark correction enabled: true
Nonlinearity correction enabled: false
Boxcar width: 0
XAxis mode: Wavelengths
Number of Pixels in Spectrum: 2048
>>>>>Begin Spectral Data<<<<<
223.165	-9.5
223.4	-9.5
223.635	-9.5
223.869	-25.5
224.104	-11.5
224.338	-23.5
224.573	-0.5
224.808	0.5
225.042	-11.5
225.277	-1.5
225.511	-4.5
225.746	2.5
225.98	-4.5
226.215	8.5
226.449	25.5
226.683	13.5
226.918	19.5
227.152	22.5
227.387	34.5
227.621	28.5
227.856	43.5
228.09	41.5
228.324	54.5
228.559	64.5
228.793	64.5
229.027	69.5
229.262	62.5
229.496	76.5
229.73	88.5
229.964	85.5
230.199	68.5
230.433	73.5
230.667	75.5
230.901	69.5
231.136	74.5
231.37	88.5
231.604	89.5
231.838	86.5
232.072	77.5
232.306	100.5
232.541	75.5
232.775	76.5
233.009	91.5
233.243	82.5
233.477	66.5
233.711	80.5
233.945	70.5
234.179	81.5
234.413	84.5
234.647	81.5
234.881	74.5
235.115	68.5
235.349	86.5
235.583	78.5
235.817	70.5
236.051	77.5
236.285	65.5
236.519	83.5
236.753	81.5
236.987	68.5
237.221	74.5
237.455	86.5
237.689	74.5
237.922	83.5
238.156	69.5
238.39	78.5
238.624	72.5
238.858	82.5
239.091	67.5
239.325	76.5
239.559	81.5
239.793	62.5
240.027	75.5
240.26	64.5
240.494	67.5
240.728	69.5
240.961	70.5
241.195	72.5
241.429	70.5
241.662	87.5
241.896	85.5
242.13	66.5
242.363	71.5
242.597	80.5
242.83	77.5
243.064	81.5
243.298	82.5
243.531	68.5
243.765	78.5
243.998	78.5
244.232	87.5
244.465	74.5
244.699	82.5
244.932	76.5
245.166	85.5
245.399	64.5
245.633	70.5
245.866	78.5
246.099	78.5
246.333	66.5
246.566	90.5
246.8	78.5
247.033	71.5
247.266	67.5
247.5	75.5
247.733	81.5
247.966	92.5
248.2	78.5
248.433	84.5
248.666	97.5
248.899	81.5
249.133	84.5
249.366	104.5
249.599	96.5
249.832	77.5
250.066	71.5
250.299	85.5
250.532	73.5
250.765	70.5
250.998	75.5
251.231	88.5
251.465	81.5
251.698	74.5
251.931	73.5
252.164	86.5
252.397	90.5
252.63	77.5
252.863	82.5
253.096	80.5
253.329	75.5
253.562	81.5
253.795	78.5
254.028	74.5
254.261	68.5
254.494	74.5
254.727	83.5
254.96	83.5
255.193	76.5
255.426	91.5
255.659	76.5
255.892	75.5
256.124	82.5
256.357	82.5
256.59	81.5
256.823	70.5
257.056	86.5
257.289	83.5
257.521	67.5
257.754	89.5
257.987	87.5
258.22	80.5
258.452	83.5
258.685	83.5
258.918	75.5
259.151	83.5
259.383	87.5
259.616	93.5
259.849	86.5
260.081	87.5
260.314	79.5
260.547	77.5
260.779	70.5
261.012	85.5
261.244	73.5
261.477	74.5
261.71	84.5
261.942	98.5
262.175	97.5
262.407	81.5
262.64	90.5
262.872	92.5
263.105	88.5
263.337	80.5
263.57	90.5
263.802	77.5
264.035	91.5
264.267	99.5
264.499	81.5
264.732	86.5
264.964	83.5
265.197	86.5
265.429	73.5
265.661	80.5
265.894	66.5
266.126	74.5
266.358	87.5
266.591	102.5
266.823	87.5
267.055	67.5
267.287	84.5
267.52	77.5
267.752	81.5
267.984	85.5
268.216	82.5
268.448	89.5
268.681	94.5
268.913	86.5
269.145	91.5
269.377	102.5
269.609	92.5
269.841	83.5
270.073	111.5
270.306	83.5
270.538	85.5
270.77	83.5
271.002	93.5
271.234	82.5
271.466	80.5
271.698	87.5
271.93	88.5
272.162	78.5
272.394	74.5
272.626	87.5
272.858	82.5
273.09	86.5
273.322	96.5
273.553	83.5
273.785	87.5
274.017	85.5
274.249	83.5
274.481	89.5
274.713	89.5
274.945	78.5
275.176	74.5
275.408	87.5
275.64	81.5
275.872	82.5
276.104	83.5
276.335	86.5
276.567	115.5
276.799	98.5
277.031	78.5
277.262	91.5
277.494	97.5
277.726	102.5
277.957	90.5
278.189	90.5
278.421	85.5
278.652	91.5
278.884	92.5
279.115	92.5
279.347	78.5
279.579	88.5
279.81	98.5
280.042	104.5
280.273	89.5
280.505	90.5
280.736	83.5
280.968	89.5
281.199	94.5
281.431	94.5
281.662	80.5
281.894	89.5
282.125	94.5
282.356	103.5
282.588	129.5
282.819	98.5
283.051	80.5
283.282	86.5
283.513	90.5
283.745	86.5
283.976	87.5
284.207	96.5
284.439	87.5
284.67	88.5
284.901	65.5
285.132	79.5
285.364	87.5
285.595	82.5
285.826	77.5
286.057	88.5
286.288	79.5
286.52	85.5
286.751	71.5
286.982	79.5
287.213	87.5
287.444	88.5
287.675	76.5
287.906	87.5
288.138	80.5
288.369	87.5
288.6	86.5
288.831	75.5
289.062	89.5
289.293	84.5
289.524	82.5
289.755	91.5
289.986	89.5
290.217	94.5
290.448	87.5
290.679	84.5
290.91	92.5
291.141	81.5
291.371	73.5
291.602	68.5
291.833	84.5
292.064	88.5
292.295	91.5
292.526	90.5
292.757	93.5
292.987	98.5
293.218	79.5
293.449	87.5
293.68	85.5
293.91	82.5
294.141	90.5
294.372	91.5
294.603	102.5
294.833	86.5
295.064	71.5
295.295	98.5
295.525	87.5
295.756	102.5
295.987	107.5
296.217	124.5
296.448	118.5
296.679	96.5
296.909	83.5
297.14	91.5
297.37	103.5
297.601	96.5
297.831	87.5
298.062	94.5
298.292	90.5
298.523	93.5
298.753	85.5
298.984	78.5
299.214	92.5
299.445	96.5
299.675	81.5
299.905	75.5
300.136	80.5
300.366	87.5
300.597	85.5
300.827	95.5
301.057	92.5
301.288	94.5
301.518	95.5
301.748	101.5
301.979	98.5
302.209	89.5
302.439	88.5
302.669	89.5
302.9	88.5
303.13	79.5
303.36	82.5
303.59	96.5
303.82	93.5
304.051	93.5
304.281	89.5
304.511	90.5
304.741	107.5
304.971	97.5
305.201	99.5
305.431	103.5
305.661	92.5
305.891	89.5
306.121	84.5
306.352	97.5
306.582	109.5
306.812	100.5
307.042	97.5
307.272	86.5
307.502	90.5
307.731	84.5
307.961	104.5
308.191	92.5
308.421	81.5
308.651	89.5
308.881	107.5
309.111	101.5
309.341	107.5
309.571	85.5
309.8	82.5
310.03	86.5
310.26	103.5
310.49	92.5
310.72	88.5
310.949	107.5
311.179	96.5
311.409	87.5
311.639	106.5
311.868	111.5
312.098	91.5
312.328	97.5
312.557	90.5
312.787	95.5
313.017	94.5
313.246	100.5
313.476	92.5
313.706	94.5
313.935	101.5
314.165	100.5
314.394	94.5
314.624	104.5
314.853	98.5
315.083	95.5
315.312	88.5
315.542	94.5
315.771	82.5
316.001	99.5
316.23	87.5
316.46	88.5
316.689	92.5
316.919	90.5
317.148	101.5
317.377	101.5
317.607	100.5
317.836	93.5
318.065	88.5
318.295	86.5
318.524	100.5
318.753	107.5
318.983	82.5
319.212	95.5
319.441	102.5
319.67	99.5
319.9	100.5
320.129	88.5
320.358	94.5
320.587	91.5
320.816	90.5
321.046	99.5
321.275	82.5
321.504	84.5
321.733	94.5
321.962	107.5
322.191	84.5
322.42	90.5
322.649	104.5
322.878	100.5
323.108	112.5
323.337	117.5
323.566	120.5
323.795	140.5
324.024	190.5
324.253	360.5
324.482	731.5
324.71	1559.5
324.939	2006.5
325.168	735.5
325.397	236.5
325.626	134.5
325.855	117.5
326.084	133.5
326.313	127.5
326.542	132.5
326.77	216.5
326.999	426.5
327.228	912.5
327.457	1594.5
327.686	1249.5
327.914	345.5
328.143	180.5
328.372	134.5
328.6	133.5
328.829	129.5
329.058	120.5
329.287	115.5
329.515	118.5
329.744	113.5
329.972	107.5
330.201	133.5
330.43	156.5
330.658	125.5
330.887	134.5
331.115	107.5
331.344	82.5
331.572	94.5
331.801	95.5
332.03	98.5
332.258	106.5
332.486	101.5
332.715	98.5
332.943	112.5
333.172	96.5
333.4	94.5
333.629	90.5
333.857	111.5
334.085	110.5
334.314	134.5
334.542	168.5
334.771	146.5
334.999	107.5
335.227	83.5
335.455	91.5
335.684	107.5
335.912	94.5
336.14	114.5
336.369	95.5
336.597	104.5
336.825	102.5
337.053	94.5
337.281	90.5
337.51	92.5
337.738	90.5
337.966	87.5
338.194	100.5
338.422	86.5
338.65	84.5
338.878	94.5
339.106	97.5
339.334	84.5
339.562	86.5
339.79	92.5
340.018	87.5
340.246	88.5
340.474	92.5
340.702	94.5
340.93	85.5
341.158	94.5
341.386	99.5
341.614	110.5
341.842	106.5
342.07	104.5
342.298	105.5
342.526	77.5
342.754	90.5
342.981	97.5
343.209	98.5
343.437	99.5
343.665	93.5
343.893	88.5
344.12	87.5
344.348	104.5
344.576	109.5
344.804	89.5
345.031	99.5
345.259	90.5
345.487	101.5
345.714	91.5
345.942	94.5
346.17	96.5
346.397	85.5
346.625	89.5
346.853	97.5
347.08	118.5
347.308	97.5
347.535	82.5
347.763	95.5
347.99	102.5
348.218	109.5
348.445	94.5
348.673	93.5
348.9	88.5
349.128	96.5
349.355	90.5
349.583	100.5
349.81	96.5
350.037	99.5
350.265	91.5
350.492	81.5
350.72	103.5
350.947	101.5
351.174	119.5
351.402	94.5
351.629	96.5
351.856	90.5
352.083	102.5
352.311	98.5
352.538	109.5
352.765	101.5
352.992	100.5
353.22	86.5
353.447	95.5
353.674	102.5
353.901	88.5
354.128	89.5
354.355	105.5
354.583	102.5
354.81	77.5
355.037	81.5
355.264	97.5
355.491	86.5
355.718	83.5
355.945	91.5
356.172	110.5
356.399	110.5
356.626	110.5
356.853	92.5
357.08	97.5
357.307	103.5
357.534	102.5
357.761	83.5
357.988	95.5
358.215	95.5
358.441	88.5
358.668	99.5
358.895	93.5
359.122	90.5
359.349	89.5
359.576	92.5
359.802	77.5
360.029	92.5
360.256	92.5
360.483	100.5
360.709	85.5
360.936	85.5
361.163	88.5
361.39	86.5
361.616	88.5
361.843	86.5
362.07	91.5
362.296	95.5
362.523	85.5
362.749	92.5
362.976	90.5
363.203	94.5
363.429	82.5
363.656	77.5
363.882	94.5
364.109	98.5
364.335	96.5
364.562	92.5
364.788	90.5
365.015	88.5
365.241	87.5
365.468	94.5
365.694	104.5
365.92	91.5
366.147	86.5
366.373	97.5
366.599	93.5
366.826	99.5
367.052	83.5
367.278	83.5
367.505	93.5
367.731	94.5
367.957	86.5
368.184	104.5
368.41	96.5
368.636	106.5
368.862	114.5
369.089	102.5
369.315	99.5
369.541	98.5
369.767	85.5
369.993	72.5
370.219	88.5
370.445	93.5
370.672	81.5
370.898	95.5
371.124	67.5
371.35	79.5
371.576	93.5
371.802	82.5
372.028	83.5
372.254	87.5
372.48	89.5
372.706	88.5
372.932	81.5
373.158	86.5
373.384	95.5
373.61	113.5
373.835	96.5
374.061	75.5
374.287	68.5
374.513	99.5
374.739	83.5
374.965	92.5
375.191	82.5
375.416	94.5
375.642	98.5
375.868	85.5
376.094	87.5
376.319	94.5
376.545	87.5
376.771	97.5
376.997	77.5
377.222	94.5
377.448	86.5
377.674	90.5
377.899	87.5
378.125	90.5
378.35	90.5
378.576	84.5
378.802	80.5
379.027	85.5
379.253	91.5
379.478	96.5
379.704	91.5
379.929	87.5
380.155	86.5
380.38	92.5
380.606	85.5
380.831	104.5
381.057	98.5
381.282	100.5
381.507	102.5
381.733	91.5
381.958	96.5
382.184	97.5
382.409	103.5
382.634	101.5
382.86	87.5
383.085	92.5
383.31	98.5
383.535	100.5
383.761	85.5
383.986	120.5
384.211	105.5
384.436	95.5
384.662	86.5
384.887	95.5
385.112	98.5
385.337	112.5
385.562	94.5
385.787	100.5
386.013	107.5
386.238	106.5
386.463	100.5
386.688	98.5
386.913	102.5
387.138	101.5
387.363	101.5
387.588	102.5
387.813	103.5
388.038	103.5
388.263	120.5
388.488	99.5
388.713	92.5
388.938	96.5
389.163	98.5
389.387	97.5
389.612	91.5
389.837	77.5
390.062	95.5
390.287	95.5
390.512	89.5
390.736	81.5
390.961	96.5
391.186	93.5
391.411	99.5
391.636	89.5
391.86	90.5
392.085	87.5
392.31	93.5
392.534	85.5
392.759	115.5
392.984	84.5
393.208	87.5
393.433	102.5
393.658	94.5
393.882	78.5
394.107	78.5
394.331	91.5
394.556	90.5
394.78	65.5
395.005	80.5
395.229	75.5
395.454	89.5
395.678	83.5
395.903	106.5
396.127	89.5
396.352	101.5
396.576	72.5
396.801	95.5
397.025	96.5
397.249	78.5
397.474	86.5
397.698	85.5
397.922	91.5
398.147	75.5
398.371	81.5
398.595	70.5
398.82	91.5
399.044	86.5
399.268	97.5
399.492	75.5
399.717	96.5
399.941	93.5
400.165	90.5
400.389	92.5
400.613	73.5
400.837	83.5
401.062	76.5
401.286	89.5
401.51	94.5
401.734	91.5
401.958	114.5
402.182	109.5
402.406	152.5
402.63	101.5
402.854	79.5
403.078	91.5
403.302	91.5
403.526	82.5
403.75	95.5
403.974	101.5
404.198	71.5
404.422	85.5
404.645	91.5
404.869	95.5
405.093	87.5
405.317	108.5
405.541	89.5
405.765	100.5
405.988	99.5
406.212	147.5
406.436	190.5
406.66	142.5
406.883	82.5
407.107	90.5
407.331	85.5
407.555	96.5
407.778	101.5
408.002	88.5
408.226	88.5
408.449	93.5
408.673	90.5
408.896	89.5
409.12	98.5
409.344	94.5
409.567	86.5
409.791	87.5
410.014	91.5
410.238	102.5
410.461	77.5
410.685	89.5
410.908	104.5
411.132	103.5
411.355	83.5
411.578	92.5
411.802	86.5
412.025	87.5
412.249	95.5
412.472	110.5
412.695	101.5
412.919	101.5
413.142	86.5
413.365	98.5
413.589	88.5
413.812	85.5
414.035	79.5
414.258	83.5
414.482	98.5
414.705	96.5
414.928	90.5
415.151	92.5
415.374	91.5
415.597	92.5
415.821	88.5
416.044	81.5
416.267	89.5
416.49	91.5
416.713	86.5
416.936	78.5
417.159	92.5
417.382	89.5
417.605	96.5
417.828	94.5
418.051	86.5
418.274	100.5
418.497	90.5
418.72	89.5
418.943	91.5
419.166	71.5
419.389	91.5
419.611	82.5
419.834	68.5
420.057	96.5
420.28	88.5
420.503	72.5
420.726	79.5
420.948	86.5
421.171	87.5
421.394	89.5
421.617	84.5
421.839	76.5
422.062	84.5
422.285	98.5
422.507	92.5
422.73	96.5
422.953	98.5
423.175	89.5
423.398	92.5
423.621	91.5
423.843	83.5
424.066	76.5
424.288	80.5
424.511	82.5
424.733	99.5
424.956	105.5
425.178	99.5
425.401	98.5
425.623	101.5
425.846	90.5
426.068	101.5
426.291	82.5
426.513	80.5
426.735	83.5
426.958	92.5
427.18	103.5
427.402	131.5
427.625	151.5
427.847	116.5
428.069	111.5
428.292	98.5
428.514	85.5
428.736	83.5
428.958	77.5
429.181	86.5
429.403	73.5
429.625	78.5
429.847	68.5
430.069	86.5
430.292	92.5
430.514	81.5
430.736	83.5
430.958	89.5
431.18	84.5
431.402	88.5
431.624	85.5
431.846	86.5
432.068	96.5
432.29	81.5
432.512	90.5
432.734	79.5
432.956	92.5
433.178	90.5
433.4	91.5
433.622	81.5
433.844	87.5
434.066	90.5
434.287	86.5
434.509	86.5
434.731	80.5
434.953	97.5
435.175	102.5
435.397	87.5
435.618	88.5
435.84	108.5
436.062	99.5
436.284	101.5
436.505	115.5
436.727	91.5
436.949	85.5
437.17	94.5
437.392	104.5
437.614	73.5
437.835	97.5
438.057	89.5
438.278	100.5
438.5	97.5
438.721	114.5
438.943	91.5
439.165	85.5
439.386	86.5
439.608	88.5
439.829	108.5
440.05	97.5
440.272	136.5
440.493	100.5
440.715	75.5
440.936	96.5
441.158	81.5
441.379	85.5
441.6	90.5
441.822	93.5
442.043	82.5
442.264	100.5
442.486	91.5
442.707	115.5
442.928	100.5
443.149	122.5
443.371	120.5
443.592	105.5
443.813	108.5
444.034	111.5
444.255	99.5
444.476	87.5
444.698	87.5
444.919	95.5
445.14	134.5
445.361	132.5
445.582	119.5
445.803	118.5
446.024	126.5
446.245	128.5
446.466	113.5
446.687	84.5
446.908	85.5
447.129	88.5
447.35	87.5
447.571	77.5
447.792	89.5
448.013	99.5
448.234	94.5
448.455	96.5
448.675	110.5
448.896	83.5
449.117	86.5
449.338	96.5
449.559	106.5
449.779	121.5
450	92.5
450.221	76.5
450.442	82.5
450.662	76.5
450.883	103.5
451.104	102.5
451.324	96.5
451.545	91.5
451.766	92.5
451.986	92.5
452.207	88.5
452.428	92.5
452.648	78.5
452.869	97.5
453.089	109.5
453.31	104.5
453.53	99.5
453.751	91.5
453.971	94.5
454.192	97.5
454.412	81.5
454.633	83.5
454.853	102.5
455.073	82.5
455.294	85.5
455.514	95.5
455.734	96.5
455.955	78.5
456.175	75.5
456.395	74.5
456.616	81.5
456.836	81.5
457.056	74.5
457.276	88.5
457.497	89.5
457.717	82.5
457.937	71.5
458.157	89.5
458.377	75.5
458.598	108.5
458.818	132.5
459.038	154.5
459.258	96.5
459.478	93.5
459.698	100.5
459.918	90.5
460.138	90.5
460.358	85.5
460.578	76.5
460.798	90.5
461.018	102.5
461.238	82.5
461.458	84.5
461.678	96.5
461.898	72.5
462.118	90.5
462.338	74.5
462.558	84.5
462.777	78.5
462.997	97.5
463.217	92.5
463.437	87.5
463.657	78.5
463.876	92.5
464.096	85.5
464.316	83.5
464.536	80.5
464.755	92.5
464.975	81.5
465.195	123.5
465.414	146.5
465.634	78.5
465.854	74.5
466.073	74.5
466.293	74.5
466.512	79.5
466.732	77.5
466.951	91.5
467.171	96.5
467.391	94.5
467.61	89.5
467.829	95.5
468.049	106.5
468.268	103.5
468.488	67.5
468.707	89.5
468.927	89.5
469.146	90.5
469.365	82.5
469.585	94.5
469.804	98.5
470.023	99.5
470.243	80.5
470.462	103.5
470.681	103.5
470.901	87.5
471.12	75.5
471.339	85.5
471.558	71.5
471.777	77.5
471.997	92.5
472.216	132.5
472.435	196.5
472.654	103.5
472.873	96.5
473.092	94.5
473.311	89.5
473.53	82.5
473.749	87.5
473.968	97.5
474.187	105.5
474.406	95.5
474.625	88.5
474.844	84.5
475.063	82.5
475.282	71.5
475.501	81.5
475.72	74.5
475.939	86.5
476.158	80.5
476.377	95.5
476.596	91.5
476.814	83.5
477.033	87.5
477.252	84.5
477.471	91.5
477.69	82.5
477.908	82.5
478.127	91.5
478.346	81.5
478.564	77.5
478.783	99.5
479.002	92.5
479.22	86.5
479.439	104.5
479.658	101.5
479.876	88.5
480.095	83.5
480.313	101.5
480.532	89.5
480.751	98.5
480.969	118.5
481.188	265.5
481.406	181.5
481.624	99.5
481.843	79.5
482.061	78.5
482.28	100.5
482.498	86.5
482.717	94.5
482.935	100.5
483.153	102.5
483.372	86.5
483.59	84.5
483.808	84.5
484.027	91.5
484.245	87.5
484.463	110.5
484.681	104.5
484.9	93.5
485.118	84.5
485.336	89.5
485.554	88.5
485.772	103.5
485.99	105.5
486.209	105.5
486.427	110.5
486.645	112.5
486.863	121.5
487.081	110.5
487.299	96.5
487.517	89.5
487.735	95.5
487.953	96.5
488.171	82.5
488.389	94.5
488.607	78.5
488.825	72.5
489.043	74.5
489.261	88.5
489.479	85.5
489.696	83.5
489.914	96.5
490.132	91.5
490.35	79.5
490.568	68.5
490.786	88.5
491.003	90.5
491.221	89.5
491.439	100.5
491.657	75.5
491.874	87.5
492.092	92.5
492.31	92.5
492.527	83.5
492.745	99.5
492.963	83.5
493.18	95.5
493.398	96.5
493.615	97.5
493.833	82.5
494.05	84.5
494.268	88.5
494.485	82.5
494.703	104.5
494.92	93.5
495.138	81.5
495.355	104.5
495.573	84.5
495.79	92.5
496.008	103.5
496.225	89.5
496.442	82.5
496.66	82.5
496.877	89.5
497.094	87.5
497.312	85.5
497.529	100.5
497.746	85.5
497.963	76.5
498.181	96.5
498.398	84.5
498.615	101.5
498.832	92.5
499.049	95.5
499.267	98.5
499.484	82.5
499.701	92.5
499.918	86.5
500.135	90.5
500.352	84.5
500.569	91.5
500.786	87.5
501.003	79.5
501.22	85.5
501.437	94.5
501.654	85.5
501.871	104.5
502.088	97.5
502.305	101.5
502.522	100.5
502.739	90.5
502.956	79.5
503.172	85.5
503.389	100.5
503.606	100.5
503.823	84.5
504.04	98.5
504.256	78.5
504.473	90.5
504.69	86.5
504.907	94.5
505.123	99.5
505.34	88.5
505.557	87.5
505.773	99.5
505.99	97.5
506.207	83.5
506.423	92.5
506.64	94.5
506.856	90.5
507.073	90.5
507.289	91.5
507.506	100.5
507.722	83.5
507.939	94.5
508.155	100.5
508.372	84.5
508.588	85.5
508.805	92.5
509.021	92.5
509.238	107.5
509.454	97.5
509.67	99.5
509.887	100.5
510.103	113.5
510.319	187.5
510.536	605.5
510.752	1854.5
510.968	544.5
511.184	123.5
511.401	100.5
511.617	89.5
511.833	95.5
512.049	86.5
512.265	96.5
512.481	101.5
512.698	90.5
512.914	92.5
513.13	82.5
513.346	79.5
513.562	83.5
513.778	95.5
513.994	82.5
514.21	92.5
514.426	117.5
514.642	114.5
514.858	100.5
515.074	155.5
515.29	356.5
515.506	1094.5
515.721	424.5
515.937	132.5
516.153	106.5
516.369	94.5
516.585	94.5
516.801	97.5
517.016	88.5
517.232	97.5
517.448	98.5
517.664	86.5
517.879	84.5
518.095	84.5
518.311	97.5
518.527	83.5
518.742	83.5
518.958	91.5
519.173	84.5
519.389	84.5
519.605	97.5
519.82	113.5
520.036	105.5
520.251	110.5
520.467	93.5
520.682	97.5
520.898	87.5
521.113	111.5
521.329	115.5
521.544	176.5
521.76	442.5
521.975	1840.5
522.19	1106.5
522.406	262.5
522.621	97.5
522.836	86.5
523.052	91.5
523.267	96.5
523.482	85.5
523.698	106.5
523.913	111.5
524.128	110.5
524.343	100.5
524.559	97.5
524.774	89.5
524.989	94.5
525.204	108.5
525.419	90.5
525.634	79.5
525.849	90.5
526.064	79.5
526.28	100.5
526.495	90.5
526.71	85.5
526.925	87.5
527.14	90.5
527.355	89.5
527.57	73.5
527.785	83.5
527.999	82.5
528.214	96.5
528.429	98.5
528.644	100.5
528.859	86.5
529.074	99.5
529.289	112.5
529.503	154.5
529.718	111.5
529.933	95.5
530.148	77.5
530.363	90.5
530.577	80.5
530.792	85.5
531.007	92.5
531.221	91.5
531.436	81.5
531.651	91.5
531.865	78.5
532.08	83.5
532.295	86.5
532.509	84.5
532.724	86.5
532.938	87.5
533.153	97.5
533.367	94.5
533.582	98.5
533.796	90.5
534.011	91.5
534.225	90.5
534.44	105.5
534.654	83.5
534.868	92.5
535.083	103.5
535.297	82.5
535.511	87.5
535.726	110.5
535.94	93.5
