Data from Circ_2002_H10_HRD10591_00006.txt Node
Date: Wed Jan 03 10:40:59 EST 2024
User: Yrep
Spectrometer: HR+D1059
Trigger mode: 1
Integration Time (sec): 1.000000E-1
Scans to average: 1
Electric dark correction enabled: true
Nonlinearity correction enabled: false
Boxcar width: 0
XAxis mode: Wavelengths
Number of Pixels in Spectrum: 2048
>>>>>Begin Spectral Data<<<<<
223.165	-25.88
223.4	-25.88
223.635	-25.88
223.869	-17.88
224.104	-14.88
224.338	-8.88
224.573	-10.88
224.808	-15.88
225.042	-19.88
225.277	-2.88
225.511	-6.88
225.746	5.12
225.98	21.12
226.215	14.12
226.449	17.12
226.683	17.12
226.918	28.12
227.152	21.12
227.387	42.12
227.621	45.12
227.856	59.12
228.09	39.12
228.324	63.12
228.559	50.12
228.793	61.12
229.027	61.12
229.262	64.12
229.496	72.12
229.73	85.12
229.964	81.12
230.199	88.12
230.433	93.12
230.667	75.12
230.901	75.12
231.136	82.12
231.37	80.12
231.604	86.12
231.838	88.12
232.072	100.12
232.306	91.12
232.541	86.12
232.775	86.12
233.009	101.12
233.243	77.12
233.477	93.12
233.711	75.12
233.945	83.12
234.179	103.12
234.413	84.12
234.647	91.12
234.881	92.12
235.115	88.12
235.349	83.12
235.583	64.12
235.817	89.12
236.051	98.12
236.285	103.12
236.519	87.12
236.753	85.12
236.987	85.12
237.221	86.12
237.455	80.12
237.689	88.12
237.922	75.12
238.156	82.12
238.39	87.12
238.624	71.12
238.858	75.12
239.091	96.12
239.325	78.12
239.559	78.12
239.793	72.12
240.027	62.12
240.26	73.12
240.494	90.12
240.728	65.12
240.961	59.12
241.195	85.12
241.429	78.12
241.662	88.12
241.896	82.12
242.13	77.12
242.363	93.12
242.597	83.12
242.83	70.12
243.064	79.12
243.298	89.12
243.531	80.12
243.765	80.12
243.998	60.12
244.232	87.12
244.465	83.12
244.699	99.12
244.932	77.12
245.166	77.12
245.399	81.12
245.633	89.12
245.866	84.12
246.099	77.12
246.333	80.12
246.566	77.12
246.8	78.12
247.033	88.12
247.266	88.12
247.5	85.12
247.733	83.12
247.966	87.12
248.2	88.12
248.433	75.12
248.666	79.12
248.899	96.12
249.133	88.12
249.366	91.12
249.599	85.12
249.832	84.12
250.066	69.12
250.299	81.12
250.532	86.12
250.765	92.12
250.998	97.12
251.231	69.12
251.465	89.12
251.698	89.12
251.931	104.12
252.164	83.12
252.397	89.12
252.63	78.12
252.863	85.12
253.096	78.12
253.329	78.12
253.562	87.12
253.795	85.12
254.028	101.12
254.261	89.12
254.494	92.12
254.727	68.12
254.96	74.12
255.193	95.12
255.426	95.12
255.659	101.12
255.892	88.12
256.124	75.12
256.357	70.12
256.59	89.12
256.823	81.12
257.056	75.12
257.289	80.12
257.521	90.12
257.754	98.12
257.987	92.12
258.22	82.12
258.452	80.12
258.685	69.12
258.918	76.12
259.151	71.12
259.383	63.12
259.616	89.12
259.849	86.12
260.081	83.12
260.314	77.12
260.547	92.12
260.779	87.12
261.012	91.12
261.244	96.12
261.477	96.12
261.71	92.12
261.942	103.12
262.175	83.12
262.407	88.12
262.64	85.12
262.872	86.12
263.105	83.12
263.337	97.12
263.57	64.12
263.802	71.12
264.035	79.12
264.267	87.12
264.499	91.12
264.732	93.12
264.964	87.12
265.197	88.12
265.429	96.12
265.661	75.12
265.894	84.12
266.126	75.12
266.358	92.12
266.591	89.12
266.823	100.12
267.055	73.12
267.287	100.12
267.52	83.12
267.752	83.12
267.984	97.12
268.216	91.12
268.448	96.12
268.681	92.12
268.913	97.12
269.145	75.12
269.377	89.12
269.609	87.12
269.841	91.12
270.073	94.12
270.306	87.12
270.538	87.12
270.77	91.12
271.002	102.12
271.234	87.12
271.466	92.12
271.698	95.12
271.93	80.12
272.162	85.12
272.394	81.12
272.626	85.12
272.858	79.12
273.09	86.12
273.322	87.12
273.553	92.12
273.785	91.12
274.017	94.12
274.249	87.12
274.481	79.12
274.713	78.12
274.945	81.12
275.176	88.12
275.408	93.12
275.64	91.12
275.872	88.12
276.104	85.12
276.335	96.12
276.567	106.12
276.799	101.12
277.031	90.12
277.262	83.12
277.494	88.12
277.726	86.12
277.957	99.12
278.189	100.12
278.421	92.12
278.652	96.12
278.884	93.12
279.115	85.12
279.347	93.12
279.579	101.12
279.81	88.12
280.042	86.12
280.273	93.12
280.505	98.12
280.736	73.12
280.968	76.12
281.199	97.12
281.431	77.12
281.662	111.12
281.894	80.12
282.125	92.12
282.356	96.12
282.588	116.12
282.819	107.12
283.051	97.12
283.282	95.12
283.513	91.12
283.745	92.12
283.976	86.12
284.207	88.12
284.439	89.12
284.67	103.12
284.901	92.12
285.132	77.12
285.364	82.12
285.595	99.12
285.826	91.12
286.057	92.12
286.288	95.12
286.52	97.12
286.751	97.12
286.982	98.12
287.213	105.12
287.444	90.12
287.675	77.12
287.906	80.12
288.138	88.12
288.369	97.12
288.6	115.12
288.831	111.12
289.062	85.12
289.293	90.12
289.524	74.12
289.755	96.12
289.986	92.12
290.217	95.12
290.448	92.12
290.679	101.12
290.91	93.12
291.141	92.12
291.371	89.12
291.602	80.12
291.833	87.12
292.064	81.12
292.295	78.12
292.526	88.12
292.757	87.12
292.987	93.12
293.218	107.12
293.449	93.12
293.68	90.12
293.91	85.12
294.141	87.12
294.372	84.12
294.603	103.12
294.833	71.12
295.064	94.12
295.295	111.12
295.525	93.12
295.756	94.12
295.987	99.12
296.217	111.12
296.448	102.12
296.679	101.12
296.909	90.12
297.14	90.12
297.37	86.12
297.601	76.12
297.831	87.12
298.062	100.12
298.292	96.12
298.523	104.12
298.753	93.12
298.984	78.12
299.214	84.12
299.445	92.12
299.675	94.12
299.905	96.12
300.136	93.12
300.366	91.12
300.597	88.12
300.827	89.12
301.057	99.12
301.288	93.12
301.518	93.12
301.748	106.12
301.979	113.12
302.209	79.12
302.439	100.12
302.669	91.12
302.9	95.12
303.13	87.12
303.36	97.12
303.59	91.12
303.82	113.12
304.051	87.12
304.281	99.12
304.511	98.12
304.741	106.12
304.971	97.12
305.201	97.12
305.431	99.12
305.661	103.12
305.891	88.12
306.121	111.12
306.352	100.12
306.582	92.12
306.812	92.12
307.042	93.12
307.272	97.12
307.502	90.12
307.731	101.12
307.961	101.12
308.191	102.12
308.421	91.12
308.651	94.12
308.881	95.12
309.111	90.12
309.341	94.12
309.571	100.12
309.8	97.12
310.03	96.12
310.26	102.12
310.49	83.12
310.72	115.12
310.949	99.12
311.179	106.12
311.409	96.12
311.639	88.12
311.868	86.12
312.098	88.12
312.328	110.12
312.557	98.12
312.787	95.12
313.017	93.12
313.246	83.12
313.476	104.12
313.706	93.12
313.935	103.12
314.165	90.12
314.394	100.12
314.624	97.12
314.853	85.12
315.083	95.12
315.312	89.12
315.542	91.12
315.771	93.12
316.001	92.12
316.23	96.12
316.46	106.12
316.689	101.12
316.919	82.12
317.148	94.12
317.377	94.12
317.607	84.12
317.836	101.12
318.065	91.12
318.295	105.12
318.524	90.12
318.753	88.12
318.983	97.12
319.212	99.12
319.441	106.12
319.67	104.12
319.9	94.12
320.129	99.12
320.358	104.12
320.587	98.12
320.816	95.12
321.046	96.12
321.275	89.12
321.504	96.12
321.733	95.12
321.962	79.12
322.191	115.12
322.42	96.12
322.649	106.12
322.878	107.12
323.108	115.12
323.337	112.12
323.566	128.12
323.795	134.12
324.024	174.12
324.253	284.12
324.482	560.12
324.71	1133.12
324.939	1487.12
325.168	553.12
325.397	191.12
325.626	126.12
325.855	110.12
326.084	116.12
326.313	138.12
326.542	119.12
326.77	187.12
326.999	343.12
327.228	668.12
327.457	1201.12
327.686	965.12
327.914	264.12
328.143	176.12
328.372	122.12
328.6	103.12
328.829	114.12
329.058	104.12
329.287	103.12
329.515	110.12
329.744	104.12
329.972	89.12
330.201	110.12
330.43	113.12
330.658	103.12
330.887	108.12
331.115	100.12
331.344	111.12
331.572	87.12
331.801	92.12
332.03	101.12
332.258	115.12
332.486	87.12
332.715	96.12
332.943	102.12
333.172	88.12
333.4	97.12
333.629	101.12
333.857	115.12
334.085	103.12
334.314	103.12
334.542	107.12
334.771	108.12
334.999	103.12
335.227	85.12
335.455	92.12
335.684	91.12
335.912	104.12
336.14	97.12
336.369	99.12
336.597	94.12
336.825	91.12
337.053	97.12
337.281	104.12
337.51	97.12
337.738	114.12
337.966	106.12
338.194	103.12
338.422	108.12
338.65	103.12
338.878	99.12
339.106	85.12
339.334	105.12
339.562	89.12
339.79	113.12
340.018	103.12
340.246	95.12
340.474	110.12
340.702	101.12
340.93	95.12
341.158	92.12
341.386	95.12
341.614	96.12
341.842	88.12
342.07	91.12
342.298	95.12
342.526	99.12
342.754	102.12
342.981	91.12
343.209	84.12
343.437	100.12
343.665	104.12
343.893	102.12
344.12	100.12
344.348	91.12
344.576	102.12
344.804	101.12
345.031	86.12
345.259	94.12
345.487	97.12
345.714	97.12
345.942	107.12
346.17	94.12
346.397	105.12
346.625	87.12
346.853	94.12
347.08	95.12
347.308	100.12
347.535	101.12
347.763	119.12
347.99	87.12
348.218	91.12
348.445	118.12
348.673	108.12
348.9	80.12
349.128	88.12
349.355	95.12
349.583	79.12
349.81	85.12
350.037	88.12
350.265	84.12
350.492	107.12
350.72	101.12
350.947	96.12
351.174	108.12
351.402	104.12
351.629	110.12
351.856	107.12
352.083	92.12
352.311	111.12
352.538	108.12
352.765	110.12
352.992	94.12
353.22	112.12
353.447	108.12
353.674	106.12
353.901	96.12
354.128	94.12
354.355	113.12
354.583	114.12
354.81	106.12
355.037	97.12
355.264	106.12
355.491	103.12
355.718	88.12
355.945	102.12
356.172	100.12
356.399	94.12
356.626	120.12
356.853	93.12
357.08	93.12
357.307	85.12
357.534	118.12
357.761	111.12
357.988	120.12
358.215	105.12
358.441	106.12
358.668	101.12
358.895	84.12
359.122	86.12
359.349	92.12
359.576	102.12
359.802	103.12
360.029	111.12
360.256	112.12
360.483	110.12
360.709	102.12
360.936	89.12
361.163	95.12
361.39	97.12
361.616	105.12
361.843	88.12
362.07	94.12
362.296	97.12
362.523	96.12
362.749	89.12
362.976	79.12
363.203	99.12
363.429	102.12
363.656	93.12
363.882	96.12
364.109	95.12
364.335	100.12
364.562	98.12
364.788	111.12
365.015	93.12
365.241	92.12
365.468	92.12
365.694	97.12
365.92	96.12
366.147	92.12
366.373	85.12
366.599	85.12
366.826	103.12
367.052	96.12
367.278	97.12
367.505	91.12
367.731	92.12
367.957	89.12
368.184	87.12
368.41	103.12
368.636	107.12
368.862	92.12
369.089	101.12
369.315	103.12
369.541	97.12
369.767	77.12
369.993	101.12
370.219	92.12
370.445	97.12
370.672	95.12
370.898	88.12
371.124	102.12
371.35	88.12
371.576	92.12
371.802	91.12
372.028	87.12
372.254	106.12
372.48	100.12
372.706	89.12
372.932	90.12
373.158	88.12
373.384	108.12
373.61	98.12
373.835	100.12
374.061	100.12
374.287	90.12
374.513	93.12
374.739	83.12
374.965	80.12
375.191	94.12
375.416	98.12
375.642	93.12
375.868	83.12
376.094	101.12
376.319	97.12
376.545	96.12
376.771	102.12
376.997	102.12
377.222	104.12
377.448	107.12
377.674	108.12
377.899	104.12
378.125	104.12
378.35	123.12
378.576	89.12
378.802	98.12
379.027	105.12
379.253	119.12
379.478	98.12
379.704	97.12
379.929	108.12
380.155	107.12
380.38	108.12
380.606	100.12
380.831	119.12
381.057	115.12
381.282	106.12
381.507	107.12
381.733	115.12
381.958	116.12
382.184	108.12
382.409	110.12
382.634	119.12
382.86	110.12
383.085	124.12
383.31	118.12
383.535	111.12
383.761	127.12
383.986	125.12
384.211	122.12
384.436	132.12
384.662	111.12
384.887	119.12
385.112	139.12
385.337	131.12
385.562	125.12
385.787	108.12
386.013	137.12
386.238	139.12
386.463	127.12
386.688	123.12
386.913	128.12
387.138	136.12
387.363	120.12
387.588	107.12
387.813	121.12
388.038	143.12
388.263	144.12
388.488	134.12
388.713	98.12
388.938	103.12
389.163	113.12
389.387	88.12
389.612	88.12
389.837	93.12
390.062	111.12
390.287	105.12
390.512	96.12
390.736	91.12
390.961	91.12
391.186	109.12
391.411	112.12
391.636	88.12
391.86	88.12
392.085	92.12
392.31	91.12
392.534	93.12
392.759	112.12
392.984	94.12
393.208	96.12
393.433	117.12
393.658	93.12
393.882	97.12
394.107	79.12
394.331	83.12
394.556	81.12
394.78	97.12
395.005	83.12
395.229	81.12
395.454	97.12
395.678	90.12
395.903	92.12
396.127	95.12
396.352	97.12
396.576	92.12
396.801	108.12
397.025	104.12
397.249	96.12
397.474	112.12
397.698	90.12
397.922	100.12
398.147	97.12
398.371	98.12
398.595	93.12
398.82	92.12
399.044	91.12
399.268	96.12
399.492	92.12
399.717	91.12
399.941	84.12
400.165	103.12
400.389	81.12
400.613	96.12
400.837	95.12
401.062	86.12
401.286	82.12
401.51	97.12
401.734	82.12
401.958	92.12
402.182	100.12
402.406	118.12
402.63	115.12
402.854	88.12
403.078	84.12
403.302	80.12
403.526	101.12
403.75	94.12
403.974	87.12
404.198	80.12
404.422	91.12
404.645	92.12
404.869	101.12
405.093	91.12
405.317	84.12
405.541	113.12
405.765	101.12
405.988	104.12
406.212	141.12
406.436	160.12
406.66	120.12
406.883	104.12
407.107	104.12
407.331	86.12
407.555	108.12
407.778	92.12
408.002	103.12
408.226	99.12
408.449	108.12
408.673	107.12
408.896	108.12
409.12	93.12
409.344	85.12
409.567	94.12
409.791	98.12
410.014	81.12
410.238	86.12
410.461	100.12
410.685	116.12
410.908	97.12
411.132	100.12
411.355	102.12
411.578	91.12
411.802	91.12
412.025	96.12
412.249	96.12
412.472	89.12
412.695	108.12
412.919	91.12
413.142	97.12
413.365	99.12
413.589	105.12
413.812	110.12
414.035	101.12
414.258	87.12
414.482	109.12
414.705	97.12
414.928	94.12
415.151	104.12
415.374	108.12
415.597	89.12
415.821	87.12
416.044	97.12
416.267	89.12
416.49	88.12
416.713	88.12
416.936	95.12
417.159	92.12
417.382	93.12
417.605	89.12
417.828	90.12
418.051	89.12
418.274	86.12
418.497	88.12
418.72	96.12
418.943	100.12
419.166	92.12
419.389	103.12
419.611	77.12
419.834	91.12
420.057	89.12
420.28	93.12
420.503	93.12
420.726	105.12
420.948	89.12
421.171	101.12
421.394	84.12
421.617	97.12
421.839	102.12
422.062	96.12
422.285	93.12
422.507	107.12
422.73	106.12
422.953	103.12
423.175	93.12
423.398	99.12
423.621	80.12
423.843	82.12
424.066	93.12
424.288	89.12
424.511	94.12
424.733	91.12
424.956	100.12
425.178	82.12
425.401	92.12
425.623	104.12
425.846	99.12
426.068	91.12
426.291	86.12
426.513	84.12
426.735	87.12
426.958	112.12
427.18	91.12
427.402	135.12
427.625	138.12
427.847	111.12
428.069	99.12
428.292	84.12
428.514	86.12
428.736	83.12
428.958	92.12
429.181	82.12
429.403	107.12
429.625	86.12
429.847	91.12
430.069	87.12
430.292	76.12
430.514	78.12
430.736	91.12
430.958	93.12
431.18	90.12
431.402	88.12
431.624	95.12
431.846	93.12
432.068	91.12
432.29	80.12
432.512	100.12
432.734	98.12
432.956	96.12
433.178	103.12
433.4	113.12
433.622	103.12
433.844	100.12
434.066	97.12
434.287	94.12
434.509	89.12
434.731	105.12
434.953	92.12
435.175	92.12
435.397	92.12
435.618	88.12
435.84	96.12
436.062	112.12
436.284	100.12
436.505	102.12
436.727	96.12
436.949	107.12
437.17	91.12
437.392	82.12
437.614	92.12
437.835	100.12
438.057	107.12
438.278	100.12
438.5	91.12
438.721	115.12
438.943	108.12
439.165	82.12
439.386	75.12
439.608	111.12
439.829	100.12
440.05	106.12
440.272	121.12
440.493	99.12
440.715	86.12
440.936	90.12
441.158	102.12
441.379	93.12
441.6	94.12
441.822	102.12
442.043	97.12
442.264	90.12
442.486	85.12
442.707	86.12
442.928	98.12
443.149	112.12
443.371	113.12
443.592	92.12
443.813	86.12
444.034	106.12
444.255	96.12
444.476	91.12
444.698	95.12
444.919	94.12
445.14	151.12
445.361	116.12
445.582	95.12
445.803	117.12
446.024	131.12
446.245	131.12
446.466	97.12
446.687	86.12
446.908	86.12
447.129	94.12
447.35	110.12
447.571	87.12
447.792	86.12
448.013	86.12
448.234	105.12
448.455	98.12
448.675	93.12
448.896	116.12
449.117	84.12
449.338	80.12
449.559	119.12
449.779	111.12
450	92.12
450.221	93.12
450.442	102.12
450.662	93.12
450.883	95.12
451.104	118.12
451.324	94.12
451.545	102.12
451.766	94.12
451.986	79.12
452.207	76.12
452.428	92.12
452.648	93.12
452.869	111.12
453.089	91.12
453.31	92.12
453.53	92.12
453.751	85.12
453.971	100.12
454.192	91.12
454.412	103.12
454.633	84.12
454.853	92.12
455.073	101.12
455.294	92.12
455.514	98.12
455.734	97.12
455.955	88.12
456.175	88.12
456.395	89.12
456.616	87.12
456.836	84.12
457.056	94.12
457.276	79.12
457.497	83.12
457.717	101.12
457.937	83.12
458.157	86.12
458.377	84.12
458.598	101.12
458.818	111.12
459.038	135.12
459.258	97.12
459.478	97.12
459.698	92.12
459.918	88.12
460.138	89.12
460.358	88.12
460.578	87.12
460.798	90.12
461.018	89.12
461.238	96.12
461.458	91.12
461.678	83.12
461.898	95.12
462.118	86.12
462.338	79.12
462.558	100.12
462.777	84.12
462.997	76.12
463.217	85.12
463.437	76.12
463.657	86.12
463.876	96.12
464.096	78.12
464.316	104.12
464.536	93.12
464.755	96.12
464.975	93.12
465.195	120.12
465.414	116.12
465.634	97.12
465.854	96.12
466.073	100.12
466.293	78.12
466.512	89.12
466.732	91.12
466.951	97.12
467.171	100.12
467.391	97.12
467.61	101.12
467.829	105.12
468.049	104.12
468.268	98.12
468.488	87.12
468.707	91.12
468.927	80.12
469.146	87.12
469.365	92.12
469.585	94.12
469.804	99.12
470.023	84.12
470.243	93.12
470.462	95.12
470.681	99.12
470.901	94.12
471.12	96.12
471.339	100.12
471.558	96.12
471.777	86.12
471.997	101.12
472.216	95.12
472.435	112.12
472.654	83.12
472.873	87.12
473.092	94.12
473.311	89.12
473.53	85.12
473.749	95.12
473.968	109.12
474.187	104.12
474.406	96.12
474.625	95.12
474.844	85.12
475.063	90.12
475.282	87.12
475.501	99.12
475.72	89.12
475.939	86.12
476.158	82.12
476.377	96.12
476.596	90.12
476.814	96.12
477.033	81.12
477.252	89.12
477.471	94.12
477.69	89.12
477.908	81.12
478.127	72.12
478.346	79.12
478.564	83.12
478.783	97.12
479.002	96.12
479.22	97.12
479.439	84.12
479.658	91.12
479.876	88.12
480.095	91.12
480.313	83.12
480.532	86.12
480.751	101.12
480.969	101.12
481.188	99.12
481.406	89.12
481.624	103.12
481.843	97.12
482.061	90.12
482.28	85.12
482.498	97.12
482.717	94.12
482.935	79.12
483.153	105.12
483.372	101.12
483.59	100.12
483.808	99.12
484.027	107.12
484.245	105.12
484.463	96.12
484.681	99.12
484.9	86.12
485.118	103.12
485.336	87.12
485.554	92.12
485.772	99.12
485.99	125.12
486.209	113.12
486.427	117.12
486.645	109.12
486.863	107.12
487.081	121.12
487.299	104.12
487.517	103.12
487.735	100.12
487.953	97.12
488.171	93.12
488.389	101.12
488.607	104.12
488.825	96.12
489.043	84.12
489.261	103.12
489.479	87.12
489.696	91.12
489.914	104.12
490.132	88.12
490.35	102.12
490.568	100.12
490.786	95.12
491.003	88.12
491.221	97.12
491.439	96.12
491.657	92.12
491.874	104.12
492.092	98.12
492.31	90.12
492.527	100.12
492.745	102.12
492.963	85.12
493.18	88.12
493.398	93.12
493.615	97.12
493.833	95.12
494.05	103.12
494.268	95.12
494.485	90.12
494.703	92.12
494.92	102.12
495.138	87.12
495.355	91.12
495.573	91.12
495.79	93.12
496.008	91.12
496.225	85.12
496.442	95.12
496.66	105.12
496.877	89.12
497.094	90.12
497.312	98.12
497.529	103.12
497.746	93.12
497.963	99.12
498.181	89.12
498.398	109.12
498.615	115.12
498.832	105.12
499.049	90.12
499.267	99.12
499.484	92.12
499.701	91.12
499.918	88.12
500.135	85.12
500.352	94.12
500.569	83.12
500.786	103.12
501.003	103.12
501.22	92.12
501.437	96.12
501.654	89.12
501.871	110.12
502.088	86.12
502.305	89.12
502.522	81.12
502.739	91.12
502.956	94.12
503.172	94.12
503.389	101.12
503.606	101.12
503.823	94.12
504.04	97.12
504.256	98.12
504.473	98.12
504.69	91.12
504.907	87.12
505.123	101.12
505.34	98.12
505.557	91.12
505.773	95.12
505.99	96.12
506.207	108.12
506.423	87.12
506.64	89.12
506.856	91.12
507.073	79.12
507.289	93.12
507.506	95.12
507.722	101.12
507.939	106.12
508.155	95.12
508.372	94.12
508.588	97.12
508.805	92.12
509.021	88.12
509.238	102.12
509.454	92.12
509.67	85.12
509.887	107.12
510.103	115.12
510.319	168.12
510.536	443.12
510.752	1243.12
510.968	397.12
511.184	125.12
511.401	87.12
511.617	105.12
511.833	115.12
512.049	106.12
512.265	100.12
512.481	92.12
512.698	91.12
512.914	93.12
513.13	108.12
513.346	100.12
513.562	111.12
513.778	95.12
513.994	90.12
514.21	97.12
