Data from Circ_2002_H10_HRD10591_00080.txt Node
Date: Wed Jan 03 10:41:14 EST 2024
User: Yrep
Spectrometer: HR+D1059
Trigger mode: 1
Integration Time (sec): 1.000000E-1
Scans to average: 1
Electric dark correction enabled: true
Nonlinearity correction enabled: false
Boxcar width: 0
XAxis mode: Wavelengths
Number of Pixels in Spectrum: 2048
>>>>>Begin Spectral Data<<<<<
223.165	-22.81
223.4	-22.81
223.635	-22.81
223.869	-19.81
224.104	-20.81
224.338	-25.81
224.573	-16.81
224.808	-20.81
225.042	0.19
225.277	-4.81
225.511	1.19
225.746	15.19
225.98	10.19
226.215	11.19
226.449	20.19
226.683	19.19
226.918	24.19
227.152	30.19
227.387	26.19
227.621	24.19
227.856	42.19
228.09	27.19
228.324	50.19
228.559	64.19
228.793	54.19
229.027	42.19
229.262	66.19
229.496	60.19
229.73	60.19
229.964	61.19
230.199	69.19
230.433	69.19
230.667	83.19
230.901	71.19
231.136	55.19
231.37	81.19
231.604	53.19
231.838	69.19
232.072	74.19
232.306	76.19
232.541	75.19
232.775	80.19
233.009	82.19
233.243	83.19
233.477	70.19
233.711	77.19
233.945	81.19
234.179	85.19
234.413	65.19
234.647	85.19
234.881	69.19
235.115	75.19
235.349	74.19
235.583	70.19
235.817	69.19
236.051	68.19
236.285	71.19
236.519	69.19
236.753	68.19
236.987	64.19
237.221	84.19
237.455	77.19
237.689	58.19
237.922	74.19
238.156	74.19
238.39	70.19
238.624	68.19
238.858	68.19
239.091	65.19
239.325	73.19
239.559	85.19
239.793	76.19
240.027	71.19
240.26	78.19
240.494	73.19
240.728	68.19
240.961	62.19
241.195	66.19
241.429	67.19
241.662	66.19
241.896	63.19
242.13	74.19
242.363	67.19
242.597	78.19
242.83	83.19
243.064	54.19
243.298	82.19
243.531	80.19
243.765	84.19
243.998	66.19
244.232	82.19
244.465	62.19
244.699	71.19
244.932	66.19
245.166	67.19
245.399	84.19
245.633	67.19
245.866	70.19
246.099	86.19
246.333	88.19
246.566	84.19
246.8	79.19
247.033	91.19
247.266	88.19
247.5	74.19
247.733	65.19
247.966	88.19
248.2	83.19
248.433	80.19
248.666	77.19
248.899	81.19
249.133	76.19
249.366	82.19
249.599	83.19
249.832	62.19
250.066	85.19
250.299	76.19
250.532	70.19
250.765	69.19
250.998	73.19
251.231	62.19
251.465	71.19
251.698	72.19
251.931	83.19
252.164	66.19
252.397	69.19
252.63	70.19
252.863	72.19
253.096	76.19
253.329	78.19
253.562	77.19
253.795	72.19
254.028	62.19
254.261	76.19
254.494	73.19
254.727	84.19
254.96	64.19
255.193	75.19
255.426	66.19
255.659	70.19
255.892	89.19
256.124	81.19
256.357	78.19
256.59	69.19
256.823	90.19
257.056	79.19
257.289	83.19
257.521	75.19
257.754	92.19
257.987	80.19
258.22	63.19
258.452	72.19
258.685	78.19
258.918	87.19
259.151	76.19
259.383	85.19
259.616	68.19
259.849	75.19
260.081	87.19
260.314	71.19
260.547	68.19
260.779	86.19
261.012	81.19
261.244	62.19
261.477	86.19
261.71	87.19
261.942	88.19
262.175	97.19
262.407	80.19
262.64	78.19
262.872	75.19
263.105	75.19
263.337	69.19
263.57	66.19
263.802	76.19
264.035	88.19
264.267	83.19
264.499	80.19
264.732	88.19
264.964	76.19
265.197	89.19
265.429	79.19
265.661	82.19
265.894	84.19
266.126	70.19
266.358	74.19
266.591	82.19
266.823	74.19
267.055	78.19
267.287	79.19
267.52	66.19
267.752	83.19
267.984	84.19
268.216	87.19
268.448	66.19
268.681	88.19
268.913	70.19
269.145	75.19
269.377	78.19
269.609	82.19
269.841	71.19
270.073	83.19
270.306	79.19
270.538	83.19
270.77	85.19
271.002	83.19
271.234	80.19
271.466	63.19
271.698	86.19
271.93	78.19
272.162	88.19
272.394	70.19
272.626	79.19
272.858	89.19
273.09	81.19
273.322	74.19
273.553	82.19
273.785	86.19
274.017	95.19
274.249	73.19
274.481	75.19
274.713	95.19
274.945	91.19
275.176	84.19
275.408	71.19
275.64	87.19
275.872	70.19
276.104	79.19
276.335	86.19
276.567	63.19
276.799	99.19
277.031	88.19
277.262	78.19
277.494	71.19
277.726	83.19
277.957	99.19
278.189	82.19
278.421	86.19
278.652	80.19
278.884	69.19
279.115	85.19
279.347	77.19
279.579	81.19
279.81	90.19
280.042	87.19
280.273	89.19
280.505	78.19
280.736	83.19
280.968	92.19
281.199	98.19
281.431	87.19
281.662	78.19
281.894	80.19
282.125	86.19
282.356	118.19
282.588	115.19
282.819	100.19
283.051	78.19
283.282	81.19
283.513	83.19
283.745	79.19
283.976	72.19
284.207	80.19
284.439	70.19
284.67	80.19
284.901	90.19
285.132	89.19
285.364	70.19
285.595	81.19
285.826	74.19
286.057	76.19
286.288	80.19
286.52	75.19
286.751	91.19
286.982	82.19
287.213	82.19
287.444	87.19
287.675	85.19
287.906	85.19
288.138	82.19
288.369	90.19
288.6	89.19
288.831	80.19
289.062	76.19
289.293	77.19
289.524	83.19
289.755	86.19
289.986	102.19
290.217	84.19
290.448	94.19
290.679	85.19
290.91	77.19
291.141	79.19
291.371	78.19
291.602	86.19
291.833	75.19
292.064	73.19
292.295	78.19
292.526	82.19
292.757	83.19
292.987	80.19
293.218	82.19
293.449	89.19
293.68	78.19
293.91	88.19
294.141	76.19
294.372	81.19
294.603	83.19
294.833	84.19
295.064	86.19
295.295	86.19
295.525	96.19
295.756	95.19
295.987	108.19
296.217	114.19
296.448	114.19
296.679	73.19
296.909	83.19
297.14	90.19
297.37	88.19
297.601	106.19
297.831	94.19
298.062	78.19
298.292	72.19
298.523	73.19
298.753	83.19
298.984	91.19
299.214	81.19
299.445	86.19
299.675	97.19
299.905	89.19
300.136	70.19
300.366	84.19
300.597	90.19
300.827	95.19
301.057	93.19
301.288	100.19
301.518	77.19
301.748	95.19
301.979	96.19
302.209	92.19
302.439	76.19
302.669	75.19
302.9	85.19
303.13	86.19
303.36	102.19
303.59	88.19
303.82	93.19
304.051	83.19
304.281	86.19
304.511	76.19
304.741	80.19
304.971	76.19
305.201	85.19
305.431	78.19
305.661	83.19
305.891	78.19
306.121	77.19
306.352	101.19
306.582	78.19
306.812	98.19
307.042	87.19
307.272	96.19
307.502	85.19
307.731	96.19
307.961	76.19
308.191	88.19
308.421	74.19
308.651	73.19
308.881	91.19
309.111	87.19
309.341	85.19
309.571	103.19
309.8	84.19
310.03	70.19
310.26	92.19
310.49	96.19
310.72	66.19
310.949	93.19
311.179	92.19
311.409	82.19
311.639	78.19
311.868	86.19
312.098	85.19
312.328	90.19
312.557	92.19
312.787	100.19
313.017	94.19
313.246	97.19
313.476	92.19
313.706	89.19
313.935	90.19
314.165	85.19
314.394	87.19
314.624	101.19
314.853	89.19
315.083	79.19
315.312	81.19
315.542	82.19
315.771	89.19
316.001	75.19
316.23	95.19
316.46	84.19
316.689	87.19
316.919	85.19
317.148	76.19
317.377	99.19
317.607	97.19
317.836	96.19
318.065	80.19
318.295	77.19
318.524	81.19
318.753	83.19
318.983	85.19
319.212	91.19
319.441	96.19
319.67	106.19
319.9	79.19
320.129	88.19
320.358	97.19
320.587	87.19
320.816	95.19
321.046	97.19
321.275	95.19
321.504	92.19
321.733	74.19
321.962	88.19
322.191	92.19
322.42	86.19
322.649	94.19
322.878	100.19
323.108	98.19
323.337	113.19
323.566	122.19
323.795	148.19
324.024	176.19
324.253	353.19
324.482	727.19
324.71	1428.19
324.939	1883.19
325.168	672.19
325.397	210.19
325.626	138.19
325.855	138.19
326.084	114.19
326.313	123.19
326.542	140.19
326.77	223.19
326.999	424.19
327.228	850.19
327.457	1544.19
327.686	1204.19
327.914	323.19
328.143	179.19
328.372	142.19
328.6	123.19
328.829	106.19
329.058	97.19
329.287	127.19
329.515	120.19
329.744	92.19
329.972	95.19
330.201	116.19
330.43	148.19
330.658	119.19
330.887	112.19
331.115	106.19
331.344	93.19
331.572	90.19
331.801	82.19
332.03	83.19
332.258	97.19
332.486	86.19
332.715	92.19
332.943	98.19
333.172	105.19
333.4	87.19
333.629	96.19
333.857	91.19
334.085	105.19
334.314	114.19
334.542	167.19
334.771	141.19
334.999	113.19
335.227	115.19
335.455	97.19
335.684	92.19
335.912	86.19
336.14	89.19
336.369	92.19
336.597	83.19
336.825	102.19
337.053	88.19
337.281	93.19
337.51	89.19
337.738	97.19
337.966	84.19
338.194	86.19
338.422	80.19
338.65	93.19
338.878	85.19
339.106	83.19
339.334	92.19
339.562	88.19
339.79	74.19
340.018	81.19
340.246	107.19
340.474	93.19
340.702	88.19
340.93	85.19
341.158	83.19
341.386	89.19
341.614	86.19
341.842	98.19
342.07	92.19
342.298	87.19
342.526	78.19
342.754	83.19
342.981	84.19
343.209	86.19
343.437	83.19
343.665	79.19
343.893	89.19
344.12	98.19
344.348	83.19
344.576	83.19
344.804	103.19
345.031	93.19
345.259	93.19
345.487	98.19
345.714	103.19
345.942	72.19
346.17	88.19
346.397	89.19
346.625	87.19
346.853	81.19
347.08	90.19
347.308	88.19
347.535	87.19
347.763	91.19
347.99	98.19
348.218	90.19
348.445	93.19
348.673	97.19
348.9	84.19
349.128	101.19
349.355	86.19
349.583	63.19
349.81	86.19
350.037	88.19
350.265	91.19
350.492	78.19
350.72	94.19
350.947	104.19
351.174	109.19
351.402	93.19
351.629	92.19
351.856	88.19
352.083	90.19
352.311	97.19
352.538	86.19
352.765	98.19
352.992	103.19
353.22	100.19
353.447	103.19
353.674	87.19
353.901	77.19
354.128	95.19
354.355	88.19
354.583	79.19
354.81	83.19
355.037	95.19
355.264	100.19
355.491	103.19
355.718	95.19
355.945	99.19
356.172	96.19
356.399	93.19
356.626	79.19
356.853	89.19
357.08	91.19
357.307	91.19
357.534	71.19
357.761	90.19
357.988	92.19
358.215	94.19
358.441	100.19
358.668	79.19
358.895	92.19
359.122	76.19
359.349	84.19
359.576	87.19
359.802	94.19
360.029	111.19
360.256	85.19
360.483	91.19
360.709	80.19
360.936	82.19
361.163	98.19
361.39	84.19
361.616	90.19
361.843	85.19
362.07	94.19
362.296	94.19
362.523	86.19
362.749	94.19
362.976	91.19
363.203	87.19
363.429	79.19
363.656	76.19
363.882	90.19
364.109	95.19
364.335	80.19
364.562	84.19
364.788	86.19
365.015	94.19
365.241	81.19
365.468	107.19
365.694	114.19
365.92	98.19
366.147	87.19
366.373	93.19
366.599	96.19
366.826	85.19
367.052	81.19
367.278	78.19
367.505	88.19
367.731	95.19
367.957	89.19
368.184	89.19
368.41	80.19
368.636	96.19
368.862	94.19
369.089	93.19
369.315	91.19
369.541	88.19
369.767	89.19
369.993	79.19
370.219	81.19
370.445	80.19
370.672	85.19
370.898	88.19
371.124	90.19
371.35	88.19
371.576	89.19
371.802	81.19
372.028	83.19
372.254	83.19
372.48	88.19
372.706	79.19
372.932	95.19
373.158	93.19
373.384	75.19
373.61	91.19
373.835	90.19
374.061	84.19
374.287	103.19
374.513	92.19
374.739	90.19
374.965	74.19
375.191	90.19
375.416	75.19
375.642	107.19
375.868	84.19
376.094	90.19
376.319	92.19
376.545	76.19
376.771	86.19
376.997	79.19
377.222	91.19
377.448	73.19
377.674	87.19
377.899	103.19
378.125	96.19
378.35	103.19
378.576	84.19
378.802	96.19
379.027	81.19
379.253	94.19
379.478	95.19
379.704	78.19
379.929	99.19
380.155	82.19
380.38	96.19
380.606	94.19
380.831	91.19
381.057	102.19
381.282	97.19
381.507	91.19
381.733	95.19
381.958	90.19
382.184	90.19
382.409	84.19
382.634	94.19
382.86	99.19
383.085	95.19
383.31	100.19
383.535	102.19
383.761	97.19
383.986	109.19
384.211	99.19
384.436	82.19
384.662	85.19
384.887	90.19
385.112	91.19
385.337	93.19
385.562	103.19
385.787	110.19
386.013	100.19
386.238	106.19
386.463	95.19
386.688	100.19
386.913	112.19
387.138	111.19
387.363	113.19
387.588	88.19
387.813	85.19
388.038	104.19
388.263	112.19
388.488	105.19
388.713	99.19
388.938	83.19
389.163	86.19
389.387	79.19
389.612	76.19
389.837	98.19
390.062	91.19
390.287	88.19
390.512	94.19
390.736	95.19
390.961	83.19
391.186	77.19
391.411	82.19
391.636	87.19
391.86	69.19
392.085	81.19
392.31	69.19
392.534	88.19
392.759	86.19
392.984	79.19
393.208	71.19
393.433	85.19
393.658	83.19
393.882	86.19
394.107	86.19
394.331	84.19
394.556	79.19
394.78	80.19
395.005	82.19
395.229	82.19
395.454	71.19
395.678	86.19
395.903	78.19
396.127	99.19
396.352	79.19
396.576	87.19
396.801	93.19
397.025	81.19
397.249	91.19
397.474	79.19
397.698	93.19
397.922	85.19
398.147	94.19
398.371	101.19
398.595	79.19
398.82	69.19
399.044	86.19
399.268	82.19
399.492	84.19
399.717	85.19
399.941	81.19
400.165	85.19
400.389	88.19
400.613	84.19
400.837	83.19
401.062	75.19
401.286	82.19
401.51	79.19
401.734	86.19
401.958	77.19
402.182	101.19
402.406	126.19
402.63	91.19
402.854	79.19
403.078	72.19
403.302	93.19
403.526	73.19
403.75	91.19
403.974	84.19
404.198	80.19
404.422	75.19
404.645	75.19
404.869	85.19
405.093	99.19
405.317	100.19
405.541	94.19
405.765	97.19
405.988	115.19
406.212	138.19
406.436	166.19
406.66	115.19
406.883	96.19
407.107	86.19
407.331	91.19
407.555	90.19
407.778	87.19
408.002	82.19
408.226	74.19
408.449	87.19
408.673	92.19
408.896	86.19
409.12	81.19
409.344	79.19
409.567	79.19
409.791	84.19
410.014	92.19
410.238	90.19
410.461	74.19
410.685	91.19
410.908	102.19
411.132	91.19
411.355	91.19
411.578	89.19
411.802	84.19
412.025	98.19
412.249	79.19
412.472	83.19
412.695	79.19
412.919	95.19
413.142	83.19
413.365	81.19
413.589	83.19
413.812	68.19
414.035	97.19
414.258	89.19
414.482	78.19
414.705	85.19
414.928	88.19
415.151	79.19
415.374	91.19
415.597	90.19
415.821	86.19
416.044	68.19
416.267	76.19
416.49	84.19
416.713	72.19
416.936	80.19
417.159	71.19
417.382	80.19
417.605	80.19
417.828	97.19
418.051	91.19
418.274	94.19
418.497	89.19
418.72	84.19
418.943	93.19
419.166	89.19
419.389	83.19
419.611	70.19
419.834	83.19
420.057	99.19
420.28	80.19
420.503	64.19
420.726	83.19
420.948	83.19
421.171	76.19
421.394	79.19
421.617	92.19
421.839	93.19
422.062	76.19
422.285	86.19
422.507	86.19
422.73	100.19
422.953	92.19
423.175	83.19
423.398	73.19
423.621	82.19
423.843	80.19
424.066	80.19
424.288	93.19
424.511	84.19
424.733	88.19
424.956	82.19
425.178	91.19
425.401	92.19
425.623	78.19
425.846	83.19
426.068	86.19
426.291	86.19
426.513	93.19
426.735	89.19
426.958	86.19
427.18	90.19
427.402	111.19
427.625	145.19
427.847	115.19
428.069	108.19
428.292	96.19
428.514	75.19
428.736	84.19
428.958	78.19
429.181	81.19
429.403	82.19
429.625	77.19
429.847	88.19
430.069	88.19
430.292	83.19
430.514	101.19
430.736	90.19
430.958	87.19
431.18	80.19
431.402	66.19
431.624	86.19
431.846	74.19
432.068	70.19
432.29	68.19
432.512	89.19
432.734	68.19
432.956	87.19
433.178	97.19
433.4	82.19
433.622	96.19
433.844	95.19
434.066	84.19
434.287	87.19
434.509	79.19
434.731	77.19
434.953	91.19
435.175	97.19
435.397	101.19
435.618	92.19
435.84	102.19
436.062	110.19
436.284	103.19
436.505	87.19
436.727	106.19
436.949	66.19
437.17	79.19
437.392	100.19
437.614	72.19
437.835	91.19
438.057	96.19
438.278	87.19
438.5	94.19
438.721	98.19
438.943	73.19
439.165	77.19
439.386	86.19
439.608	91.19
439.829	84.19
440.05	113.19
440.272	141.19
440.493	88.19
440.715	88.19
440.936	74.19
441.158	79.19
441.379	74.19
441.6	87.19
441.822	88.19
442.043	94.19
442.264	86.19
442.486	83.19
442.707	94.19
442.928	108.19
443.149	103.19
443.371	98.19
443.592	85.19
443.813	92.19
444.034	90.19
444.255	77.19
444.476	98.19
444.698	85.19
444.919	82.19
445.14	136.19
445.361	126.19
445.582	102.19
445.803	116.19
446.024	116.19
446.245	119.19
446.466	110.19
446.687	94.19
446.908	79.19
447.129	97.19
447.35	82.19
447.571	96.19
447.792	84.19
448.013	95.19
448.234	94.19
448.455	95.19
448.675	101.19
448.896	98.19
449.117	87.19
449.338	87.19
449.559	108.19
449.779	107.19
450	93.19
450.221	92.19
450.442	88.19
450.662	87.19
450.883	88.19
451.104	103.19
451.324	86.19
451.545	97.19
451.766	82.19
451.986	68.19
452.207	87.19
452.428	85.19
452.648	90.19
452.869	98.19
453.089	99.19
453.31	91.19
453.53	91.19
453.751	91.19
453.971	104.19
454.192	97.19
454.412	72.19
454.633	79.19
454.853	91.19
455.073	92.19
455.294	87.19
455.514	79.19
455.734	74.19
455.955	84.19
456.175	76.19
456.395	85.19
456.616	93.19
456.836	92.19
457.056	84.19
457.276	72.19
457.497	103.19
457.717	70.19
457.937	75.19
458.157	90.19
458.377	78.19
458.598	94.19
458.818	115.19
459.038	126.19
459.258	102.19
459.478	82.19
459.698	91.19
459.918	85.19
460.138	75.19
460.358	93.19
460.578	99.19
460.798	91.19
461.018	85.19
461.238	81.19
461.458	78.19
461.678	72.19
461.898	88.19
462.118	82.19
462.338	83.19
462.558	63.19
462.777	78.19
462.997	83.19
463.217	92.19
463.437	81.19
463.657	97.19
463.876	99.19
464.096	75.19
464.316	69.19
464.536	90.19
464.755	85.19
464.975	98.19
465.195	128.19
465.414	135.19
465.634	84.19
465.854	89.19
466.073	84.19
466.293	68.19
466.512	74.19
466.732	89.19
466.951	76.19
467.171	79.19
467.391	75.19
467.61	89.19
467.829	92.19
468.049	85.19
468.268	94.19
468.488	88.19
468.707	71.19
468.927	77.19
469.146	74.19
469.365	78.19
469.585	79.19
469.804	81.19
470.023	100.19
470.243	95.19
470.462	78.19
470.681	90.19
470.901	99.19
471.12	86.19
471.339	81.19
471.558	89.19
471.777	83.19
471.997	83.19
472.216	114.19
472.435	165.19
472.654	111.19
472.873	86.19
473.092	110.19
473.311	76.19
473.53	87.19
473.749	84.19
473.968	83.19
474.187	85.19
474.406	82.19
474.625	88.19
474.844	85.19
475.063	70.19
475.282	85.19
475.501	73.19
475.72	96.19
475.939	71.19
476.158	75.19
476.377	78.19
476.596	83.19
476.814	87.19
477.033	92.19
477.252	94.19
477.471	74.19
477.69	89.19
477.908	71.19
478.127	80.19
478.346	77.19
478.564	72.19
478.783	97.19
479.002	95.19
479.22	83.19
479.439	101.19
479.658	96.19
479.876	94.19
480.095	97.19
480.313	81.19
480.532	88.19
480.751	95.19
480.969	127.19
481.188	241.19
481.406	166.19
481.624	93.19
481.843	90.19
482.061	79.19
482.28	79.19
482.498	78.19
482.717	66.19
482.935	64.19
483.153	73.19
483.372	78.19
483.59	88.19
483.808	93.19
484.027	77.19
484.245	95.19
484.463	82.19
484.681	104.19
484.9	90.19
485.118	88.19
485.336	70.19
485.554	101.19
485.772	102.19
485.99	101.19
486.209	87.19
486.427	95.19
486.645	102.19
486.863	93.19
487.081	100.19
487.299	103.19
487.517	94.19
487.735	93.19
487.953	89.19
488.171	85.19
488.389	91.19
488.607	89.19
488.825	92.19
489.043	103.19
489.261	84.19
489.479	72.19
489.696	94.19
489.914	80.19
490.132	87.19
490.35	91.19
490.568	84.19
490.786	95.19
491.003	85.19
491.221	89.19
491.439	79.19
491.657	88.19
491.874	89.19
492.092	86.19
492.31	87.19
492.527	85.19
492.745	75.19
492.963	66.19
493.18	99.19
493.398	99.19
493.615	93.19
493.833	91.19
494.05	93.19
494.268	89.19
494.485	84.19
494.703	96.19
494.92	96.19
495.138	105.19
495.355	81.19
495.573	75.19
495.79	77.19
496.008	86.19
496.225	74.19
496.442	73.19
496.66	85.19
496.877	72.19
497.094	88.19
497.312	79.19
497.529	88.19
497.746	88.19
497.963	78.19
498.181	73.19
498.398	76.19
498.615	101.19
498.832	88.19
499.049	74.19
499.267	94.19
499.484	88.19
499.701	82.19
499.918	102.19
500.135	90.19
500.352	86.19
500.569	85.19
500.786	82.19
501.003	78.19
501.22	77.19
501.437	83.19
501.654	89.19
501.871	103.19
502.088	87.19
502.305	91.19
502.522	104.19
502.739	83.19
502.956	91.19
503.172	72.19
503.389	88.19
503.606	86.19
503.823	82.19
504.04	85.19
504.256	87.19
504.473	89.19
504.69	76.19
504.907	91.19
505.123	84.19
505.34	74.19
505.557	80.19
505.773	86.19
505.99	78.19
506.207	96.19
506.423	84.19
506.64	87.19
506.856	80.19
507.073	92.19
507.289	93.19
507.506	83.19
507.722	102.19
507.939	93.19
508.155	99.19
508.372	91.19
508.588	77.19
508.805	87.19
509.021	75.19
509.238	83.19
509.454	84.19
509.67	95.19
509.887	82.19
510.103	107.19
510.319	167.19
510.536	567.19
510.752	1703.19
510.968	485.19
511.184	122.19
511.401	94.19
511.617	104.19
511.833	86.19
512.049	94.19
512.265	78.19
512.481	91.19
512.698	92.19
512.914	95.19
513.13	78.19
513.346	66.19
513.562	85.19
513.778	96.19
513.994	92.19
514.21	93.19
514.426	91.19
514.642	105.19
514.858	101.19
515.074	139.19
515.29	314.19
515.506	1020.19
515.721	387.19
515.937	131.19
516.153	111.19
516.369	82.19
516.585	84.19
516.801	85.19
517.016	97.19
517.232	98.19
517.448	103.19
517.664	80.19
