Data from Circ_2002_H10_HRD10591_00063.txt Node
Date: Wed Jan 03 10:41:10 EST 2024
User: Yrep
Spectrometer: HR+D1059
Trigger mode: 1
Integration Time (sec): 1.000000E-1
Scans to average: 1
Electric dark correction enabled: true
Nonlinearity correction enabled: false
Boxcar width: 0
XAxis mode: Wavelengths
Number of Pixels in Spectrum: 2048
>>>>>Begin Spectral Data<<<<<
223.165	-20.94
223.4	-20.94
223.635	-20.94
223.869	-14.94
224.104	-7.94
224.338	-14.94
224.573	-8.94
224.808	5.06
225.042	-11.94
225.277	-11.94
225.511	-14.94
225.746	-12.94
225.98	7.06
226.215	-1.94
226.449	10.06
226.683	33.06
226.918	35.06
227.152	31.06
227.387	25.06
227.621	32.06
227.856	37.06
228.09	50.06
228.324	53.06
228.559	58.06
228.793	53.06
229.027	73.06
229.262	54.06
229.496	55.06
229.73	82.06
229.964	87.06
230.199	90.06
230.433	70.06
230.667	69.06
230.901	68.06
231.136	80.06
231.37	73.06
231.604	87.06
231.838	84.06
232.072	82.06
232.306	77.06
232.541	88.06
232.775	78.06
233.009	75.06
233.243	90.06
233.477	89.06
233.711	72.06
233.945	74.06
234.179	79.06
234.413	93.06
234.647	89.06
234.881	71.06
235.115	72.06
235.349	72.06
235.583	64.06
235.817	72.06
236.051	87.06
236.285	74.06
236.519	87.06
236.753	75.06
236.987	85.06
237.221	88.06
237.455	70.06
237.689	68.06
237.922	75.06
238.156	71.06
238.39	69.06
238.624	81.06
238.858	69.06
239.091	82.06
239.325	81.06
239.559	91.06
239.793	73.06
240.027	65.06
240.26	63.06
240.494	63.06
240.728	78.06
240.961	78.06
241.195	74.06
241.429	84.06
241.662	88.06
241.896	75.06
242.13	73.06
242.363	80.06
242.597	77.06
242.83	85.06
243.064	77.06
243.298	75.06
243.531	76.06
243.765	71.06
243.998	87.06
244.232	94.06
244.465	83.06
244.699	86.06
244.932	73.06
245.166	82.06
245.399	78.06
245.633	71.06
245.866	66.06
246.099	69.06
246.333	66.06
246.566	90.06
246.8	77.06
247.033	79.06
247.266	67.06
247.5	72.06
247.733	85.06
247.966	69.06
248.2	71.06
248.433	90.06
248.666	78.06
248.899	88.06
249.133	86.06
249.366	90.06
249.599	94.06
249.832	74.06
250.066	91.06
250.299	72.06
250.532	65.06
250.765	62.06
250.998	83.06
251.231	77.06
251.465	78.06
251.698	87.06
251.931	75.06
252.164	78.06
252.397	75.06
252.63	89.06
252.863	75.06
253.096	72.06
253.329	84.06
253.562	70.06
253.795	78.06
254.028	74.06
254.261	78.06
254.494	79.06
254.727	86.06
254.96	79.06
255.193	94.06
255.426	92.06
255.659	70.06
255.892	88.06
256.124	85.06
256.357	73.06
256.59	76.06
256.823	80.06
257.056	77.06
257.289	88.06
257.521	80.06
257.754	80.06
257.987	89.06
258.22	85.06
258.452	89.06
258.685	65.06
258.918	89.06
259.151	77.06
259.383	87.06
259.616	85.06
259.849	96.06
260.081	86.06
260.314	90.06
260.547	86.06
260.779	89.06
261.012	78.06
261.244	74.06
261.477	96.06
261.71	88.06
261.942	102.06
262.175	121.06
262.407	95.06
262.64	88.06
262.872	74.06
263.105	76.06
263.337	73.06
263.57	95.06
263.802	82.06
264.035	86.06
264.267	59.06
264.499	83.06
264.732	85.06
264.964	68.06
265.197	80.06
265.429	69.06
265.661	65.06
265.894	84.06
266.126	82.06
266.358	72.06
266.591	71.06
266.823	90.06
267.055	86.06
267.287	90.06
267.52	82.06
267.752	80.06
267.984	84.06
268.216	81.06
268.448	91.06
268.681	78.06
268.913	90.06
269.145	96.06
269.377	88.06
269.609	70.06
269.841	78.06
270.073	83.06
270.306	74.06
270.538	76.06
270.77	85.06
271.002	87.06
271.234	85.06
271.466	74.06
271.698	97.06
271.93	81.06
272.162	89.06
272.394	87.06
272.626	87.06
272.858	71.06
273.09	79.06
273.322	88.06
273.553	91.06
273.785	78.06
274.017	73.06
274.249	82.06
274.481	91.06
274.713	79.06
274.945	82.06
275.176	77.06
275.408	89.06
275.64	72.06
275.872	90.06
276.104	81.06
276.335	91.06
276.567	83.06
276.799	85.06
277.031	86.06
277.262	85.06
277.494	74.06
277.726	68.06
277.957	88.06
278.189	93.06
278.421	78.06
278.652	80.06
278.884	80.06
279.115	95.06
279.347	79.06
279.579	90.06
279.81	82.06
280.042	84.06
280.273	85.06
280.505	98.06
280.736	92.06
280.968	92.06
281.199	88.06
281.431	90.06
281.662	95.06
281.894	72.06
282.125	98.06
282.356	102.06
282.588	127.06
282.819	112.06
283.051	81.06
283.282	71.06
283.513	86.06
283.745	90.06
283.976	83.06
284.207	79.06
284.439	81.06
284.67	79.06
284.901	96.06
285.132	76.06
285.364	89.06
285.595	82.06
285.826	87.06
286.057	96.06
286.288	83.06
286.52	97.06
286.751	82.06
286.982	85.06
287.213	82.06
287.444	87.06
287.675	87.06
287.906	86.06
288.138	83.06
288.369	87.06
288.6	102.06
288.831	80.06
289.062	85.06
289.293	79.06
289.524	87.06
289.755	76.06
289.986	68.06
290.217	91.06
290.448	98.06
290.679	79.06
290.91	93.06
291.141	81.06
291.371	98.06
291.602	88.06
291.833	99.06
292.064	96.06
292.295	88.06
292.526	73.06
292.757	76.06
292.987	97.06
293.218	96.06
293.449	78.06
293.68	95.06
293.91	92.06
294.141	91.06
294.372	105.06
294.603	85.06
294.833	73.06
295.064	80.06
295.295	78.06
295.525	79.06
295.756	89.06
295.987	101.06
296.217	117.06
296.448	112.06
296.679	94.06
296.909	100.06
297.14	81.06
297.37	91.06
297.601	89.06
297.831	74.06
298.062	105.06
298.292	80.06
298.523	79.06
298.753	72.06
298.984	91.06
299.214	80.06
299.445	87.06
299.675	85.06
299.905	96.06
300.136	91.06
300.366	78.06
300.597	74.06
300.827	79.06
301.057	96.06
301.288	91.06
301.518	83.06
301.748	90.06
301.979	105.06
302.209	84.06
302.439	85.06
302.669	85.06
302.9	93.06
303.13	94.06
303.36	85.06
303.59	114.06
303.82	97.06
304.051	86.06
304.281	95.06
304.511	83.06
304.741	93.06
304.971	84.06
305.201	81.06
305.431	87.06
305.661	82.06
305.891	93.06
306.121	99.06
306.352	106.06
306.582	102.06
306.812	104.06
307.042	95.06
307.272	103.06
307.502	101.06
307.731	102.06
307.961	73.06
308.191	89.06
308.421	77.06
308.651	91.06
308.881	79.06
309.111	87.06
309.341	94.06
309.571	93.06
309.8	81.06
310.03	83.06
310.26	84.06
310.49	79.06
310.72	81.06
310.949	107.06
311.179	99.06
311.409	96.06
311.639	91.06
311.868	88.06
312.098	84.06
312.328	91.06
312.557	94.06
312.787	91.06
313.017	93.06
313.246	93.06
313.476	88.06
313.706	82.06
313.935	90.06
314.165	88.06
314.394	101.06
314.624	98.06
314.853	95.06
315.083	84.06
315.312	90.06
315.542	95.06
315.771	91.06
316.001	92.06
316.23	91.06
316.46	85.06
316.689	78.06
316.919	84.06
317.148	91.06
317.377	94.06
317.607	96.06
317.836	89.06
318.065	90.06
318.295	100.06
318.524	100.06
318.753	74.06
318.983	99.06
319.212	95.06
319.441	106.06
319.67	117.06
319.9	96.06
320.129	93.06
320.358	108.06
320.587	93.06
320.816	92.06
321.046	97.06
321.275	94.06
321.504	94.06
321.733	93.06
321.962	91.06
322.191	87.06
322.42	91.06
322.649	101.06
322.878	113.06
323.108	120.06
323.337	118.06
323.566	133.06
323.795	155.06
324.024	196.06
324.253	391.06
324.482	820.06
324.71	1730.06
324.939	2217.06
325.168	795.06
325.397	239.06
325.626	159.06
325.855	126.06
326.084	136.06
326.313	133.06
326.542	159.06
326.77	228.06
326.999	476.06
327.228	978.06
327.457	1760.06
327.686	1384.06
327.914	353.06
328.143	170.06
328.372	134.06
328.6	117.06
328.829	107.06
329.058	111.06
329.287	119.06
329.515	116.06
329.744	104.06
329.972	103.06
330.201	115.06
330.43	128.06
330.658	136.06
330.887	125.06
331.115	119.06
331.344	107.06
331.572	99.06
331.801	95.06
332.03	84.06
332.258	90.06
332.486	86.06
332.715	92.06
332.943	85.06
333.172	76.06
333.4	93.06
333.629	98.06
333.857	109.06
334.085	104.06
334.314	112.06
334.542	125.06
334.771	143.06
334.999	105.06
335.227	77.06
335.455	103.06
335.684	97.06
335.912	92.06
336.14	100.06
336.369	92.06
336.597	96.06
336.825	90.06
337.053	96.06
337.281	97.06
337.51	81.06
337.738	94.06
337.966	91.06
338.194	96.06
338.422	87.06
338.65	88.06
338.878	87.06
339.106	88.06
339.334	102.06
339.562	88.06
339.79	89.06
340.018	101.06
340.246	83.06
340.474	97.06
340.702	89.06
340.93	70.06
341.158	91.06
341.386	77.06
341.614	91.06
341.842	88.06
342.07	90.06
342.298	95.06
342.526	85.06
342.754	75.06
342.981	82.06
343.209	80.06
343.437	84.06
343.665	79.06
343.893	88.06
344.12	86.06
344.348	73.06
344.576	94.06
344.804	87.06
345.031	83.06
345.259	94.06
345.487	105.06
345.714	95.06
345.942	84.06
346.17	99.06
346.397	77.06
346.625	80.06
346.853	96.06
347.08	78.06
347.308	97.06
347.535	96.06
347.763	94.06
347.99	75.06
348.218	90.06
348.445	105.06
348.673	90.06
348.9	93.06
349.128	89.06
349.355	91.06
349.583	97.06
349.81	96.06
350.037	90.06
350.265	94.06
350.492	89.06
350.72	101.06
350.947	99.06
351.174	95.06
351.402	111.06
351.629	102.06
351.856	101.06
352.083	101.06
352.311	95.06
352.538	109.06
352.765	112.06
352.992	109.06
353.22	107.06
353.447	111.06
353.674	95.06
353.901	102.06
354.128	87.06
354.355	100.06
354.583	108.06
354.81	103.06
355.037	84.06
355.264	106.06
355.491	82.06
355.718	91.06
355.945	91.06
356.172	95.06
356.399	92.06
356.626	102.06
356.853	93.06
357.08	88.06
357.307	102.06
357.534	106.06
357.761	90.06
357.988	88.06
358.215	91.06
358.441	88.06
358.668	92.06
358.895	93.06
359.122	86.06
359.349	95.06
359.576	77.06
359.802	93.06
360.029	95.06
360.256	98.06
360.483	80.06
360.709	102.06
360.936	92.06
361.163	86.06
361.39	105.06
361.616	91.06
361.843	94.06
362.07	100.06
362.296	89.06
362.523	104.06
362.749	87.06
362.976	96.06
363.203	88.06
363.429	78.06
363.656	97.06
363.882	85.06
364.109	82.06
364.335	87.06
364.562	96.06
364.788	91.06
365.015	95.06
365.241	93.06
365.468	103.06
365.694	87.06
365.92	97.06
366.147	75.06
366.373	80.06
366.599	78.06
366.826	95.06
367.052	86.06
367.278	85.06
367.505	89.06
367.731	83.06
367.957	94.06
368.184	81.06
368.41	86.06
368.636	101.06
368.862	112.06
369.089	101.06
369.315	96.06
369.541	87.06
369.767	79.06
369.993	90.06
370.219	81.06
370.445	80.06
370.672	94.06
370.898	78.06
371.124	93.06
371.35	94.06
371.576	89.06
371.802	73.06
372.028	82.06
372.254	91.06
372.48	86.06
372.706	75.06
372.932	88.06
373.158	94.06
373.384	96.06
373.61	77.06
373.835	77.06
374.061	85.06
374.287	92.06
374.513	96.06
374.739	86.06
374.965	78.06
375.191	96.06
375.416	82.06
375.642	87.06
375.868	92.06
376.094	73.06
376.319	87.06
376.545	91.06
376.771	91.06
376.997	87.06
377.222	88.06
377.448	89.06
377.674	86.06
377.899	78.06
378.125	82.06
378.35	90.06
378.576	88.06
378.802	80.06
379.027	83.06
379.253	99.06
379.478	88.06
379.704	82.06
379.929	89.06
380.155	93.06
380.38	96.06
380.606	98.06
380.831	97.06
381.057	99.06
381.282	95.06
381.507	98.06
381.733	81.06
381.958	102.06
382.184	94.06
382.409	101.06
382.634	76.06
382.86	99.06
383.085	100.06
383.31	97.06
383.535	98.06
383.761	95.06
383.986	97.06
384.211	91.06
384.436	87.06
384.662	96.06
384.887	96.06
385.112	102.06
385.337	104.06
385.562	98.06
385.787	114.06
386.013	104.06
386.238	114.06
386.463	101.06
386.688	115.06
386.913	102.06
387.138	110.06
387.363	95.06
387.588	83.06
387.813	82.06
388.038	84.06
388.263	101.06
388.488	112.06
388.713	88.06
388.938	96.06
389.163	97.06
389.387	91.06
389.612	87.06
389.837	104.06
390.062	99.06
390.287	106.06
390.512	88.06
390.736	90.06
390.961	83.06
391.186	93.06
391.411	80.06
391.636	85.06
391.86	109.06
392.085	91.06
392.31	90.06
392.534	86.06
392.759	81.06
392.984	90.06
393.208	87.06
393.433	99.06
393.658	85.06
393.882	86.06
394.107	102.06
394.331	79.06
394.556	89.06
394.78	95.06
395.005	84.06
395.229	88.06
395.454	82.06
395.678	82.06
395.903	99.06
396.127	101.06
396.352	93.06
396.576	85.06
396.801	81.06
397.025	90.06
397.249	69.06
397.474	91.06
397.698	83.06
397.922	78.06
398.147	81.06
398.371	61.06
398.595	95.06
398.82	94.06
399.044	94.06
399.268	86.06
399.492	90.06
399.717	81.06
399.941	81.06
400.165	87.06
400.389	69.06
400.613	102.06
400.837	93.06
401.062	68.06
401.286	90.06
401.51	86.06
401.734	81.06
401.958	90.06
402.182	111.06
402.406	129.06
402.63	91.06
402.854	99.06
403.078	95.06
403.302	88.06
403.526	84.06
403.75	81.06
403.974	82.06
404.198	87.06
404.422	82.06
404.645	87.06
404.869	85.06
405.093	85.06
405.317	102.06
405.541	102.06
405.765	104.06
405.988	111.06
406.212	166.06
406.436	200.06
406.66	122.06
406.883	97.06
407.107	84.06
407.331	93.06
407.555	95.06
407.778	97.06
408.002	90.06
408.226	88.06
408.449	94.06
408.673	78.06
408.896	81.06
409.12	97.06
409.344	94.06
409.567	81.06
409.791	87.06
410.014	91.06
410.238	82.06
410.461	81.06
410.685	93.06
410.908	98.06
411.132	110.06
411.355	102.06
411.578	91.06
411.802	101.06
412.025	90.06
412.249	90.06
412.472	90.06
412.695	88.06
412.919	78.06
413.142	78.06
413.365	82.06
413.589	84.06
413.812	82.06
414.035	86.06
414.258	89.06
414.482	96.06
414.705	88.06
414.928	91.06
415.151	113.06
415.374	100.06
415.597	90.06
415.821	77.06
416.044	72.06
416.267	84.06
416.49	87.06
416.713	95.06
416.936	97.06
417.159	79.06
417.382	78.06
417.605	92.06
417.828	82.06
418.051	91.06
418.274	98.06
418.497	83.06
418.72	83.06
418.943	88.06
419.166	92.06
419.389	88.06
419.611	97.06
419.834	87.06
420.057	95.06
420.28	80.06
420.503	75.06
420.726	81.06
420.948	83.06
421.171	102.06
421.394	91.06
421.617	86.06
421.839	93.06
422.062	89.06
422.285	93.06
422.507	106.06
422.73	89.06
422.953	92.06
423.175	89.06
423.398	88.06
423.621	67.06
423.843	88.06
424.066	75.06
424.288	82.06
424.511	88.06
424.733	98.06
424.956	100.06
425.178	98.06
425.401	93.06
425.623	101.06
425.846	92.06
426.068	83.06
426.291	82.06
426.513	79.06
426.735	91.06
426.958	88.06
427.18	115.06
427.402	129.06
427.625	150.06
427.847	111.06
428.069	107.06
428.292	96.06
428.514	86.06
428.736	76.06
428.958	81.06
429.181	78.06
429.403	97.06
429.625	79.06
429.847	89.06
430.069	77.06
430.292	90.06
430.514	78.06
430.736	91.06
430.958	90.06
431.18	76.06
431.402	86.06
431.624	97.06
431.846	90.06
432.068	87.06
432.29	88.06
432.512	86.06
432.734	93.06
432.956	83.06
433.178	96.06
433.4	107.06
433.622	92.06
433.844	102.06
434.066	93.06
434.287	80.06
434.509	99.06
434.731	83.06
434.953	88.06
435.175	80.06
435.397	93.06
435.618	95.06
435.84	99.06
436.062	116.06
436.284	106.06
436.505	102.06
436.727	106.06
436.949	94.06
437.17	85.06
437.392	87.06
437.614	86.06
437.835	100.06
438.057	97.06
438.278	104.06
438.5	87.06
438.721	121.06
438.943	99.06
439.165	79.06
439.386	88.06
439.608	89.06
439.829	107.06
440.05	106.06
440.272	153.06
440.493	101.06
440.715	90.06
440.936	90.06
441.158	90.06
441.379	86.06
441.6	99.06
441.822	91.06
442.043	90.06
442.264	96.06
442.486	102.06
442.707	91.06
442.928	95.06
443.149	124.06
443.371	105.06
443.592	98.06
443.813	117.06
444.034	98.06
444.255	89.06
444.476	88.06
444.698	72.06
444.919	89.06
445.14	127.06
445.361	111.06
445.582	110.06
445.803	122.06
446.024	133.06
446.245	135.06
446.466	115.06
446.687	93.06
446.908	76.06
447.129	88.06
447.35	92.06
447.571	89.06
447.792	89.06
448.013	97.06
448.234	108.06
448.455	96.06
448.675	113.06
448.896	121.06
449.117	102.06
449.338	91.06
449.559	120.06
449.779	120.06
450	85.06
450.221	78.06
450.442	86.06
450.662	101.06
450.883	91.06
451.104	98.06
451.324	89.06
451.545	87.06
451.766	81.06
451.986	77.06
452.207	92.06
452.428	90.06
452.648	86.06
452.869	101.06
453.089	90.06
453.31	104.06
453.53	89.06
453.751	91.06
453.971	97.06
454.192	106.06
454.412	86.06
454.633	103.06
454.853	89.06
455.073	90.06
455.294	69.06
455.514	95.06
455.734	86.06
455.955	99.06
456.175	99.06
456.395	85.06
456.616	83.06
456.836	74.06
457.056	86.06
457.276	83.06
457.497	78.06
457.717	86.06
457.937	96.06
458.157	86.06
458.377	100.06
458.598	97.06
458.818	133.06
459.038	146.06
459.258	95.06
459.478	91.06
459.698	79.06
459.918	91.06
460.138	85.06
460.358	84.06
460.578	82.06
460.798	91.06
461.018	94.06
461.238	88.06
461.458	94.06
461.678	92.06
461.898	91.06
462.118	65.06
462.338	75.06
462.558	90.06
462.777	81.06
462.997	85.06
463.217	84.06
463.437	95.06
463.657	75.06
463.876	86.06
464.096	94.06
464.316	91.06
464.536	86.06
464.755	89.06
464.975	96.06
465.195	159.06
465.414	146.06
465.634	102.06
465.854	83.06
466.073	78.06
466.293	77.06
466.512	91.06
466.732	85.06
466.951	79.06
467.171	87.06
467.391	97.06
467.61	95.06
467.829	98.06
468.049	109.06
468.268	98.06
468.488	86.06
468.707	79.06
468.927	93.06
469.146	90.06
469.365	76.06
469.585	86.06
469.804	98.06
470.023	91.06
470.243	94.06
470.462	78.06
470.681	102.06
470.901	99.06
471.12	89.06
471.339	90.06
471.558	79.06
471.777	78.06
471.997	101.06
472.216	114.06
472.435	163.06
472.654	112.06
472.873	86.06
473.092	84.06
473.311	80.06
473.53	84.06
473.749	100.06
473.968	96.06
474.187	97.06
474.406	84.06
474.625	75.06
474.844	79.06
475.063	86.06
475.282	83.06
475.501	106.06
475.72	87.06
475.939	86.06
476.158	76.06
476.377	100.06
476.596	82.06
476.814	87.06
477.033	107.06
477.252	88.06
477.471	87.06
477.69	93.06
477.908	83.06
478.127	82.06
478.346	75.06
478.564	92.06
478.783	104.06
479.002	106.06
479.22	103.06
479.439	89.06
479.658	98.06
479.876	87.06
480.095	91.06
480.313	83.06
480.532	86.06
480.751	90.06
480.969	113.06
481.188	224.06
481.406	149.06
481.624	101.06
481.843	91.06
482.061	80.06
482.28	78.06
482.498	91.06
482.717	104.06
482.935	89.06
483.153	88.06
483.372	94.06
483.59	102.06
483.808	103.06
484.027	82.06
484.245	98.06
484.463	79.06
484.681	91.06
484.9	89.06
485.118	99.06
485.336	99.06
485.554	91.06
485.772	101.06
485.99	104.06
486.209	105.06
486.427	98.06
486.645	102.06
486.863	104.06
487.081	97.06
487.299	103.06
487.517	78.06
487.735	87.06
487.953	89.06
488.171	102.06
488.389	106.06
488.607	103.06
488.825	90.06
489.043	87.06
489.261	85.06
489.479	87.06
489.696	86.06
489.914	86.06
490.132	79.06
490.35	88.06
490.568	85.06
490.786	89.06
491.003	94.06
491.221	94.06
491.439	77.06
491.657	95.06
491.874	85.06
492.092	86.06
492.31	95.06
492.527	82.06
492.745	100.06
492.963	85.06
493.18	91.06
493.398	91.06
493.615	110.06
493.833	89.06
494.05	99.06
494.268	98.06
494.485	90.06
494.703	81.06
494.92	94.06
495.138	94.06
495.355	86.06
495.573	88.06
495.79	89.06
496.008	86.06
496.225	104.06
496.442	106.06
496.66	93.06
496.877	108.06
497.094	85.06
497.312	74.06
497.529	93.06
497.746	85.06
497.963	73.06
498.181	95.06
498.398	91.06
498.615	109.06
498.832	105.06
499.049	89.06
499.267	99.06
499.484	84.06
499.701	95.06
499.918	94.06
500.135	84.06
500.352	95.06
500.569	91.06
500.786	90.06
501.003	67.06
501.22	84.06
501.437	86.06
501.654	94.06
501.871	114.06
502.088	94.06
502.305	87.06
502.522	105.06
502.739	90.06
502.956	93.06
503.172	97.06
503.389	84.06
503.606	102.06
503.823	97.06
504.04	97.06
504.256	96.06
504.473	92.06
504.69	73.06
504.907	104.06
505.123	90.06
505.34	89.06
505.557	90.06
505.773	82.06
505.99	96.06
506.207	94.06
506.423	95.06
506.64	102.06
506.856	99.06
507.073	91.06
507.289	100.06
507.506	98.06
507.722	106.06
507.939	109.06
508.155	95.06
508.372	85.06
508.588	87.06
508.805	100.06
509.021	90.06
509.238	100.06
509.454	90.06
509.67	111.06
509.887	106.06
510.103	133.06
510.319	196.06
510.536	634.06
510.752	2007.06
510.968	554.06
511.184	141.06
511.401	116.06
511.617	96.06
511.833	96.06
512.049	90.06
512.265	95.06
512.481	86.06
512.698	86.06
512.914	91.06
513.13	94.06
513.346	98.06
513.562	93.06
513.778	108.06
513.994	93.06
514.21	91.06
514.426	98.06
514.642	120.06
514.858	120.06
515.074	151.06
515.29	374.06
515.506	1197.06
515.721	455.06
515.937	124.06
516.153	103.06
516.369	93.06
516.585	91.06
