Data from Circ_2002_H10_HRD10591_00062.txt Node
Date: Wed Jan 03 10:41:10 EST 2024
User: Yrep
Spectrometer: HR+D1059
Trigger mode: 1
Integration Time (sec): 1.000000E-1
Scans to average: 1
Electric dark correction enabled: true
Nonlinearity correction enabled: false
Boxcar width: 0
XAxis mode: Wavelengths
Number of Pixels in Spectrum: 2048
>>>>>Begin Spectral Data<<<<<
223.165	-15
223.4	-15
223.635	-15
223.869	-21
224.104	-15
224.338	-15
224.573	-11
224.808	-5
225.042	-22
225.277	-2
225.511	2
225.746	7
225.98	0
226.215	18
226.449	18
226.683	16
226.918	19
227.152	26
227.387	34
227.621	32
227.856	49
228.09	60
228.324	46
228.559	59
228.793	57
229.027	66
229.262	75
229.496	78
229.73	72
229.964	92
230.199	71
230.433	66
230.667	72
230.901	80
231.136	80
231.37	72
231.604	74
231.838	71
232.072	79
232.306	75
232.541	66
232.775	85
233.009	93
233.243	78
233.477	76
233.711	86
233.945	87
234.179	85
234.413	74
234.647	64
234.881	85
235.115	82
235.349	80
235.583	91
235.817	62
236.051	76
236.285	80
236.519	90
236.753	81
236.987	75
237.221	88
237.455	78
237.689	72
237.922	84
238.156	66
238.39	71
238.624	70
238.858	77
239.091	68
239.325	84
239.559	77
239.793	81
240.027	66
240.26	71
240.494	80
240.728	67
240.961	71
241.195	64
241.429	81
241.662	96
241.896	64
242.13	67
242.363	73
242.597	56
242.83	90
243.064	84
243.298	75
243.531	103
243.765	75
243.998	73
244.232	82
244.465	73
244.699	74
244.932	83
245.166	67
245.399	86
245.633	70
245.866	65
246.099	81
246.333	89
246.566	79
246.8	80
247.033	80
247.266	86
247.5	78
247.733	75
247.966	85
248.2	89
248.433	74
248.666	72
248.899	79
249.133	78
249.366	96
249.599	100
249.832	72
250.066	90
250.299	84
250.532	80
250.765	68
250.998	80
251.231	86
251.465	72
251.698	81
251.931	81
252.164	73
252.397	81
252.63	79
252.863	64
253.096	66
253.329	78
253.562	78
253.795	83
254.028	79
254.261	80
254.494	90
254.727	90
254.96	86
255.193	78
255.426	78
255.659	90
255.892	71
256.124	85
256.357	71
256.59	79
256.823	73
257.056	78
257.289	95
257.521	83
257.754	86
257.987	98
258.22	91
258.452	80
258.685	80
258.918	80
259.151	80
259.383	83
259.616	82
259.849	78
260.081	101
260.314	78
260.547	69
260.779	78
261.012	84
261.244	88
261.477	80
261.71	83
261.942	98
262.175	105
262.407	75
262.64	86
262.872	80
263.105	73
263.337	96
263.57	75
263.802	78
264.035	87
264.267	78
264.499	76
264.732	79
264.964	85
265.197	78
265.429	79
265.661	78
265.894	102
266.126	89
266.358	82
266.591	83
266.823	79
267.055	81
267.287	84
267.52	82
267.752	85
267.984	85
268.216	74
268.448	82
268.681	88
268.913	83
269.145	97
269.377	84
269.609	82
269.841	89
270.073	90
270.306	86
270.538	80
270.77	86
271.002	83
271.234	74
271.466	85
271.698	85
271.93	90
272.162	86
272.394	82
272.626	71
272.858	83
273.09	79
273.322	84
273.553	97
273.785	93
274.017	88
274.249	92
274.481	86
274.713	84
274.945	85
275.176	80
275.408	86
275.64	82
275.872	82
276.104	84
276.335	93
276.567	97
276.799	101
277.031	105
277.262	83
277.494	80
277.726	72
277.957	83
278.189	74
278.421	98
278.652	69
278.884	97
279.115	88
279.347	90
279.579	85
279.81	91
280.042	84
280.273	75
280.505	91
280.736	85
280.968	75
281.199	95
281.431	91
281.662	88
281.894	76
282.125	105
282.356	122
282.588	119
282.819	107
283.051	95
283.282	82
283.513	85
283.745	86
283.976	90
284.207	87
284.439	88
284.67	96
284.901	91
285.132	78
285.364	83
285.595	97
285.826	80
286.057	83
286.288	81
286.52	84
286.751	80
286.982	88
287.213	83
287.444	88
287.675	102
287.906	87
288.138	106
288.369	87
288.6	101
288.831	92
289.062	82
289.293	74
289.524	67
289.755	89
289.986	91
290.217	80
290.448	82
290.679	89
290.91	82
291.141	84
291.371	95
291.602	80
291.833	81
292.064	85
292.295	103
292.526	83
292.757	88
292.987	100
293.218	94
293.449	95
293.68	82
293.91	80
294.141	86
294.372	94
294.603	82
294.833	88
295.064	92
295.295	76
295.525	95
295.756	94
295.987	113
296.217	122
296.448	106
296.679	77
296.909	89
297.14	92
297.37	96
297.601	85
297.831	94
298.062	103
298.292	102
298.523	76
298.753	75
298.984	81
299.214	85
299.445	84
299.675	82
299.905	87
300.136	93
300.366	76
300.597	75
300.827	94
301.057	89
301.288	94
301.518	86
301.748	83
301.979	103
302.209	98
302.439	97
302.669	87
302.9	90
303.13	79
303.36	96
303.59	98
303.82	90
304.051	89
304.281	79
304.511	94
304.741	76
304.971	70
305.201	79
305.431	95
305.661	99
305.891	91
306.121	99
306.352	100
306.582	98
306.812	87
307.042	78
307.272	99
307.502	88
307.731	90
307.961	94
308.191	79
308.421	98
308.651	99
308.881	92
309.111	79
309.341	78
309.571	87
309.8	88
310.03	79
310.26	87
310.49	97
310.72	83
310.949	79
311.179	91
311.409	100
311.639	97
311.868	85
312.098	86
312.328	83
312.557	92
312.787	90
313.017	91
313.246	105
313.476	92
313.706	109
313.935	82
314.165	98
314.394	85
314.624	95
314.853	96
315.083	94
315.312	94
315.542	96
315.771	79
316.001	92
316.23	77
316.46	104
316.689	97
316.919	101
317.148	101
317.377	94
317.607	97
317.836	91
318.065	96
318.295	97
318.524	101
318.753	91
318.983	93
319.212	87
319.441	95
319.67	102
319.9	100
320.129	96
320.358	89
320.587	92
320.816	91
321.046	100
321.275	96
321.504	106
321.733	95
321.962	85
322.191	94
322.42	90
322.649	87
322.878	112
323.108	102
323.337	102
323.566	125
323.795	140
324.024	199
324.253	330
324.482	701
324.71	1459
324.939	1884
325.168	706
325.397	222
325.626	134
325.855	115
326.084	117
326.313	119
326.542	150
326.77	219
326.999	414
327.228	834
327.457	1502
327.686	1193
327.914	346
328.143	174
328.372	158
328.6	122
328.829	107
329.058	115
329.287	115
329.515	106
329.744	113
329.972	111
330.201	113
330.43	126
330.658	112
330.887	118
331.115	111
331.344	94
331.572	92
331.801	94
332.03	89
332.258	90
332.486	89
332.715	90
332.943	88
333.172	90
333.4	94
333.629	115
333.857	118
334.085	107
334.314	117
334.542	161
334.771	136
334.999	92
335.227	92
335.455	91
335.684	103
335.912	97
336.14	105
336.369	99
336.597	93
336.825	83
337.053	82
337.281	105
337.51	86
337.738	92
337.966	86
338.194	96
338.422	76
338.65	86
338.878	81
339.106	90
339.334	88
339.562	83
339.79	92
340.018	104
340.246	83
340.474	85
340.702	102
340.93	79
341.158	95
341.386	85
341.614	94
341.842	92
342.07	83
342.298	91
342.526	104
342.754	72
342.981	86
343.209	91
343.437	106
343.665	90
343.893	86
344.12	90
344.348	92
344.576	83
344.804	89
345.031	100
345.259	95
345.487	88
345.714	86
345.942	95
346.17	102
346.397	78
346.625	87
346.853	73
347.08	82
347.308	90
347.535	107
347.763	83
347.99	98
348.218	89
348.445	88
348.673	97
348.9	94
349.128	108
349.355	101
349.583	83
349.81	68
350.037	112
350.265	95
350.492	89
350.72	94
350.947	101
351.174	106
351.402	111
351.629	92
351.856	101
352.083	104
352.311	92
352.538	91
352.765	110
352.992	120
353.22	105
353.447	103
353.674	102
353.901	96
354.128	93
354.355	91
354.583	90
354.81	102
355.037	91
355.264	91
355.491	95
355.718	101
355.945	90
356.172	94
356.399	100
356.626	90
356.853	104
357.08	96
357.307	94
357.534	100
357.761	83
357.988	87
358.215	92
358.441	92
358.668	84
358.895	76
359.122	83
359.349	84
359.576	92
359.802	92
360.029	105
360.256	108
360.483	97
360.709	75
360.936	100
361.163	94
361.39	100
361.616	98
361.843	88
362.07	86
362.296	96
362.523	93
362.749	105
362.976	101
363.203	104
363.429	91
363.656	84
363.882	87
364.109	94
364.335	93
364.562	97
364.788	84
365.015	85
365.241	112
365.468	107
365.694	97
365.92	93
366.147	88
366.373	67
366.599	71
366.826	96
367.052	99
367.278	90
367.505	88
367.731	90
367.957	90
368.184	93
368.41	68
368.636	109
368.862	106
369.089	92
369.315	101
369.541	85
369.767	95
369.993	87
370.219	88
370.445	82
370.672	83
370.898	66
371.124	84
371.35	97
371.576	92
371.802	87
372.028	89
372.254	88
372.48	96
372.706	73
372.932	80
373.158	98
373.384	85
373.61	81
373.835	96
374.061	94
374.287	97
374.513	78
374.739	90
374.965	106
375.191	92
375.416	87
375.642	85
375.868	83
376.094	91
376.319	90
376.545	100
376.771	97
376.997	94
377.222	90
377.448	81
377.674	99
377.899	91
378.125	86
378.35	106
378.576	98
378.802	81
379.027	92
379.253	91
379.478	92
379.704	88
379.929	85
380.155	90
380.38	105
380.606	91
380.831	102
381.057	96
381.282	92
381.507	80
381.733	105
381.958	105
382.184	92
382.409	98
382.634	106
382.86	101
383.085	94
383.31	89
383.535	95
383.761	99
383.986	95
384.211	102
384.436	88
384.662	115
384.887	91
385.112	101
385.337	88
385.562	98
385.787	113
386.013	117
386.238	105
386.463	107
386.688	113
386.913	102
387.138	108
387.363	95
387.588	89
387.813	112
388.038	99
388.263	121
388.488	105
388.713	100
388.938	98
389.163	93
389.387	104
389.612	86
389.837	94
390.062	72
390.287	83
390.512	88
390.736	99
390.961	95
391.186	89
391.411	103
391.636	83
391.86	87
392.085	87
392.31	80
392.534	98
392.759	91
392.984	72
393.208	83
393.433	86
393.658	75
393.882	98
394.107	82
394.331	86
394.556	98
394.78	88
395.005	100
395.229	90
395.454	87
395.678	100
395.903	70
396.127	71
396.352	82
396.576	84
396.801	77
397.025	97
397.249	100
397.474	105
397.698	89
397.922	86
398.147	81
398.371	89
398.595	87
398.82	74
399.044	80
399.268	67
399.492	88
399.717	85
399.941	99
400.165	91
400.389	92
400.613	82
400.837	80
401.062	90
401.286	81
401.51	86
401.734	94
401.958	90
402.182	110
402.406	144
402.63	126
402.854	109
403.078	80
403.302	70
403.526	68
403.75	86
403.974	78
404.198	95
404.422	102
404.645	87
404.869	95
405.093	92
405.317	99
405.541	94
405.765	97
405.988	114
406.212	142
406.436	169
406.66	130
406.883	103
407.107	76
407.331	90
407.555	98
407.778	96
408.002	68
408.226	92
408.449	88
408.673	84
408.896	91
409.12	88
409.344	92
409.567	87
409.791	92
410.014	96
410.238	90
410.461	95
410.685	88
410.908	109
411.132	103
411.355	90
411.578	92
411.802	84
412.025	84
412.249	91
412.472	90
412.695	92
412.919	83
413.142	92
413.365	80
413.589	92
413.812	86
414.035	74
414.258	87
414.482	81
414.705	66
414.928	85
415.151	97
415.374	98
415.597	87
415.821	89
416.044	89
416.267	76
416.49	86
416.713	80
416.936	88
417.159	79
417.382	84
417.605	89
417.828	90
418.051	95
418.274	104
418.497	76
418.72	105
418.943	88
419.166	78
419.389	81
419.611	100
419.834	99
420.057	81
420.28	87
420.503	87
420.726	86
420.948	96
421.171	98
421.394	92
421.617	94
421.839	81
422.062	86
422.285	107
422.507	85
422.73	91
422.953	103
423.175	84
423.398	103
423.621	86
423.843	80
424.066	84
424.288	87
424.511	94
424.733	93
424.956	120
425.178	94
425.401	99
425.623	107
425.846	92
426.068	91
426.291	88
426.513	97
426.735	98
426.958	100
427.18	96
427.402	116
427.625	128
427.847	119
428.069	100
428.292	86
428.514	90
428.736	81
428.958	86
429.181	92
429.403	92
429.625	84
429.847	95
430.069	81
430.292	109
430.514	92
430.736	82
430.958	74
431.18	78
431.402	68
431.624	76
431.846	85
432.068	90
432.29	88
432.512	90
432.734	106
432.956	85
433.178	114
433.4	91
433.622	73
433.844	91
434.066	100
434.287	89
434.509	102
434.731	88
434.953	80
435.175	88
435.397	92
435.618	92
435.84	103
436.062	106
436.284	120
436.505	101
436.727	81
436.949	85
437.17	94
437.392	81
437.614	83
437.835	93
438.057	117
438.278	103
438.5	110
438.721	97
438.943	80
439.165	95
439.386	91
439.608	92
439.829	92
440.05	102
440.272	121
440.493	89
440.715	82
440.936	76
441.158	76
441.379	89
441.6	77
441.822	87
442.043	83
442.264	82
442.486	101
442.707	87
442.928	94
443.149	118
443.371	120
443.592	103
443.813	111
444.034	104
444.255	97
444.476	102
444.698	85
444.919	86
445.14	131
445.361	113
445.582	118
445.803	119
446.024	114
446.245	127
446.466	97
446.687	81
446.908	88
447.129	88
447.35	81
447.571	91
447.792	87
448.013	103
448.234	88
448.455	109
448.675	102
448.896	103
449.117	86
449.338	107
449.559	126
449.779	104
450	88
450.221	88
450.442	89
450.662	104
450.883	95
451.104	106
451.324	87
451.545	91
451.766	88
451.986	74
452.207	95
452.428	97
452.648	102
452.869	111
453.089	110
453.31	96
453.53	88
453.751	96
453.971	108
454.192	88
454.412	98
454.633	95
454.853	94
455.073	94
455.294	103
455.514	83
455.734	98
455.955	73
456.175	101
456.395	92
456.616	82
456.836	85
457.056	93
457.276	74
457.497	73
457.717	81
457.937	83
458.157	67
458.377	99
458.598	100
458.818	121
459.038	128
459.258	105
459.478	86
459.698	88
459.918	96
460.138	93
460.358	81
460.578	86
460.798	81
461.018	79
461.238	88
461.458	76
461.678	68
461.898	69
462.118	78
462.338	87
462.558	66
462.777	80
462.997	76
463.217	81
463.437	91
463.657	78
463.876	82
464.096	84
464.316	90
464.536	106
464.755	104
464.975	97
465.195	127
465.414	145
465.634	103
465.854	85
466.073	89
466.293	86
466.512	84
466.732	84
466.951	75
467.171	77
467.391	92
467.61	100
467.829	92
468.049	94
468.268	109
468.488	91
468.707	92
468.927	94
469.146	96
469.365	85
469.585	80
469.804	85
470.023	83
470.243	95
470.462	92
470.681	97
470.901	85
471.12	80
471.339	94
471.558	85
471.777	85
471.997	98
472.216	116
472.435	148
472.654	102
472.873	92
473.092	84
473.311	89
473.53	84
473.749	82
473.968	76
474.187	98
474.406	101
474.625	92
474.844	74
475.063	86
475.282	87
475.501	96
475.72	93
475.939	84
476.158	86
476.377	93
476.596	91
476.814	87
477.033	86
477.252	88
477.471	82
477.69	97
477.908	98
478.127	90
478.346	89
478.564	84
478.783	89
479.002	87
479.22	89
479.439	105
479.658	96
479.876	79
480.095	90
480.313	103
480.532	84
480.751	87
480.969	117
481.188	209
481.406	154
481.624	90
481.843	81
482.061	76
482.28	76
482.498	86
482.717	84
482.935	87
483.153	83
483.372	83
483.59	92
483.808	85
484.027	90
484.245	90
484.463	82
484.681	92
484.9	88
485.118	111
485.336	103
485.554	112
485.772	98
485.99	106
486.209	97
486.427	110
486.645	91
486.863	92
487.081	103
487.299	88
487.517	93
487.735	92
487.953	94
488.171	86
488.389	97
488.607	96
488.825	88
489.043	90
489.261	89
489.479	89
489.696	94
489.914	76
490.132	80
490.35	83
490.568	92
490.786	93
491.003	91
491.221	90
491.439	87
491.657	99
491.874	87
492.092	76
492.31	86
492.527	88
492.745	93
492.963	87
493.18	100
493.398	102
493.615	86
493.833	110
494.05	87
494.268	78
494.485	97
494.703	88
494.92	90
495.138	82
495.355	86
495.573	83
495.79	98
496.008	99
496.225	82
496.442	92
496.66	91
496.877	87
497.094	76
497.312	101
497.529	87
497.746	91
497.963	81
498.181	90
498.398	94
498.615	106
498.832	108
499.049	94
499.267	92
499.484	85
499.701	102
499.918	84
500.135	85
500.352	92
500.569	91
500.786	83
501.003	96
501.22	94
501.437	95
501.654	91
501.871	93
502.088	98
502.305	93
502.522	88
502.739	95
502.956	107
503.172	93
503.389	91
503.606	97
503.823	92
504.04	95
504.256	86
504.473	82
504.69	84
504.907	92
505.123	97
505.34	103
505.557	97
505.773	94
505.99	91
506.207	109
506.423	95
506.64	97
506.856	90
507.073	92
507.289	90
507.506	100
507.722	94
507.939	106
508.155	103
508.372	91
508.588	87
508.805	87
509.021	93
509.238	97
509.454	114
509.67	104
509.887	98
510.103	119
510.319	197
510.536	602
510.752	1834
510.968	532
511.184	158
511.401	95
511.617	107
511.833	102
512.049	106
512.265	88
512.481	90
512.698	93
512.914	101
513.13	90
513.346	94
513.562	86
513.778	95
513.994	90
514.21	99
514.426	108
514.642	117
514.858	112
515.074	139
515.29	345
515.506	1119
515.721	432
515.937	146
516.153	111
516.369	91
516.585	96
516.801	97
517.016	106
517.232	101
517.448	91
517.664	90
517.879	94
518.095	96
518.311	92
518.527	92
518.742	94
518.958	82
519.173	90
519.389	73
519.605	82
519.82	105
520.036	96
520.251	106
520.467	104
520.682	89
520.898	93
521.113	121
521.329	124
521.544	179
521.76	446
521.975	1828
522.19	1131
522.406	257
522.621	118
522.836	107
523.052	104
523.267	91
523.482	82
523.698	87
523.913	114
524.128	103
524.343	96
524.559	90
524.774	78
524.989	90
525.204	101
525.419	102
525.634	67
525.849	98
526.064	96
526.28	99
526.495	85
526.71	86
526.925	88
527.14	94
527.355	86
527.57	92
527.785	92
527.999	103
528.214	79
528.429	88
528.644	100
528.859	89
529.074	81
529.289	116
529.503	151
529.718	107
529.933	84
530.148	102
530.363	90
530.577	92
530.792	96
531.007	94
531.221	66
531.436	80
531.651	105
531.865	94
532.08	97
532.295	109
532.509	91
532.724	89
532.938	96
533.153	97
533.367	86
533.582	100
533.796	87
534.011	85
534.225	91
534.44	102
534.654	79
534.868	82
535.083	106
535.297	90
535.511	83
535.726	94
535.94	94
536.154	99
536.369	83
536.583	97
536.797	87
537.011	84
537.225	87
537.44	83
537.654	89
537.868	80
538.082	92
538.296	95
538.51	78
538.724	82
538.938	83
539.153	99
539.367	95
539.581	91
539.795	74
540.009	92
540.222	87
540.436	84
540.65	85
540.864	87
541.078	89
541.292	79
541.506	101
541.72	98
541.934	81
542.147	87
542.361	89
542.575	91
542.789	95
543.002	92
543.216	91
543.43	97
543.644	78
543.857	97
544.071	88
544.285	85
544.498	86
544.712	84
544.925	89
545.139	96
545.352	84
545.566	98
545.779	84
545.993	76
546.206	95
546.42	99
546.633	83
546.847	102
547.06	87
547.274	90
547.487	91
547.7	106
547.914	96
548.127	91
548.34	84
548.554	96
548.767	103
548.98	97
549.193	93
549.407	95
549.62	90
549.833	94
550.046	86
550.259	103
550.473	66
550.686	98
550.899	94
551.112	88
551.325	90
551.538	85
551.751	94
551.964	91
552.177	88
552.39	77
552.603	87
552.816	92
553.029	90
553.242	101
553.455	90
553.667	99
553.88	100
554.093	99
554.306	83
554.519	83
554.732	88
554.944	79
555.157	76
555.37	91
555.583	80
555.795	89
556.008	96
556.221	99
556.433	80
556.646	95
556.859	81
557.071	89
557.284	91
557.496	87
557.709	98
557.921	89
558.134	89
558.346	77
558.559	80
558.771	100
558.984	102
559.196	102
559.409	89
559.621	86
559.833	85
560.046	79
560.258	91
560.47	95
560.683	88
560.895	78
561.107	85
561.32	98
561.532	90
561.744	105
561.956	88
562.168	91
562.381	94
562.593	100
562.805	81
563.017	83
563.229	97
563.441	87
563.653	96
563.865	93
564.077	84
564.289	104
564.501	79
564.713	92
564.925	96
565.137	96
565.349	78
565.561	91
565.773	100
565.985	82
566.197	86
566.408	93
566.62	99
566.832	79
567.044	80
567.255	92
567.467	87
567.679	91
567.891	82
568.102	100
568.314	89
568.526	87
568.737	87
568.949	88
569.161	88
569.372	91
569.584	85
569.795	86
570.007	111
570.218	202
570.43	119
570.641	96
570.853	95
571.064	81
571.276	82
571.487	79
571.698	96
571.91	74
572.121	91
572.333	97
572.544	93
572.755	80
572.966	80
573.178	79
573.389	84
573.6	97
573.811	69
574.023	98
574.234	87
574.445	88
574.656	86
574.867	74
575.078	85
575.289	73
575.501	99
575.712	84
575.923	80
576.134	92
576.345	91
576.556	88
576.767	91
576.978	80
577.188	89
577.399	98
577.61	102
577.821	93
578.032	111
578.243	216
578.454	584
578.665	175
578.875	89
579.086	80
579.297	91
579.508	95
579.718	82
579.929	99
580.14	89
580.35	74
580.561	90
580.772	86
580.982	87
581.193	83
581.403	91
581.614	82
581.825	84
582.035	102
582.246	80
582.456	93
582.667	91
582.877	88
583.087	91
583.298	83
583.508	78
583.719	92
583.929	93
584.139	91
584.35	82
584.56	85
584.77	86
584.981	85
585.191	84
