Data from Circ_2002_H10_HRD10591_00023.txt Node
Date: Wed Jan 03 10:41:02 EST 2024
User: Yrep
Spectrometer: HR+D1059
Trigger mode: 1
Integration Time (sec): 1.000000E-1
Scans to average: 1
Electric dark correction enabled: true
Nonlinearity correction enabled: false
Boxcar width: 0
XAxis mode: Wavelengths
Number of Pixels in Spectrum: 2048
>>>>>Begin Spectral Data<<<<<
223.165	-25.75
223.4	-25.75
223.635	-25.75
223.869	-25.75
224.104	-17.75
224.338	-19.75
224.573	-20.75
224.808	-12.75
225.042	-6.75
225.277	-5.75
225.511	3.25
225.746	4.25
225.98	7.25
226.215	23.25
226.449	10.25
226.683	28.25
226.918	20.25
227.152	38.25
227.387	41.25
227.621	33.25
227.856	39.25
228.09	45.25
228.324	46.25
228.559	46.25
228.793	57.25
229.027	68.25
229.262	63.25
229.496	65.25
229.73	75.25
229.964	70.25
230.199	65.25
230.433	64.25
230.667	81.25
230.901	74.25
231.136	82.25
231.37	73.25
231.604	87.25
231.838	71.25
232.072	73.25
232.306	78.25
232.541	78.25
232.775	71.25
233.009	88.25
233.243	77.25
233.477	80.25
233.711	88.25
233.945	88.25
234.179	78.25
234.413	83.25
234.647	93.25
234.881	75.25
235.115	76.25
235.349	58.25
235.583	73.25
235.817	72.25
236.051	78.25
236.285	78.25
236.519	76.25
236.753	92.25
236.987	83.25
237.221	89.25
237.455	101.25
237.689	82.25
237.922	72.25
238.156	61.25
238.39	82.25
238.624	67.25
238.858	82.25
239.091	70.25
239.325	72.25
239.559	79.25
239.793	70.25
240.027	84.25
240.26	76.25
240.494	69.25
240.728	71.25
240.961	78.25
241.195	65.25
241.429	70.25
241.662	72.25
241.896	76.25
242.13	55.25
242.363	80.25
242.597	83.25
242.83	82.25
243.064	77.25
243.298	71.25
243.531	79.25
243.765	94.25
243.998	75.25
244.232	81.25
244.465	80.25
244.699	84.25
244.932	60.25
245.166	65.25
245.399	72.25
245.633	91.25
245.866	79.25
246.099	71.25
246.333	61.25
246.566	85.25
246.8	82.25
247.033	79.25
247.266	84.25
247.5	73.25
247.733	65.25
247.966	88.25
248.2	86.25
248.433	72.25
248.666	83.25
248.899	70.25
249.133	96.25
249.366	90.25
249.599	86.25
249.832	85.25
250.066	81.25
250.299	85.25
250.532	82.25
250.765	77.25
250.998	70.25
251.231	71.25
251.465	83.25
251.698	81.25
251.931	83.25
252.164	76.25
252.397	75.25
252.63	84.25
252.863	78.25
253.096	80.25
253.329	74.25
253.562	67.25
253.795	65.25
254.028	86.25
254.261	90.25
254.494	80.25
254.727	80.25
254.96	82.25
255.193	86.25
255.426	87.25
255.659	75.25
255.892	90.25
256.124	74.25
256.357	75.25
256.59	76.25
256.823	87.25
257.056	68.25
257.289	72.25
257.521	82.25
257.754	78.25
257.987	81.25
258.22	78.25
258.452	88.25
258.685	82.25
258.918	77.25
259.151	70.25
259.383	75.25
259.616	89.25
259.849	72.25
260.081	79.25
260.314	91.25
260.547	84.25
260.779	71.25
261.012	84.25
261.244	80.25
261.477	88.25
261.71	99.25
261.942	103.25
262.175	98.25
262.407	87.25
262.64	81.25
262.872	62.25
263.105	77.25
263.337	85.25
263.57	66.25
263.802	67.25
264.035	72.25
264.267	84.25
264.499	86.25
264.732	71.25
264.964	85.25
265.197	93.25
265.429	70.25
265.661	87.25
265.894	72.25
266.126	92.25
266.358	73.25
266.591	90.25
266.823	90.25
267.055	94.25
267.287	87.25
267.52	83.25
267.752	78.25
267.984	91.25
268.216	80.25
268.448	88.25
268.681	89.25
268.913	93.25
269.145	69.25
269.377	88.25
269.609	84.25
269.841	94.25
270.073	77.25
270.306	92.25
270.538	76.25
270.77	90.25
271.002	69.25
271.234	82.25
271.466	69.25
271.698	83.25
271.93	79.25
272.162	84.25
272.394	80.25
272.626	65.25
272.858	86.25
273.09	94.25
273.322	77.25
273.553	82.25
273.785	76.25
274.017	80.25
274.249	89.25
274.481	94.25
274.713	74.25
274.945	82.25
275.176	81.25
275.408	89.25
275.64	95.25
275.872	86.25
276.104	80.25
276.335	69.25
276.567	100.25
276.799	86.25
277.031	82.25
277.262	78.25
277.494	83.25
277.726	80.25
277.957	83.25
278.189	85.25
278.421	87.25
278.652	84.25
278.884	84.25
279.115	75.25
279.347	83.25
279.579	94.25
279.81	86.25
280.042	89.25
280.273	84.25
280.505	81.25
280.736	96.25
280.968	70.25
281.199	71.25
281.431	85.25
281.662	82.25
281.894	89.25
282.125	88.25
282.356	109.25
282.588	117.25
282.819	104.25
283.051	90.25
283.282	78.25
283.513	87.25
283.745	94.25
283.976	103.25
284.207	97.25
284.439	70.25
284.67	88.25
284.901	85.25
285.132	87.25
285.364	78.25
285.595	85.25
285.826	82.25
286.057	81.25
286.288	76.25
286.52	71.25
286.751	80.25
286.982	87.25
287.213	77.25
287.444	74.25
287.675	81.25
287.906	85.25
288.138	95.25
288.369	87.25
288.6	96.25
288.831	80.25
289.062	96.25
289.293	79.25
289.524	83.25
289.755	87.25
289.986	86.25
290.217	93.25
290.448	90.25
290.679	82.25
290.91	87.25
291.141	72.25
291.371	87.25
291.602	86.25
291.833	89.25
292.064	90.25
292.295	66.25
292.526	86.25
292.757	81.25
292.987	88.25
293.218	73.25
293.449	76.25
293.68	86.25
293.91	73.25
294.141	93.25
294.372	93.25
294.603	87.25
294.833	80.25
295.064	82.25
295.295	88.25
295.525	86.25
295.756	93.25
295.987	110.25
296.217	142.25
296.448	108.25
296.679	88.25
296.909	105.25
297.14	94.25
297.37	80.25
297.601	80.25
297.831	81.25
298.062	80.25
298.292	70.25
298.523	93.25
298.753	81.25
298.984	86.25
299.214	88.25
299.445	89.25
299.675	92.25
299.905	95.25
300.136	86.25
300.366	93.25
300.597	85.25
300.827	85.25
301.057	94.25
301.288	98.25
301.518	91.25
301.748	86.25
301.979	100.25
302.209	87.25
302.439	90.25
302.669	85.25
302.9	87.25
303.13	75.25
303.36	88.25
303.59	92.25
303.82	90.25
304.051	84.25
304.281	81.25
304.511	92.25
304.741	88.25
304.971	79.25
305.201	77.25
305.431	91.25
305.661	75.25
305.891	101.25
306.121	94.25
306.352	104.25
306.582	97.25
306.812	97.25
307.042	88.25
307.272	84.25
307.502	83.25
307.731	98.25
307.961	96.25
308.191	90.25
308.421	104.25
308.651	76.25
308.881	94.25
309.111	85.25
309.341	97.25
309.571	85.25
309.8	88.25
310.03	87.25
310.26	95.25
310.49	105.25
310.72	88.25
310.949	106.25
311.179	87.25
311.409	79.25
311.639	104.25
311.868	92.25
312.098	103.25
312.328	93.25
312.557	89.25
312.787	88.25
313.017	84.25
313.246	93.25
313.476	93.25
313.706	96.25
313.935	94.25
314.165	92.25
314.394	94.25
314.624	97.25
314.853	103.25
315.083	94.25
315.312	90.25
315.542	87.25
315.771	87.25
316.001	98.25
316.23	82.25
316.46	88.25
316.689	88.25
316.919	88.25
317.148	89.25
317.377	90.25
317.607	94.25
317.836	93.25
318.065	81.25
318.295	90.25
318.524	92.25
318.753	82.25
318.983	82.25
319.212	80.25
319.441	105.25
319.67	89.25
319.9	94.25
320.129	95.25
320.358	74.25
320.587	94.25
320.816	97.25
321.046	96.25
321.275	91.25
321.504	100.25
321.733	85.25
321.962	95.25
322.191	92.25
322.42	93.25
322.649	135.25
322.878	106.25
323.108	105.25
323.337	108.25
323.566	128.25
323.795	154.25
324.024	200.25
324.253	355.25
324.482	795.25
324.71	1596.25
324.939	2070.25
325.168	752.25
325.397	214.25
325.626	146.25
325.855	118.25
326.084	134.25
326.313	127.25
326.542	144.25
326.77	224.25
326.999	448.25
327.228	912.25
327.457	1630.25
327.686	1292.25
327.914	360.25
328.143	178.25
328.372	128.25
328.6	119.25
328.829	112.25
329.058	116.25
329.287	116.25
329.515	107.25
329.744	91.25
329.972	114.25
330.201	106.25
330.43	109.25
330.658	124.25
330.887	124.25
331.115	89.25
331.344	90.25
331.572	89.25
331.801	105.25
332.03	115.25
332.258	84.25
332.486	96.25
332.715	100.25
332.943	101.25
333.172	97.25
333.4	85.25
333.629	91.25
333.857	101.25
334.085	107.25
334.314	105.25
334.542	100.25
334.771	99.25
334.999	89.25
335.227	96.25
335.455	89.25
335.684	80.25
335.912	91.25
336.14	94.25
336.369	89.25
336.597	92.25
336.825	91.25
337.053	93.25
337.281	112.25
337.51	82.25
337.738	90.25
337.966	99.25
338.194	81.25
338.422	101.25
338.65	81.25
338.878	101.25
339.106	96.25
339.334	87.25
339.562	77.25
339.79	86.25
340.018	97.25
340.246	97.25
340.474	96.25
340.702	83.25
340.93	73.25
341.158	87.25
341.386	99.25
341.614	86.25
341.842	95.25
342.07	80.25
342.298	97.25
342.526	78.25
342.754	89.25
342.981	85.25
343.209	72.25
343.437	82.25
343.665	86.25
343.893	93.25
344.12	93.25
344.348	91.25
344.576	84.25
344.804	84.25
345.031	94.25
345.259	100.25
345.487	84.25
345.714	79.25
345.942	87.25
346.17	89.25
346.397	93.25
346.625	105.25
346.853	99.25
347.08	81.25
347.308	82.25
347.535	92.25
347.763	106.25
347.99	107.25
348.218	100.25
348.445	87.25
348.673	105.25
348.9	88.25
349.128	97.25
349.355	86.25
349.583	93.25
349.81	93.25
350.037	90.25
350.265	104.25
350.492	90.25
350.72	100.25
350.947	83.25
351.174	95.25
351.402	100.25
351.629	119.25
351.856	92.25
352.083	88.25
352.311	111.25
352.538	107.25
352.765	106.25
352.992	115.25
353.22	115.25
353.447	101.25
353.674	97.25
353.901	103.25
354.128	107.25
354.355	81.25
354.583	108.25
354.81	99.25
355.037	94.25
355.264	103.25
355.491	96.25
355.718	91.25
355.945	98.25
356.172	94.25
356.399	104.25
356.626	89.25
356.853	93.25
357.08	92.25
357.307	92.25
357.534	95.25
357.761	93.25
357.988	89.25
358.215	100.25
358.441	99.25
358.668	83.25
358.895	87.25
359.122	93.25
359.349	77.25
359.576	105.25
359.802	92.25
360.029	89.25
360.256	89.25
360.483	83.25
360.709	100.25
360.936	95.25
361.163	93.25
361.39	85.25
361.616	105.25
361.843	95.25
362.07	99.25
362.296	90.25
362.523	87.25
362.749	79.25
362.976	82.25
363.203	96.25
363.429	85.25
363.656	92.25
363.882	95.25
364.109	93.25
364.335	91.25
364.562	87.25
364.788	88.25
365.015	92.25
365.241	94.25
365.468	101.25
365.694	108.25
365.92	105.25
366.147	84.25
366.373	76.25
366.599	87.25
366.826	86.25
367.052	94.25
367.278	80.25
367.505	81.25
367.731	106.25
367.957	96.25
368.184	97.25
368.41	90.25
368.636	107.25
368.862	116.25
369.089	89.25
369.315	79.25
369.541	90.25
369.767	97.25
369.993	71.25
370.219	98.25
370.445	99.25
370.672	87.25
370.898	91.25
371.124	80.25
371.35	93.25
371.576	95.25
371.802	94.25
372.028	94.25
372.254	94.25
372.48	84.25
372.706	88.25
372.932	89.25
373.158	81.25
373.384	100.25
373.61	78.25
373.835	80.25
374.061	81.25
374.287	89.25
374.513	96.25
374.739	87.25
374.965	92.25
375.191	96.25
375.416	86.25
375.642	83.25
375.868	100.25
376.094	97.25
376.319	88.25
376.545	98.25
376.771	89.25
376.997	90.25
377.222	80.25
377.448	84.25
377.674	72.25
377.899	86.25
378.125	88.25
378.35	94.25
378.576	91.25
378.802	85.25
379.027	80.25
379.253	68.25
379.478	94.25
379.704	87.25
379.929	89.25
380.155	94.25
380.38	94.25
380.606	107.25
380.831	93.25
381.057	101.25
381.282	93.25
381.507	98.25
381.733	97.25
381.958	104.25
382.184	97.25
382.409	100.25
382.634	109.25
382.86	100.25
383.085	82.25
383.31	117.25
383.535	107.25
383.761	94.25
383.986	99.25
384.211	93.25
384.436	91.25
384.662	108.25
384.887	106.25
385.112	117.25
385.337	109.25
385.562	114.25
385.787	102.25
386.013	106.25
386.238	119.25
386.463	114.25
386.688	120.25
386.913	116.25
387.138	101.25
387.363	98.25
387.588	100.25
387.813	102.25
388.038	109.25
388.263	112.25
388.488	105.25
388.713	106.25
388.938	95.25
389.163	95.25
389.387	88.25
389.612	79.25
389.837	89.25
390.062	92.25
390.287	94.25
390.512	82.25
390.736	99.25
390.961	83.25
391.186	84.25
391.411	100.25
391.636	85.25
391.86	77.25
392.085	81.25
392.31	92.25
392.534	97.25
392.759	86.25
392.984	80.25
393.208	109.25
393.433	100.25
393.658	85.25
393.882	82.25
394.107	71.25
394.331	71.25
394.556	88.25
394.78	82.25
395.005	88.25
395.229	75.25
395.454	92.25
395.678	80.25
395.903	85.25
396.127	88.25
396.352	102.25
396.576	91.25
396.801	94.25
397.025	85.25
397.249	85.25
397.474	89.25
397.698	90.25
397.922	91.25
398.147	78.25
398.371	95.25
398.595	87.25
398.82	78.25
399.044	90.25
399.268	84.25
399.492	84.25
399.717	95.25
399.941	93.25
400.165	80.25
400.389	87.25
400.613	78.25
400.837	84.25
401.062	85.25
401.286	104.25
401.51	79.25
401.734	87.25
401.958	103.25
402.182	116.25
402.406	155.25
402.63	121.25
402.854	84.25
403.078	81.25
403.302	87.25
403.526	88.25
403.75	86.25
403.974	83.25
404.198	88.25
404.422	85.25
404.645	93.25
404.869	90.25
405.093	102.25
405.317	99.25
405.541	100.25
405.765	86.25
405.988	110.25
406.212	153.25
406.436	189.25
406.66	126.25
406.883	90.25
407.107	96.25
407.331	88.25
407.555	90.25
407.778	88.25
408.002	90.25
408.226	69.25
408.449	76.25
408.673	94.25
408.896	95.25
409.12	94.25
409.344	78.25
409.567	76.25
409.791	93.25
410.014	101.25
410.238	97.25
410.461	99.25
410.685	84.25
410.908	98.25
411.132	88.25
411.355	97.25
411.578	98.25
411.802	84.25
412.025	98.25
412.249	78.25
412.472	89.25
412.695	82.25
412.919	84.25
413.142	78.25
413.365	73.25
413.589	83.25
413.812	80.25
414.035	73.25
414.258	94.25
414.482	86.25
414.705	83.25
414.928	82.25
415.151	91.25
415.374	85.25
415.597	88.25
415.821	86.25
416.044	78.25
416.267	97.25
416.49	85.25
416.713	81.25
416.936	70.25
417.159	79.25
417.382	92.25
417.605	79.25
417.828	97.25
418.051	90.25
418.274	115.25
418.497	83.25
418.72	84.25
418.943	71.25
419.166	84.25
419.389	97.25
419.611	92.25
419.834	89.25
420.057	94.25
420.28	91.25
420.503	75.25
420.726	84.25
420.948	90.25
421.171	93.25
421.394	104.25
421.617	95.25
421.839	88.25
422.062	73.25
422.285	94.25
422.507	87.25
422.73	108.25
422.953	100.25
423.175	85.25
423.398	78.25
423.621	73.25
423.843	80.25
424.066	89.25
424.288	94.25
424.511	75.25
424.733	86.25
424.956	102.25
425.178	85.25
425.401	91.25
425.623	97.25
425.846	104.25
426.068	80.25
426.291	85.25
426.513	87.25
426.735	96.25
426.958	79.25
427.18	90.25
427.402	143.25
427.625	156.25
427.847	111.25
428.069	101.25
428.292	86.25
428.514	82.25
428.736	79.25
428.958	76.25
429.181	72.25
429.403	66.25
429.625	81.25
429.847	81.25
430.069	91.25
430.292	105.25
430.514	85.25
430.736	95.25
430.958	90.25
431.18	74.25
431.402	88.25
431.624	69.25
431.846	86.25
432.068	78.25
432.29	82.25
432.512	84.25
432.734	76.25
432.956	78.25
433.178	100.25
433.4	97.25
433.622	88.25
433.844	87.25
434.066	78.25
434.287	88.25
434.509	87.25
434.731	87.25
434.953	78.25
435.175	90.25
435.397	98.25
435.618	80.25
435.84	99.25
436.062	117.25
436.284	115.25
436.505	117.25
436.727	106.25
436.949	81.25
437.17	66.25
437.392	85.25
437.614	95.25
437.835	112.25
438.057	115.25
438.278	102.25
438.5	97.25
438.721	115.25
438.943	102.25
439.165	98.25
439.386	87.25
439.608	94.25
439.829	92.25
440.05	116.25
440.272	139.25
440.493	109.25
440.715	86.25
440.936	72.25
441.158	72.25
441.379	80.25
441.6	88.25
441.822	90.25
442.043	87.25
442.264	106.25
442.486	105.25
442.707	88.25
442.928	93.25
443.149	117.25
443.371	111.25
443.592	119.25
443.813	106.25
444.034	106.25
444.255	91.25
444.476	90.25
444.698	87.25
444.919	90.25
445.14	117.25
445.361	127.25
445.582	108.25
445.803	116.25
446.024	142.25
446.245	131.25
446.466	110.25
446.687	88.25
446.908	71.25
447.129	76.25
447.35	71.25
447.571	81.25
447.792	105.25
448.013	102.25
448.234	94.25
448.455	91.25
448.675	113.25
448.896	116.25
449.117	90.25
449.338	99.25
449.559	124.25
449.779	130.25
450	104.25
450.221	98.25
450.442	68.25
450.662	97.25
450.883	91.25
451.104	103.25
451.324	85.25
451.545	87.25
451.766	85.25
451.986	86.25
452.207	86.25
452.428	80.25
452.648	101.25
452.869	96.25
453.089	90.25
453.31	101.25
453.53	97.25
453.751	93.25
453.971	88.25
454.192	99.25
454.412	90.25
454.633	66.25
454.853	73.25
455.073	72.25
455.294	87.25
455.514	88.25
455.734	80.25
455.955	83.25
456.175	73.25
456.395	82.25
456.616	80.25
456.836	82.25
457.056	88.25
457.276	92.25
457.497	80.25
457.717	80.25
457.937	100.25
458.157	113.25
458.377	98.25
458.598	113.25
458.818	145.25
459.038	121.25
459.258	111.25
459.478	95.25
459.698	85.25
459.918	76.25
460.138	81.25
460.358	71.25
460.578	82.25
460.798	92.25
461.018	84.25
461.238	81.25
461.458	86.25
461.678	82.25
461.898	87.25
462.118	85.25
462.338	83.25
462.558	77.25
462.777	86.25
462.997	85.25
463.217	85.25
463.437	91.25
463.657	88.25
463.876	78.25
464.096	87.25
464.316	89.25
464.536	87.25
464.755	100.25
464.975	107.25
465.195	134.25
465.414	133.25
465.634	89.25
465.854	90.25
466.073	96.25
466.293	86.25
466.512	77.25
466.732	78.25
466.951	86.25
467.171	94.25
467.391	85.25
467.61	94.25
467.829	78.25
468.049	86.25
468.268	105.25
468.488	92.25
468.707	87.25
468.927	81.25
469.146	78.25
469.365	78.25
469.585	86.25
469.804	88.25
470.023	93.25
470.243	87.25
470.462	96.25
470.681	101.25
470.901	89.25
471.12	82.25
471.339	72.25
471.558	79.25
471.777	86.25
471.997	76.25
472.216	96.25
472.435	101.25
472.654	95.25
472.873	96.25
473.092	87.25
473.311	82.25
473.53	81.25
473.749	94.25
473.968	88.25
474.187	105.25
474.406	105.25
474.625	84.25
474.844	85.25
475.063	70.25
475.282	74.25
475.501	81.25
475.72	80.25
475.939	99.25
476.158	92.25
476.377	103.25
476.596	83.25
476.814	98.25
477.033	93.25
477.252	86.25
477.471	80.25
477.69	83.25
477.908	83.25
478.127	79.25
478.346	83.25
478.564	91.25
478.783	85.25
479.002	83.25
479.22	85.25
479.439	94.25
479.658	103.25
479.876	97.25
480.095	100.25
480.313	92.25
480.532	93.25
480.751	99.25
480.969	83.25
481.188	104.25
481.406	98.25
481.624	90.25
481.843	78.25
482.061	74.25
482.28	80.25
482.498	85.25
482.717	79.25
482.935	75.25
483.153	79.25
483.372	77.25
483.59	94.25
483.808	85.25
484.027	98.25
484.245	94.25
484.463	82.25
484.681	89.25
484.9	102.25
485.118	105.25
485.336	89.25
485.554	103.25
485.772	109.25
485.99	109.25
486.209	111.25
486.427	117.25
486.645	98.25
486.863	106.25
487.081	112.25
487.299	100.25
487.517	96.25
487.735	97.25
487.953	99.25
488.171	87.25
488.389	87.25
488.607	89.25
488.825	76.25
489.043	80.25
489.261	66.25
489.479	99.25
489.696	97.25
489.914	89.25
490.132	70.25
490.35	77.25
490.568	81.25
490.786	92.25
491.003	96.25
491.221	85.25
491.439	89.25
491.657	83.25
491.874	82.25
492.092	84.25
492.31	96.25
492.527	76.25
492.745	78.25
492.963	90.25
493.18	99.25
493.398	95.25
493.615	91.25
493.833	93.25
494.05	86.25
494.268	74.25
494.485	78.25
494.703	84.25
494.92	86.25
495.138	93.25
495.355	85.25
495.573	78.25
495.79	90.25
496.008	101.25
496.225	93.25
496.442	82.25
496.66	78.25
496.877	92.25
497.094	94.25
497.312	75.25
497.529	90.25
497.746	79.25
497.963	81.25
498.181	106.25
498.398	94.25
498.615	100.25
498.832	102.25
499.049	91.25
499.267	94.25
499.484	87.25
499.701	86.25
499.918	76.25
500.135	78.25
500.352	88.25
500.569	94.25
500.786	77.25
501.003	98.25
501.22	79.25
501.437	92.25
501.654	90.25
501.871	83.25
502.088	91.25
502.305	90.25
502.522	77.25
502.739	86.25
502.956	91.25
503.172	82.25
503.389	89.25
503.606	100.25
503.823	100.25
504.04	94.25
504.256	86.25
504.473	103.25
504.69	88.25
504.907	100.25
505.123	110.25
505.34	83.25
505.557	96.25
505.773	71.25
505.99	81.25
506.207	94.25
506.423	93.25
506.64	83.25
506.856	86.25
507.073	90.25
507.289	89.25
507.506	107.25
507.722	103.25
507.939	113.25
508.155	81.25
508.372	92.25
508.588	88.25
508.805	100.25
509.021	97.25
509.238	80.25
509.454	89.25
509.67	99.25
509.887	112.25
510.103	111.25
510.319	191.25
510.536	604.25
510.752	1919.25
510.968	556.25
511.184	142.25
511.401	121.25
511.617	92.25
511.833	87.25
512.049	82.25
512.265	99.25
512.481	100.25
512.698	98.25
512.914	105.25
513.13	86.25
513.346	103.25
513.562	83.25
513.778	94.25
513.994	106.25
514.21	96.25
514.426	114.25
514.642	117.25
514.858	105.25
515.074	144.25
515.29	371.25
515.506	1131.25
515.721	429.25
515.937	143.25
516.153	94.25
516.369	106.25
