Data from Circ_2002_H10_HRD10591_00028.txt Node
Date: Wed Jan 03 10:41:03 EST 2024
User: Yrep
Spectrometer: HR+D1059
Trigger mode: 1
Integration Time (sec): 1.000000E-1
Scans to average: 1
Electric dark correction enabled: true
Nonlinearity correction enabled: false
Boxcar width: 0
XAxis mode: Wavelengths
Number of Pixels in Spectrum: 2048
>>>>>Begin Spectral Data<<<<<
223.165	-23.81
223.4	-23.81
223.635	-23.81
223.869	-17.81
224.104	-21.81
224.338	-12.81
224.573	-5.81
224.808	-12.81
225.042	-14.81
225.277	-0.81
225.511	13.19
225.746	1.19
225.98	10.19
226.215	8.19
226.449	17.19
226.683	11.19
226.918	29.19
227.152	20.19
227.387	44.19
227.621	33.19
227.856	38.19
228.09	40.19
228.324	54.19
228.559	57.19
228.793	53.19
229.027	73.19
229.262	62.19
229.496	63.19
229.73	83.19
229.964	77.19
230.199	81.19
230.433	65.19
230.667	82.19
230.901	82.19
231.136	64.19
231.37	84.19
231.604	84.19
231.838	76.19
232.072	77.19
232.306	91.19
232.541	78.19
232.775	73.19
233.009	74.19
233.243	88.19
233.477	74.19
233.711	69.19
233.945	72.19
234.179	84.19
234.413	89.19
234.647	80.19
234.881	78.19
235.115	81.19
235.349	80.19
235.583	80.19
235.817	70.19
236.051	63.19
236.285	69.19
236.519	72.19
236.753	81.19
236.987	76.19
237.221	83.19
237.455	82.19
237.689	61.19
237.922	79.19
238.156	75.19
238.39	82.19
238.624	81.19
238.858	71.19
239.091	63.19
239.325	86.19
239.559	83.19
239.793	73.19
240.027	87.19
240.26	81.19
240.494	70.19
240.728	92.19
240.961	72.19
241.195	77.19
241.429	79.19
241.662	71.19
241.896	73.19
242.13	73.19
242.363	73.19
242.597	63.19
242.83	79.19
243.064	66.19
243.298	59.19
243.531	80.19
243.765	69.19
243.998	69.19
244.232	75.19
244.465	83.19
244.699	86.19
244.932	77.19
245.166	90.19
245.399	94.19
245.633	62.19
245.866	78.19
246.099	81.19
246.333	79.19
246.566	74.19
246.8	91.19
247.033	94.19
247.266	68.19
247.5	76.19
247.733	83.19
247.966	75.19
248.2	72.19
248.433	89.19
248.666	86.19
248.899	78.19
249.133	90.19
249.366	103.19
249.599	87.19
249.832	81.19
250.066	72.19
250.299	81.19
250.532	70.19
250.765	76.19
250.998	74.19
251.231	82.19
251.465	85.19
251.698	93.19
251.931	77.19
252.164	72.19
252.397	70.19
252.63	74.19
252.863	85.19
253.096	85.19
253.329	90.19
253.562	79.19
253.795	87.19
254.028	82.19
254.261	88.19
254.494	68.19
254.727	91.19
254.96	86.19
255.193	77.19
255.426	69.19
255.659	70.19
255.892	86.19
256.124	73.19
256.357	73.19
256.59	69.19
256.823	73.19
257.056	79.19
257.289	80.19
257.521	74.19
257.754	82.19
257.987	86.19
258.22	73.19
258.452	75.19
258.685	87.19
258.918	87.19
259.151	96.19
259.383	88.19
259.616	91.19
259.849	90.19
260.081	90.19
260.314	86.19
260.547	71.19
260.779	79.19
261.012	78.19
261.244	83.19
261.477	89.19
261.71	85.19
261.942	101.19
262.175	104.19
262.407	91.19
262.64	82.19
262.872	89.19
263.105	75.19
263.337	74.19
263.57	87.19
263.802	86.19
264.035	85.19
264.267	85.19
264.499	75.19
264.732	90.19
264.964	81.19
265.197	79.19
265.429	86.19
265.661	81.19
265.894	86.19
266.126	72.19
266.358	76.19
266.591	74.19
266.823	73.19
267.055	95.19
267.287	98.19
267.52	81.19
267.752	82.19
267.984	84.19
268.216	87.19
268.448	92.19
268.681	78.19
268.913	95.19
269.145	91.19
269.377	91.19
269.609	91.19
269.841	69.19
270.073	79.19
270.306	81.19
270.538	77.19
270.77	70.19
271.002	87.19
271.234	95.19
271.466	91.19
271.698	76.19
271.93	83.19
272.162	87.19
272.394	98.19
272.626	88.19
272.858	81.19
273.09	86.19
273.322	94.19
273.553	84.19
273.785	91.19
274.017	68.19
274.249	82.19
274.481	87.19
274.713	83.19
274.945	86.19
275.176	82.19
275.408	75.19
275.64	75.19
275.872	81.19
276.104	94.19
276.335	101.19
276.567	92.19
276.799	88.19
277.031	89.19
277.262	90.19
277.494	88.19
277.726	77.19
277.957	87.19
278.189	91.19
278.421	88.19
278.652	95.19
278.884	87.19
279.115	94.19
279.347	91.19
279.579	81.19
279.81	102.19
280.042	90.19
280.273	84.19
280.505	78.19
280.736	86.19
280.968	104.19
281.199	87.19
281.431	94.19
281.662	73.19
281.894	80.19
282.125	98.19
282.356	101.19
282.588	145.19
282.819	102.19
283.051	90.19
283.282	92.19
283.513	91.19
283.745	91.19
283.976	92.19
284.207	87.19
284.439	87.19
284.67	93.19
284.901	88.19
285.132	80.19
285.364	85.19
285.595	92.19
285.826	95.19
286.057	79.19
286.288	74.19
286.52	86.19
286.751	94.19
286.982	91.19
287.213	74.19
287.444	83.19
287.675	81.19
287.906	88.19
288.138	92.19
288.369	65.19
288.6	101.19
288.831	68.19
289.062	89.19
289.293	83.19
289.524	76.19
289.755	90.19
289.986	93.19
290.217	78.19
290.448	89.19
290.679	87.19
290.91	88.19
291.141	91.19
291.371	86.19
291.602	83.19
291.833	81.19
292.064	73.19
292.295	81.19
292.526	91.19
292.757	81.19
292.987	80.19
293.218	99.19
293.449	92.19
293.68	85.19
293.91	85.19
294.141	93.19
294.372	87.19
294.603	92.19
294.833	93.19
295.064	101.19
295.295	87.19
295.525	84.19
295.756	89.19
295.987	108.19
296.217	146.19
296.448	125.19
296.679	85.19
296.909	80.19
297.14	84.19
297.37	83.19
297.601	81.19
297.831	86.19
298.062	89.19
298.292	78.19
298.523	88.19
298.753	86.19
298.984	83.19
299.214	96.19
299.445	84.19
299.675	98.19
299.905	99.19
300.136	90.19
300.366	81.19
300.597	87.19
300.827	93.19
301.057	96.19
301.288	101.19
301.518	81.19
301.748	92.19
301.979	91.19
302.209	81.19
302.439	98.19
302.669	82.19
302.9	82.19
303.13	100.19
303.36	102.19
303.59	104.19
303.82	107.19
304.051	98.19
304.281	89.19
304.511	92.19
304.741	73.19
304.971	87.19
305.201	93.19
305.431	70.19
305.661	96.19
305.891	95.19
306.121	95.19
306.352	98.19
306.582	104.19
306.812	82.19
307.042	88.19
307.272	96.19
307.502	100.19
307.731	90.19
307.961	77.19
308.191	95.19
308.421	85.19
308.651	90.19
308.881	84.19
309.111	95.19
309.341	80.19
309.571	99.19
309.8	85.19
310.03	85.19
310.26	102.19
310.49	92.19
310.72	100.19
310.949	105.19
311.179	110.19
311.409	87.19
311.639	103.19
311.868	104.19
312.098	90.19
312.328	93.19
312.557	99.19
312.787	105.19
313.017	85.19
313.246	83.19
313.476	87.19
313.706	88.19
313.935	89.19
314.165	88.19
314.394	97.19
314.624	90.19
314.853	101.19
315.083	97.19
315.312	88.19
315.542	102.19
315.771	83.19
316.001	83.19
316.23	82.19
316.46	95.19
316.689	84.19
316.919	98.19
317.148	103.19
317.377	80.19
317.607	74.19
317.836	70.19
318.065	91.19
318.295	85.19
318.524	103.19
318.753	90.19
318.983	88.19
319.212	98.19
319.441	119.19
319.67	95.19
319.9	90.19
320.129	89.19
320.358	88.19
320.587	94.19
320.816	105.19
321.046	101.19
321.275	89.19
321.504	96.19
321.733	114.19
321.962	120.19
322.191	95.19
322.42	119.19
322.649	125.19
322.878	112.19
323.108	123.19
323.337	113.19
323.566	145.19
323.795	163.19
324.024	224.19
324.253	438.19
324.482	943.19
324.71	1973.19
324.939	2585.19
325.168	921.19
325.397	274.19
325.626	147.19
325.855	136.19
326.084	132.19
326.313	129.19
326.542	158.19
326.77	245.19
326.999	525.19
327.228	1090.19
327.457	2007.19
327.686	1557.19
327.914	421.19
328.143	207.19
328.372	153.19
328.6	125.19
328.829	117.19
329.058	112.19
329.287	116.19
329.515	103.19
329.744	103.19
329.972	94.19
330.201	101.19
330.43	110.19
330.658	118.19
330.887	126.19
331.115	118.19
331.344	90.19
331.572	107.19
331.801	96.19
332.03	95.19
332.258	85.19
332.486	91.19
332.715	97.19
332.943	86.19
333.172	99.19
333.4	97.19
333.629	102.19
333.857	100.19
334.085	101.19
334.314	88.19
334.542	86.19
334.771	101.19
334.999	95.19
335.227	105.19
335.455	94.19
335.684	101.19
335.912	71.19
336.14	101.19
336.369	99.19
336.597	97.19
336.825	93.19
337.053	86.19
337.281	95.19
337.51	87.19
337.738	91.19
337.966	81.19
338.194	99.19
338.422	94.19
338.65	98.19
338.878	87.19
339.106	80.19
339.334	87.19
339.562	93.19
339.79	95.19
340.018	96.19
340.246	88.19
340.474	85.19
340.702	98.19
340.93	93.19
341.158	96.19
341.386	88.19
341.614	98.19
341.842	91.19
342.07	82.19
342.298	92.19
342.526	88.19
342.754	89.19
342.981	82.19
343.209	87.19
343.437	102.19
343.665	77.19
343.893	92.19
344.12	81.19
344.348	88.19
344.576	78.19
344.804	103.19
345.031	103.19
345.259	95.19
345.487	94.19
345.714	97.19
345.942	95.19
346.17	85.19
346.397	89.19
346.625	79.19
346.853	91.19
347.08	102.19
347.308	95.19
347.535	100.19
347.763	105.19
347.99	98.19
348.218	88.19
348.445	104.19
348.673	94.19
348.9	106.19
349.128	94.19
349.355	94.19
349.583	97.19
349.81	88.19
350.037	88.19
350.265	97.19
350.492	90.19
350.72	95.19
350.947	101.19
351.174	119.19
351.402	107.19
351.629	83.19
351.856	104.19
352.083	96.19
352.311	98.19
352.538	108.19
352.765	103.19
352.992	113.19
353.22	115.19
353.447	106.19
353.674	103.19
353.901	81.19
354.128	93.19
354.355	91.19
354.583	99.19
354.81	99.19
355.037	101.19
355.264	94.19
355.491	80.19
355.718	92.19
355.945	95.19
356.172	95.19
356.399	83.19
356.626	99.19
356.853	79.19
357.08	92.19
357.307	85.19
357.534	80.19
357.761	88.19
357.988	94.19
358.215	89.19
358.441	104.19
358.668	89.19
358.895	84.19
359.122	91.19
359.349	97.19
359.576	85.19
359.802	103.19
360.029	114.19
360.256	98.19
360.483	102.19
360.709	89.19
360.936	97.19
361.163	104.19
361.39	89.19
361.616	89.19
361.843	88.19
362.07	94.19
362.296	106.19
362.523	78.19
362.749	90.19
362.976	93.19
363.203	89.19
363.429	86.19
363.656	97.19
363.882	77.19
364.109	103.19
364.335	93.19
364.562	84.19
364.788	89.19
365.015	96.19
365.241	109.19
365.468	108.19
365.694	96.19
365.92	94.19
366.147	98.19
366.373	85.19
366.599	92.19
366.826	82.19
367.052	87.19
367.278	87.19
367.505	87.19
367.731	87.19
367.957	102.19
368.184	78.19
368.41	85.19
368.636	106.19
368.862	118.19
369.089	98.19
369.315	89.19
369.541	90.19
369.767	73.19
369.993	85.19
370.219	88.19
370.445	90.19
370.672	102.19
370.898	85.19
371.124	84.19
371.35	86.19
371.576	83.19
371.802	70.19
372.028	95.19
372.254	89.19
372.48	82.19
372.706	68.19
372.932	90.19
373.158	98.19
373.384	87.19
373.61	95.19
373.835	88.19
374.061	79.19
374.287	100.19
374.513	90.19
374.739	75.19
374.965	81.19
375.191	88.19
375.416	89.19
375.642	90.19
375.868	84.19
376.094	107.19
376.319	91.19
376.545	88.19
376.771	104.19
376.997	79.19
377.222	76.19
377.448	93.19
377.674	89.19
377.899	88.19
378.125	92.19
378.35	94.19
378.576	82.19
378.802	79.19
379.027	73.19
379.253	99.19
379.478	88.19
379.704	81.19
379.929	98.19
380.155	100.19
380.38	114.19
380.606	107.19
380.831	78.19
381.057	90.19
381.282	97.19
381.507	98.19
381.733	98.19
381.958	99.19
382.184	97.19
382.409	98.19
382.634	100.19
382.86	102.19
383.085	110.19
383.31	104.19
383.535	101.19
383.761	101.19
383.986	100.19
384.211	90.19
384.436	104.19
384.662	96.19
384.887	91.19
385.112	113.19
385.337	111.19
385.562	105.19
385.787	110.19
386.013	126.19
386.238	109.19
386.463	113.19
386.688	107.19
386.913	109.19
387.138	105.19
387.363	95.19
387.588	94.19
387.813	99.19
388.038	113.19
388.263	116.19
388.488	103.19
388.713	105.19
388.938	96.19
389.163	83.19
389.387	106.19
389.612	95.19
389.837	94.19
390.062	83.19
390.287	86.19
390.512	85.19
390.736	97.19
390.961	90.19
391.186	97.19
391.411	100.19
391.636	88.19
391.86	86.19
392.085	83.19
392.31	86.19
392.534	90.19
392.759	91.19
392.984	90.19
393.208	99.19
393.433	103.19
393.658	91.19
393.882	79.19
394.107	72.19
394.331	96.19
394.556	83.19
394.78	83.19
395.005	91.19
395.229	77.19
395.454	95.19
395.678	80.19
395.903	94.19
396.127	95.19
396.352	99.19
396.576	77.19
396.801	91.19
397.025	92.19
397.249	76.19
397.474	94.19
397.698	89.19
397.922	83.19
398.147	97.19
398.371	91.19
398.595	81.19
398.82	71.19
399.044	91.19
399.268	84.19
399.492	91.19
399.717	82.19
399.941	87.19
400.165	92.19
400.389	91.19
400.613	87.19
400.837	86.19
401.062	84.19
401.286	79.19
401.51	88.19
401.734	84.19
401.958	103.19
402.182	111.19
402.406	154.19
402.63	116.19
402.854	80.19
403.078	85.19
403.302	90.19
403.526	94.19
403.75	91.19
403.974	97.19
404.198	97.19
404.422	91.19
404.645	84.19
404.869	74.19
405.093	82.19
405.317	95.19
405.541	95.19
405.765	91.19
405.988	107.19
406.212	164.19
406.436	225.19
406.66	141.19
406.883	105.19
407.107	81.19
407.331	87.19
407.555	109.19
407.778	95.19
408.002	95.19
408.226	94.19
408.449	81.19
408.673	85.19
408.896	89.19
409.12	97.19
409.344	118.19
409.567	88.19
409.791	91.19
410.014	98.19
410.238	99.19
410.461	86.19
410.685	96.19
410.908	90.19
411.132	107.19
411.355	98.19
411.578	93.19
411.802	89.19
412.025	80.19
412.249	87.19
412.472	82.19
412.695	95.19
412.919	102.19
413.142	95.19
413.365	89.19
413.589	95.19
413.812	80.19
414.035	80.19
414.258	85.19
414.482	99.19
414.705	82.19
414.928	83.19
415.151	96.19
415.374	88.19
415.597	91.19
415.821	91.19
416.044	87.19
416.267	83.19
416.49	81.19
416.713	85.19
416.936	90.19
417.159	87.19
417.382	79.19
417.605	86.19
417.828	103.19
418.051	96.19
418.274	85.19
418.497	86.19
418.72	82.19
418.943	101.19
419.166	89.19
419.389	101.19
419.611	80.19
419.834	86.19
420.057	82.19
420.28	85.19
420.503	95.19
420.726	89.19
420.948	89.19
421.171	84.19
421.394	85.19
421.617	85.19
421.839	87.19
422.062	84.19
422.285	94.19
422.507	107.19
422.73	111.19
422.953	100.19
423.175	89.19
423.398	81.19
423.621	112.19
423.843	90.19
424.066	88.19
424.288	89.19
424.511	83.19
424.733	98.19
424.956	113.19
425.178	117.19
425.401	97.19
425.623	104.19
425.846	97.19
426.068	101.19
426.291	109.19
426.513	87.19
426.735	94.19
426.958	105.19
427.18	102.19
427.402	134.19
427.625	169.19
427.847	120.19
428.069	110.19
428.292	88.19
428.514	79.19
428.736	87.19
428.958	77.19
429.181	78.19
429.403	87.19
429.625	94.19
429.847	79.19
430.069	95.19
430.292	95.19
430.514	95.19
430.736	90.19
430.958	87.19
431.18	91.19
431.402	73.19
431.624	76.19
431.846	75.19
432.068	83.19
432.29	88.19
432.512	103.19
432.734	79.19
432.956	78.19
433.178	77.19
433.4	98.19
433.622	99.19
433.844	90.19
434.066	95.19
434.287	90.19
434.509	94.19
434.731	99.19
434.953	111.19
435.175	76.19
435.397	97.19
435.618	99.19
435.84	91.19
436.062	121.19
436.284	110.19
436.505	102.19
436.727	93.19
436.949	86.19
437.17	90.19
437.392	80.19
437.614	79.19
437.835	114.19
438.057	108.19
438.278	106.19
438.5	86.19
438.721	136.19
438.943	106.19
439.165	90.19
439.386	85.19
439.608	91.19
439.829	94.19
440.05	131.19
440.272	149.19
440.493	103.19
440.715	97.19
440.936	85.19
441.158	89.19
441.379	86.19
441.6	79.19
441.822	91.19
442.043	92.19
442.264	103.19
442.486	97.19
442.707	104.19
442.928	100.19
443.149	125.19
443.371	133.19
443.592	103.19
443.813	102.19
444.034	106.19
444.255	76.19
444.476	86.19
444.698	87.19
444.919	82.19
445.14	133.19
445.361	119.19
445.582	107.19
445.803	161.19
446.024	154.19
446.245	125.19
446.466	129.19
446.687	96.19
446.908	88.19
447.129	69.19
447.35	85.19
447.571	99.19
447.792	99.19
448.013	101.19
448.234	109.19
448.455	94.19
448.675	112.19
448.896	119.19
449.117	98.19
449.338	98.19
449.559	134.19
449.779	134.19
450	99.19
450.221	91.19
450.442	90.19
450.662	95.19
450.883	100.19
451.104	111.19
451.324	98.19
451.545	88.19
451.766	72.19
451.986	85.19
452.207	99.19
452.428	98.19
452.648	93.19
452.869	113.19
453.089	112.19
453.31	110.19
453.53	100.19
453.751	89.19
453.971	101.19
454.192	113.19
454.412	90.19
454.633	78.19
454.853	84.19
455.073	90.19
455.294	112.19
455.514	101.19
455.734	86.19
455.955	77.19
456.175	77.19
456.395	85.19
456.616	91.19
456.836	79.19
457.056	74.19
457.276	87.19
457.497	75.19
457.717	101.19
457.937	86.19
458.157	79.19
458.377	96.19
458.598	81.19
458.818	146.19
459.038	160.19
459.258	128.19
459.478	83.19
459.698	85.19
459.918	75.19
460.138	75.19
460.358	88.19
460.578	73.19
460.798	84.19
461.018	68.19
461.238	88.19
461.458	79.19
461.678	81.19
461.898	83.19
462.118	87.19
462.338	93.19
462.558	85.19
462.777	85.19
462.997	89.19
463.217	90.19
463.437	86.19
463.657	102.19
463.876	82.19
464.096	84.19
464.316	84.19
464.536	87.19
464.755	100.19
464.975	122.19
465.195	174.19
465.414	162.19
465.634	81.19
465.854	104.19
466.073	85.19
466.293	81.19
466.512	77.19
466.732	70.19
466.951	84.19
467.171	91.19
467.391	89.19
467.61	90.19
467.829	89.19
468.049	84.19
468.268	87.19
468.488	85.19
468.707	85.19
468.927	94.19
469.146	73.19
469.365	67.19
469.585	95.19
469.804	82.19
470.023	103.19
470.243	91.19
470.462	94.19
470.681	111.19
470.901	86.19
471.12	79.19
471.339	74.19
471.558	86.19
471.777	75.19
471.997	92.19
472.216	97.19
472.435	97.19
472.654	89.19
472.873	90.19
473.092	104.19
473.311	79.19
473.53	85.19
473.749	98.19
473.968	102.19
474.187	114.19
474.406	90.19
474.625	86.19
474.844	88.19
475.063	88.19
475.282	89.19
475.501	95.19
475.72	85.19
475.939	92.19
476.158	87.19
476.377	81.19
476.596	87.19
476.814	89.19
477.033	94.19
477.252	91.19
477.471	76.19
477.69	88.19
477.908	79.19
478.127	79.19
478.346	94.19
478.564	97.19
478.783	94.19
479.002	82.19
479.22	90.19
479.439	104.19
479.658	95.19
479.876	91.19
480.095	86.19
480.313	106.19
480.532	83.19
480.751	79.19
480.969	102.19
481.188	123.19
481.406	99.19
481.624	91.19
481.843	96.19
482.061	74.19
482.28	89.19
482.498	95.19
482.717	91.19
482.935	99.19
483.153	86.19
483.372	93.19
483.59	93.19
483.808	82.19
484.027	96.19
484.245	86.19
484.463	81.19
484.681	91.19
484.9	91.19
485.118	98.19
485.336	72.19
485.554	81.19
485.772	89.19
485.99	99.19
486.209	106.19
486.427	113.19
486.645	109.19
486.863	97.19
487.081	102.19
487.299	97.19
487.517	102.19
487.735	96.19
487.953	92.19
488.171	84.19
488.389	94.19
488.607	101.19
488.825	97.19
489.043	86.19
489.261	92.19
489.479	91.19
489.696	82.19
489.914	94.19
490.132	95.19
490.35	98.19
490.568	81.19
490.786	93.19
491.003	92.19
491.221	75.19
491.439	98.19
491.657	112.19
491.874	94.19
492.092	78.19
492.31	102.19
492.527	88.19
492.745	77.19
492.963	93.19
493.18	89.19
493.398	90.19
493.615	116.19
493.833	96.19
494.05	82.19
494.268	95.19
494.485	88.19
494.703	73.19
494.92	85.19
495.138	85.19
495.355	88.19
495.573	86.19
495.79	94.19
496.008	83.19
496.225	89.19
496.442	89.19
496.66	91.19
496.877	90.19
497.094	95.19
497.312	93.19
497.529	89.19
497.746	90.19
497.963	86.19
498.181	82.19
498.398	75.19
498.615	110.19
498.832	95.19
499.049	90.19
499.267	89.19
499.484	89.19
499.701	98.19
499.918	93.19
500.135	95.19
500.352	80.19
500.569	95.19
500.786	93.19
501.003	94.19
501.22	83.19
501.437	92.19
501.654	100.19
501.871	114.19
502.088	89.19
502.305	95.19
502.522	94.19
502.739	88.19
502.956	88.19
503.172	93.19
503.389	84.19
503.606	91.19
503.823	88.19
504.04	95.19
504.256	94.19
504.473	77.19
504.69	89.19
504.907	103.19
505.123	90.19
505.34	83.19
505.557	97.19
505.773	90.19
505.99	90.19
506.207	106.19
506.423	86.19
506.64	89.19
506.856	94.19
507.073	110.19
507.289	95.19
507.506	93.19
507.722	105.19
507.939	87.19
508.155	89.19
508.372	76.19
508.588	99.19
508.805	93.19
509.021	91.19
509.238	115.19
509.454	100.19
509.67	102.19
509.887	94.19
510.103	133.19
510.319	198.19
510.536	699.19
510.752	2252.19
510.968	640.19
511.184	159.19
511.401	104.19
511.617	101.19
511.833	98.19
512.049	88.19
512.265	91.19
512.481	89.19
512.698	90.19
512.914	94.19
513.13	91.19
513.346	97.19
513.562	93.19
513.778	100.19
513.994	99.19
514.21	105.19
514.426	109.19
514.642	128.19
514.858	114.19
515.074	174.19
515.29	434.19
515.506	1412.19
515.721	525.19
515.937	157.19
516.153	107.19
