Data from Circ_2002_H10_HRD10591_00071.txt Node
Date: Wed Jan 03 10:41:12 EST 2024
User: Yrep
Spectrometer: HR+D1059
Trigger mode: 1
Integration Time (sec): 1.000000E-1
Scans to average: 1
Electric dark correction enabled: true
Nonlinearity correction enabled: false
Boxcar width: 0
XAxis mode: Wavelengths
Number of Pixels in Spectrum: 2048
>>>>>Begin Spectral Data<<<<<
223.165	-14.69
223.4	-14.69
223.635	-14.69
223.869	-13.69
224.104	-15.69
224.338	-5.69
224.573	-13.69
224.808	-2.69
225.042	-8.69
225.277	-15.69
225.511	-10.69
225.746	0.31
225.98	-7.69
226.215	19.31
226.449	18.31
226.683	32.31
226.918	20.31
227.152	18.31
227.387	34.31
227.621	20.31
227.856	41.31
228.09	43.31
228.324	53.31
228.559	44.31
228.793	51.31
229.027	52.31
229.262	64.31
229.496	79.31
229.73	73.31
229.964	64.31
230.199	67.31
230.433	64.31
230.667	79.31
230.901	79.31
231.136	85.31
231.37	74.31
231.604	62.31
231.838	65.31
232.072	62.31
232.306	79.31
232.541	79.31
232.775	85.31
233.009	70.31
233.243	64.31
233.477	69.31
233.711	67.31
233.945	73.31
234.179	76.31
234.413	79.31
234.647	77.31
234.881	89.31
235.115	74.31
235.349	79.31
235.583	70.31
235.817	68.31
236.051	77.31
236.285	78.31
236.519	73.31
236.753	82.31
236.987	57.31
237.221	60.31
237.455	63.31
237.689	75.31
237.922	59.31
238.156	71.31
238.39	77.31
238.624	65.31
238.858	75.31
239.091	91.31
239.325	67.31
239.559	71.31
239.793	77.31
240.027	65.31
240.26	51.31
240.494	69.31
240.728	60.31
240.961	65.31
241.195	73.31
241.429	65.31
241.662	65.31
241.896	78.31
242.13	76.31
242.363	66.31
242.597	81.31
242.83	82.31
243.064	63.31
243.298	69.31
243.531	60.31
243.765	62.31
243.998	60.31
244.232	78.31
244.465	87.31
244.699	72.31
244.932	72.31
245.166	77.31
245.399	71.31
245.633	64.31
245.866	64.31
246.099	69.31
246.333	76.31
246.566	75.31
246.8	76.31
247.033	80.31
247.266	57.31
247.5	69.31
247.733	77.31
247.966	86.31
248.2	77.31
248.433	65.31
248.666	78.31
248.899	67.31
249.133	89.31
249.366	84.31
249.599	84.31
249.832	65.31
250.066	89.31
250.299	60.31
250.532	64.31
250.765	79.31
250.998	66.31
251.231	64.31
251.465	62.31
251.698	64.31
251.931	84.31
252.164	72.31
252.397	76.31
252.63	82.31
252.863	81.31
253.096	77.31
253.329	84.31
253.562	69.31
253.795	58.31
254.028	81.31
254.261	74.31
254.494	87.31
254.727	78.31
254.96	70.31
255.193	68.31
255.426	84.31
255.659	58.31
255.892	71.31
256.124	81.31
256.357	78.31
256.59	78.31
256.823	67.31
257.056	80.31
257.289	78.31
257.521	81.31
257.754	77.31
257.987	73.31
258.22	85.31
258.452	89.31
258.685	69.31
258.918	81.31
259.151	81.31
259.383	64.31
259.616	67.31
259.849	71.31
260.081	79.31
260.314	72.31
260.547	82.31
260.779	72.31
261.012	85.31
261.244	85.31
261.477	92.31
261.71	84.31
261.942	92.31
262.175	111.31
262.407	77.31
262.64	94.31
262.872	81.31
263.105	83.31
263.337	84.31
263.57	74.31
263.802	65.31
264.035	80.31
264.267	73.31
264.499	73.31
264.732	77.31
264.964	86.31
265.197	81.31
265.429	81.31
265.661	73.31
265.894	73.31
266.126	80.31
266.358	74.31
266.591	89.31
266.823	60.31
267.055	90.31
267.287	66.31
267.52	81.31
267.752	82.31
267.984	81.31
268.216	64.31
268.448	77.31
268.681	86.31
268.913	78.31
269.145	74.31
269.377	80.31
269.609	77.31
269.841	85.31
270.073	59.31
270.306	83.31
270.538	89.31
270.77	72.31
271.002	72.31
271.234	83.31
271.466	95.31
271.698	78.31
271.93	86.31
272.162	75.31
272.394	85.31
272.626	81.31
272.858	86.31
273.09	76.31
273.322	82.31
273.553	78.31
273.785	87.31
274.017	72.31
274.249	82.31
274.481	82.31
274.713	73.31
274.945	70.31
275.176	81.31
275.408	86.31
275.64	76.31
275.872	88.31
276.104	76.31
276.335	81.31
276.567	89.31
276.799	97.31
277.031	89.31
277.262	77.31
277.494	74.31
277.726	80.31
277.957	77.31
278.189	82.31
278.421	80.31
278.652	61.31
278.884	67.31
279.115	80.31
279.347	73.31
279.579	78.31
279.81	84.31
280.042	75.31
280.273	85.31
280.505	76.31
280.736	90.31
280.968	86.31
281.199	70.31
281.431	77.31
281.662	77.31
281.894	90.31
282.125	76.31
282.356	97.31
282.588	116.31
282.819	97.31
283.051	76.31
283.282	82.31
283.513	84.31
283.745	85.31
283.976	74.31
284.207	65.31
284.439	77.31
284.67	75.31
284.901	80.31
285.132	76.31
285.364	80.31
285.595	72.31
285.826	75.31
286.057	72.31
286.288	89.31
286.52	74.31
286.751	69.31
286.982	67.31
287.213	76.31
287.444	69.31
287.675	71.31
287.906	75.31
288.138	68.31
288.369	82.31
288.6	79.31
288.831	80.31
289.062	81.31
289.293	91.31
289.524	75.31
289.755	80.31
289.986	74.31
290.217	89.31
290.448	77.31
290.679	77.31
290.91	76.31
291.141	82.31
291.371	76.31
291.602	80.31
291.833	87.31
292.064	82.31
292.295	89.31
292.526	86.31
292.757	95.31
292.987	76.31
293.218	85.31
293.449	88.31
293.68	88.31
293.91	86.31
294.141	88.31
294.372	82.31
294.603	83.31
294.833	70.31
295.064	80.31
295.295	80.31
295.525	77.31
295.756	87.31
295.987	104.31
296.217	122.31
296.448	124.31
296.679	90.31
296.909	84.31
297.14	70.31
297.37	75.31
297.601	100.31
297.831	87.31
298.062	85.31
298.292	82.31
298.523	85.31
298.753	88.31
298.984	79.31
299.214	99.31
299.445	95.31
299.675	86.31
299.905	77.31
300.136	74.31
300.366	83.31
300.597	84.31
300.827	84.31
301.057	85.31
301.288	102.31
301.518	95.31
301.748	87.31
301.979	95.31
302.209	80.31
302.439	80.31
302.669	84.31
302.9	78.31
303.13	91.31
303.36	92.31
303.59	98.31
303.82	103.31
304.051	79.31
304.281	85.31
304.511	93.31
304.741	80.31
304.971	79.31
305.201	83.31
305.431	81.31
305.661	69.31
305.891	91.31
306.121	100.31
306.352	84.31
306.582	92.31
306.812	82.31
307.042	92.31
307.272	101.31
307.502	90.31
307.731	95.31
307.961	78.31
308.191	93.31
308.421	82.31
308.651	83.31
308.881	80.31
309.111	93.31
309.341	96.31
309.571	97.31
309.8	89.31
310.03	74.31
310.26	70.31
310.49	82.31
310.72	91.31
310.949	105.31
311.179	77.31
311.409	78.31
311.639	73.31
311.868	79.31
312.098	80.31
312.328	88.31
312.557	85.31
312.787	111.31
313.017	97.31
313.246	80.31
313.476	89.31
313.706	80.31
313.935	79.31
314.165	93.31
314.394	87.31
314.624	96.31
314.853	92.31
315.083	68.31
315.312	77.31
315.542	75.31
315.771	85.31
316.001	84.31
316.23	83.31
316.46	86.31
316.689	84.31
316.919	85.31
317.148	92.31
317.377	82.31
317.607	82.31
317.836	99.31
318.065	72.31
318.295	66.31
318.524	83.31
318.753	91.31
318.983	96.31
319.212	97.31
319.441	103.31
319.67	95.31
319.9	86.31
320.129	82.31
320.358	71.31
320.587	92.31
320.816	101.31
321.046	99.31
321.275	101.31
321.504	89.31
321.733	98.31
321.962	78.31
322.191	98.31
322.42	102.31
322.649	101.31
322.878	96.31
323.108	100.31
323.337	112.31
323.566	99.31
323.795	126.31
324.024	165.31
324.253	330.31
324.482	680.31
324.71	1372.31
324.939	1811.31
325.168	700.31
325.397	204.31
325.626	146.31
325.855	113.31
326.084	111.31
326.313	99.31
326.542	124.31
326.77	190.31
326.999	377.31
327.228	776.31
327.457	1441.31
327.686	1135.31
327.914	298.31
328.143	186.31
328.372	144.31
328.6	115.31
328.829	112.31
329.058	112.31
329.287	96.31
329.515	102.31
329.744	99.31
329.972	87.31
330.201	112.31
330.43	114.31
330.658	115.31
330.887	117.31
331.115	110.31
331.344	95.31
331.572	86.31
331.801	103.31
332.03	80.31
332.258	72.31
332.486	82.31
332.715	88.31
332.943	89.31
333.172	88.31
333.4	70.31
333.629	86.31
333.857	99.31
334.085	96.31
334.314	109.31
334.542	135.31
334.771	110.31
334.999	82.31
335.227	89.31
335.455	72.31
335.684	83.31
335.912	104.31
336.14	92.31
336.369	102.31
336.597	97.31
336.825	100.31
337.053	87.31
337.281	88.31
337.51	89.31
337.738	70.31
337.966	83.31
338.194	97.31
338.422	100.31
338.65	84.31
338.878	82.31
339.106	84.31
339.334	85.31
339.562	89.31
339.79	72.31
340.018	92.31
340.246	92.31
340.474	82.31
340.702	76.31
340.93	84.31
341.158	76.31
341.386	84.31
341.614	89.31
341.842	80.31
342.07	84.31
342.298	78.31
342.526	82.31
342.754	98.31
342.981	95.31
343.209	78.31
343.437	84.31
343.665	94.31
343.893	92.31
344.12	84.31
344.348	96.31
344.576	78.31
344.804	84.31
345.031	95.31
345.259	93.31
345.487	80.31
345.714	77.31
345.942	75.31
346.17	70.31
346.397	87.31
346.625	84.31
346.853	87.31
347.08	88.31
347.308	89.31
347.535	85.31
347.763	80.31
347.99	86.31
348.218	84.31
348.445	91.31
348.673	86.31
348.9	92.31
349.128	86.31
349.355	76.31
349.583	86.31
349.81	80.31
350.037	67.31
350.265	73.31
350.492	97.31
350.72	91.31
350.947	88.31
351.174	94.31
351.402	97.31
351.629	86.31
351.856	91.31
352.083	92.31
352.311	106.31
352.538	93.31
352.765	81.31
352.992	105.31
353.22	106.31
353.447	99.31
353.674	91.31
353.901	89.31
354.128	98.31
354.355	95.31
354.583	96.31
354.81	101.31
355.037	80.31
355.264	80.31
355.491	81.31
355.718	87.31
355.945	82.31
356.172	90.31
356.399	88.31
356.626	81.31
356.853	78.31
357.08	85.31
357.307	86.31
357.534	96.31
357.761	101.31
357.988	88.31
358.215	105.31
358.441	98.31
358.668	79.31
358.895	81.31
359.122	80.31
359.349	86.31
359.576	82.31
359.802	84.31
360.029	94.31
360.256	98.31
360.483	92.31
360.709	66.31
360.936	87.31
361.163	81.31
361.39	96.31
361.616	89.31
361.843	81.31
362.07	83.31
362.296	88.31
362.523	81.31
362.749	83.31
362.976	81.31
363.203	81.31
363.429	70.31
363.656	95.31
363.882	83.31
364.109	85.31
364.335	98.31
364.562	76.31
364.788	83.31
365.015	94.31
365.241	109.31
365.468	65.31
365.694	87.31
365.92	81.31
366.147	74.31
366.373	78.31
366.599	95.31
366.826	82.31
367.052	78.31
367.278	86.31
367.505	67.31
367.731	86.31
367.957	81.31
368.184	81.31
368.41	78.31
368.636	87.31
368.862	100.31
369.089	92.31
369.315	89.31
369.541	94.31
369.767	88.31
369.993	81.31
370.219	81.31
370.445	89.31
370.672	78.31
370.898	77.31
371.124	81.31
371.35	83.31
371.576	79.31
371.802	86.31
372.028	72.31
372.254	84.31
372.48	74.31
372.706	81.31
372.932	83.31
373.158	91.31
373.384	84.31
373.61	88.31
373.835	79.31
374.061	93.31
374.287	94.31
374.513	81.31
374.739	67.31
374.965	84.31
375.191	77.31
375.416	83.31
375.642	81.31
375.868	81.31
376.094	86.31
376.319	78.31
376.545	94.31
376.771	91.31
376.997	74.31
377.222	80.31
377.448	99.31
377.674	82.31
377.899	83.31
378.125	89.31
378.35	82.31
378.576	86.31
378.802	83.31
379.027	82.31
379.253	90.31
379.478	90.31
379.704	85.31
379.929	92.31
380.155	91.31
380.38	90.31
380.606	81.31
380.831	89.31
381.057	102.31
381.282	83.31
381.507	101.31
381.733	97.31
381.958	89.31
382.184	97.31
382.409	97.31
382.634	94.31
382.86	92.31
383.085	94.31
383.31	98.31
383.535	92.31
383.761	100.31
383.986	94.31
384.211	101.31
384.436	95.31
384.662	98.31
384.887	107.31
385.112	109.31
385.337	112.31
385.562	99.31
385.787	92.31
386.013	98.31
386.238	99.31
386.463	113.31
386.688	112.31
386.913	109.31
387.138	113.31
387.363	93.31
387.588	95.31
387.813	114.31
388.038	113.31
388.263	116.31
388.488	105.31
388.713	101.31
388.938	82.31
389.163	83.31
389.387	72.31
389.612	77.31
389.837	98.31
390.062	90.31
390.287	91.31
390.512	80.31
390.736	94.31
390.961	91.31
391.186	84.31
391.411	84.31
391.636	87.31
391.86	85.31
392.085	80.31
392.31	79.31
392.534	97.31
392.759	91.31
392.984	91.31
393.208	91.31
393.433	89.31
393.658	89.31
393.882	85.31
394.107	78.31
394.331	79.31
394.556	82.31
394.78	83.31
395.005	75.31
395.229	86.31
395.454	86.31
395.678	74.31
395.903	75.31
396.127	84.31
396.352	78.31
396.576	83.31
396.801	88.31
397.025	73.31
397.249	78.31
397.474	85.31
397.698	86.31
397.922	87.31
398.147	78.31
398.371	84.31
398.595	84.31
398.82	77.31
399.044	84.31
399.268	86.31
399.492	82.31
399.717	79.31
399.941	68.31
400.165	90.31
400.389	71.31
400.613	83.31
400.837	77.31
401.062	81.31
401.286	79.31
401.51	84.31
401.734	76.31
401.958	94.31
402.182	117.31
402.406	149.31
402.63	89.31
402.854	81.31
403.078	85.31
403.302	84.31
403.526	79.31
403.75	89.31
403.974	72.31
404.198	76.31
404.422	83.31
404.645	83.31
404.869	82.31
405.093	99.31
405.317	86.31
405.541	88.31
405.765	96.31
405.988	114.31
406.212	143.31
406.436	200.31
406.66	132.31
406.883	69.31
407.107	80.31
407.331	88.31
407.555	85.31
407.778	90.31
408.002	83.31
408.226	61.31
408.449	90.31
408.673	77.31
408.896	90.31
409.12	77.31
409.344	86.31
409.567	75.31
409.791	77.31
410.014	92.31
410.238	82.31
410.461	94.31
410.685	82.31
410.908	76.31
411.132	102.31
411.355	91.31
411.578	71.31
411.802	68.31
412.025	88.31
412.249	84.31
412.472	94.31
412.695	98.31
412.919	81.31
413.142	92.31
413.365	67.31
413.589	77.31
413.812	80.31
414.035	73.31
414.258	89.31
414.482	93.31
414.705	80.31
414.928	93.31
415.151	89.31
415.374	96.31
415.597	76.31
415.821	85.31
416.044	85.31
416.267	65.31
416.49	83.31
416.713	88.31
416.936	94.31
417.159	87.31
417.382	91.31
417.605	80.31
417.828	78.31
418.051	90.31
418.274	87.31
418.497	82.31
418.72	85.31
418.943	82.31
419.166	86.31
419.389	85.31
419.611	94.31
419.834	81.31
420.057	67.31
420.28	73.31
420.503	82.31
420.726	77.31
420.948	61.31
421.171	83.31
421.394	74.31
421.617	89.31
421.839	68.31
422.062	84.31
422.285	82.31
422.507	76.31
422.73	100.31
422.953	91.31
423.175	67.31
423.398	100.31
423.621	100.31
423.843	92.31
424.066	80.31
424.288	76.31
424.511	81.31
424.733	84.31
424.956	101.31
425.178	81.31
425.401	86.31
425.623	85.31
425.846	67.31
426.068	81.31
426.291	84.31
426.513	81.31
426.735	84.31
426.958	87.31
427.18	91.31
427.402	124.31
427.625	131.31
427.847	115.31
428.069	84.31
428.292	82.31
428.514	87.31
428.736	76.31
428.958	82.31
429.181	78.31
429.403	75.31
429.625	84.31
429.847	86.31
430.069	85.31
430.292	76.31
430.514	86.31
430.736	69.31
430.958	73.31
431.18	85.31
431.402	78.31
431.624	83.31
431.846	67.31
432.068	75.31
432.29	68.31
432.512	80.31
432.734	88.31
432.956	90.31
433.178	90.31
433.4	87.31
433.622	85.31
433.844	65.31
434.066	85.31
434.287	100.31
434.509	86.31
434.731	84.31
434.953	85.31
435.175	77.31
435.397	84.31
435.618	83.31
435.84	100.31
436.062	101.31
436.284	106.31
436.505	83.31
436.727	92.31
436.949	81.31
437.17	74.31
437.392	68.31
437.614	89.31
437.835	94.31
438.057	96.31
438.278	91.31
438.5	93.31
438.721	108.31
438.943	82.31
439.165	73.31
439.386	73.31
439.608	87.31
439.829	97.31
440.05	106.31
440.272	112.31
440.493	86.31
440.715	73.31
440.936	89.31
441.158	79.31
441.379	78.31
441.6	80.31
441.822	85.31
442.043	85.31
442.264	84.31
442.486	83.31
442.707	89.31
442.928	84.31
443.149	101.31
443.371	105.31
443.592	90.31
443.813	102.31
444.034	91.31
444.255	82.31
444.476	84.31
444.698	77.31
444.919	72.31
445.14	130.31
445.361	133.31
445.582	113.31
445.803	113.31
446.024	117.31
446.245	104.31
446.466	101.31
446.687	80.31
446.908	70.31
447.129	84.31
447.35	69.31
447.571	97.31
447.792	92.31
448.013	101.31
448.234	100.31
448.455	84.31
448.675	80.31
448.896	99.31
449.117	101.31
449.338	90.31
449.559	95.31
449.779	108.31
450	74.31
450.221	86.31
450.442	80.31
450.662	92.31
450.883	96.31
451.104	96.31
451.324	91.31
451.545	67.31
451.766	82.31
451.986	85.31
452.207	80.31
452.428	89.31
452.648	88.31
452.869	97.31
453.089	92.31
453.31	91.31
453.53	85.31
453.751	98.31
453.971	92.31
454.192	100.31
454.412	91.31
454.633	94.31
454.853	73.31
455.073	78.31
455.294	89.31
455.514	84.31
455.734	87.31
455.955	75.31
456.175	85.31
456.395	77.31
456.616	86.31
456.836	82.31
457.056	85.31
457.276	80.31
457.497	81.31
457.717	55.31
457.937	80.31
458.157	86.31
458.377	84.31
458.598	98.31
458.818	124.31
459.038	126.31
459.258	98.31
459.478	106.31
459.698	81.31
459.918	84.31
460.138	67.31
460.358	85.31
460.578	68.31
460.798	99.31
461.018	76.31
461.238	81.31
461.458	80.31
461.678	74.31
461.898	93.31
462.118	87.31
462.338	67.31
462.558	92.31
462.777	81.31
462.997	82.31
463.217	81.31
463.437	81.31
463.657	79.31
463.876	88.31
464.096	86.31
464.316	79.31
464.536	84.31
464.755	79.31
464.975	99.31
465.195	136.31
465.414	134.31
465.634	90.31
465.854	75.31
466.073	71.31
466.293	74.31
466.512	75.31
466.732	82.31
466.951	78.31
467.171	78.31
467.391	91.31
467.61	93.31
467.829	86.31
468.049	92.31
468.268	94.31
468.488	72.31
468.707	82.31
468.927	81.31
469.146	85.31
469.365	82.31
469.585	86.31
469.804	87.31
470.023	59.31
470.243	83.31
470.462	102.31
470.681	102.31
470.901	86.31
471.12	83.31
471.339	84.31
471.558	82.31
471.777	69.31
471.997	101.31
472.216	120.31
472.435	154.31
472.654	75.31
472.873	72.31
473.092	69.31
473.311	86.31
473.53	84.31
473.749	90.31
473.968	85.31
474.187	91.31
474.406	83.31
474.625	78.31
474.844	97.31
475.063	83.31
475.282	85.31
475.501	81.31
475.72	81.31
475.939	86.31
476.158	67.31
476.377	65.31
476.596	91.31
476.814	91.31
477.033	86.31
477.252	85.31
477.471	91.31
477.69	94.31
477.908	82.31
478.127	77.31
478.346	73.31
478.564	80.31
478.783	86.31
479.002	88.31
479.22	87.31
479.439	77.31
479.658	97.31
479.876	86.31
480.095	83.31
480.313	73.31
480.532	88.31
480.751	80.31
480.969	96.31
481.188	222.31
481.406	161.31
481.624	110.31
481.843	82.31
482.061	74.31
482.28	89.31
482.498	72.31
482.717	75.31
482.935	92.31
483.153	74.31
483.372	78.31
483.59	83.31
483.808	94.31
484.027	85.31
484.245	99.31
484.463	82.31
484.681	94.31
484.9	88.31
485.118	82.31
485.336	104.31
485.554	89.31
485.772	101.31
485.99	100.31
486.209	93.31
486.427	87.31
486.645	110.31
486.863	103.31
487.081	89.31
487.299	92.31
487.517	77.31
487.735	80.31
487.953	83.31
488.171	87.31
488.389	99.31
488.607	100.31
488.825	78.31
489.043	85.31
489.261	81.31
489.479	88.31
489.696	91.31
489.914	85.31
490.132	88.31
490.35	74.31
490.568	86.31
490.786	82.31
491.003	81.31
491.221	89.31
491.439	78.31
491.657	94.31
491.874	88.31
492.092	78.31
492.31	94.31
492.527	88.31
492.745	88.31
492.963	77.31
493.18	78.31
493.398	89.31
493.615	97.31
493.833	110.31
494.05	95.31
494.268	73.31
494.485	90.31
494.703	90.31
494.92	82.31
495.138	96.31
495.355	91.31
495.573	97.31
495.79	85.31
496.008	83.31
496.225	85.31
496.442	76.31
496.66	85.31
496.877	102.31
497.094	90.31
497.312	75.31
497.529	80.31
497.746	75.31
497.963	85.31
498.181	77.31
498.398	82.31
498.615	98.31
498.832	102.31
499.049	92.31
499.267	89.31
499.484	81.31
499.701	103.31
499.918	99.31
500.135	78.31
500.352	82.31
500.569	92.31
500.786	91.31
501.003	86.31
501.22	71.31
501.437	75.31
501.654	87.31
501.871	91.31
502.088	90.31
502.305	85.31
502.522	97.31
502.739	80.31
502.956	88.31
503.172	95.31
503.389	93.31
503.606	99.31
503.823	113.31
504.04	88.31
504.256	68.31
504.473	74.31
504.69	85.31
504.907	93.31
505.123	77.31
505.34	83.31
505.557	90.31
505.773	83.31
505.99	95.31
506.207	82.31
506.423	79.31
506.64	99.31
506.856	90.31
507.073	84.31
507.289	87.31
507.506	90.31
507.722	87.31
507.939	94.31
508.155	84.31
508.372	96.31
508.588	86.31
508.805	91.31
509.021	73.31
509.238	75.31
509.454	79.31
509.67	96.31
509.887	94.31
510.103	114.31
510.319	196.31
510.536	604.31
510.752	1931.31
510.968	534.31
511.184	140.31
511.401	106.31
511.617	89.31
511.833	90.31
512.049	84.31
512.265	88.31
512.481	69.31
512.698	82.31
512.914	69.31
513.13	96.31
513.346	84.31
513.562	86.31
513.778	93.31
513.994	81.31
514.21	85.31
514.426	100.31
514.642	122.31
514.858	120.31
515.074	156.31
515.29	347.31
515.506	1165.31
515.721	434.31
515.937	145.31
516.153	100.31
516.369	95.31
516.585	89.31
516.801	83.31
517.016	85.31
517.232	101.31
517.448	84.31
517.664	69.31
517.879	77.31
