Data from Circ_2002_H10_HRD10591_00067.txt Node
Date: Wed Jan 03 10:41:11 EST 2024
User: Yrep
Spectrometer: HR+D1059
Trigger mode: 1
Integration Time (sec): 1.000000E-1
Scans to average: 1
Electric dark correction enabled: true
Nonlinearity correction enabled: false
Boxcar width: 0
XAxis mode: Wavelengths
Number of Pixels in Spectrum: 2048
>>>>>Begin Spectral Data<<<<<
223.165	-13.44
223.4	-13.44
223.635	-13.44
223.869	-31.44
224.104	-7.44
224.338	-7.44
224.573	-21.44
224.808	-22.44
225.042	2.56
225.277	-2.44
225.511	-9.44
225.746	-7.44
225.98	10.56
226.215	13.56
226.449	19.56
226.683	14.56
226.918	21.56
227.152	40.56
227.387	44.56
227.621	38.56
227.856	62.56
228.09	46.56
228.324	38.56
228.559	45.56
228.793	68.56
229.027	50.56
229.262	60.56
229.496	71.56
229.73	80.56
229.964	76.56
230.199	80.56
230.433	81.56
230.667	88.56
230.901	65.56
231.136	85.56
231.37	80.56
231.604	90.56
231.838	89.56
232.072	87.56
232.306	82.56
232.541	85.56
232.775	84.56
233.009	70.56
233.243	81.56
233.477	75.56
233.711	79.56
233.945	78.56
234.179	77.56
234.413	85.56
234.647	97.56
234.881	92.56
235.115	91.56
235.349	82.56
235.583	79.56
235.817	73.56
236.051	94.56
236.285	79.56
236.519	76.56
236.753	81.56
236.987	86.56
237.221	60.56
237.455	87.56
237.689	82.56
237.922	87.56
238.156	90.56
238.39	80.56
238.624	80.56
238.858	89.56
239.091	74.56
239.325	71.56
239.559	85.56
239.793	83.56
240.027	69.56
240.26	82.56
240.494	80.56
240.728	82.56
240.961	73.56
241.195	73.56
241.429	73.56
241.662	91.56
241.896	76.56
242.13	63.56
242.363	99.56
242.597	86.56
242.83	69.56
243.064	83.56
243.298	86.56
243.531	64.56
243.765	70.56
243.998	70.56
244.232	88.56
244.465	82.56
244.699	92.56
244.932	79.56
245.166	80.56
245.399	77.56
245.633	78.56
245.866	71.56
246.099	83.56
246.333	89.56
246.566	74.56
246.8	83.56
247.033	78.56
247.266	79.56
247.5	75.56
247.733	80.56
247.966	75.56
248.2	72.56
248.433	80.56
248.666	78.56
248.899	88.56
249.133	89.56
249.366	82.56
249.599	74.56
249.832	71.56
250.066	82.56
250.299	75.56
250.532	84.56
250.765	84.56
250.998	74.56
251.231	90.56
251.465	84.56
251.698	83.56
251.931	72.56
252.164	87.56
252.397	84.56
252.63	84.56
252.863	75.56
253.096	83.56
253.329	80.56
253.562	86.56
253.795	75.56
254.028	79.56
254.261	76.56
254.494	75.56
254.727	79.56
254.96	78.56
255.193	80.56
255.426	70.56
255.659	78.56
255.892	82.56
256.124	90.56
256.357	75.56
256.59	82.56
256.823	64.56
257.056	70.56
257.289	68.56
257.521	77.56
257.754	78.56
257.987	90.56
258.22	82.56
258.452	76.56
258.685	78.56
258.918	81.56
259.151	84.56
259.383	59.56
259.616	98.56
259.849	83.56
260.081	82.56
260.314	86.56
260.547	86.56
260.779	77.56
261.012	99.56
261.244	81.56
261.477	91.56
261.71	79.56
261.942	101.56
262.175	106.56
262.407	101.56
262.64	78.56
262.872	83.56
263.105	85.56
263.337	79.56
263.57	78.56
263.802	71.56
264.035	98.56
264.267	83.56
264.499	82.56
264.732	96.56
264.964	88.56
265.197	75.56
265.429	91.56
265.661	75.56
265.894	89.56
266.126	92.56
266.358	85.56
266.591	79.56
266.823	62.56
267.055	75.56
267.287	90.56
267.52	76.56
267.752	87.56
267.984	88.56
268.216	73.56
268.448	88.56
268.681	83.56
268.913	73.56
269.145	73.56
269.377	84.56
269.609	74.56
269.841	83.56
270.073	67.56
270.306	90.56
270.538	93.56
270.77	76.56
271.002	84.56
271.234	68.56
271.466	85.56
271.698	78.56
271.93	82.56
272.162	87.56
272.394	81.56
272.626	75.56
272.858	85.56
273.09	75.56
273.322	85.56
273.553	92.56
273.785	80.56
274.017	78.56
274.249	83.56
274.481	87.56
274.713	76.56
274.945	86.56
275.176	87.56
275.408	88.56
275.64	92.56
275.872	96.56
276.104	89.56
276.335	90.56
276.567	102.56
276.799	88.56
277.031	97.56
277.262	91.56
277.494	103.56
277.726	72.56
277.957	73.56
278.189	94.56
278.421	77.56
278.652	79.56
278.884	79.56
279.115	90.56
279.347	98.56
279.579	87.56
279.81	80.56
280.042	75.56
280.273	73.56
280.505	87.56
280.736	91.56
280.968	84.56
281.199	86.56
281.431	94.56
281.662	85.56
281.894	101.56
282.125	97.56
282.356	116.56
282.588	127.56
282.819	121.56
283.051	84.56
283.282	80.56
283.513	92.56
283.745	97.56
283.976	88.56
284.207	82.56
284.439	86.56
284.67	91.56
284.901	82.56
285.132	71.56
285.364	64.56
285.595	95.56
285.826	81.56
286.057	82.56
286.288	88.56
286.52	95.56
286.751	90.56
286.982	98.56
287.213	72.56
287.444	86.56
287.675	81.56
287.906	94.56
288.138	99.56
288.369	86.56
288.6	81.56
288.831	97.56
289.062	98.56
289.293	92.56
289.524	73.56
289.755	82.56
289.986	95.56
290.217	95.56
290.448	86.56
290.679	82.56
290.91	92.56
291.141	86.56
291.371	97.56
291.602	82.56
291.833	85.56
292.064	82.56
292.295	88.56
292.526	84.56
292.757	86.56
292.987	79.56
293.218	86.56
293.449	93.56
293.68	79.56
293.91	90.56
294.141	95.56
294.372	90.56
294.603	93.56
294.833	81.56
295.064	80.56
295.295	70.56
295.525	91.56
295.756	86.56
295.987	111.56
296.217	110.56
296.448	112.56
296.679	89.56
296.909	88.56
297.14	92.56
297.37	98.56
297.601	82.56
297.831	91.56
298.062	86.56
298.292	77.56
298.523	87.56
298.753	92.56
298.984	78.56
299.214	94.56
299.445	79.56
299.675	78.56
299.905	86.56
300.136	85.56
300.366	72.56
300.597	76.56
300.827	103.56
301.057	82.56
301.288	92.56
301.518	89.56
301.748	90.56
301.979	91.56
302.209	80.56
302.439	81.56
302.669	92.56
302.9	85.56
303.13	87.56
303.36	78.56
303.59	92.56
303.82	98.56
304.051	95.56
304.281	81.56
304.511	81.56
304.741	89.56
304.971	90.56
305.201	89.56
305.431	88.56
305.661	96.56
305.891	99.56
306.121	76.56
306.352	91.56
306.582	92.56
306.812	85.56
307.042	100.56
307.272	80.56
307.502	97.56
307.731	95.56
307.961	88.56
308.191	93.56
308.421	87.56
308.651	103.56
308.881	82.56
309.111	96.56
309.341	96.56
309.571	96.56
309.8	90.56
310.03	95.56
310.26	89.56
310.49	85.56
310.72	84.56
310.949	90.56
311.179	107.56
311.409	92.56
311.639	98.56
311.868	84.56
312.098	100.56
312.328	87.56
312.557	96.56
312.787	109.56
313.017	93.56
313.246	83.56
313.476	95.56
313.706	89.56
313.935	87.56
314.165	96.56
314.394	113.56
314.624	96.56
314.853	86.56
315.083	82.56
315.312	108.56
315.542	84.56
315.771	92.56
316.001	100.56
316.23	80.56
316.46	91.56
316.689	90.56
316.919	90.56
317.148	82.56
317.377	102.56
317.607	98.56
317.836	98.56
318.065	78.56
318.295	96.56
318.524	98.56
318.753	96.56
318.983	83.56
319.212	84.56
319.441	107.56
319.67	98.56
319.9	98.56
320.129	103.56
320.358	90.56
320.587	92.56
320.816	98.56
321.046	94.56
321.275	105.56
321.504	102.56
321.733	99.56
321.962	98.56
322.191	98.56
322.42	100.56
322.649	103.56
322.878	117.56
323.108	92.56
323.337	124.56
323.566	124.56
323.795	139.56
324.024	216.56
324.253	377.56
324.482	834.56
324.71	1699.56
324.939	2212.56
325.168	817.56
325.397	244.56
325.626	130.56
325.855	140.56
326.084	124.56
326.313	134.56
326.542	165.56
326.77	253.56
326.999	459.56
327.228	967.56
327.457	1767.56
327.686	1331.56
327.914	381.56
328.143	205.56
328.372	155.56
328.6	121.56
328.829	108.56
329.058	114.56
329.287	127.56
329.515	112.56
329.744	107.56
329.972	113.56
330.201	127.56
330.43	143.56
330.658	123.56
330.887	139.56
331.115	116.56
331.344	97.56
331.572	94.56
331.801	101.56
332.03	100.56
332.258	101.56
332.486	90.56
332.715	91.56
332.943	96.56
333.172	106.56
333.4	86.56
333.629	100.56
333.857	105.56
334.085	111.56
334.314	126.56
334.542	150.56
334.771	131.56
334.999	109.56
335.227	100.56
335.455	92.56
335.684	91.56
335.912	95.56
336.14	94.56
336.369	86.56
336.597	91.56
336.825	97.56
337.053	79.56
337.281	92.56
337.51	98.56
337.738	98.56
337.966	96.56
338.194	97.56
338.422	98.56
338.65	70.56
338.878	88.56
339.106	80.56
339.334	89.56
339.562	97.56
339.79	77.56
340.018	95.56
340.246	85.56
340.474	95.56
340.702	97.56
340.93	80.56
341.158	80.56
341.386	87.56
341.614	97.56
341.842	101.56
342.07	84.56
342.298	90.56
342.526	91.56
342.754	81.56
342.981	67.56
343.209	84.56
343.437	92.56
343.665	91.56
343.893	90.56
344.12	94.56
344.348	96.56
344.576	96.56
344.804	82.56
345.031	88.56
345.259	86.56
345.487	85.56
345.714	92.56
345.942	81.56
346.17	105.56
346.397	94.56
346.625	91.56
346.853	80.56
347.08	75.56
347.308	83.56
347.535	96.56
347.763	99.56
347.99	103.56
348.218	98.56
348.445	101.56
348.673	112.56
348.9	103.56
349.128	91.56
349.355	87.56
349.583	90.56
349.81	92.56
350.037	92.56
350.265	92.56
350.492	103.56
350.72	94.56
350.947	84.56
351.174	96.56
351.402	111.56
351.629	94.56
351.856	107.56
352.083	92.56
352.311	99.56
352.538	97.56
352.765	121.56
352.992	114.56
353.22	99.56
353.447	100.56
353.674	87.56
353.901	94.56
354.128	86.56
354.355	98.56
354.583	97.56
354.81	99.56
355.037	95.56
355.264	110.56
355.491	82.56
355.718	82.56
355.945	93.56
356.172	82.56
356.399	93.56
356.626	100.56
356.853	88.56
357.08	98.56
357.307	84.56
357.534	81.56
357.761	91.56
357.988	97.56
358.215	96.56
358.441	88.56
358.668	90.56
358.895	89.56
359.122	89.56
359.349	83.56
359.576	84.56
359.802	90.56
360.029	104.56
360.256	110.56
360.483	91.56
360.709	85.56
360.936	99.56
361.163	103.56
361.39	91.56
361.616	85.56
361.843	92.56
362.07	98.56
362.296	91.56
362.523	82.56
362.749	75.56
362.976	97.56
363.203	95.56
363.429	91.56
363.656	88.56
363.882	104.56
364.109	85.56
364.335	87.56
364.562	81.56
364.788	96.56
365.015	95.56
365.241	86.56
365.468	120.56
365.694	92.56
365.92	98.56
366.147	84.56
366.373	95.56
366.599	91.56
366.826	87.56
367.052	77.56
367.278	86.56
367.505	84.56
367.731	88.56
367.957	87.56
368.184	98.56
368.41	86.56
368.636	105.56
368.862	112.56
369.089	111.56
369.315	105.56
369.541	86.56
369.767	98.56
369.993	89.56
370.219	83.56
370.445	99.56
370.672	69.56
370.898	82.56
371.124	78.56
371.35	80.56
371.576	90.56
371.802	83.56
372.028	84.56
372.254	83.56
372.48	81.56
372.706	75.56
372.932	82.56
373.158	78.56
373.384	91.56
373.61	92.56
373.835	98.56
374.061	92.56
374.287	85.56
374.513	95.56
374.739	95.56
374.965	89.56
375.191	90.56
375.416	75.56
375.642	102.56
375.868	95.56
376.094	84.56
376.319	83.56
376.545	89.56
376.771	82.56
376.997	106.56
377.222	84.56
377.448	93.56
377.674	80.56
377.899	89.56
378.125	88.56
378.35	88.56
378.576	83.56
378.802	87.56
379.027	88.56
379.253	88.56
379.478	78.56
379.704	86.56
379.929	92.56
380.155	77.56
380.38	88.56
380.606	90.56
380.831	79.56
381.057	115.56
381.282	91.56
381.507	95.56
381.733	86.56
381.958	82.56
382.184	100.56
382.409	112.56
382.634	101.56
382.86	95.56
383.085	96.56
383.31	95.56
383.535	90.56
383.761	97.56
383.986	89.56
384.211	106.56
384.436	80.56
384.662	102.56
384.887	96.56
385.112	106.56
385.337	100.56
385.562	97.56
385.787	87.56
386.013	113.56
386.238	109.56
386.463	96.56
386.688	110.56
386.913	103.56
387.138	101.56
387.363	95.56
387.588	95.56
387.813	95.56
388.038	112.56
388.263	124.56
388.488	113.56
388.713	99.56
388.938	89.56
389.163	101.56
389.387	92.56
389.612	98.56
389.837	86.56
390.062	82.56
390.287	100.56
390.512	94.56
390.736	91.56
390.961	103.56
391.186	86.56
391.411	85.56
391.636	76.56
391.86	83.56
392.085	82.56
392.31	78.56
392.534	97.56
392.759	87.56
392.984	87.56
393.208	96.56
393.433	84.56
393.658	78.56
393.882	67.56
394.107	75.56
394.331	91.56
394.556	91.56
394.78	87.56
395.005	89.56
395.229	83.56
395.454	81.56
395.678	78.56
395.903	93.56
396.127	82.56
396.352	100.56
396.576	86.56
396.801	94.56
397.025	92.56
397.249	74.56
397.474	81.56
397.698	74.56
397.922	78.56
398.147	84.56
398.371	89.56
398.595	94.56
398.82	80.56
399.044	93.56
399.268	100.56
399.492	76.56
399.717	96.56
399.941	87.56
400.165	80.56
400.389	83.56
400.613	95.56
400.837	88.56
401.062	74.56
401.286	91.56
401.51	91.56
401.734	79.56
401.958	100.56
402.182	119.56
402.406	146.56
402.63	128.56
402.854	88.56
403.078	100.56
403.302	100.56
403.526	82.56
403.75	96.56
403.974	76.56
404.198	87.56
404.422	90.56
404.645	80.56
404.869	90.56
405.093	90.56
405.317	91.56
405.541	95.56
405.765	102.56
405.988	116.56
406.212	152.56
406.436	192.56
406.66	123.56
406.883	88.56
407.107	95.56
407.331	89.56
407.555	96.56
407.778	84.56
408.002	85.56
408.226	79.56
408.449	88.56
408.673	80.56
408.896	105.56
409.12	88.56
409.344	95.56
409.567	97.56
409.791	84.56
410.014	90.56
410.238	92.56
410.461	98.56
410.685	91.56
410.908	90.56
411.132	97.56
411.355	101.56
411.578	96.56
411.802	83.56
412.025	88.56
412.249	88.56
412.472	93.56
412.695	94.56
412.919	85.56
413.142	70.56
413.365	79.56
413.589	79.56
413.812	88.56
414.035	102.56
414.258	85.56
414.482	97.56
414.705	94.56
414.928	86.56
415.151	86.56
415.374	87.56
415.597	92.56
415.821	92.56
416.044	81.56
416.267	84.56
416.49	78.56
416.713	95.56
416.936	91.56
417.159	90.56
417.382	82.56
417.605	87.56
417.828	83.56
418.051	97.56
418.274	92.56
418.497	91.56
418.72	85.56
418.943	81.56
419.166	94.56
419.389	90.56
419.611	83.56
419.834	80.56
420.057	78.56
420.28	86.56
420.503	98.56
420.726	94.56
420.948	90.56
421.171	98.56
421.394	90.56
421.617	89.56
421.839	95.56
422.062	80.56
422.285	90.56
422.507	108.56
422.73	79.56
422.953	98.56
423.175	88.56
423.398	80.56
423.621	96.56
423.843	99.56
424.066	85.56
424.288	88.56
424.511	90.56
424.733	100.56
424.956	83.56
425.178	105.56
425.401	95.56
425.623	95.56
425.846	88.56
426.068	98.56
426.291	90.56
426.513	96.56
426.735	87.56
426.958	92.56
427.18	108.56
427.402	119.56
427.625	159.56
427.847	126.56
428.069	113.56
428.292	83.56
428.514	75.56
428.736	84.56
428.958	67.56
429.181	81.56
429.403	81.56
429.625	80.56
429.847	87.56
430.069	95.56
430.292	82.56
430.514	81.56
430.736	105.56
430.958	87.56
431.18	79.56
431.402	84.56
431.624	86.56
431.846	79.56
432.068	79.56
432.29	92.56
432.512	89.56
432.734	72.56
432.956	83.56
433.178	103.56
433.4	92.56
433.622	92.56
433.844	88.56
434.066	91.56
434.287	102.56
434.509	81.56
434.731	92.56
434.953	88.56
435.175	82.56
435.397	93.56
435.618	96.56
435.84	103.56
436.062	120.56
436.284	110.56
436.505	99.56
436.727	115.56
436.949	84.56
437.17	76.56
437.392	82.56
437.614	82.56
437.835	103.56
438.057	104.56
438.278	111.56
438.5	105.56
438.721	114.56
438.943	91.56
439.165	95.56
439.386	92.56
439.608	92.56
439.829	101.56
440.05	127.56
440.272	117.56
440.493	96.56
440.715	87.56
440.936	81.56
441.158	85.56
441.379	85.56
441.6	92.56
441.822	85.56
442.043	82.56
442.264	91.56
442.486	105.56
442.707	96.56
442.928	102.56
443.149	102.56
443.371	123.56
443.592	107.56
443.813	105.56
444.034	105.56
444.255	90.56
444.476	83.56
444.698	93.56
444.919	96.56
445.14	125.56
445.361	131.56
445.582	117.56
445.803	118.56
446.024	127.56
446.245	138.56
446.466	117.56
446.687	85.56
446.908	96.56
447.129	79.56
447.35	80.56
447.571	93.56
447.792	80.56
448.013	84.56
448.234	110.56
448.455	98.56
448.675	98.56
448.896	112.56
449.117	97.56
449.338	98.56
449.559	132.56
449.779	130.56
450	101.56
450.221	88.56
450.442	98.56
450.662	100.56
450.883	91.56
451.104	111.56
451.324	95.56
451.545	80.56
451.766	79.56
451.986	78.56
452.207	92.56
452.428	88.56
452.648	83.56
452.869	102.56
453.089	113.56
453.31	125.56
453.53	101.56
453.751	96.56
453.971	68.56
454.192	96.56
454.412	78.56
454.633	90.56
454.853	89.56
455.073	80.56
455.294	90.56
455.514	97.56
455.734	84.56
455.955	82.56
456.175	77.56
456.395	87.56
456.616	78.56
456.836	89.56
457.056	89.56
457.276	80.56
457.497	94.56
457.717	67.56
457.937	86.56
458.157	83.56
458.377	79.56
458.598	106.56
458.818	136.56
459.038	156.56
459.258	137.56
459.478	92.56
459.698	103.56
459.918	94.56
460.138	82.56
460.358	84.56
460.578	98.56
460.798	92.56
461.018	81.56
461.238	83.56
461.458	79.56
461.678	86.56
461.898	96.56
462.118	88.56
462.338	83.56
462.558	97.56
462.777	80.56
462.997	92.56
463.217	112.56
463.437	88.56
463.657	87.56
463.876	84.56
464.096	87.56
464.316	73.56
464.536	87.56
464.755	94.56
464.975	105.56
465.195	148.56
465.414	145.56
465.634	96.56
465.854	97.56
466.073	84.56
466.293	84.56
466.512	95.56
466.732	84.56
466.951	91.56
467.171	90.56
467.391	89.56
467.61	107.56
467.829	99.56
468.049	103.56
468.268	112.56
468.488	88.56
468.707	85.56
468.927	83.56
469.146	83.56
469.365	83.56
469.585	78.56
469.804	88.56
470.023	77.56
470.243	86.56
470.462	86.56
470.681	101.56
470.901	82.56
471.12	82.56
471.339	91.56
471.558	83.56
471.777	78.56
471.997	105.56
472.216	128.56
472.435	169.56
472.654	98.56
472.873	89.56
473.092	92.56
473.311	94.56
473.53	77.56
473.749	95.56
473.968	79.56
474.187	101.56
474.406	102.56
474.625	85.56
474.844	91.56
475.063	93.56
475.282	86.56
475.501	80.56
475.72	93.56
475.939	80.56
476.158	81.56
476.377	89.56
476.596	84.56
476.814	87.56
477.033	86.56
477.252	78.56
477.471	93.56
477.69	81.56
477.908	100.56
478.127	82.56
478.346	90.56
478.564	99.56
478.783	85.56
479.002	91.56
479.22	86.56
479.439	90.56
479.658	102.56
479.876	108.56
480.095	80.56
480.313	76.56
480.532	87.56
480.751	104.56
480.969	126.56
481.188	250.56
481.406	187.56
481.624	104.56
481.843	87.56
482.061	88.56
482.28	89.56
482.498	80.56
482.717	87.56
482.935	84.56
483.153	74.56
483.372	85.56
483.59	90.56
483.808	91.56
484.027	91.56
484.245	92.56
484.463	84.56
484.681	92.56
484.9	97.56
485.118	103.56
485.336	89.56
485.554	93.56
485.772	89.56
485.99	106.56
486.209	105.56
486.427	91.56
486.645	103.56
486.863	98.56
487.081	97.56
487.299	97.56
487.517	98.56
487.735	84.56
487.953	80.56
488.171	96.56
488.389	82.56
488.607	91.56
488.825	85.56
489.043	92.56
489.261	105.56
489.479	87.56
489.696	99.56
489.914	86.56
490.132	77.56
490.35	88.56
490.568	83.56
490.786	99.56
491.003	86.56
491.221	78.56
491.439	82.56
491.657	84.56
491.874	85.56
492.092	88.56
492.31	82.56
492.527	83.56
492.745	81.56
492.963	92.56
493.18	84.56
493.398	88.56
493.615	90.56
493.833	99.56
494.05	73.56
494.268	82.56
494.485	83.56
494.703	88.56
494.92	92.56
495.138	80.56
495.355	94.56
495.573	80.56
495.79	100.56
496.008	84.56
496.225	80.56
496.442	79.56
496.66	102.56
496.877	91.56
497.094	97.56
497.312	89.56
497.529	90.56
497.746	83.56
497.963	85.56
498.181	95.56
498.398	101.56
498.615	106.56
498.832	95.56
499.049	103.56
499.267	98.56
499.484	101.56
499.701	98.56
499.918	91.56
500.135	94.56
500.352	90.56
500.569	92.56
500.786	92.56
501.003	82.56
501.22	95.56
501.437	97.56
501.654	85.56
501.871	108.56
502.088	87.56
502.305	91.56
502.522	92.56
502.739	109.56
502.956	104.56
503.172	103.56
503.389	75.56
503.606	94.56
503.823	92.56
504.04	83.56
504.256	103.56
504.473	79.56
504.69	91.56
504.907	90.56
505.123	87.56
505.34	81.56
505.557	74.56
505.773	92.56
505.99	93.56
506.207	97.56
506.423	83.56
506.64	95.56
506.856	100.56
507.073	96.56
507.289	90.56
507.506	98.56
507.722	102.56
507.939	106.56
508.155	96.56
508.372	111.56
508.588	95.56
508.805	95.56
509.021	99.56
509.238	94.56
509.454	101.56
509.67	95.56
509.887	103.56
510.103	128.56
510.319	201.56
510.536	674.56
510.752	2146.56
510.968	604.56
511.184	146.56
511.401	104.56
511.617	93.56
511.833	101.56
512.049	79.56
512.265	99.56
512.481	91.56
512.698	106.56
512.914	92.56
513.13	87.56
513.346	82.56
513.562	98.56
513.778	96.56
513.994	100.56
514.21	96.56
514.426	102.56
514.642	127.56
514.858	123.56
515.074	163.56
515.29	431.56
515.506	1326.56
515.721	496.56
515.937	142.56
516.153	113.56
516.369	96.56
516.585	90.56
