Data from Circ_2002_H10_HRD10591_00003.txt Node
Date: Wed Jan 03 10:40:58 EST 2024
User: Yrep
Spectrometer: HR+D1059
Trigger mode: 1
Integration Time (sec): 1.000000E-1
Scans to average: 1
Electric dark correction enabled: true
Nonlinearity correction enabled: false
Boxcar width: 0
XAxis mode: Wavelengths
Number of Pixels in Spectrum: 2048
>>>>>Begin Spectral Data<<<<<
223.165	-16.12
223.4	-16.12
223.635	-16.12
223.869	-13.12
224.104	-22.12
224.338	-21.12
224.573	-22.12
224.808	-23.12
225.042	-14.12
225.277	-0.12
225.511	1.88
225.746	6.88
225.98	9.88
226.215	17.88
226.449	4.88
226.683	25.88
226.918	26.88
227.152	37.88
227.387	23.88
227.621	34.88
227.856	57.88
228.09	49.88
228.324	49.88
228.559	49.88
228.793	63.88
229.027	54.88
229.262	58.88
229.496	67.88
229.73	82.88
229.964	69.88
230.199	63.88
230.433	64.88
230.667	88.88
230.901	80.88
231.136	89.88
231.37	79.88
231.604	77.88
231.838	66.88
232.072	83.88
232.306	72.88
232.541	79.88
232.775	81.88
233.009	88.88
233.243	88.88
233.477	74.88
233.711	79.88
233.945	73.88
234.179	88.88
234.413	80.88
234.647	72.88
234.881	75.88
235.115	78.88
235.349	74.88
235.583	83.88
235.817	85.88
236.051	78.88
236.285	74.88
236.519	63.88
236.753	81.88
236.987	80.88
237.221	72.88
237.455	79.88
237.689	66.88
237.922	80.88
238.156	70.88
238.39	71.88
238.624	67.88
238.858	83.88
239.091	74.88
239.325	83.88
239.559	84.88
239.793	72.88
240.027	65.88
240.26	78.88
240.494	61.88
240.728	76.88
240.961	66.88
241.195	64.88
241.429	87.88
241.662	86.88
241.896	75.88
242.13	72.88
242.363	72.88
242.597	82.88
242.83	74.88
243.064	68.88
243.298	72.88
243.531	68.88
243.765	91.88
243.998	80.88
244.232	92.88
244.465	80.88
244.699	77.88
244.932	75.88
245.166	83.88
245.399	66.88
245.633	76.88
245.866	76.88
246.099	67.88
246.333	72.88
246.566	68.88
246.8	72.88
247.033	73.88
247.266	87.88
247.5	70.88
247.733	77.88
247.966	95.88
248.2	74.88
248.433	85.88
248.666	90.88
248.899	82.88
249.133	81.88
249.366	98.88
249.599	88.88
249.832	82.88
250.066	79.88
250.299	74.88
250.532	62.88
250.765	87.88
250.998	70.88
251.231	75.88
251.465	88.88
251.698	71.88
251.931	84.88
252.164	77.88
252.397	69.88
252.63	74.88
252.863	86.88
253.096	83.88
253.329	69.88
253.562	64.88
253.795	86.88
254.028	86.88
254.261	93.88
254.494	81.88
254.727	68.88
254.96	76.88
255.193	78.88
255.426	82.88
255.659	91.88
255.892	79.88
256.124	85.88
256.357	80.88
256.59	69.88
256.823	85.88
257.056	89.88
257.289	72.88
257.521	72.88
257.754	74.88
257.987	99.88
258.22	88.88
258.452	74.88
258.685	83.88
258.918	87.88
259.151	82.88
259.383	77.88
259.616	74.88
259.849	90.88
260.081	90.88
260.314	76.88
260.547	77.88
260.779	94.88
261.012	79.88
261.244	95.88
261.477	74.88
261.71	86.88
261.942	91.88
262.175	102.88
262.407	72.88
262.64	80.88
262.872	82.88
263.105	79.88
263.337	85.88
263.57	74.88
263.802	88.88
264.035	75.88
264.267	78.88
264.499	91.88
264.732	78.88
264.964	83.88
265.197	90.88
265.429	76.88
265.661	89.88
265.894	85.88
266.126	94.88
266.358	87.88
266.591	83.88
266.823	85.88
267.055	81.88
267.287	82.88
267.52	73.88
267.752	79.88
267.984	82.88
268.216	78.88
268.448	84.88
268.681	85.88
268.913	80.88
269.145	78.88
269.377	74.88
269.609	97.88
269.841	79.88
270.073	83.88
270.306	84.88
270.538	78.88
270.77	80.88
271.002	85.88
271.234	76.88
271.466	85.88
271.698	82.88
271.93	101.88
272.162	80.88
272.394	81.88
272.626	82.88
272.858	89.88
273.09	74.88
273.322	103.88
273.553	98.88
273.785	80.88
274.017	82.88
274.249	88.88
274.481	85.88
274.713	72.88
274.945	78.88
275.176	76.88
275.408	79.88
275.64	100.88
275.872	79.88
276.104	80.88
276.335	85.88
276.567	90.88
276.799	92.88
277.031	91.88
277.262	86.88
277.494	95.88
277.726	78.88
277.957	82.88
278.189	84.88
278.421	76.88
278.652	79.88
278.884	71.88
279.115	101.88
279.347	89.88
279.579	85.88
279.81	94.88
280.042	79.88
280.273	80.88
280.505	86.88
280.736	81.88
280.968	95.88
281.199	79.88
281.431	79.88
281.662	88.88
281.894	88.88
282.125	87.88
282.356	96.88
282.588	102.88
282.819	113.88
283.051	95.88
283.282	82.88
283.513	85.88
283.745	86.88
283.976	88.88
284.207	76.88
284.439	89.88
284.67	77.88
284.901	85.88
285.132	75.88
285.364	95.88
285.595	63.88
285.826	87.88
286.057	92.88
286.288	77.88
286.52	89.88
286.751	77.88
286.982	72.88
287.213	89.88
287.444	79.88
287.675	85.88
287.906	84.88
288.138	92.88
288.369	99.88
288.6	78.88
288.831	69.88
289.062	87.88
289.293	91.88
289.524	86.88
289.755	89.88
289.986	83.88
290.217	81.88
290.448	90.88
290.679	77.88
290.91	87.88
291.141	96.88
291.371	90.88
291.602	94.88
291.833	91.88
292.064	99.88
292.295	87.88
292.526	84.88
292.757	83.88
292.987	81.88
293.218	84.88
293.449	72.88
293.68	82.88
293.91	85.88
294.141	88.88
294.372	89.88
294.603	74.88
294.833	88.88
295.064	70.88
295.295	89.88
295.525	91.88
295.756	97.88
295.987	101.88
296.217	111.88
296.448	108.88
296.679	92.88
296.909	79.88
297.14	90.88
297.37	88.88
297.601	81.88
297.831	88.88
298.062	89.88
298.292	104.88
298.523	87.88
298.753	89.88
298.984	75.88
299.214	86.88
299.445	83.88
299.675	83.88
299.905	89.88
300.136	92.88
300.366	92.88
300.597	91.88
300.827	85.88
301.057	87.88
301.288	88.88
301.518	87.88
301.748	86.88
301.979	92.88
302.209	81.88
302.439	77.88
302.669	84.88
302.9	81.88
303.13	75.88
303.36	93.88
303.59	94.88
303.82	97.88
304.051	103.88
304.281	99.88
304.511	95.88
304.741	76.88
304.971	94.88
305.201	85.88
305.431	91.88
305.661	91.88
305.891	78.88
306.121	86.88
306.352	83.88
306.582	90.88
306.812	99.88
307.042	78.88
307.272	83.88
307.502	89.88
307.731	97.88
307.961	85.88
308.191	87.88
308.421	100.88
308.651	73.88
308.881	98.88
309.111	91.88
309.341	95.88
309.571	101.88
309.8	91.88
310.03	91.88
310.26	85.88
310.49	83.88
310.72	87.88
310.949	90.88
311.179	87.88
311.409	80.88
311.639	90.88
311.868	105.88
312.098	107.88
312.328	98.88
312.557	90.88
312.787	89.88
313.017	85.88
313.246	83.88
313.476	97.88
313.706	96.88
313.935	97.88
314.165	98.88
314.394	88.88
314.624	105.88
314.853	87.88
315.083	98.88
315.312	95.88
315.542	96.88
315.771	86.88
316.001	99.88
316.23	71.88
316.46	95.88
316.689	84.88
316.919	89.88
317.148	67.88
317.377	91.88
317.607	92.88
317.836	96.88
318.065	101.88
318.295	88.88
318.524	97.88
318.753	100.88
318.983	85.88
319.212	99.88
319.441	82.88
319.67	84.88
319.9	94.88
320.129	95.88
320.358	98.88
320.587	89.88
320.816	98.88
321.046	102.88
321.275	91.88
321.504	95.88
321.733	98.88
321.962	85.88
322.191	83.88
322.42	103.88
322.649	83.88
322.878	93.88
323.108	87.88
323.337	119.88
323.566	113.88
323.795	123.88
324.024	174.88
324.253	289.88
324.482	626.88
324.71	1227.88
324.939	1601.88
325.168	619.88
325.397	195.88
325.626	134.88
325.855	114.88
326.084	108.88
326.313	123.88
326.542	110.88
326.77	183.88
326.999	356.88
327.228	705.88
327.457	1268.88
327.686	1024.88
327.914	291.88
328.143	141.88
328.372	114.88
328.6	117.88
328.829	109.88
329.058	99.88
329.287	101.88
329.515	96.88
329.744	98.88
329.972	96.88
330.201	100.88
330.43	109.88
330.658	96.88
330.887	109.88
331.115	95.88
331.344	90.88
331.572	98.88
331.801	95.88
332.03	93.88
332.258	81.88
332.486	101.88
332.715	99.88
332.943	89.88
333.172	100.88
333.4	97.88
333.629	103.88
333.857	97.88
334.085	107.88
334.314	80.88
334.542	85.88
334.771	101.88
334.999	87.88
335.227	87.88
335.455	91.88
335.684	93.88
335.912	98.88
336.14	89.88
336.369	99.88
336.597	88.88
336.825	95.88
337.053	95.88
337.281	83.88
337.51	92.88
337.738	88.88
337.966	83.88
338.194	81.88
338.422	90.88
338.65	93.88
338.878	89.88
339.106	96.88
339.334	81.88
339.562	85.88
339.79	94.88
340.018	76.88
340.246	82.88
340.474	88.88
340.702	90.88
340.93	96.88
341.158	102.88
341.386	87.88
341.614	100.88
341.842	89.88
342.07	85.88
342.298	75.88
342.526	96.88
342.754	73.88
342.981	98.88
343.209	82.88
343.437	100.88
343.665	79.88
343.893	89.88
344.12	88.88
344.348	87.88
344.576	91.88
344.804	87.88
345.031	83.88
345.259	78.88
345.487	81.88
345.714	99.88
345.942	100.88
346.17	92.88
346.397	87.88
346.625	102.88
346.853	91.88
347.08	96.88
347.308	87.88
347.535	95.88
347.763	77.88
347.99	79.88
348.218	100.88
348.445	97.88
348.673	82.88
348.9	96.88
349.128	96.88
349.355	81.88
349.583	96.88
349.81	90.88
350.037	91.88
350.265	94.88
350.492	88.88
350.72	89.88
350.947	91.88
351.174	105.88
351.402	104.88
351.629	102.88
351.856	100.88
352.083	99.88
352.311	111.88
352.538	91.88
352.765	107.88
352.992	111.88
353.22	97.88
353.447	95.88
353.674	99.88
353.901	102.88
354.128	99.88
354.355	89.88
354.583	106.88
354.81	103.88
355.037	103.88
355.264	122.88
355.491	93.88
355.718	101.88
355.945	88.88
356.172	103.88
356.399	109.88
356.626	88.88
356.853	85.88
357.08	89.88
357.307	91.88
357.534	97.88
357.761	110.88
357.988	96.88
358.215	101.88
358.441	96.88
358.668	109.88
358.895	91.88
359.122	100.88
359.349	88.88
359.576	88.88
359.802	104.88
360.029	90.88
360.256	86.88
360.483	90.88
360.709	98.88
360.936	98.88
361.163	89.88
361.39	91.88
361.616	94.88
361.843	80.88
362.07	98.88
362.296	88.88
362.523	95.88
362.749	84.88
362.976	97.88
363.203	74.88
363.429	89.88
363.656	97.88
363.882	82.88
364.109	79.88
364.335	89.88
364.562	78.88
364.788	87.88
365.015	80.88
365.241	95.88
365.468	101.88
365.694	91.88
365.92	77.88
366.147	91.88
366.373	94.88
366.599	88.88
366.826	81.88
367.052	88.88
367.278	99.88
367.505	93.88
367.731	89.88
367.957	85.88
368.184	77.88
368.41	95.88
368.636	97.88
368.862	105.88
369.089	89.88
369.315	94.88
369.541	97.88
369.767	87.88
369.993	90.88
370.219	98.88
370.445	86.88
370.672	87.88
370.898	87.88
371.124	92.88
371.35	83.88
371.576	79.88
371.802	80.88
372.028	87.88
372.254	82.88
372.48	89.88
372.706	106.88
372.932	99.88
373.158	91.88
373.384	88.88
373.61	83.88
373.835	82.88
374.061	69.88
374.287	84.88
374.513	80.88
374.739	91.88
374.965	94.88
375.191	85.88
375.416	77.88
375.642	79.88
375.868	90.88
376.094	91.88
376.319	91.88
376.545	98.88
376.771	84.88
376.997	96.88
377.222	93.88
377.448	98.88
377.674	89.88
377.899	97.88
378.125	109.88
378.35	99.88
378.576	96.88
378.802	106.88
379.027	99.88
379.253	102.88
379.478	95.88
379.704	107.88
379.929	96.88
380.155	99.88
380.38	105.88
380.606	109.88
380.831	105.88
381.057	111.88
381.282	95.88
381.507	113.88
381.733	116.88
381.958	106.88
382.184	103.88
382.409	106.88
382.634	123.88
382.86	116.88
383.085	118.88
383.31	122.88
383.535	111.88
383.761	109.88
383.986	120.88
384.211	123.88
384.436	123.88
384.662	125.88
384.887	130.88
385.112	139.88
385.337	153.88
385.562	145.88
385.787	118.88
386.013	137.88
386.238	135.88
386.463	117.88
386.688	140.88
386.913	119.88
387.138	143.88
387.363	143.88
387.588	119.88
387.813	110.88
388.038	149.88
388.263	143.88
388.488	137.88
388.713	105.88
388.938	102.88
389.163	107.88
389.387	97.88
389.612	94.88
389.837	84.88
390.062	91.88
390.287	103.88
390.512	87.88
390.736	89.88
390.961	97.88
391.186	94.88
391.411	86.88
391.636	89.88
391.86	86.88
392.085	88.88
392.31	85.88
392.534	79.88
392.759	93.88
392.984	93.88
393.208	107.88
393.433	102.88
393.658	101.88
393.882	79.88
394.107	75.88
394.331	75.88
394.556	80.88
394.78	71.88
395.005	97.88
395.229	87.88
395.454	91.88
395.678	86.88
395.903	91.88
396.127	87.88
396.352	92.88
396.576	90.88
396.801	97.88
397.025	92.88
397.249	97.88
397.474	101.88
397.698	94.88
397.922	74.88
398.147	87.88
398.371	89.88
398.595	100.88
398.82	93.88
399.044	89.88
399.268	83.88
399.492	70.88
399.717	73.88
399.941	83.88
400.165	93.88
400.389	100.88
400.613	89.88
400.837	86.88
401.062	83.88
401.286	90.88
401.51	90.88
401.734	96.88
401.958	85.88
402.182	111.88
402.406	129.88
402.63	103.88
402.854	95.88
403.078	77.88
403.302	90.88
403.526	78.88
403.75	89.88
403.974	96.88
404.198	85.88
404.422	75.88
404.645	92.88
404.869	90.88
405.093	75.88
405.317	86.88
405.541	93.88
405.765	83.88
405.988	89.88
406.212	114.88
406.436	150.88
406.66	101.88
406.883	89.88
407.107	77.88
407.331	81.88
407.555	88.88
407.778	90.88
408.002	81.88
408.226	91.88
408.449	89.88
408.673	90.88
408.896	111.88
409.12	103.88
409.344	88.88
409.567	100.88
409.791	87.88
410.014	105.88
410.238	95.88
410.461	96.88
410.685	89.88
410.908	86.88
411.132	95.88
411.355	91.88
411.578	91.88
411.802	106.88
412.025	100.88
412.249	82.88
412.472	83.88
412.695	90.88
412.919	87.88
413.142	90.88
413.365	96.88
413.589	89.88
413.812	87.88
414.035	95.88
414.258	79.88
414.482	91.88
414.705	93.88
414.928	86.88
415.151	90.88
415.374	91.88
415.597	94.88
415.821	90.88
416.044	95.88
416.267	99.88
416.49	91.88
416.713	102.88
416.936	81.88
417.159	71.88
417.382	100.88
417.605	98.88
417.828	91.88
418.051	92.88
418.274	101.88
418.497	75.88
418.72	97.88
418.943	75.88
419.166	83.88
419.389	87.88
419.611	94.88
419.834	103.88
420.057	79.88
420.28	88.88
420.503	89.88
420.726	82.88
420.948	78.88
421.171	93.88
421.394	97.88
421.617	93.88
421.839	75.88
422.062	68.88
422.285	90.88
422.507	96.88
422.73	101.88
422.953	86.88
423.175	93.88
423.398	95.88
423.621	93.88
423.843	89.88
424.066	102.88
424.288	92.88
424.511	91.88
424.733	93.88
424.956	110.88
425.178	112.88
425.401	92.88
425.623	90.88
425.846	93.88
426.068	88.88
426.291	79.88
426.513	91.88
426.735	69.88
426.958	93.88
427.18	86.88
427.402	109.88
427.625	127.88
427.847	115.88
428.069	87.88
428.292	85.88
428.514	96.88
428.736	87.88
428.958	77.88
429.181	81.88
429.403	86.88
429.625	87.88
429.847	95.88
430.069	97.88
430.292	77.88
430.514	84.88
430.736	86.88
430.958	88.88
431.18	78.88
431.402	77.88
431.624	81.88
431.846	88.88
432.068	90.88
432.29	79.88
432.512	94.88
432.734	80.88
432.956	97.88
433.178	96.88
433.4	90.88
433.622	77.88
433.844	73.88
434.066	78.88
434.287	80.88
434.509	93.88
434.731	90.88
434.953	72.88
435.175	79.88
435.397	89.88
435.618	95.88
435.84	96.88
436.062	109.88
436.284	106.88
436.505	87.88
436.727	109.88
436.949	98.88
437.17	85.88
437.392	89.88
437.614	86.88
437.835	87.88
438.057	86.88
438.278	89.88
438.5	107.88
438.721	104.88
438.943	80.88
439.165	96.88
439.386	90.88
439.608	78.88
439.829	87.88
440.05	91.88
440.272	105.88
440.493	81.88
440.715	72.88
440.936	75.88
441.158	71.88
441.379	88.88
441.6	97.88
441.822	93.88
442.043	90.88
442.264	97.88
442.486	87.88
442.707	85.88
442.928	99.88
443.149	113.88
443.371	98.88
443.592	106.88
443.813	86.88
444.034	101.88
444.255	83.88
444.476	91.88
444.698	80.88
444.919	81.88
445.14	125.88
445.361	106.88
445.582	93.88
445.803	103.88
446.024	101.88
446.245	113.88
446.466	90.88
446.687	88.88
446.908	84.88
447.129	79.88
447.35	85.88
447.571	94.88
447.792	86.88
448.013	86.88
448.234	94.88
448.455	81.88
448.675	93.88
448.896	103.88
449.117	83.88
449.338	85.88
449.559	112.88
449.779	104.88
450	94.88
450.221	80.88
450.442	82.88
450.662	87.88
450.883	90.88
451.104	96.88
451.324	75.88
451.545	80.88
451.766	81.88
451.986	79.88
452.207	75.88
452.428	97.88
452.648	95.88
452.869	89.88
453.089	96.88
453.31	96.88
453.53	80.88
453.751	78.88
453.971	98.88
454.192	104.88
454.412	83.88
454.633	81.88
454.853	87.88
455.073	77.88
455.294	83.88
455.514	96.88
455.734	105.88
455.955	79.88
456.175	86.88
456.395	71.88
456.616	89.88
456.836	81.88
457.056	84.88
457.276	77.88
457.497	80.88
457.717	88.88
457.937	81.88
458.157	88.88
458.377	92.88
458.598	88.88
458.818	115.88
459.038	113.88
459.258	82.88
459.478	94.88
459.698	89.88
459.918	87.88
460.138	79.88
460.358	91.88
460.578	75.88
460.798	75.88
461.018	73.88
461.238	90.88
461.458	86.88
461.678	98.88
461.898	83.88
462.118	94.88
462.338	80.88
462.558	79.88
462.777	81.88
462.997	89.88
463.217	84.88
463.437	87.88
463.657	74.88
463.876	96.88
464.096	94.88
464.316	111.88
464.536	88.88
464.755	87.88
464.975	95.88
465.195	122.88
465.414	119.88
465.634	94.88
465.854	81.88
466.073	93.88
466.293	92.88
466.512	76.88
466.732	91.88
466.951	75.88
467.171	91.88
467.391	87.88
467.61	96.88
467.829	85.88
468.049	88.88
468.268	82.88
468.488	83.88
468.707	77.88
468.927	80.88
469.146	85.88
469.365	82.88
469.585	90.88
469.804	91.88
470.023	99.88
470.243	92.88
470.462	79.88
470.681	71.88
470.901	84.88
471.12	86.88
471.339	85.88
471.558	91.88
471.777	74.88
471.997	86.88
472.216	84.88
472.435	85.88
472.654	83.88
472.873	75.88
473.092	91.88
473.311	73.88
473.53	97.88
473.749	83.88
473.968	91.88
474.187	79.88
474.406	90.88
474.625	87.88
474.844	91.88
475.063	90.88
475.282	80.88
475.501	65.88
475.72	82.88
475.939	84.88
476.158	88.88
476.377	84.88
476.596	90.88
476.814	77.88
477.033	94.88
477.252	106.88
477.471	91.88
477.69	81.88
477.908	102.88
478.127	79.88
478.346	89.88
478.564	86.88
478.783	78.88
479.002	89.88
479.22	84.88
479.439	94.88
479.658	88.88
479.876	80.88
480.095	102.88
480.313	88.88
480.532	86.88
480.751	91.88
480.969	94.88
481.188	89.88
481.406	104.88
481.624	91.88
481.843	102.88
482.061	101.88
482.28	83.88
482.498	82.88
482.717	75.88
482.935	103.88
483.153	88.88
483.372	94.88
483.59	90.88
483.808	90.88
484.027	104.88
484.245	103.88
484.463	80.88
484.681	100.88
484.9	95.88
485.118	91.88
485.336	89.88
485.554	100.88
485.772	95.88
485.99	105.88
486.209	106.88
486.427	120.88
486.645	111.88
486.863	99.88
487.081	102.88
487.299	102.88
487.517	95.88
487.735	82.88
487.953	101.88
488.171	97.88
488.389	80.88
488.607	90.88
488.825	93.88
489.043	84.88
489.261	85.88
489.479	85.88
489.696	74.88
489.914	84.88
490.132	86.88
490.35	86.88
490.568	99.88
490.786	91.88
491.003	89.88
491.221	73.88
491.439	92.88
491.657	79.88
491.874	106.88
492.092	91.88
492.31	85.88
492.527	90.88
492.745	90.88
492.963	99.88
493.18	87.88
493.398	83.88
493.615	88.88
493.833	69.88
494.05	86.88
494.268	86.88
494.485	95.88
494.703	85.88
494.92	102.88
495.138	76.88
495.355	78.88
495.573	84.88
495.79	93.88
496.008	74.88
496.225	84.88
496.442	88.88
496.66	108.88
496.877	92.88
497.094	96.88
497.312	81.88
497.529	91.88
497.746	109.88
497.963	86.88
498.181	96.88
498.398	83.88
498.615	97.88
498.832	103.88
499.049	84.88
499.267	85.88
499.484	92.88
499.701	85.88
499.918	88.88
500.135	89.88
500.352	90.88
500.569	79.88
500.786	90.88
501.003	91.88
501.22	83.88
501.437	86.88
501.654	85.88
501.871	78.88
502.088	90.88
502.305	86.88
502.522	84.88
502.739	84.88
502.956	94.88
503.172	87.88
503.389	85.88
503.606	86.88
503.823	93.88
504.04	92.88
504.256	85.88
504.473	87.88
504.69	90.88
504.907	83.88
505.123	87.88
505.34	96.88
505.557	83.88
505.773	95.88
505.99	92.88
506.207	78.88
506.423	73.88
506.64	73.88
506.856	81.88
507.073	94.88
507.289	87.88
507.506	97.88
507.722	90.88
507.939	75.88
508.155	83.88
508.372	87.88
508.588	93.88
508.805	96.88
509.021	99.88
509.238	83.88
509.454	94.88
509.67	77.88
509.887	94.88
510.103	99.88
510.319	164.88
510.536	431.88
510.752	1283.88
510.968	396.88
511.184	137.88
511.401	101.88
511.617	103.88
511.833	82.88
512.049	73.88
512.265	90.88
512.481	102.88
512.698	93.88
512.914	94.88
513.13	92.88
513.346	96.88
513.562	87.88
513.778	98.88
513.994	97.88
514.21	92.88
514.426	127.88
514.642	118.88
514.858	111.88
515.074	139.88
515.29	264.88
515.506	770.88
515.721	309.88
515.937	120.88
516.153	93.88
516.369	101.88
516.585	103.88
516.801	91.88
517.016	86.88
