Data from Circ_2002_H10_HRD10591_00041.txt Node
Date: Wed Jan 03 10:41:06 EST 2024
User: Yrep
Spectrometer: HR+D1059
Trigger mode: 1
Integration Time (sec): 1.000000E-1
Scans to average: 1
Electric dark correction enabled: true
Nonlinearity correction enabled: false
Boxcar width: 0
XAxis mode: Wavelengths
Number of Pixels in Spectrum: 2048
>>>>>Begin Spectral Data<<<<<
223.165	-14.06
223.4	-14.06
223.635	-14.06
223.869	-18.06
224.104	-26.06
224.338	-8.06
224.573	-8.06
224.808	-15.06
225.042	-13.06
225.277	-5.06
225.511	-1.06
225.746	-2.06
225.98	8.94
226.215	13.94
226.449	5.94
226.683	25.94
226.918	13.94
227.152	41.94
227.387	33.94
227.621	32.94
227.856	33.94
228.09	59.94
228.324	50.94
228.559	69.94
228.793	161.94
229.027	449.94
229.262	506.94
229.496	575.94
229.73	759.94
229.964	774.94
230.199	533.94
230.433	461.94
230.667	457.94
230.901	441.94
231.136	417.94
231.37	446.94
231.604	429.94
231.838	420.94
232.072	427.94
232.306	439.94
232.541	471.94
232.775	449.94
233.009	449.94
233.243	453.94
233.477	468.94
233.711	437.94
233.945	483.94
234.179	497.94
234.413	493.94
234.647	483.94
234.881	520.94
235.115	517.94
235.349	520.94
235.583	539.94
235.817	557.94
236.051	590.94
236.285	581.94
236.519	606.94
236.753	691.94
236.987	870.94
237.221	1300.94
237.455	1461.94
237.689	868.94
237.922	701.94
238.156	675.94
238.39	634.94
238.624	624.94
238.858	624.94
239.091	624.94
239.325	652.94
239.559	646.94
239.793	694.94
240.027	729.94
240.26	857.94
240.494	943.94
240.728	924.94
240.961	873.94
241.195	791.94
241.429	756.94
241.662	736.94
241.896	736.94
242.13	760.94
242.363	737.94
242.597	776.94
242.83	795.94
243.064	819.94
243.298	813.94
243.531	806.94
243.765	805.94
243.998	830.94
244.232	821.94
244.465	825.94
244.699	845.94
244.932	865.94
245.166	859.94
245.399	865.94
245.633	860.94
245.866	878.94
246.099	865.94
246.333	914.94
246.566	921.94
246.8	934.94
247.033	968.94
247.266	1020.94
247.5	1086.94
247.733	1108.94
247.966	1113.94
248.2	1062.94
248.433	1105.94
248.666	1178.94
248.899	1280.94
249.133	1379.94
249.366	1380.94
249.599	1260.94
249.832	1161.94
250.066	1196.94
250.299	1203.94
250.532	1301.94
250.765	1492.94
250.998	1669.94
251.231	1570.94
251.465	1439.94
251.698	1358.94
251.931	1366.94
252.164	1331.94
252.397	1335.94
252.63	1399.94
252.863	1479.94
253.096	1590.94
253.329	1654.94
253.562	1549.94
253.795	1500.94
254.028	1475.94
254.261	1577.94
254.494	1748.94
254.727	2075.94
254.96	2135.94
255.193	1906.94
255.426	1697.94
255.659	1584.94
255.892	1581.94
256.124	1595.94
256.357	1546.94
256.59	1487.94
256.823	1466.94
257.056	1497.94
257.289	1496.94
257.521	1475.94
257.754	1483.94
257.987	1482.94
258.22	1447.94
258.452	1445.94
258.685	1466.94
258.918	1493.94
259.151	1583.94
259.383	1640.94
259.616	1656.94
259.849	1653.94
260.081	1829.94
260.314	2006.94
260.547	1938.94
260.779	1779.94
261.012	1700.94
261.244	1642.94
261.477	1629.94
261.71	1602.94
261.942	1677.94
262.175	1706.94
262.407	1640.94
262.64	1571.94
262.872	1607.94
263.105	1556.94
263.337	1569.94
263.57	1622.94
263.802	1620.94
264.035	1611.94
264.267	1591.94
264.499	1620.94
264.732	1620.94
264.964	1654.94
265.197	1664.94
265.429	1658.94
265.661	1646.94
265.894	1701.94
266.126	1677.94
266.358	1661.94
266.591	1733.94
266.823	1801.94
267.055	1808.94
267.287	1833.94
267.52	1786.94
267.752	1774.94
267.984	1764.94
268.216	1829.94
268.448	1849.94
268.681	1942.94
268.913	2049.94
269.145	2266.94
269.377	2363.94
269.609	2231.94
269.841	2189.94
270.073	2321.94
270.306	2575.94
270.538	2692.94
270.77	2589.94
271.002	2411.94
271.234	2352.94
271.466	2509.94
271.698	2674.94
271.93	2645.94
272.162	2706.94
272.394	2583.94
272.626	2415.94
272.858	2276.94
273.09	2221.94
273.322	2168.94
273.553	2151.94
273.785	2144.94
274.017	2114.94
274.249	2210.94
274.481	2216.94
274.713	2209.94
274.945	2218.94
275.176	2207.94
275.408	2218.94
275.64	2198.94
275.872	2208.94
276.104	2213.94
276.335	2251.94
276.567	2339.94
276.799	2474.94
277.031	2714.94
277.262	2790.94
277.494	2652.94
277.726	2504.94
277.957	2449.94
278.189	2365.94
278.421	2310.94
278.652	2351.94
278.884	2371.94
279.115	2354.94
279.347	2325.94
279.579	2323.94
279.81	2317.94
280.042	2343.94
280.273	2324.94
280.505	2365.94
280.736	2338.94
280.968	2331.94
281.199	2426.94
281.431	2369.94
281.662	2429.94
281.894	2413.94
282.125	2478.94
282.356	2654.94
282.588	2775.94
282.819	2629.94
283.051	2523.94
283.282	2470.94
283.513	2531.94
283.745	2548.94
283.976	2567.94
284.207	2627.94
284.439	2572.94
284.67	2569.94
284.901	2539.94
285.132	2560.94
285.364	2535.94
285.595	2545.94
285.826	2534.94
286.057	2595.94
286.288	2598.94
286.52	2531.94
286.751	2587.94
286.982	2684.94
287.213	2691.94
287.444	2682.94
287.675	2762.94
287.906	2831.94
288.138	2889.94
288.369	2843.94
288.6	2885.94
288.831	2806.94
289.062	2806.94
289.293	2758.94
289.524	2736.94
289.755	2757.94
289.986	2733.94
290.217	2715.94
290.448	2768.94
290.679	2790.94
290.91	2758.94
291.141	2760.94
291.371	2779.94
291.602	2791.94
291.833	2774.94
292.064	2740.94
292.295	2769.94
292.526	2797.94
292.757	2760.94
292.987	2755.94
293.218	2782.94
293.449	2829.94
293.68	2801.94
293.91	2775.94
294.141	2768.94
294.372	2765.94
294.603	2743.94
294.833	2796.94
295.064	2853.94
295.295	2830.94
295.525	2892.94
295.756	2901.94
295.987	2981.94
296.217	3165.94
296.448	3086.94
296.679	2898.94
296.909	2887.94
297.14	2895.94
297.37	2948.94
297.601	2971.94
297.831	3009.94
298.062	2997.94
298.292	3022.94
298.523	3078.94
298.753	3099.94
298.984	3068.94
299.214	3049.94
299.445	3023.94
299.675	3085.94
299.905	3101.94
300.136	3093.94
300.366	3115.94
300.597	3101.94
300.827	3190.94
301.057	3310.94
301.288	3413.94
301.518	3297.94
301.748	3297.94
301.979	3306.94
302.209	3353.94
302.439	3343.94
302.669	3278.94
302.9	3249.94
303.13	3265.94
303.36	3280.94
303.59	3307.94
303.82	3300.94
304.051	3329.94
304.281	3258.94
304.511	3191.94
304.741	3223.94
304.971	3221.94
305.201	3230.94
305.431	3151.94
305.661	3208.94
305.891	3234.94
306.121	3209.94
306.352	3249.94
306.582	3257.94
306.812	3174.94
307.042	3199.94
307.272	3184.94
307.502	3248.94
307.731	3281.94
307.961	3154.94
308.191	3246.94
308.421	3266.94
308.651	3251.94
308.881	3308.94
309.111	3265.94
309.341	3358.94
309.571	3377.94
309.8	3479.94
310.03	3485.94
310.26	3530.94
310.49	3501.94
310.72	3654.94
310.949	3719.94
311.179	3666.94
311.409	3615.94
311.639	3573.94
311.868	3619.94
312.098	3625.94
312.328	3722.94
312.557	3812.94
312.787	3914.94
313.017	3867.94
313.246	3662.94
313.476	3663.94
313.706	3765.94
313.935	3874.94
314.165	3950.94
314.394	3922.94
314.624	3891.94
314.853	3739.94
315.083	3712.94
315.312	3642.94
315.542	3659.94
315.771	3614.94
316.001	3628.94
316.23	3591.94
316.46	3631.94
316.689	3680.94
316.919	3704.94
317.148	3741.94
317.377	3729.94
317.607	3682.94
317.836	3675.94
318.065	3647.94
318.295	3645.94
318.524	3553.94
318.753	3639.94
318.983	3627.94
319.212	3613.94
319.441	3777.94
319.67	3708.94
319.9	3660.94
320.129	3637.94
320.358	3650.94
320.587	3729.94
320.816	3792.94
321.046	3786.94
321.275	3805.94
321.504	3801.94
321.733	3847.94
321.962	3880.94
322.191	3943.94
322.42	4043.94
322.649	4210.94
322.878	4187.94
323.108	4295.94
323.337	4460.94
323.566	4660.94
323.795	4937.94
324.024	5489.94
324.253	7353.94
324.482	11054.94
324.71	15277.94
324.939	15611.94
325.168	13057.94
325.397	6501.94
325.626	5179.94
325.855	4837.94
326.084	4767.94
326.313	4695.94
326.542	4896.94
326.77	5569.94
326.999	6953.94
327.228	10424.94
327.457	14397.94
327.686	13558.94
327.914	7335.94
328.143	5754.94
328.372	5438.94
328.6	5178.94
328.829	5128.94
329.058	5271.94
329.287	5187.94
329.515	4929.94
329.744	4781.94
329.972	4792.94
330.201	5016.94
330.43	5203.94
330.658	5440.94
330.887	5720.94
331.115	5317.94
331.344	4922.94
331.572	4867.94
331.801	4918.94
332.03	4986.94
332.258	4921.94
332.486	4931.94
332.715	5028.94
332.943	5125.94
333.172	5281.94
333.4	5426.94
333.629	5541.94
333.857	5639.94
334.085	5557.94
334.314	5585.94
334.542	5614.94
334.771	5569.94
334.999	5303.94
335.227	5157.94
335.455	5121.94
335.684	5005.94
335.912	4979.94
336.14	4872.94
336.369	4862.94
336.597	4981.94
336.825	4876.94
337.053	4786.94
337.281	4714.94
337.51	4739.94
337.738	4653.94
337.966	4647.94
338.194	4662.94
338.422	4646.94
338.65	4498.94
338.878	4489.94
339.106	4498.94
339.334	4527.94
339.562	4338.94
339.79	4381.94
340.018	4379.94
340.246	4308.94
340.474	4378.94
340.702	4387.94
340.93	4369.94
341.158	4359.94
341.386	4345.94
341.614	4386.94
341.842	4291.94
342.07	4253.94
342.298	4293.94
342.526	4278.94
342.754	4250.94
342.981	4261.94
343.209	4393.94
343.437	4623.94
343.665	4933.94
343.893	5158.94
344.12	5099.94
344.348	4867.94
344.576	4678.94
344.804	4711.94
345.031	4615.94
345.259	4567.94
345.487	4446.94
345.714	4311.94
345.942	4263.94
346.17	4205.94
346.397	4146.94
346.625	4155.94
346.853	4167.94
347.08	4141.94
347.308	4294.94
347.535	4257.94
347.763	4326.94
347.99	4280.94
348.218	4233.94
348.445	4289.94
348.673	4265.94
348.9	4104.94
349.128	4074.94
349.355	4011.94
349.583	4055.94
349.81	4074.94
350.037	4047.94
350.265	4022.94
350.492	4037.94
350.72	3997.94
350.947	4083.94
351.174	4160.94
351.402	4221.94
351.629	4143.94
351.856	4117.94
352.083	4222.94
352.311	4246.94
352.538	4195.94
352.765	4189.94
352.992	4110.94
353.22	4056.94
353.447	4022.94
353.674	3930.94
353.901	3978.94
354.128	3910.94
354.355	3958.94
354.583	3858.94
354.81	3977.94
355.037	3890.94
355.264	3919.94
355.491	3878.94
355.718	3913.94
355.945	3895.94
356.172	3928.94
356.399	3955.94
356.626	3923.94
356.853	3930.94
357.08	3898.94
357.307	3910.94
357.534	3930.94
357.761	3948.94
357.988	3969.94
358.215	3957.94
358.441	4005.94
358.668	4000.94
358.895	4040.94
359.122	4012.94
359.349	4168.94
359.576	4225.94
359.802	4490.94
360.029	4645.94
360.256	4534.94
360.483	4356.94
360.709	4161.94
360.936	4164.94
361.163	4214.94
361.39	4192.94
361.616	4187.94
361.843	4151.94
362.07	4171.94
362.296	4150.94
362.523	4129.94
362.749	4083.94
362.976	4105.94
363.203	4114.94
363.429	4019.94
363.656	4059.94
363.882	4073.94
364.109	4045.94
364.335	3927.94
364.562	4001.94
364.788	4046.94
365.015	3989.94
365.241	4039.94
365.468	4006.94
365.694	4101.94
365.92	4058.94
366.147	4049.94
366.373	4005.94
366.599	3959.94
366.826	3953.94
367.052	3972.94
367.278	4022.94
367.505	4095.94
367.731	4063.94
367.957	4039.94
368.184	4087.94
368.41	4163.94
368.636	4179.94
368.862	4150.94
369.089	4111.94
369.315	4095.94
369.541	4129.94
369.767	4119.94
369.993	4136.94
370.219	4149.94
370.445	4138.94
370.672	4221.94
370.898	4200.94
371.124	4239.94
371.35	4337.94
371.576	4299.94
371.802	4241.94
372.028	4258.94
372.254	4226.94
372.48	4385.94
372.706	4420.94
372.932	4450.94
373.158	4432.94
373.384	4349.94
373.61	4312.94
373.835	4302.94
374.061	4339.94
374.287	4407.94
374.513	4490.94
374.739	4658.94
374.965	4727.94
375.191	4702.94
375.416	4693.94
375.642	4489.94
375.868	4466.94
376.094	4425.94
376.319	4354.94
376.545	4343.94
376.771	4340.94
376.997	4274.94
377.222	4278.94
377.448	4284.94
377.674	4249.94
377.899	4238.94
378.125	4247.94
378.35	4200.94
378.576	4276.94
378.802	4207.94
379.027	4237.94
379.253	4268.94
379.478	4198.94
379.704	4258.94
379.929	4273.94
380.155	4326.94
380.38	4299.94
380.606	4310.94
380.831	4246.94
381.057	4286.94
381.282	4342.94
381.507	4371.94
381.733	4359.94
381.958	4431.94
382.184	4440.94
382.409	4525.94
382.634	4599.94
382.86	4553.94
383.085	4618.94
383.31	4680.94
383.535	4727.94
383.761	4793.94
383.986	4789.94
384.211	4922.94
384.436	5029.94
384.662	5093.94
384.887	5123.94
385.112	5131.94
385.337	5172.94
385.562	5207.94
385.787	5191.94
386.013	5294.94
386.238	5312.94
386.463	5267.94
386.688	5245.94
386.913	5161.94
387.138	5063.94
387.363	5179.94
387.588	5053.94
387.813	5177.94
388.038	5150.94
388.263	5134.94
388.488	5190.94
388.713	5156.94
388.938	5187.94
389.163	5107.94
389.387	5126.94
389.612	4955.94
389.837	5018.94
390.062	5016.94
390.287	5077.94
390.512	5056.94
390.736	5097.94
390.961	5238.94
391.186	5320.94
391.411	5442.94
391.636	5590.94
391.86	5700.94
392.085	5843.94
392.31	5681.94
392.534	5520.94
392.759	5449.94
392.984	5356.94
393.208	5364.94
393.433	5309.94
393.658	5394.94
393.882	5321.94
394.107	5388.94
394.331	5445.94
394.556	5421.94
394.78	5472.94
395.005	5449.94
395.229	5529.94
395.454	5723.94
395.678	5859.94
395.903	5833.94
396.127	5930.94
396.352	5699.94
396.576	5461.94
396.801	5454.94
397.025	5582.94
397.249	5648.94
397.474	5795.94
397.698	5827.94
397.922	5946.94
398.147	6049.94
398.371	6163.94
398.595	6218.94
398.82	6603.94
399.044	7141.94
399.268	7941.94
399.492	9023.94
399.717	9641.94
399.941	9403.94
400.165	8692.94
400.389	8081.94
400.613	7325.94
400.837	6735.94
401.062	6671.94
401.286	6571.94
401.51	6480.94
401.734	6481.94
401.958	6650.94
402.182	6771.94
402.406	6824.94
402.63	6965.94
402.854	7041.94
403.078	7090.94
403.302	7209.94
403.526	7259.94
403.75	7386.94
403.974	7406.94
404.198	7393.94
404.422	7439.94
404.645	7469.94
404.869	7424.94
405.093	7673.94
405.317	7747.94
405.541	7678.94
405.765	7368.94
405.988	7186.94
406.212	7481.94
406.436	7682.94
406.66	7728.94
406.883	7807.94
407.107	8279.94
407.331	8841.94
407.555	9417.94
407.778	9025.94
408.002	8287.94
408.226	7869.94
408.449	7714.94
408.673	7614.94
408.896	7801.94
409.12	8001.94
409.344	7488.94
409.567	7118.94
409.791	7166.94
410.014	6971.94
410.238	7011.94
410.461	7013.94
410.685	7027.94
410.908	7075.94
411.132	7357.94
411.355	7279.94
411.578	6992.94
411.802	6697.94
412.025	6829.94
412.249	6858.94
412.472	6978.94
412.695	7088.94
412.919	6677.94
413.142	6505.94
413.365	6451.94
413.589	6386.94
413.812	6377.94
414.035	6239.94
414.258	6391.94
414.482	6409.94
414.705	6461.94
414.928	6403.94
415.151	6314.94
415.374	6384.94
415.597	6276.94
415.821	6232.94
416.044	6342.94
416.267	6245.94
416.49	6250.94
416.713	6165.94
416.936	6237.94
417.159	6287.94
417.382	6351.94
417.605	6277.94
417.828	6534.94
418.051	6608.94
418.274	6496.94
418.497	6463.94
418.72	6587.94
418.943	6462.94
419.166	6883.94
419.389	7277.94
419.611	7058.94
419.834	6929.94
420.057	6813.94
420.28	6633.94
420.503	6504.94
420.726	6591.94
420.948	6644.94
421.171	7067.94
421.394	6918.94
421.617	6541.94
421.839	6523.94
422.062	6630.94
422.285	6805.94
422.507	7369.94
422.73	7989.94
422.953	7302.94
423.175	6931.94
423.398	7008.94
423.621	6905.94
423.843	7273.94
424.066	7225.94
424.288	7074.94
424.511	7352.94
424.733	7697.94
424.956	8159.94
425.178	7628.94
425.401	7773.94
425.623	7794.94
425.846	6772.94
426.068	6544.94
426.291	6605.94
426.513	6520.94
426.735	6605.94
426.958	7061.94
427.18	7862.94
427.402	9025.94
427.625	9111.94
427.847	7733.94
428.069	6892.94
428.292	6393.94
428.514	6097.94
428.736	5946.94
428.958	5994.94
429.181	5776.94
429.403	5799.94
429.625	5957.94
429.847	6349.94
430.069	6808.94
430.292	6317.94
430.514	5792.94
430.736	5838.94
430.958	5711.94
431.18	5622.94
431.402	5619.94
431.624	5588.94
431.846	5686.94
432.068	5641.94
432.29	5786.94
432.512	5760.94
432.734	5780.94
432.956	5762.94
433.178	5785.94
433.4	5828.94
433.622	5661.94
433.844	5730.94
434.066	5821.94
434.287	5779.94
434.509	6140.94
434.731	6359.94
434.953	6514.94
435.175	6616.94
435.397	6728.94
435.618	6580.94
435.84	6925.94
436.062	7766.94
436.284	7755.94
436.505	6554.94
436.727	6215.94
436.949	5921.94
437.17	5753.94
437.392	5732.94
437.614	5975.94
437.835	6326.94
438.057	7305.94
438.278	7910.94
438.5	7945.94
438.721	8699.94
438.943	7627.94
439.165	6336.94
439.386	6247.94
439.608	6230.94
439.829	6349.94
440.05	6644.94
440.272	6979.94
440.493	6483.94
440.715	6181.94
440.936	6070.94
441.158	6125.94
441.379	6227.94
441.6	6564.94
441.822	6821.94
442.043	7224.94
442.264	8037.94
442.486	7729.94
442.707	6829.94
442.928	6677.94
443.149	6875.94
443.371	7146.94
443.592	7697.94
443.813	8646.94
444.034	8590.94
444.255	7461.94
444.476	7386.94
444.698	7520.94
444.919	7619.94
445.14	7451.94
445.361	7151.94
445.582	7464.94
445.803	8007.94
446.024	8605.94
446.245	8243.94
446.466	7445.94
446.687	6450.94
446.908	6078.94
447.129	5924.94
447.35	5667.94
447.571	5609.94
447.792	5501.94
448.013	5611.94
448.234	5788.94
448.455	6410.94
448.675	7773.94
448.896	8127.94
449.117	6698.94
449.338	6950.94
449.559	8320.94
449.779	8446.94
450	6412.94
450.221	5751.94
450.442	5526.94
450.662	5468.94
450.883	5429.94
451.104	5613.94
451.324	5452.94
451.545	5276.94
451.766	5098.94
451.986	5064.94
452.207	5069.94
452.428	4959.94
452.648	5107.94
452.869	5090.94
453.089	5170.94
453.31	5286.94
453.53	5085.94
453.751	4973.94
453.971	5074.94
454.192	5170.94
454.412	4968.94
454.633	4893.94
454.853	4806.94
455.073	4885.94
455.294	5350.94
455.514	5800.94
455.734	5352.94
455.955	4853.94
456.175	4742.94
456.395	4645.94
456.616	4664.94
456.836	4639.94
457.056	4617.94
457.276	4583.94
457.497	4698.94
457.717	4711.94
457.937	4766.94
458.157	4869.94
458.377	4943.94
458.598	5279.94
458.818	6021.94
459.038	6705.94
459.258	6688.94
459.478	5949.94
459.698	5756.94
459.918	5906.94
460.138	6079.94
460.358	6337.94
460.578	6288.94
460.798	6404.94
461.018	6339.94
461.238	6193.94
461.458	6230.94
461.678	6115.94
461.898	6234.94
462.118	6328.94
462.338	6772.94
462.558	6837.94
462.777	7139.94
462.997	7731.94
463.217	8211.94
463.437	7900.94
463.657	7325.94
463.876	7101.94
464.096	7199.94
464.316	7184.94
464.536	7242.94
464.755	6941.94
464.975	6949.94
465.195	7076.94
465.414	6998.94
465.634	6207.94
465.854	5850.94
466.073	5665.94
466.293	5485.94
466.512	5339.94
466.732	5237.94
466.951	5240.94
467.171	5146.94
467.391	5236.94
467.61	5341.94
467.829	5278.94
468.049	5193.94
468.268	5134.94
468.488	5025.94
468.707	4903.94
468.927	5013.94
469.146	4965.94
469.365	4984.94
469.585	5094.94
469.804	5310.94
470.023	5433.94
470.243	5349.94
470.462	5533.94
470.681	5685.94
470.901	5467.94
471.12	5395.94
471.339	5292.94
471.558	5266.94
471.777	5205.94
471.997	5079.94
472.216	5067.94
472.435	5150.94
472.654	5002.94
472.873	4951.94
473.092	5009.94
473.311	4939.94
473.53	5007.94
473.749	5150.94
473.968	5580.94
474.187	6633.94
474.406	6176.94
474.625	5307.94
474.844	5074.94
475.063	4989.94
475.282	4953.94
475.501	5096.94
475.72	5050.94
475.939	5106.94
476.158	5134.94
476.377	5193.94
476.596	5227.94
476.814	5369.94
477.033	5389.94
477.252	5384.94
477.471	5563.94
477.69	5697.94
477.908	5691.94
478.127	5891.94
478.346	5877.94
478.564	6052.94
478.783	6109.94
479.002	6318.94
479.22	6323.94
479.439	6430.94
479.658	6493.94
479.876	6570.94
480.095	6801.94
480.313	7148.94
480.532	7071.94
480.751	6894.94
480.969	6864.94
481.188	6852.94
481.406	6726.94
481.624	6381.94
481.843	6112.94
482.061	5946.94
482.28	5882.94
482.498	5883.94
482.717	5848.94
482.935	5864.94
483.153	5887.94
483.372	5817.94
483.59	5797.94
483.808	5824.94
484.027	5818.94
484.245	5905.94
484.463	5976.94
484.681	6073.94
484.9	5986.94
485.118	6095.94
485.336	6145.94
485.554	6231.94
485.772	6205.94
485.99	6144.94
486.209	6307.94
486.427	6265.94
486.645	6378.94
486.863	6495.94
487.081	6365.94
487.299	6253.94
487.517	6316.94
487.735	6207.94
487.953	6289.94
