Data from Circ_2002_H10_HRD10591_00077.txt Node
Date: Wed Jan 03 10:41:13 EST 2024
User: Yrep
Spectrometer: HR+D1059
Trigger mode: 1
Integration Time (sec): 1.000000E-1
Scans to average: 1
Electric dark correction enabled: true
Nonlinearity correction enabled: false
Boxcar width: 0
XAxis mode: Wavelengths
Number of Pixels in Spectrum: 2048
>>>>>Begin Spectral Data<<<<<
223.165	-16.44
223.4	-16.44
223.635	-16.44
223.869	-28.44
224.104	-17.44
224.338	-16.44
224.573	-13.44
224.808	-20.44
225.042	-12.44
225.277	-1.44
225.511	-3.44
225.746	6.56
225.98	2.56
226.215	17.56
226.449	18.56
226.683	25.56
226.918	28.56
227.152	30.56
227.387	46.56
227.621	44.56
227.856	63.56
228.09	43.56
228.324	45.56
228.559	44.56
228.793	43.56
229.027	55.56
229.262	58.56
229.496	73.56
229.73	78.56
229.964	83.56
230.199	77.56
230.433	73.56
230.667	84.56
230.901	86.56
231.136	74.56
231.37	69.56
231.604	71.56
231.838	67.56
232.072	82.56
232.306	69.56
232.541	71.56
232.775	79.56
233.009	68.56
233.243	78.56
233.477	76.56
233.711	79.56
233.945	70.56
234.179	88.56
234.413	89.56
234.647	70.56
234.881	84.56
235.115	79.56
235.349	78.56
235.583	85.56
235.817	72.56
236.051	80.56
236.285	69.56
236.519	69.56
236.753	76.56
236.987	71.56
237.221	74.56
237.455	69.56
237.689	73.56
237.922	86.56
238.156	89.56
238.39	59.56
238.624	67.56
238.858	79.56
239.091	69.56
239.325	76.56
239.559	81.56
239.793	67.56
240.027	85.56
240.26	82.56
240.494	76.56
240.728	69.56
240.961	93.56
241.195	91.56
241.429	74.56
241.662	60.56
241.896	63.56
242.13	83.56
242.363	68.56
242.597	64.56
242.83	71.56
243.064	68.56
243.298	66.56
243.531	85.56
243.765	74.56
243.998	83.56
244.232	80.56
244.465	85.56
244.699	74.56
244.932	75.56
245.166	94.56
245.399	77.56
245.633	71.56
245.866	65.56
246.099	78.56
246.333	88.56
246.566	72.56
246.8	80.56
247.033	76.56
247.266	94.56
247.5	87.56
247.733	80.56
247.966	91.56
248.2	86.56
248.433	72.56
248.666	57.56
248.899	69.56
249.133	81.56
249.366	89.56
249.599	90.56
249.832	77.56
250.066	80.56
250.299	79.56
250.532	84.56
250.765	70.56
250.998	77.56
251.231	71.56
251.465	82.56
251.698	83.56
251.931	80.56
252.164	67.56
252.397	84.56
252.63	76.56
252.863	88.56
253.096	74.56
253.329	84.56
253.562	76.56
253.795	85.56
254.028	73.56
254.261	72.56
254.494	83.56
254.727	72.56
254.96	97.56
255.193	81.56
255.426	70.56
255.659	79.56
255.892	77.56
256.124	80.56
256.357	80.56
256.59	69.56
256.823	88.56
257.056	90.56
257.289	76.56
257.521	73.56
257.754	70.56
257.987	86.56
258.22	84.56
258.452	88.56
258.685	95.56
258.918	93.56
259.151	78.56
259.383	80.56
259.616	91.56
259.849	81.56
260.081	82.56
260.314	79.56
260.547	68.56
260.779	76.56
261.012	84.56
261.244	87.56
261.477	94.56
261.71	103.56
261.942	98.56
262.175	129.56
262.407	88.56
262.64	88.56
262.872	89.56
263.105	86.56
263.337	73.56
263.57	89.56
263.802	69.56
264.035	77.56
264.267	93.56
264.499	76.56
264.732	73.56
264.964	77.56
265.197	78.56
265.429	82.56
265.661	82.56
265.894	74.56
266.126	84.56
266.358	84.56
266.591	78.56
266.823	90.56
267.055	94.56
267.287	86.56
267.52	74.56
267.752	84.56
267.984	79.56
268.216	76.56
268.448	82.56
268.681	80.56
268.913	81.56
269.145	96.56
269.377	89.56
269.609	66.56
269.841	76.56
270.073	85.56
270.306	81.56
270.538	69.56
270.77	89.56
271.002	76.56
271.234	86.56
271.466	89.56
271.698	94.56
271.93	82.56
272.162	88.56
272.394	94.56
272.626	96.56
272.858	97.56
273.09	65.56
273.322	92.56
273.553	74.56
273.785	87.56
274.017	90.56
274.249	82.56
274.481	74.56
274.713	73.56
274.945	89.56
275.176	86.56
275.408	82.56
275.64	85.56
275.872	77.56
276.104	76.56
276.335	86.56
276.567	85.56
276.799	94.56
277.031	112.56
277.262	83.56
277.494	98.56
277.726	76.56
277.957	87.56
278.189	72.56
278.421	78.56
278.652	73.56
278.884	86.56
279.115	82.56
279.347	72.56
279.579	80.56
279.81	95.56
280.042	80.56
280.273	89.56
280.505	81.56
280.736	99.56
280.968	86.56
281.199	97.56
281.431	81.56
281.662	84.56
281.894	80.56
282.125	92.56
282.356	118.56
282.588	145.56
282.819	95.56
283.051	100.56
283.282	95.56
283.513	92.56
283.745	95.56
283.976	89.56
284.207	91.56
284.439	70.56
284.67	89.56
284.901	90.56
285.132	81.56
285.364	81.56
285.595	74.56
285.826	86.56
286.057	82.56
286.288	89.56
286.52	78.56
286.751	84.56
286.982	83.56
287.213	81.56
287.444	85.56
287.675	100.56
287.906	85.56
288.138	72.56
288.369	96.56
288.6	92.56
288.831	84.56
289.062	70.56
289.293	78.56
289.524	98.56
289.755	92.56
289.986	104.56
290.217	82.56
290.448	79.56
290.679	82.56
290.91	88.56
291.141	61.56
291.371	77.56
291.602	81.56
291.833	84.56
292.064	78.56
292.295	90.56
292.526	87.56
292.757	94.56
292.987	66.56
293.218	89.56
293.449	89.56
293.68	89.56
293.91	71.56
294.141	86.56
294.372	72.56
294.603	88.56
294.833	89.56
295.064	85.56
295.295	84.56
295.525	84.56
295.756	105.56
295.987	107.56
296.217	121.56
296.448	104.56
296.679	93.56
296.909	94.56
297.14	78.56
297.37	90.56
297.601	92.56
297.831	89.56
298.062	86.56
298.292	93.56
298.523	95.56
298.753	85.56
298.984	73.56
299.214	80.56
299.445	90.56
299.675	92.56
299.905	93.56
300.136	90.56
300.366	103.56
300.597	83.56
300.827	99.56
301.057	88.56
301.288	93.56
301.518	90.56
301.748	89.56
301.979	99.56
302.209	86.56
302.439	96.56
302.669	80.56
302.9	86.56
303.13	78.56
303.36	89.56
303.59	94.56
303.82	105.56
304.051	99.56
304.281	85.56
304.511	104.56
304.741	85.56
304.971	81.56
305.201	74.56
305.431	82.56
305.661	93.56
305.891	88.56
306.121	79.56
306.352	111.56
306.582	101.56
306.812	84.56
307.042	80.56
307.272	102.56
307.502	75.56
307.731	88.56
307.961	86.56
308.191	89.56
308.421	83.56
308.651	100.56
308.881	99.56
309.111	90.56
309.341	94.56
309.571	100.56
309.8	90.56
310.03	103.56
310.26	83.56
310.49	95.56
310.72	90.56
310.949	86.56
311.179	83.56
311.409	86.56
311.639	93.56
311.868	100.56
312.098	89.56
312.328	101.56
312.557	98.56
312.787	84.56
313.017	93.56
313.246	86.56
313.476	90.56
313.706	93.56
313.935	85.56
314.165	98.56
314.394	103.56
314.624	98.56
314.853	94.56
315.083	85.56
315.312	88.56
315.542	87.56
315.771	87.56
316.001	100.56
316.23	95.56
316.46	90.56
316.689	90.56
316.919	97.56
317.148	80.56
317.377	85.56
317.607	94.56
317.836	90.56
318.065	87.56
318.295	90.56
318.524	85.56
318.753	104.56
318.983	103.56
319.212	102.56
319.441	110.56
319.67	91.56
319.9	98.56
320.129	85.56
320.358	88.56
320.587	92.56
320.816	95.56
321.046	91.56
321.275	84.56
321.504	103.56
321.733	86.56
321.962	97.56
322.191	109.56
322.42	85.56
322.649	106.56
322.878	104.56
323.108	109.56
323.337	105.56
323.566	127.56
323.795	145.56
324.024	184.56
324.253	376.56
324.482	780.56
324.71	1635.56
324.939	2142.56
325.168	764.56
325.397	226.56
325.626	148.56
325.855	138.56
326.084	119.56
326.313	125.56
326.542	147.56
326.77	238.56
326.999	452.56
327.228	934.56
327.457	1637.56
327.686	1312.56
327.914	357.56
328.143	191.56
328.372	142.56
328.6	130.56
328.829	117.56
329.058	129.56
329.287	124.56
329.515	109.56
329.744	103.56
329.972	123.56
330.201	145.56
330.43	156.56
330.658	125.56
330.887	132.56
331.115	118.56
331.344	98.56
331.572	90.56
331.801	96.56
332.03	99.56
332.258	93.56
332.486	88.56
332.715	79.56
332.943	90.56
333.172	95.56
333.4	94.56
333.629	108.56
333.857	117.56
334.085	112.56
334.314	130.56
334.542	160.56
334.771	158.56
334.999	108.56
335.227	85.56
335.455	87.56
335.684	101.56
335.912	88.56
336.14	89.56
336.369	93.56
336.597	102.56
336.825	102.56
337.053	87.56
337.281	85.56
337.51	89.56
337.738	83.56
337.966	78.56
338.194	88.56
338.422	86.56
338.65	79.56
338.878	95.56
339.106	75.56
339.334	90.56
339.562	98.56
339.79	81.56
340.018	79.56
340.246	99.56
340.474	87.56
340.702	97.56
340.93	105.56
341.158	88.56
341.386	96.56
341.614	95.56
341.842	97.56
342.07	83.56
342.298	106.56
342.526	80.56
342.754	84.56
342.981	96.56
343.209	85.56
343.437	107.56
343.665	77.56
343.893	85.56
344.12	94.56
344.348	89.56
344.576	90.56
344.804	90.56
345.031	78.56
345.259	95.56
345.487	99.56
345.714	92.56
345.942	93.56
346.17	71.56
346.397	73.56
346.625	87.56
346.853	89.56
347.08	86.56
347.308	72.56
347.535	102.56
347.763	99.56
347.99	95.56
348.218	102.56
348.445	86.56
348.673	90.56
348.9	101.56
349.128	90.56
349.355	104.56
349.583	94.56
349.81	84.56
350.037	87.56
350.265	77.56
350.492	104.56
350.72	102.56
350.947	103.56
351.174	100.56
351.402	107.56
351.629	90.56
351.856	95.56
352.083	93.56
352.311	95.56
352.538	95.56
352.765	110.56
352.992	105.56
353.22	93.56
353.447	92.56
353.674	109.56
353.901	94.56
354.128	97.56
354.355	103.56
354.583	83.56
354.81	100.56
355.037	84.56
355.264	92.56
355.491	93.56
355.718	102.56
355.945	92.56
356.172	88.56
356.399	83.56
356.626	88.56
356.853	77.56
357.08	109.56
357.307	91.56
357.534	85.56
357.761	76.56
357.988	90.56
358.215	92.56
358.441	92.56
358.668	94.56
358.895	88.56
359.122	89.56
359.349	82.56
359.576	79.56
359.802	100.56
360.029	107.56
360.256	84.56
360.483	89.56
360.709	94.56
360.936	96.56
361.163	85.56
361.39	78.56
361.616	81.56
361.843	97.56
362.07	79.56
362.296	92.56
362.523	95.56
362.749	95.56
362.976	94.56
363.203	106.56
363.429	89.56
363.656	81.56
363.882	86.56
364.109	92.56
364.335	96.56
364.562	88.56
364.788	80.56
365.015	84.56
365.241	95.56
365.468	96.56
365.694	102.56
365.92	90.56
366.147	80.56
366.373	87.56
366.599	79.56
366.826	85.56
367.052	81.56
367.278	81.56
367.505	84.56
367.731	95.56
367.957	86.56
368.184	93.56
368.41	93.56
368.636	97.56
368.862	106.56
369.089	103.56
369.315	90.56
369.541	92.56
369.767	87.56
369.993	89.56
370.219	82.56
370.445	87.56
370.672	90.56
370.898	84.56
371.124	83.56
371.35	84.56
371.576	91.56
371.802	97.56
372.028	78.56
372.254	85.56
372.48	77.56
372.706	79.56
372.932	94.56
373.158	88.56
373.384	95.56
373.61	87.56
373.835	77.56
374.061	90.56
374.287	81.56
374.513	92.56
374.739	88.56
374.965	99.56
375.191	80.56
375.416	90.56
375.642	83.56
375.868	93.56
376.094	88.56
376.319	87.56
376.545	75.56
376.771	85.56
376.997	86.56
377.222	95.56
377.448	85.56
377.674	98.56
377.899	93.56
378.125	83.56
378.35	108.56
378.576	77.56
378.802	81.56
379.027	78.56
379.253	85.56
379.478	71.56
379.704	102.56
379.929	85.56
380.155	97.56
380.38	95.56
380.606	94.56
380.831	90.56
381.057	90.56
381.282	93.56
381.507	89.56
381.733	79.56
381.958	84.56
382.184	84.56
382.409	89.56
382.634	84.56
382.86	94.56
383.085	83.56
383.31	90.56
383.535	100.56
383.761	100.56
383.986	95.56
384.211	104.56
384.436	94.56
384.662	90.56
384.887	96.56
385.112	100.56
385.337	91.56
385.562	97.56
385.787	111.56
386.013	112.56
386.238	101.56
386.463	109.56
386.688	97.56
386.913	103.56
387.138	96.56
387.363	110.56
387.588	90.56
387.813	100.56
388.038	98.56
388.263	117.56
388.488	109.56
388.713	103.56
388.938	97.56
389.163	90.56
389.387	92.56
389.612	98.56
389.837	95.56
390.062	100.56
390.287	93.56
390.512	74.56
390.736	80.56
390.961	78.56
391.186	78.56
391.411	90.56
391.636	86.56
391.86	85.56
392.085	81.56
392.31	93.56
392.534	86.56
392.759	97.56
392.984	72.56
393.208	97.56
393.433	98.56
393.658	73.56
393.882	89.56
394.107	83.56
394.331	86.56
394.556	81.56
394.78	84.56
395.005	91.56
395.229	81.56
395.454	102.56
395.678	87.56
395.903	88.56
396.127	102.56
396.352	87.56
396.576	89.56
396.801	75.56
397.025	88.56
397.249	91.56
397.474	75.56
397.698	101.56
397.922	84.56
398.147	87.56
398.371	86.56
398.595	70.56
398.82	78.56
399.044	85.56
399.268	89.56
399.492	88.56
399.717	87.56
399.941	86.56
400.165	89.56
400.389	95.56
400.613	89.56
400.837	72.56
401.062	78.56
401.286	84.56
401.51	89.56
401.734	83.56
401.958	112.56
402.182	125.56
402.406	142.56
402.63	119.56
402.854	90.56
403.078	91.56
403.302	78.56
403.526	76.56
403.75	92.56
403.974	93.56
404.198	82.56
404.422	81.56
404.645	80.56
404.869	93.56
405.093	78.56
405.317	98.56
405.541	94.56
405.765	100.56
405.988	94.56
406.212	169.56
406.436	200.56
406.66	129.56
406.883	81.56
407.107	85.56
407.331	80.56
407.555	92.56
407.778	98.56
408.002	87.56
408.226	88.56
408.449	90.56
408.673	86.56
408.896	86.56
409.12	93.56
409.344	84.56
409.567	89.56
409.791	81.56
410.014	94.56
410.238	87.56
410.461	86.56
410.685	90.56
410.908	101.56
411.132	98.56
411.355	97.56
411.578	101.56
411.802	83.56
412.025	77.56
412.249	80.56
412.472	80.56
412.695	90.56
412.919	100.56
413.142	91.56
413.365	96.56
413.589	80.56
413.812	89.56
414.035	90.56
414.258	97.56
414.482	98.56
414.705	89.56
414.928	96.56
415.151	72.56
415.374	87.56
415.597	85.56
415.821	93.56
416.044	84.56
416.267	83.56
416.49	86.56
416.713	77.56
416.936	86.56
417.159	87.56
417.382	101.56
417.605	84.56
417.828	93.56
418.051	97.56
418.274	94.56
418.497	85.56
418.72	93.56
418.943	86.56
419.166	81.56
419.389	87.56
419.611	81.56
419.834	81.56
420.057	86.56
420.28	79.56
420.503	85.56
420.726	90.56
420.948	85.56
421.171	73.56
421.394	90.56
421.617	90.56
421.839	77.56
422.062	91.56
422.285	87.56
422.507	101.56
422.73	92.56
422.953	89.56
423.175	87.56
423.398	93.56
423.621	83.56
423.843	86.56
424.066	91.56
424.288	81.56
424.511	101.56
424.733	84.56
424.956	92.56
425.178	85.56
425.401	90.56
425.623	96.56
425.846	97.56
426.068	93.56
426.291	84.56
426.513	92.56
426.735	87.56
426.958	100.56
427.18	97.56
427.402	124.56
427.625	150.56
427.847	125.56
428.069	116.56
428.292	103.56
428.514	90.56
428.736	84.56
428.958	83.56
429.181	79.56
429.403	89.56
429.625	88.56
429.847	90.56
430.069	90.56
430.292	86.56
430.514	72.56
430.736	76.56
430.958	73.56
431.18	66.56
431.402	85.56
431.624	96.56
431.846	79.56
432.068	93.56
432.29	84.56
432.512	84.56
432.734	78.56
432.956	83.56
433.178	98.56
433.4	100.56
433.622	85.56
433.844	90.56
434.066	81.56
434.287	80.56
434.509	92.56
434.731	86.56
434.953	88.56
435.175	90.56
435.397	84.56
435.618	83.56
435.84	97.56
436.062	120.56
436.284	117.56
436.505	99.56
436.727	93.56
436.949	98.56
437.17	96.56
437.392	84.56
437.614	93.56
437.835	111.56
438.057	111.56
438.278	111.56
438.5	95.56
438.721	112.56
438.943	93.56
439.165	83.56
439.386	83.56
439.608	89.56
439.829	93.56
440.05	122.56
440.272	140.56
440.493	100.56
440.715	73.56
440.936	86.56
441.158	94.56
441.379	87.56
441.6	96.56
441.822	88.56
442.043	95.56
442.264	97.56
442.486	112.56
442.707	88.56
442.928	97.56
443.149	132.56
443.371	135.56
443.592	89.56
443.813	100.56
444.034	100.56
444.255	84.56
444.476	80.56
444.698	102.56
444.919	88.56
445.14	148.56
445.361	115.56
445.582	111.56
445.803	120.56
446.024	112.56
446.245	127.56
446.466	107.56
446.687	84.56
446.908	99.56
447.129	86.56
447.35	76.56
447.571	86.56
447.792	101.56
448.013	90.56
448.234	93.56
448.455	99.56
448.675	102.56
448.896	116.56
449.117	104.56
449.338	88.56
449.559	116.56
449.779	115.56
450	88.56
450.221	90.56
450.442	90.56
450.662	84.56
450.883	88.56
451.104	97.56
451.324	88.56
451.545	89.56
451.766	81.56
451.986	87.56
452.207	88.56
452.428	83.56
452.648	88.56
452.869	98.56
453.089	93.56
453.31	109.56
453.53	90.56
453.751	97.56
453.971	100.56
454.192	97.56
454.412	99.56
454.633	73.56
454.853	77.56
455.073	87.56
455.294	108.56
455.514	100.56
455.734	88.56
455.955	95.56
456.175	80.56
456.395	87.56
456.616	84.56
456.836	78.56
457.056	75.56
457.276	80.56
457.497	79.56
457.717	88.56
457.937	86.56
458.157	85.56
458.377	95.56
458.598	96.56
458.818	140.56
459.038	154.56
459.258	104.56
459.478	103.56
459.698	74.56
459.918	87.56
460.138	88.56
460.358	89.56
460.578	83.56
460.798	65.56
461.018	84.56
461.238	85.56
461.458	89.56
461.678	85.56
461.898	77.56
462.118	80.56
462.338	71.56
462.558	71.56
462.777	84.56
462.997	70.56
463.217	77.56
463.437	77.56
463.657	79.56
463.876	85.56
464.096	82.56
464.316	99.56
464.536	94.56
464.755	88.56
464.975	97.56
465.195	173.56
465.414	160.56
465.634	106.56
465.854	88.56
466.073	88.56
466.293	96.56
466.512	87.56
466.732	89.56
466.951	87.56
467.171	85.56
467.391	103.56
467.61	104.56
467.829	94.56
468.049	97.56
468.268	97.56
468.488	88.56
468.707	81.56
468.927	86.56
469.146	84.56
469.365	82.56
469.585	87.56
469.804	84.56
470.023	83.56
470.243	90.56
470.462	89.56
470.681	108.56
470.901	88.56
471.12	83.56
471.339	93.56
471.558	90.56
471.777	88.56
471.997	87.56
472.216	128.56
472.435	196.56
472.654	100.56
472.873	78.56
473.092	80.56
473.311	91.56
473.53	73.56
473.749	69.56
473.968	98.56
474.187	88.56
474.406	89.56
474.625	84.56
474.844	80.56
475.063	102.56
475.282	81.56
475.501	89.56
475.72	100.56
475.939	83.56
476.158	85.56
476.377	79.56
476.596	64.56
476.814	96.56
477.033	102.56
477.252	84.56
477.471	70.56
477.69	79.56
477.908	78.56
478.127	80.56
478.346	73.56
478.564	83.56
478.783	104.56
479.002	99.56
479.22	80.56
479.439	105.56
479.658	97.56
479.876	82.56
480.095	101.56
480.313	74.56
480.532	92.56
480.751	96.56
480.969	123.56
481.188	269.56
481.406	208.56
481.624	105.56
481.843	80.56
482.061	81.56
482.28	83.56
482.498	73.56
482.717	85.56
482.935	91.56
483.153	84.56
483.372	73.56
483.59	106.56
483.808	78.56
484.027	98.56
484.245	91.56
484.463	92.56
484.681	100.56
484.9	84.56
485.118	92.56
485.336	95.56
485.554	93.56
485.772	88.56
485.99	99.56
486.209	102.56
486.427	112.56
486.645	113.56
486.863	108.56
487.081	91.56
487.299	88.56
487.517	113.56
487.735	89.56
487.953	86.56
488.171	77.56
488.389	95.56
488.607	95.56
488.825	84.56
489.043	87.56
489.261	75.56
489.479	90.56
489.696	86.56
489.914	82.56
490.132	93.56
490.35	89.56
490.568	82.56
490.786	76.56
491.003	80.56
491.221	73.56
491.439	86.56
491.657	87.56
491.874	89.56
492.092	90.56
492.31	97.56
492.527	70.56
492.745	71.56
492.963	81.56
493.18	80.56
493.398	78.56
493.615	85.56
493.833	83.56
494.05	89.56
494.268	106.56
494.485	98.56
494.703	90.56
494.92	85.56
495.138	84.56
495.355	89.56
495.573	72.56
495.79	85.56
496.008	90.56
496.225	105.56
496.442	98.56
496.66	93.56
496.877	102.56
497.094	85.56
497.312	97.56
497.529	88.56
497.746	94.56
497.963	99.56
498.181	84.56
498.398	90.56
498.615	103.56
498.832	93.56
499.049	92.56
499.267	88.56
499.484	86.56
499.701	99.56
499.918	95.56
500.135	83.56
500.352	96.56
500.569	70.56
500.786	92.56
501.003	95.56
501.22	80.56
501.437	97.56
501.654	81.56
501.871	104.56
502.088	85.56
502.305	83.56
502.522	79.56
502.739	82.56
502.956	85.56
503.172	88.56
503.389	100.56
503.606	93.56
503.823	96.56
504.04	82.56
504.256	100.56
504.473	95.56
504.69	96.56
504.907	108.56
505.123	89.56
505.34	84.56
505.557	90.56
505.773	92.56
505.99	96.56
506.207	85.56
506.423	97.56
506.64	92.56
506.856	99.56
507.073	103.56
507.289	92.56
507.506	95.56
507.722	114.56
507.939	90.56
508.155	101.56
508.372	101.56
508.588	98.56
508.805	90.56
509.021	89.56
509.238	82.56
509.454	89.56
509.67	102.56
509.887	102.56
510.103	130.56
510.319	184.56
510.536	709.56
510.752	2079.56
510.968	593.56
511.184	164.56
511.401	116.56
511.617	91.56
511.833	89.56
512.049	97.56
512.265	100.56
512.481	97.56
512.698	94.56
512.914	90.56
513.13	81.56
513.346	90.56
513.562	90.56
513.778	87.56
513.994	84.56
514.21	97.56
514.426	115.56
514.642	109.56
514.858	127.56
515.074	166.56
515.29	400.56
515.506	1287.56
515.721	475.56
515.937	126.56
516.153	105.56
516.369	104.56
516.585	95.56
