Data from Circ_2002_H10_HRD10591_00029.txt Node
Date: Wed Jan 03 10:41:04 EST 2024
User: Yrep
Spectrometer: HR+D1059
Trigger mode: 1
Integration Time (sec): 1.000000E-1
Scans to average: 1
Electric dark correction enabled: true
Nonlinearity correction enabled: false
Boxcar width: 0
XAxis mode: Wavelengths
Number of Pixels in Spectrum: 2048
>>>>>Begin Spectral Data<<<<<
223.165	-13.19
223.4	-13.19
223.635	-13.19
223.869	-26.19
224.104	-11.19
224.338	-17.19
224.573	-23.19
224.808	-13.19
225.042	-10.19
225.277	-5.19
225.511	-5.19
225.746	9.81
225.98	0.81
226.215	14.81
226.449	5.81
226.683	18.81
226.918	34.81
227.152	39.81
227.387	22.81
227.621	31.81
227.856	50.81
228.09	62.81
228.324	53.81
228.559	51.81
228.793	70.81
229.027	72.81
229.262	50.81
229.496	81.81
229.73	68.81
229.964	89.81
230.199	80.81
230.433	74.81
230.667	62.81
230.901	96.81
231.136	85.81
231.37	75.81
231.604	81.81
231.838	84.81
232.072	79.81
232.306	73.81
232.541	90.81
232.775	81.81
233.009	78.81
233.243	84.81
233.477	78.81
233.711	83.81
233.945	97.81
234.179	76.81
234.413	89.81
234.647	88.81
234.881	85.81
235.115	63.81
235.349	64.81
235.583	77.81
235.817	74.81
236.051	86.81
236.285	69.81
236.519	66.81
236.753	70.81
236.987	80.81
237.221	78.81
237.455	87.81
237.689	71.81
237.922	65.81
238.156	64.81
238.39	52.81
238.624	67.81
238.858	80.81
239.091	88.81
239.325	89.81
239.559	82.81
239.793	71.81
240.027	73.81
240.26	86.81
240.494	83.81
240.728	82.81
240.961	77.81
241.195	78.81
241.429	85.81
241.662	86.81
241.896	77.81
242.13	70.81
242.363	68.81
242.597	85.81
242.83	80.81
243.064	79.81
243.298	80.81
243.531	71.81
243.765	68.81
243.998	77.81
244.232	84.81
244.465	84.81
244.699	81.81
244.932	78.81
245.166	60.81
245.399	73.81
245.633	82.81
245.866	82.81
246.099	84.81
246.333	82.81
246.566	70.81
246.8	75.81
247.033	71.81
247.266	68.81
247.5	81.81
247.733	80.81
247.966	88.81
248.2	83.81
248.433	77.81
248.666	82.81
248.899	88.81
249.133	91.81
249.366	104.81
249.599	98.81
249.832	84.81
250.066	84.81
250.299	85.81
250.532	69.81
250.765	63.81
250.998	76.81
251.231	70.81
251.465	69.81
251.698	69.81
251.931	86.81
252.164	71.81
252.397	75.81
252.63	90.81
252.863	94.81
253.096	86.81
253.329	73.81
253.562	78.81
253.795	80.81
254.028	84.81
254.261	71.81
254.494	84.81
254.727	84.81
254.96	78.81
255.193	83.81
255.426	66.81
255.659	76.81
255.892	92.81
256.124	81.81
256.357	80.81
256.59	78.81
256.823	78.81
257.056	97.81
257.289	84.81
257.521	83.81
257.754	69.81
257.987	71.81
258.22	88.81
258.452	91.81
258.685	84.81
258.918	86.81
259.151	78.81
259.383	81.81
259.616	92.81
259.849	71.81
260.081	91.81
260.314	67.81
260.547	74.81
260.779	88.81
261.012	100.81
261.244	96.81
261.477	90.81
261.71	102.81
261.942	116.81
262.175	121.81
262.407	95.81
262.64	76.81
262.872	73.81
263.105	76.81
263.337	81.81
263.57	79.81
263.802	87.81
264.035	76.81
264.267	82.81
264.499	86.81
264.732	90.81
264.964	88.81
265.197	88.81
265.429	92.81
265.661	84.81
265.894	82.81
266.126	82.81
266.358	82.81
266.591	83.81
266.823	84.81
267.055	86.81
267.287	90.81
267.52	78.81
267.752	74.81
267.984	99.81
268.216	80.81
268.448	89.81
268.681	74.81
268.913	84.81
269.145	87.81
269.377	72.81
269.609	77.81
269.841	74.81
270.073	93.81
270.306	82.81
270.538	84.81
270.77	72.81
271.002	87.81
271.234	78.81
271.466	91.81
271.698	85.81
271.93	89.81
272.162	91.81
272.394	76.81
272.626	87.81
272.858	95.81
273.09	82.81
273.322	96.81
273.553	90.81
273.785	90.81
274.017	64.81
274.249	75.81
274.481	91.81
274.713	100.81
274.945	76.81
275.176	97.81
275.408	90.81
275.64	84.81
275.872	89.81
276.104	73.81
276.335	70.81
276.567	104.81
276.799	120.81
277.031	133.81
277.262	93.81
277.494	101.81
277.726	91.81
277.957	99.81
278.189	94.81
278.421	84.81
278.652	91.81
278.884	104.81
279.115	87.81
279.347	89.81
279.579	85.81
279.81	92.81
280.042	84.81
280.273	91.81
280.505	79.81
280.736	94.81
280.968	85.81
281.199	89.81
281.431	83.81
281.662	89.81
281.894	80.81
282.125	102.81
282.356	106.81
282.588	148.81
282.819	112.81
283.051	86.81
283.282	95.81
283.513	85.81
283.745	92.81
283.976	90.81
284.207	91.81
284.439	104.81
284.67	86.81
284.901	90.81
285.132	92.81
285.364	84.81
285.595	86.81
285.826	73.81
286.057	78.81
286.288	88.81
286.52	86.81
286.751	94.81
286.982	70.81
287.213	102.81
287.444	96.81
287.675	83.81
287.906	92.81
288.138	85.81
288.369	100.81
288.6	91.81
288.831	87.81
289.062	90.81
289.293	91.81
289.524	88.81
289.755	83.81
289.986	97.81
290.217	85.81
290.448	73.81
290.679	107.81
290.91	84.81
291.141	98.81
291.371	93.81
291.602	93.81
291.833	91.81
292.064	87.81
292.295	97.81
292.526	84.81
292.757	97.81
292.987	95.81
293.218	99.81
293.449	89.81
293.68	82.81
293.91	86.81
294.141	92.81
294.372	99.81
294.603	78.81
294.833	99.81
295.064	83.81
295.295	95.81
295.525	96.81
295.756	101.81
295.987	123.81
296.217	141.81
296.448	127.81
296.679	99.81
296.909	79.81
297.14	90.81
297.37	90.81
297.601	94.81
297.831	88.81
298.062	91.81
298.292	86.81
298.523	82.81
298.753	90.81
298.984	90.81
299.214	91.81
299.445	95.81
299.675	95.81
299.905	90.81
300.136	82.81
300.366	91.81
300.597	75.81
300.827	100.81
301.057	92.81
301.288	107.81
301.518	89.81
301.748	81.81
301.979	92.81
302.209	84.81
302.439	97.81
302.669	99.81
302.9	95.81
303.13	94.81
303.36	99.81
303.59	102.81
303.82	101.81
304.051	90.81
304.281	86.81
304.511	84.81
304.741	92.81
304.971	95.81
305.201	105.81
305.431	75.81
305.661	81.81
305.891	88.81
306.121	91.81
306.352	105.81
306.582	101.81
306.812	111.81
307.042	86.81
307.272	82.81
307.502	95.81
307.731	89.81
307.961	99.81
308.191	101.81
308.421	101.81
308.651	89.81
308.881	99.81
309.111	98.81
309.341	96.81
309.571	99.81
309.8	98.81
310.03	91.81
310.26	100.81
310.49	90.81
310.72	101.81
310.949	111.81
311.179	92.81
311.409	92.81
311.639	96.81
311.868	99.81
312.098	105.81
312.328	101.81
312.557	97.81
312.787	116.81
313.017	102.81
313.246	87.81
313.476	99.81
313.706	91.81
313.935	96.81
314.165	100.81
314.394	100.81
314.624	101.81
314.853	94.81
315.083	91.81
315.312	92.81
315.542	92.81
315.771	92.81
316.001	81.81
316.23	89.81
316.46	90.81
316.689	102.81
316.919	88.81
317.148	105.81
317.377	102.81
317.607	96.81
317.836	91.81
318.065	90.81
318.295	84.81
318.524	95.81
318.753	108.81
318.983	101.81
319.212	103.81
319.441	126.81
319.67	99.81
319.9	101.81
320.129	107.81
320.358	94.81
320.587	110.81
320.816	102.81
321.046	106.81
321.275	105.81
321.504	103.81
321.733	101.81
321.962	108.81
322.191	109.81
322.42	110.81
322.649	119.81
322.878	119.81
323.108	122.81
323.337	145.81
323.566	146.81
323.795	193.81
324.024	258.81
324.253	539.81
324.482	1169.81
324.71	2557.81
324.939	3311.81
325.168	1170.81
325.397	318.81
325.626	170.81
325.855	144.81
326.084	150.81
326.313	147.81
326.542	183.81
326.77	288.81
326.999	636.81
327.228	1356.81
327.457	2538.81
327.686	1978.81
327.914	484.81
328.143	216.81
328.372	182.81
328.6	136.81
328.829	113.81
329.058	142.81
329.287	144.81
329.515	126.81
329.744	115.81
329.972	104.81
330.201	117.81
330.43	136.81
330.658	155.81
330.887	178.81
331.115	131.81
331.344	97.81
331.572	102.81
331.801	95.81
332.03	96.81
332.258	95.81
332.486	109.81
332.715	102.81
332.943	103.81
333.172	96.81
333.4	87.81
333.629	119.81
333.857	104.81
334.085	116.81
334.314	98.81
334.542	126.81
334.771	125.81
334.999	105.81
335.227	94.81
335.455	101.81
335.684	100.81
335.912	108.81
336.14	110.81
336.369	92.81
336.597	107.81
336.825	98.81
337.053	98.81
337.281	86.81
337.51	85.81
337.738	81.81
337.966	108.81
338.194	104.81
338.422	116.81
338.65	104.81
338.878	90.81
339.106	99.81
339.334	86.81
339.562	84.81
339.79	96.81
340.018	84.81
340.246	88.81
340.474	99.81
340.702	90.81
340.93	102.81
341.158	86.81
341.386	94.81
341.614	96.81
341.842	89.81
342.07	103.81
342.298	97.81
342.526	99.81
342.754	90.81
342.981	92.81
343.209	79.81
343.437	103.81
343.665	102.81
343.893	106.81
344.12	86.81
344.348	96.81
344.576	95.81
344.804	91.81
345.031	105.81
345.259	103.81
345.487	87.81
345.714	97.81
345.942	97.81
346.17	97.81
346.397	90.81
346.625	95.81
346.853	98.81
347.08	88.81
347.308	102.81
347.535	100.81
347.763	101.81
347.99	94.81
348.218	117.81
348.445	116.81
348.673	104.81
348.9	108.81
349.128	87.81
349.355	73.81
349.583	97.81
349.81	91.81
350.037	104.81
350.265	100.81
350.492	107.81
350.72	92.81
350.947	95.81
351.174	105.81
351.402	114.81
351.629	94.81
351.856	104.81
352.083	90.81
352.311	113.81
352.538	124.81
352.765	101.81
352.992	138.81
353.22	112.81
353.447	98.81
353.674	102.81
353.901	91.81
354.128	85.81
354.355	108.81
354.583	109.81
354.81	91.81
355.037	92.81
355.264	88.81
355.491	91.81
355.718	84.81
355.945	95.81
356.172	86.81
356.399	104.81
356.626	104.81
356.853	98.81
357.08	100.81
357.307	97.81
357.534	97.81
357.761	99.81
357.988	92.81
358.215	79.81
358.441	97.81
358.668	101.81
358.895	81.81
359.122	91.81
359.349	95.81
359.576	92.81
359.802	114.81
360.029	137.81
360.256	108.81
360.483	103.81
360.709	80.81
360.936	88.81
361.163	97.81
361.39	110.81
361.616	102.81
361.843	86.81
362.07	97.81
362.296	101.81
362.523	97.81
362.749	101.81
362.976	79.81
363.203	91.81
363.429	90.81
363.656	98.81
363.882	88.81
364.109	92.81
364.335	82.81
364.562	94.81
364.788	96.81
365.015	97.81
365.241	103.81
365.468	113.81
365.694	119.81
365.92	103.81
366.147	103.81
366.373	107.81
366.599	95.81
366.826	99.81
367.052	95.81
367.278	94.81
367.505	92.81
367.731	82.81
367.957	87.81
368.184	98.81
368.41	109.81
368.636	123.81
368.862	138.81
369.089	109.81
369.315	91.81
369.541	99.81
369.767	92.81
369.993	84.81
370.219	92.81
370.445	95.81
370.672	95.81
370.898	95.81
371.124	81.81
371.35	99.81
371.576	79.81
371.802	99.81
372.028	87.81
372.254	87.81
372.48	83.81
372.706	82.81
372.932	85.81
373.158	97.81
373.384	73.81
373.61	84.81
373.835	91.81
374.061	95.81
374.287	100.81
374.513	100.81
374.739	93.81
374.965	79.81
375.191	101.81
375.416	99.81
375.642	86.81
375.868	88.81
376.094	90.81
376.319	84.81
376.545	87.81
376.771	84.81
376.997	87.81
377.222	85.81
377.448	94.81
377.674	110.81
377.899	88.81
378.125	86.81
378.35	82.81
378.576	94.81
378.802	101.81
379.027	98.81
379.253	107.81
379.478	95.81
379.704	94.81
379.929	84.81
380.155	80.81
380.38	83.81
380.606	108.81
380.831	99.81
381.057	87.81
381.282	100.81
381.507	108.81
381.733	93.81
381.958	104.81
382.184	92.81
382.409	100.81
382.634	99.81
382.86	103.81
383.085	98.81
383.31	89.81
383.535	105.81
383.761	105.81
383.986	95.81
384.211	110.81
384.436	85.81
384.662	115.81
384.887	99.81
385.112	93.81
385.337	109.81
385.562	106.81
385.787	107.81
386.013	119.81
386.238	111.81
386.463	102.81
386.688	112.81
386.913	108.81
387.138	103.81
387.363	107.81
387.588	95.81
387.813	98.81
388.038	109.81
388.263	116.81
388.488	118.81
388.713	95.81
388.938	88.81
389.163	92.81
389.387	85.81
389.612	96.81
389.837	91.81
390.062	87.81
390.287	88.81
390.512	84.81
390.736	88.81
390.961	70.81
391.186	91.81
391.411	95.81
391.636	81.81
391.86	88.81
392.085	102.81
392.31	84.81
392.534	87.81
392.759	96.81
392.984	111.81
393.208	88.81
393.433	104.81
393.658	95.81
393.882	95.81
394.107	88.81
394.331	91.81
394.556	100.81
394.78	99.81
395.005	82.81
395.229	85.81
395.454	83.81
395.678	86.81
395.903	95.81
396.127	84.81
396.352	87.81
396.576	84.81
396.801	84.81
397.025	92.81
397.249	82.81
397.474	96.81
397.698	87.81
397.922	96.81
398.147	99.81
398.371	88.81
398.595	84.81
398.82	80.81
399.044	86.81
399.268	84.81
399.492	108.81
399.717	93.81
399.941	99.81
400.165	92.81
400.389	90.81
400.613	80.81
400.837	88.81
401.062	85.81
401.286	77.81
401.51	83.81
401.734	97.81
401.958	105.81
402.182	140.81
402.406	182.81
402.63	128.81
402.854	98.81
403.078	92.81
403.302	85.81
403.526	97.81
403.75	84.81
403.974	92.81
404.198	82.81
404.422	92.81
404.645	92.81
404.869	92.81
405.093	97.81
405.317	105.81
405.541	106.81
405.765	100.81
405.988	140.81
406.212	201.81
406.436	283.81
406.66	180.81
406.883	116.81
407.107	88.81
407.331	86.81
407.555	99.81
407.778	97.81
408.002	83.81
408.226	84.81
408.449	103.81
408.673	94.81
408.896	96.81
409.12	94.81
409.344	88.81
409.567	89.81
409.791	93.81
410.014	98.81
410.238	87.81
410.461	96.81
410.685	85.81
410.908	103.81
411.132	116.81
411.355	121.81
411.578	108.81
411.802	89.81
412.025	82.81
412.249	98.81
412.472	90.81
412.695	100.81
412.919	94.81
413.142	95.81
413.365	103.81
413.589	90.81
413.812	97.81
414.035	77.81
414.258	92.81
414.482	80.81
414.705	76.81
414.928	82.81
415.151	80.81
415.374	97.81
415.597	87.81
415.821	98.81
416.044	85.81
416.267	97.81
416.49	86.81
416.713	74.81
416.936	91.81
417.159	71.81
417.382	90.81
417.605	87.81
417.828	84.81
418.051	87.81
418.274	87.81
418.497	81.81
418.72	100.81
418.943	94.81
419.166	91.81
419.389	76.81
419.611	84.81
419.834	77.81
420.057	78.81
420.28	78.81
420.503	76.81
420.726	83.81
420.948	86.81
421.171	91.81
421.394	99.81
421.617	70.81
421.839	87.81
422.062	72.81
422.285	100.81
422.507	108.81
422.73	101.81
422.953	84.81
423.175	83.81
423.398	87.81
423.621	100.81
423.843	90.81
424.066	90.81
424.288	81.81
424.511	103.81
424.733	92.81
424.956	104.81
425.178	126.81
425.401	101.81
425.623	101.81
425.846	94.81
426.068	90.81
426.291	83.81
426.513	94.81
426.735	94.81
426.958	94.81
427.18	104.81
427.402	145.81
427.625	204.81
427.847	155.81
428.069	131.81
428.292	82.81
428.514	89.81
428.736	88.81
428.958	66.81
429.181	80.81
429.403	86.81
429.625	80.81
429.847	87.81
430.069	113.81
430.292	98.81
430.514	86.81
430.736	90.81
430.958	91.81
431.18	90.81
431.402	107.81
431.624	76.81
431.846	84.81
432.068	91.81
432.29	85.81
432.512	86.81
432.734	101.81
432.956	97.81
433.178	107.81
433.4	97.81
433.622	85.81
433.844	70.81
434.066	93.81
434.287	95.81
434.509	100.81
434.731	101.81
434.953	93.81
435.175	99.81
435.397	111.81
435.618	95.81
435.84	99.81
436.062	145.81
436.284	120.81
436.505	105.81
436.727	113.81
436.949	98.81
437.17	91.81
437.392	89.81
437.614	89.81
437.835	129.81
438.057	128.81
438.278	115.81
438.5	107.81
438.721	128.81
438.943	133.81
439.165	100.81
439.386	92.81
439.608	92.81
439.829	104.81
440.05	136.81
440.272	175.81
440.493	102.81
440.715	99.81
440.936	81.81
441.158	88.81
441.379	97.81
441.6	91.81
441.822	108.81
442.043	104.81
442.264	103.81
442.486	127.81
442.707	114.81
442.928	120.81
443.149	169.81
443.371	166.81
443.592	134.81
443.813	123.81
444.034	131.81
444.255	78.81
444.476	103.81
444.698	90.81
444.919	99.81
445.14	130.81
445.361	135.81
445.582	137.81
445.803	146.81
446.024	156.81
446.245	161.81
446.466	116.81
446.687	89.81
446.908	76.81
447.129	92.81
447.35	97.81
447.571	96.81
447.792	83.81
448.013	98.81
448.234	122.81
448.455	100.81
448.675	114.81
448.896	115.81
449.117	106.81
449.338	105.81
449.559	144.81
449.779	143.81
450	102.81
450.221	106.81
450.442	84.81
450.662	91.81
450.883	133.81
451.104	118.81
451.324	101.81
451.545	92.81
451.766	92.81
451.986	90.81
452.207	100.81
452.428	92.81
452.648	96.81
452.869	106.81
453.089	112.81
453.31	102.81
453.53	107.81
453.751	95.81
453.971	122.81
454.192	131.81
454.412	104.81
454.633	89.81
454.853	81.81
455.073	96.81
455.294	91.81
455.514	104.81
455.734	93.81
455.955	81.81
456.175	87.81
456.395	92.81
456.616	91.81
456.836	88.81
457.056	86.81
457.276	89.81
457.497	80.81
457.717	87.81
457.937	83.81
458.157	101.81
458.377	94.81
458.598	111.81
458.818	192.81
459.038	193.81
459.258	127.81
459.478	96.81
459.698	88.81
459.918	84.81
460.138	90.81
460.358	89.81
460.578	95.81
460.798	97.81
461.018	95.81
461.238	95.81
461.458	90.81
461.678	82.81
461.898	77.81
462.118	102.81
462.338	74.81
462.558	92.81
462.777	78.81
462.997	79.81
463.217	86.81
463.437	72.81
463.657	95.81
463.876	90.81
464.096	83.81
464.316	84.81
464.536	91.81
464.755	102.81
464.975	120.81
465.195	216.81
465.414	202.81
465.634	98.81
465.854	85.81
466.073	82.81
466.293	91.81
466.512	86.81
466.732	85.81
466.951	80.81
467.171	98.81
467.391	109.81
467.61	101.81
467.829	96.81
468.049	95.81
468.268	91.81
468.488	91.81
468.707	86.81
468.927	91.81
469.146	83.81
469.365	67.81
469.585	96.81
469.804	76.81
470.023	95.81
470.243	112.81
470.462	108.81
470.681	116.81
470.901	95.81
471.12	87.81
471.339	92.81
471.558	89.81
471.777	92.81
471.997	74.81
472.216	111.81
472.435	115.81
472.654	91.81
472.873	95.81
473.092	90.81
473.311	78.81
473.53	86.81
473.749	88.81
473.968	83.81
474.187	112.81
474.406	98.81
474.625	86.81
474.844	83.81
475.063	82.81
475.282	84.81
475.501	104.81
475.72	90.81
475.939	85.81
476.158	87.81
476.377	95.81
476.596	93.81
476.814	92.81
477.033	89.81
477.252	100.81
477.471	79.81
477.69	78.81
477.908	89.81
478.127	86.81
478.346	92.81
478.564	98.81
478.783	108.81
479.002	106.81
479.22	94.81
479.439	109.81
479.658	109.81
479.876	102.81
480.095	93.81
480.313	81.81
480.532	90.81
480.751	79.81
480.969	96.81
481.188	134.81
481.406	99.81
481.624	93.81
481.843	85.81
482.061	89.81
482.28	91.81
482.498	113.81
482.717	83.81
482.935	110.81
483.153	97.81
483.372	105.81
483.59	84.81
483.808	96.81
484.027	83.81
484.245	94.81
484.463	83.81
484.681	102.81
484.9	78.81
485.118	104.81
485.336	83.81
485.554	96.81
485.772	103.81
485.99	112.81
486.209	98.81
486.427	107.81
486.645	112.81
486.863	107.81
487.081	106.81
487.299	90.81
487.517	100.81
487.735	105.81
487.953	94.81
488.171	100.81
488.389	98.81
488.607	101.81
488.825	102.81
489.043	93.81
489.261	88.81
489.479	81.81
489.696	92.81
489.914	94.81
490.132	86.81
490.35	90.81
490.568	86.81
490.786	94.81
491.003	97.81
491.221	91.81
491.439	84.81
491.657	90.81
491.874	100.81
492.092	94.81
492.31	82.81
492.527	93.81
492.745	94.81
492.963	91.81
493.18	88.81
493.398	98.81
493.615	93.81
493.833	102.81
494.05	91.81
494.268	90.81
494.485	87.81
494.703	73.81
494.92	86.81
495.138	89.81
495.355	91.81
495.573	94.81
495.79	89.81
496.008	97.81
496.225	84.81
496.442	97.81
496.66	96.81
496.877	102.81
497.094	91.81
497.312	91.81
497.529	94.81
497.746	102.81
497.963	89.81
498.181	90.81
498.398	92.81
498.615	112.81
498.832	105.81
499.049	86.81
499.267	92.81
499.484	90.81
499.701	95.81
499.918	98.81
500.135	82.81
500.352	84.81
500.569	92.81
500.786	86.81
501.003	91.81
501.22	86.81
501.437	94.81
501.654	93.81
501.871	116.81
502.088	102.81
502.305	88.81
502.522	90.81
502.739	90.81
502.956	88.81
503.172	104.81
503.389	104.81
503.606	104.81
503.823	97.81
504.04	77.81
504.256	86.81
504.473	89.81
504.69	84.81
504.907	92.81
505.123	95.81
505.34	79.81
505.557	95.81
505.773	84.81
505.99	103.81
506.207	90.81
506.423	92.81
506.64	89.81
506.856	83.81
507.073	100.81
507.289	94.81
507.506	89.81
507.722	125.81
507.939	115.81
508.155	90.81
508.372	103.81
508.588	101.81
508.805	96.81
509.021	96.81
509.238	88.81
509.454	88.81
509.67	109.81
509.887	112.81
510.103	143.81
510.319	237.81
510.536	902.81
510.752	3032.81
510.968	825.81
511.184	179.81
511.401	127.81
511.617	118.81
511.833	93.81
512.049	89.81
512.265	70.81
512.481	90.81
512.698	88.81
512.914	101.81
513.13	86.81
513.346	97.81
513.562	115.81
513.778	91.81
513.994	90.81
514.21	96.81
514.426	121.81
514.642	155.81
