Data from Circ_2002_H10_HRD10591_00084.txt Node
Date: Wed Jan 03 10:41:15 EST 2024
User: Yrep
Spectrometer: HR+D1059
Trigger mode: 1
Integration Time (sec): 1.000000E-1
Scans to average: 1
Electric dark correction enabled: true
Nonlinearity correction enabled: false
Boxcar width: 0
XAxis mode: Wavelengths
Number of Pixels in Spectrum: 2048
>>>>>Begin Spectral Data<<<<<
223.165	-15.56
223.4	-15.56
223.635	-15.56
223.869	-9.56
224.104	-13.56
224.338	-17.56
224.573	-27.56
224.808	-23.56
225.042	-16.56
225.277	-5.56
225.511	6.44
225.746	10.44
225.98	5.44
226.215	3.44
226.449	14.44
226.683	18.44
226.918	31.44
227.152	39.44
227.387	42.44
227.621	38.44
227.856	42.44
228.09	53.44
228.324	55.44
228.559	50.44
228.793	52.44
229.027	68.44
229.262	63.44
229.496	67.44
229.73	77.44
229.964	80.44
230.199	89.44
230.433	76.44
230.667	68.44
230.901	82.44
231.136	74.44
231.37	76.44
231.604	65.44
231.838	86.44
232.072	72.44
232.306	85.44
232.541	63.44
232.775	83.44
233.009	78.44
233.243	64.44
233.477	78.44
233.711	81.44
233.945	86.44
234.179	76.44
234.413	87.44
234.647	72.44
234.881	76.44
235.115	77.44
235.349	87.44
235.583	78.44
235.817	80.44
236.051	68.44
236.285	86.44
236.519	85.44
236.753	70.44
236.987	71.44
237.221	80.44
237.455	63.44
237.689	81.44
237.922	80.44
238.156	59.44
238.39	74.44
238.624	74.44
238.858	72.44
239.091	82.44
239.325	72.44
239.559	74.44
239.793	78.44
240.027	82.44
240.26	74.44
240.494	79.44
240.728	80.44
240.961	78.44
241.195	87.44
241.429	77.44
241.662	79.44
241.896	80.44
242.13	80.44
242.363	71.44
242.597	75.44
242.83	73.44
243.064	83.44
243.298	81.44
243.531	82.44
243.765	83.44
243.998	79.44
244.232	78.44
244.465	79.44
244.699	88.44
244.932	80.44
245.166	66.44
245.399	72.44
245.633	73.44
245.866	68.44
246.099	87.44
246.333	84.44
246.566	77.44
246.8	66.44
247.033	75.44
247.266	74.44
247.5	73.44
247.733	74.44
247.966	82.44
248.2	64.44
248.433	86.44
248.666	82.44
248.899	84.44
249.133	85.44
249.366	90.44
249.599	87.44
249.832	81.44
250.066	73.44
250.299	83.44
250.532	76.44
250.765	86.44
250.998	72.44
251.231	74.44
251.465	76.44
251.698	75.44
251.931	68.44
252.164	83.44
252.397	88.44
252.63	81.44
252.863	83.44
253.096	82.44
253.329	72.44
253.562	85.44
253.795	86.44
254.028	78.44
254.261	93.44
254.494	83.44
254.727	84.44
254.96	81.44
255.193	78.44
255.426	76.44
255.659	64.44
255.892	88.44
256.124	69.44
256.357	84.44
256.59	88.44
256.823	83.44
257.056	83.44
257.289	86.44
257.521	76.44
257.754	76.44
257.987	78.44
258.22	86.44
258.452	83.44
258.685	84.44
258.918	82.44
259.151	74.44
259.383	85.44
259.616	68.44
259.849	82.44
260.081	79.44
260.314	83.44
260.547	89.44
260.779	83.44
261.012	77.44
261.244	90.44
261.477	94.44
261.71	74.44
261.942	104.44
262.175	88.44
262.407	88.44
262.64	81.44
262.872	91.44
263.105	72.44
263.337	85.44
263.57	74.44
263.802	89.44
264.035	82.44
264.267	90.44
264.499	84.44
264.732	76.44
264.964	95.44
265.197	79.44
265.429	87.44
265.661	80.44
265.894	86.44
266.126	78.44
266.358	75.44
266.591	84.44
266.823	82.44
267.055	102.44
267.287	86.44
267.52	74.44
267.752	82.44
267.984	76.44
268.216	74.44
268.448	81.44
268.681	89.44
268.913	87.44
269.145	79.44
269.377	86.44
269.609	78.44
269.841	70.44
270.073	71.44
270.306	77.44
270.538	67.44
270.77	76.44
271.002	85.44
271.234	87.44
271.466	79.44
271.698	92.44
271.93	82.44
272.162	84.44
272.394	84.44
272.626	93.44
272.858	75.44
273.09	80.44
273.322	86.44
273.553	88.44
273.785	74.44
274.017	83.44
274.249	83.44
274.481	100.44
274.713	89.44
274.945	92.44
275.176	75.44
275.408	82.44
275.64	71.44
275.872	83.44
276.104	79.44
276.335	94.44
276.567	110.44
276.799	105.44
277.031	94.44
277.262	74.44
277.494	81.44
277.726	72.44
277.957	72.44
278.189	63.44
278.421	74.44
278.652	99.44
278.884	86.44
279.115	85.44
279.347	69.44
279.579	92.44
279.81	82.44
280.042	87.44
280.273	103.44
280.505	102.44
280.736	81.44
280.968	96.44
281.199	84.44
281.431	98.44
281.662	98.44
281.894	90.44
282.125	87.44
282.356	90.44
282.588	111.44
282.819	95.44
283.051	95.44
283.282	81.44
283.513	89.44
283.745	82.44
283.976	98.44
284.207	81.44
284.439	85.44
284.67	83.44
284.901	79.44
285.132	86.44
285.364	92.44
285.595	86.44
285.826	77.44
286.057	88.44
286.288	89.44
286.52	89.44
286.751	88.44
286.982	109.44
287.213	91.44
287.444	92.44
287.675	100.44
287.906	79.44
288.138	83.44
288.369	90.44
288.6	94.44
288.831	89.44
289.062	82.44
289.293	79.44
289.524	73.44
289.755	87.44
289.986	87.44
290.217	91.44
290.448	92.44
290.679	82.44
290.91	89.44
291.141	81.44
291.371	82.44
291.602	84.44
291.833	86.44
292.064	94.44
292.295	86.44
292.526	90.44
292.757	93.44
292.987	81.44
293.218	89.44
293.449	81.44
293.68	92.44
293.91	92.44
294.141	79.44
294.372	78.44
294.603	95.44
294.833	86.44
295.064	93.44
295.295	104.44
295.525	88.44
295.756	92.44
295.987	105.44
296.217	126.44
296.448	115.44
296.679	102.44
296.909	83.44
297.14	89.44
297.37	96.44
297.601	102.44
297.831	92.44
298.062	98.44
298.292	83.44
298.523	96.44
298.753	96.44
298.984	90.44
299.214	88.44
299.445	82.44
299.675	101.44
299.905	89.44
300.136	83.44
300.366	81.44
300.597	98.44
300.827	90.44
301.057	102.44
301.288	90.44
301.518	86.44
301.748	81.44
301.979	91.44
302.209	93.44
302.439	97.44
302.669	92.44
302.9	99.44
303.13	90.44
303.36	99.44
303.59	102.44
303.82	107.44
304.051	85.44
304.281	79.44
304.511	92.44
304.741	89.44
304.971	78.44
305.201	79.44
305.431	91.44
305.661	82.44
305.891	86.44
306.121	92.44
306.352	110.44
306.582	91.44
306.812	89.44
307.042	92.44
307.272	111.44
307.502	90.44
307.731	88.44
307.961	90.44
308.191	94.44
308.421	97.44
308.651	89.44
308.881	91.44
309.111	90.44
309.341	84.44
309.571	98.44
309.8	88.44
310.03	101.44
310.26	103.44
310.49	96.44
310.72	98.44
310.949	98.44
311.179	89.44
311.409	94.44
311.639	92.44
311.868	92.44
312.098	91.44
312.328	89.44
312.557	88.44
312.787	101.44
313.017	93.44
313.246	97.44
313.476	92.44
313.706	96.44
313.935	80.44
314.165	83.44
314.394	98.44
314.624	87.44
314.853	102.44
315.083	108.44
315.312	114.44
315.542	94.44
315.771	104.44
316.001	94.44
316.23	91.44
316.46	74.44
316.689	89.44
316.919	99.44
317.148	98.44
317.377	86.44
317.607	89.44
317.836	83.44
318.065	80.44
318.295	96.44
318.524	66.44
318.753	94.44
318.983	88.44
319.212	104.44
319.441	118.44
319.67	98.44
319.9	87.44
320.129	92.44
320.358	95.44
320.587	87.44
320.816	95.44
321.046	101.44
321.275	108.44
321.504	82.44
321.733	84.44
321.962	105.44
322.191	102.44
322.42	103.44
322.649	105.44
322.878	113.44
323.108	119.44
323.337	110.44
323.566	124.44
323.795	137.44
324.024	187.44
324.253	358.44
324.482	742.44
324.71	1501.44
324.939	1938.44
325.168	725.44
325.397	216.44
325.626	129.44
325.855	110.44
326.084	117.44
326.313	123.44
326.542	165.44
326.77	234.44
326.999	424.44
327.228	838.44
327.457	1566.44
327.686	1229.44
327.914	320.44
328.143	181.44
328.372	136.44
328.6	130.44
328.829	114.44
329.058	108.44
329.287	116.44
329.515	111.44
329.744	109.44
329.972	119.44
330.201	140.44
330.43	162.44
330.658	130.44
330.887	131.44
331.115	116.44
331.344	84.44
331.572	106.44
331.801	98.44
332.03	98.44
332.258	78.44
332.486	91.44
332.715	85.44
332.943	90.44
333.172	91.44
333.4	96.44
333.629	112.44
333.857	119.44
334.085	111.44
334.314	134.44
334.542	167.44
334.771	171.44
334.999	113.44
335.227	100.44
335.455	108.44
335.684	102.44
335.912	88.44
336.14	95.44
336.369	91.44
336.597	101.44
336.825	96.44
337.053	97.44
337.281	92.44
337.51	96.44
337.738	82.44
337.966	89.44
338.194	94.44
338.422	91.44
338.65	87.44
338.878	83.44
339.106	78.44
339.334	97.44
339.562	87.44
339.79	83.44
340.018	92.44
340.246	80.44
340.474	100.44
340.702	97.44
340.93	91.44
341.158	88.44
341.386	92.44
341.614	92.44
341.842	87.44
342.07	89.44
342.298	101.44
342.526	98.44
342.754	94.44
342.981	99.44
343.209	99.44
343.437	102.44
343.665	82.44
343.893	91.44
344.12	81.44
344.348	87.44
344.576	97.44
344.804	95.44
345.031	98.44
345.259	95.44
345.487	96.44
345.714	95.44
345.942	105.44
346.17	102.44
346.397	87.44
346.625	100.44
346.853	84.44
347.08	89.44
347.308	96.44
347.535	89.44
347.763	86.44
347.99	103.44
348.218	96.44
348.445	82.44
348.673	90.44
348.9	98.44
349.128	95.44
349.355	91.44
349.583	77.44
349.81	100.44
350.037	90.44
350.265	65.44
350.492	86.44
350.72	109.44
350.947	87.44
351.174	103.44
351.402	92.44
351.629	90.44
351.856	81.44
352.083	95.44
352.311	119.44
352.538	110.44
352.765	100.44
352.992	89.44
353.22	106.44
353.447	103.44
353.674	92.44
353.901	97.44
354.128	86.44
354.355	81.44
354.583	101.44
354.81	103.44
355.037	110.44
355.264	105.44
355.491	98.44
355.718	91.44
355.945	105.44
356.172	87.44
356.399	101.44
356.626	77.44
356.853	93.44
357.08	97.44
357.307	91.44
357.534	96.44
357.761	96.44
357.988	90.44
358.215	106.44
358.441	102.44
358.668	100.44
358.895	99.44
359.122	91.44
359.349	92.44
359.576	78.44
359.802	88.44
360.029	116.44
360.256	107.44
360.483	96.44
360.709	82.44
360.936	81.44
361.163	109.44
361.39	80.44
361.616	88.44
361.843	104.44
362.07	108.44
362.296	100.44
362.523	99.44
362.749	82.44
362.976	92.44
363.203	83.44
363.429	75.44
363.656	88.44
363.882	89.44
364.109	82.44
364.335	88.44
364.562	89.44
364.788	89.44
365.015	95.44
365.241	87.44
365.468	91.44
365.694	82.44
365.92	90.44
366.147	89.44
366.373	85.44
366.599	89.44
366.826	90.44
367.052	95.44
367.278	82.44
367.505	91.44
367.731	82.44
367.957	83.44
368.184	68.44
368.41	86.44
368.636	100.44
368.862	103.44
369.089	84.44
369.315	86.44
369.541	88.44
369.767	87.44
369.993	101.44
370.219	80.44
370.445	97.44
370.672	89.44
370.898	100.44
371.124	84.44
371.35	81.44
371.576	91.44
371.802	85.44
372.028	88.44
372.254	84.44
372.48	76.44
372.706	104.44
372.932	78.44
373.158	78.44
373.384	95.44
373.61	80.44
373.835	92.44
374.061	86.44
374.287	87.44
374.513	96.44
374.739	96.44
374.965	85.44
375.191	80.44
375.416	97.44
375.642	96.44
375.868	87.44
376.094	87.44
376.319	89.44
376.545	84.44
376.771	98.44
376.997	76.44
377.222	89.44
377.448	98.44
377.674	86.44
377.899	88.44
378.125	81.44
378.35	99.44
378.576	89.44
378.802	92.44
379.027	80.44
379.253	89.44
379.478	101.44
379.704	89.44
379.929	96.44
380.155	101.44
380.38	93.44
380.606	96.44
380.831	92.44
381.057	98.44
381.282	87.44
381.507	84.44
381.733	94.44
381.958	102.44
382.184	110.44
382.409	88.44
382.634	97.44
382.86	95.44
383.085	107.44
383.31	103.44
383.535	100.44
383.761	91.44
383.986	94.44
384.211	102.44
384.436	103.44
384.662	96.44
384.887	112.44
385.112	103.44
385.337	112.44
385.562	90.44
385.787	115.44
386.013	103.44
386.238	106.44
386.463	103.44
386.688	122.44
386.913	94.44
387.138	95.44
387.363	102.44
387.588	97.44
387.813	96.44
388.038	90.44
388.263	99.44
388.488	111.44
388.713	98.44
388.938	84.44
389.163	92.44
389.387	97.44
389.612	92.44
389.837	97.44
390.062	88.44
390.287	89.44
390.512	89.44
390.736	94.44
390.961	88.44
391.186	81.44
391.411	93.44
391.636	86.44
391.86	91.44
392.085	84.44
392.31	87.44
392.534	92.44
392.759	89.44
392.984	94.44
393.208	80.44
393.433	104.44
393.658	83.44
393.882	85.44
394.107	78.44
394.331	89.44
394.556	84.44
394.78	98.44
395.005	80.44
395.229	83.44
395.454	94.44
395.678	87.44
395.903	87.44
396.127	92.44
396.352	80.44
396.576	87.44
396.801	95.44
397.025	69.44
397.249	81.44
397.474	93.44
397.698	89.44
397.922	89.44
398.147	99.44
398.371	85.44
398.595	98.44
398.82	98.44
399.044	91.44
399.268	72.44
399.492	79.44
399.717	91.44
399.941	89.44
400.165	88.44
400.389	97.44
400.613	70.44
400.837	84.44
401.062	91.44
401.286	83.44
401.51	86.44
401.734	95.44
401.958	106.44
402.182	122.44
402.406	142.44
402.63	92.44
402.854	98.44
403.078	86.44
403.302	90.44
403.526	99.44
403.75	90.44
403.974	81.44
404.198	79.44
404.422	105.44
404.645	92.44
404.869	87.44
405.093	91.44
405.317	101.44
405.541	105.44
405.765	88.44
405.988	107.44
406.212	134.44
406.436	178.44
406.66	122.44
406.883	102.44
407.107	89.44
407.331	83.44
407.555	96.44
407.778	102.44
408.002	83.44
408.226	88.44
408.449	95.44
408.673	103.44
408.896	92.44
409.12	99.44
409.344	86.44
409.567	89.44
409.791	89.44
410.014	90.44
410.238	97.44
410.461	106.44
410.685	105.44
410.908	93.44
411.132	96.44
411.355	99.44
411.578	86.44
411.802	92.44
412.025	110.44
412.249	84.44
412.472	92.44
412.695	94.44
412.919	92.44
413.142	78.44
413.365	97.44
413.589	90.44
413.812	98.44
414.035	96.44
414.258	75.44
414.482	74.44
414.705	82.44
414.928	96.44
415.151	101.44
415.374	89.44
415.597	88.44
415.821	87.44
416.044	85.44
416.267	104.44
416.49	86.44
416.713	92.44
416.936	91.44
417.159	90.44
417.382	93.44
417.605	81.44
417.828	86.44
418.051	78.44
418.274	85.44
418.497	85.44
418.72	95.44
418.943	87.44
419.166	83.44
419.389	92.44
419.611	90.44
419.834	88.44
420.057	96.44
420.28	88.44
420.503	77.44
420.726	91.44
420.948	91.44
421.171	91.44
421.394	88.44
421.617	86.44
421.839	73.44
422.062	83.44
422.285	95.44
422.507	91.44
422.73	96.44
422.953	87.44
423.175	98.44
423.398	89.44
423.621	80.44
423.843	78.44
424.066	92.44
424.288	85.44
424.511	91.44
424.733	85.44
424.956	89.44
425.178	83.44
425.401	99.44
425.623	90.44
425.846	98.44
426.068	91.44
426.291	74.44
426.513	87.44
426.735	92.44
426.958	90.44
427.18	103.44
427.402	111.44
427.625	149.44
427.847	137.44
428.069	113.44
428.292	111.44
428.514	79.44
428.736	89.44
428.958	86.44
429.181	79.44
429.403	92.44
429.625	89.44
429.847	95.44
430.069	102.44
430.292	83.44
430.514	83.44
430.736	89.44
430.958	74.44
431.18	82.44
431.402	77.44
431.624	97.44
431.846	86.44
432.068	94.44
432.29	76.44
432.512	95.44
432.734	81.44
432.956	91.44
433.178	102.44
433.4	91.44
433.622	87.44
433.844	73.44
434.066	90.44
434.287	84.44
434.509	84.44
434.731	83.44
434.953	80.44
435.175	81.44
435.397	100.44
435.618	87.44
435.84	102.44
436.062	106.44
436.284	107.44
436.505	103.44
436.727	85.44
436.949	91.44
437.17	90.44
437.392	83.44
437.614	83.44
437.835	77.44
438.057	115.44
438.278	101.44
438.5	94.44
438.721	106.44
438.943	109.44
439.165	89.44
439.386	91.44
439.608	91.44
439.829	100.44
440.05	116.44
440.272	113.44
440.493	90.44
440.715	97.44
440.936	84.44
441.158	87.44
441.379	83.44
441.6	92.44
441.822	84.44
442.043	92.44
442.264	98.44
442.486	110.44
442.707	91.44
442.928	113.44
443.149	120.44
443.371	102.44
443.592	104.44
443.813	120.44
444.034	103.44
444.255	82.44
444.476	89.44
444.698	97.44
444.919	88.44
445.14	130.44
445.361	120.44
445.582	113.44
445.803	120.44
446.024	118.44
446.245	129.44
446.466	118.44
446.687	87.44
446.908	92.44
447.129	90.44
447.35	99.44
447.571	100.44
447.792	92.44
448.013	102.44
448.234	89.44
448.455	115.44
448.675	100.44
448.896	110.44
449.117	102.44
449.338	111.44
449.559	121.44
449.779	118.44
450	91.44
450.221	76.44
450.442	74.44
450.662	107.44
450.883	95.44
451.104	99.44
451.324	86.44
451.545	94.44
451.766	92.44
451.986	83.44
452.207	84.44
452.428	87.44
452.648	87.44
452.869	116.44
453.089	102.44
453.31	116.44
453.53	86.44
453.751	94.44
453.971	96.44
454.192	114.44
454.412	92.44
454.633	82.44
454.853	97.44
455.073	93.44
455.294	100.44
455.514	82.44
455.734	83.44
455.955	87.44
456.175	81.44
456.395	89.44
456.616	84.44
456.836	73.44
457.056	89.44
457.276	83.44
457.497	81.44
457.717	73.44
457.937	86.44
458.157	90.44
458.377	88.44
458.598	91.44
458.818	117.44
459.038	135.44
459.258	101.44
459.478	87.44
459.698	86.44
459.918	88.44
460.138	92.44
460.358	79.44
460.578	101.44
460.798	88.44
461.018	88.44
461.238	84.44
461.458	99.44
461.678	98.44
461.898	95.44
462.118	90.44
462.338	84.44
462.558	86.44
462.777	87.44
462.997	87.44
463.217	94.44
463.437	88.44
463.657	75.44
463.876	92.44
464.096	87.44
464.316	74.44
464.536	91.44
464.755	104.44
464.975	97.44
465.195	137.44
465.414	136.44
465.634	81.44
465.854	83.44
466.073	98.44
466.293	92.44
466.512	88.44
466.732	81.44
466.951	89.44
467.171	98.44
467.391	90.44
467.61	97.44
467.829	108.44
468.049	105.44
468.268	99.44
468.488	95.44
468.707	95.44
468.927	89.44
469.146	86.44
469.365	88.44
469.585	88.44
469.804	86.44
470.023	94.44
470.243	93.44
470.462	97.44
470.681	90.44
470.901	82.44
471.12	87.44
471.339	83.44
471.558	86.44
471.777	80.44
471.997	92.44
472.216	133.44
472.435	196.44
472.654	118.44
472.873	91.44
473.092	96.44
473.311	84.44
473.53	84.44
473.749	74.44
473.968	98.44
474.187	94.44
474.406	83.44
474.625	92.44
474.844	98.44
475.063	73.44
475.282	89.44
475.501	87.44
475.72	85.44
475.939	103.44
476.158	91.44
476.377	81.44
476.596	77.44
476.814	75.44
477.033	84.44
477.252	85.44
477.471	100.44
477.69	86.44
477.908	72.44
478.127	90.44
478.346	97.44
478.564	82.44
478.783	94.44
479.002	76.44
479.22	78.44
479.439	103.44
479.658	94.44
479.876	95.44
480.095	91.44
480.313	101.44
480.532	91.44
480.751	112.44
480.969	136.44
481.188	296.44
481.406	195.44
481.624	108.44
481.843	80.44
482.061	83.44
482.28	90.44
482.498	83.44
482.717	85.44
482.935	87.44
483.153	65.44
483.372	90.44
483.59	82.44
483.808	89.44
484.027	90.44
484.245	84.44
484.463	95.44
484.681	107.44
484.9	90.44
485.118	83.44
485.336	92.44
485.554	109.44
485.772	106.44
485.99	106.44
486.209	113.44
486.427	97.44
486.645	103.44
486.863	111.44
487.081	88.44
487.299	105.44
487.517	84.44
487.735	91.44
487.953	89.44
488.171	92.44
488.389	91.44
488.607	95.44
488.825	84.44
489.043	90.44
489.261	94.44
489.479	101.44
489.696	96.44
489.914	99.44
490.132	99.44
490.35	84.44
490.568	105.44
490.786	88.44
491.003	74.44
491.221	86.44
491.439	87.44
491.657	90.44
491.874	91.44
492.092	92.44
492.31	106.44
492.527	90.44
492.745	94.44
492.963	83.44
493.18	86.44
493.398	109.44
493.615	107.44
493.833	91.44
494.05	100.44
494.268	103.44
494.485	107.44
494.703	80.44
494.92	100.44
495.138	86.44
495.355	100.44
495.573	86.44
495.79	97.44
496.008	96.44
496.225	91.44
496.442	87.44
496.66	89.44
496.877	92.44
497.094	101.44
497.312	71.44
497.529	81.44
497.746	90.44
497.963	98.44
498.181	87.44
498.398	90.44
498.615	97.44
498.832	99.44
499.049	85.44
499.267	90.44
499.484	98.44
499.701	82.44
499.918	97.44
500.135	86.44
500.352	88.44
500.569	92.44
500.786	79.44
501.003	95.44
501.22	88.44
501.437	97.44
501.654	85.44
501.871	103.44
502.088	83.44
502.305	78.44
502.522	86.44
502.739	92.44
502.956	86.44
503.172	99.44
503.389	95.44
503.606	97.44
503.823	98.44
504.04	81.44
504.256	90.44
504.473	69.44
504.69	95.44
504.907	100.44
505.123	88.44
505.34	91.44
505.557	90.44
505.773	91.44
505.99	84.44
506.207	77.44
506.423	91.44
506.64	93.44
506.856	92.44
507.073	88.44
507.289	91.44
507.506	108.44
507.722	98.44
507.939	99.44
508.155	89.44
508.372	92.44
508.588	99.44
508.805	92.44
509.021	86.44
509.238	90.44
509.454	81.44
509.67	75.44
509.887	92.44
510.103	124.44
510.319	183.44
510.536	581.44
510.752	1814.44
510.968	518.44
511.184	145.44
511.401	103.44
511.617	100.44
511.833	97.44
512.049	95.44
512.265	86.44
512.481	90.44
512.698	102.44
512.914	92.44
513.13	99.44
513.346	92.44
513.562	92.44
513.778	83.44
513.994	81.44
514.21	101.44
514.426	103.44
514.642	111.44
514.858	105.44
515.074	144.44
515.29	348.44
515.506	1067.44
515.721	411.44
515.937	132.44
516.153	100.44
