Data from Circ_2002_H10_HRD10591_00095.txt Node
Date: Wed Jan 03 10:41:17 EST 2024
User: Yrep
Spectrometer: HR+D1059
Trigger mode: 1
Integration Time (sec): 1.000000E-1
Scans to average: 1
Electric dark correction enabled: true
Nonlinearity correction enabled: false
Boxcar width: 0
XAxis mode: Wavelengths
Number of Pixels in Spectrum: 2048
>>>>>Begin Spectral Data<<<<<
223.165	-9.12
223.4	-9.12
223.635	-9.12
223.869	-12.12
224.104	-33.12
224.338	-19.12
224.573	-17.12
224.808	-13.12
225.042	-16.12
225.277	-12.12
225.511	3.88
225.746	9.88
225.98	17.88
226.215	14.88
226.449	21.88
226.683	18.88
226.918	18.88
227.152	25.88
227.387	27.88
227.621	38.88
227.856	37.88
228.09	48.88
228.324	46.88
228.559	46.88
228.793	59.88
229.027	67.88
229.262	62.88
229.496	82.88
229.73	83.88
229.964	72.88
230.199	59.88
230.433	66.88
230.667	68.88
230.901	69.88
231.136	81.88
231.37	89.88
231.604	83.88
231.838	79.88
232.072	73.88
232.306	67.88
232.541	81.88
232.775	72.88
233.009	79.88
233.243	82.88
233.477	61.88
233.711	75.88
233.945	72.88
234.179	74.88
234.413	80.88
234.647	71.88
234.881	72.88
235.115	73.88
235.349	85.88
235.583	82.88
235.817	66.88
236.051	64.88
236.285	68.88
236.519	72.88
236.753	94.88
236.987	80.88
237.221	74.88
237.455	71.88
237.689	83.88
237.922	72.88
238.156	80.88
238.39	63.88
238.624	75.88
238.858	78.88
239.091	67.88
239.325	70.88
239.559	65.88
239.793	82.88
240.027	63.88
240.26	59.88
240.494	78.88
240.728	88.88
240.961	79.88
241.195	74.88
241.429	81.88
241.662	84.88
241.896	79.88
242.13	63.88
242.363	68.88
242.597	82.88
242.83	71.88
243.064	88.88
243.298	72.88
243.531	67.88
243.765	83.88
243.998	77.88
244.232	83.88
244.465	59.88
244.699	72.88
244.932	65.88
245.166	79.88
245.399	86.88
245.633	74.88
245.866	72.88
246.099	80.88
246.333	72.88
246.566	71.88
246.8	74.88
247.033	73.88
247.266	65.88
247.5	64.88
247.733	78.88
247.966	76.88
248.2	77.88
248.433	86.88
248.666	83.88
248.899	77.88
249.133	90.88
249.366	88.88
249.599	95.88
249.832	92.88
250.066	83.88
250.299	74.88
250.532	68.88
250.765	77.88
250.998	87.88
251.231	88.88
251.465	69.88
251.698	80.88
251.931	64.88
252.164	79.88
252.397	72.88
252.63	88.88
252.863	81.88
253.096	74.88
253.329	84.88
253.562	90.88
253.795	88.88
254.028	79.88
254.261	77.88
254.494	75.88
254.727	79.88
254.96	88.88
255.193	79.88
255.426	78.88
255.659	97.88
255.892	79.88
256.124	76.88
256.357	74.88
256.59	82.88
256.823	75.88
257.056	75.88
257.289	82.88
257.521	83.88
257.754	86.88
257.987	71.88
258.22	72.88
258.452	88.88
258.685	67.88
258.918	81.88
259.151	87.88
259.383	86.88
259.616	79.88
259.849	86.88
260.081	77.88
260.314	74.88
260.547	87.88
260.779	79.88
261.012	90.88
261.244	92.88
261.477	78.88
261.71	73.88
261.942	95.88
262.175	109.88
262.407	89.88
262.64	74.88
262.872	81.88
263.105	94.88
263.337	90.88
263.57	91.88
263.802	76.88
264.035	70.88
264.267	70.88
264.499	79.88
264.732	80.88
264.964	77.88
265.197	96.88
265.429	85.88
265.661	70.88
265.894	71.88
266.126	86.88
266.358	72.88
266.591	74.88
266.823	90.88
267.055	82.88
267.287	96.88
267.52	83.88
267.752	86.88
267.984	86.88
268.216	86.88
268.448	87.88
268.681	72.88
268.913	89.88
269.145	71.88
269.377	78.88
269.609	89.88
269.841	75.88
270.073	55.88
270.306	78.88
270.538	85.88
270.77	71.88
271.002	86.88
271.234	85.88
271.466	69.88
271.698	85.88
271.93	67.88
272.162	81.88
272.394	76.88
272.626	88.88
272.858	91.88
273.09	82.88
273.322	70.88
273.553	87.88
273.785	95.88
274.017	81.88
274.249	80.88
274.481	77.88
274.713	82.88
274.945	73.88
275.176	93.88
275.408	98.88
275.64	81.88
275.872	86.88
276.104	73.88
276.335	83.88
276.567	96.88
276.799	100.88
277.031	91.88
277.262	85.88
277.494	92.88
277.726	84.88
277.957	90.88
278.189	79.88
278.421	78.88
278.652	80.88
278.884	82.88
279.115	88.88
279.347	84.88
279.579	85.88
279.81	85.88
280.042	87.88
280.273	81.88
280.505	90.88
280.736	86.88
280.968	77.88
281.199	83.88
281.431	70.88
281.662	93.88
281.894	92.88
282.125	78.88
282.356	96.88
282.588	117.88
282.819	91.88
283.051	90.88
283.282	82.88
283.513	84.88
283.745	83.88
283.976	90.88
284.207	90.88
284.439	88.88
284.67	92.88
284.901	89.88
285.132	82.88
285.364	95.88
285.595	97.88
285.826	74.88
286.057	89.88
286.288	83.88
286.52	87.88
286.751	68.88
286.982	96.88
287.213	96.88
287.444	81.88
287.675	90.88
287.906	90.88
288.138	94.88
288.369	85.88
288.6	104.88
288.831	82.88
289.062	73.88
289.293	95.88
289.524	89.88
289.755	72.88
289.986	86.88
290.217	80.88
290.448	88.88
290.679	95.88
290.91	94.88
291.141	74.88
291.371	98.88
291.602	103.88
291.833	86.88
292.064	95.88
292.295	100.88
292.526	91.88
292.757	71.88
292.987	90.88
293.218	86.88
293.449	98.88
293.68	97.88
293.91	76.88
294.141	91.88
294.372	85.88
294.603	86.88
294.833	66.88
295.064	98.88
295.295	84.88
295.525	88.88
295.756	88.88
295.987	102.88
296.217	120.88
296.448	106.88
296.679	74.88
296.909	90.88
297.14	89.88
297.37	92.88
297.601	77.88
297.831	95.88
298.062	91.88
298.292	70.88
298.523	94.88
298.753	89.88
298.984	97.88
299.214	93.88
299.445	81.88
299.675	95.88
299.905	101.88
300.136	82.88
300.366	83.88
300.597	68.88
300.827	72.88
301.057	100.88
301.288	90.88
301.518	97.88
301.748	76.88
301.979	93.88
302.209	78.88
302.439	83.88
302.669	84.88
302.9	80.88
303.13	95.88
303.36	89.88
303.59	91.88
303.82	95.88
304.051	87.88
304.281	91.88
304.511	90.88
304.741	94.88
304.971	91.88
305.201	90.88
305.431	85.88
305.661	76.88
305.891	93.88
306.121	95.88
306.352	98.88
306.582	98.88
306.812	84.88
307.042	90.88
307.272	102.88
307.502	91.88
307.731	89.88
307.961	88.88
308.191	76.88
308.421	87.88
308.651	81.88
308.881	81.88
309.111	83.88
309.341	94.88
309.571	100.88
309.8	86.88
310.03	81.88
310.26	95.88
310.49	78.88
310.72	82.88
310.949	98.88
311.179	100.88
311.409	94.88
311.639	77.88
311.868	105.88
312.098	104.88
312.328	94.88
312.557	111.88
312.787	95.88
313.017	81.88
313.246	86.88
313.476	79.88
313.706	89.88
313.935	77.88
314.165	80.88
314.394	80.88
314.624	83.88
314.853	101.88
315.083	91.88
315.312	97.88
315.542	90.88
315.771	104.88
316.001	90.88
316.23	87.88
316.46	94.88
316.689	85.88
316.919	86.88
317.148	92.88
317.377	107.88
317.607	85.88
317.836	88.88
318.065	94.88
318.295	83.88
318.524	86.88
318.753	73.88
318.983	87.88
319.212	97.88
319.441	104.88
319.67	90.88
319.9	105.88
320.129	85.88
320.358	87.88
320.587	96.88
320.816	102.88
321.046	95.88
321.275	93.88
321.504	96.88
321.733	100.88
321.962	93.88
322.191	94.88
322.42	109.88
322.649	111.88
322.878	105.88
323.108	99.88
323.337	122.88
323.566	120.88
323.795	131.88
324.024	193.88
324.253	317.88
324.482	686.88
324.71	1412.88
324.939	1848.88
325.168	657.88
325.397	220.88
325.626	141.88
325.855	121.88
326.084	114.88
326.313	126.88
326.542	123.88
326.77	191.88
326.999	411.88
327.228	833.88
327.457	1465.88
327.686	1147.88
327.914	308.88
328.143	165.88
328.372	146.88
328.6	125.88
328.829	117.88
329.058	107.88
329.287	101.88
329.515	110.88
329.744	111.88
329.972	113.88
330.201	143.88
330.43	161.88
330.658	128.88
330.887	134.88
331.115	112.88
331.344	97.88
331.572	97.88
331.801	89.88
332.03	98.88
332.258	96.88
332.486	97.88
332.715	84.88
332.943	92.88
333.172	100.88
333.4	97.88
333.629	100.88
333.857	101.88
334.085	114.88
334.314	149.88
334.542	177.88
334.771	153.88
334.999	101.88
335.227	96.88
335.455	95.88
335.684	96.88
335.912	98.88
336.14	88.88
336.369	86.88
336.597	79.88
336.825	101.88
337.053	93.88
337.281	96.88
337.51	82.88
337.738	101.88
337.966	97.88
338.194	95.88
338.422	98.88
338.65	88.88
338.878	89.88
339.106	94.88
339.334	96.88
339.562	83.88
339.79	95.88
340.018	105.88
340.246	83.88
340.474	91.88
340.702	86.88
340.93	95.88
341.158	83.88
341.386	103.88
341.614	98.88
341.842	86.88
342.07	97.88
342.298	90.88
342.526	96.88
342.754	75.88
342.981	94.88
343.209	78.88
343.437	100.88
343.665	88.88
343.893	89.88
344.12	94.88
344.348	81.88
344.576	77.88
344.804	78.88
345.031	86.88
345.259	94.88
345.487	79.88
345.714	77.88
345.942	87.88
346.17	101.88
346.397	83.88
346.625	88.88
346.853	86.88
347.08	95.88
347.308	95.88
347.535	101.88
347.763	107.88
347.99	105.88
348.218	94.88
348.445	112.88
348.673	98.88
348.9	78.88
349.128	96.88
349.355	107.88
349.583	97.88
349.81	96.88
350.037	96.88
350.265	91.88
350.492	100.88
350.72	99.88
350.947	92.88
351.174	103.88
351.402	97.88
351.629	101.88
351.856	105.88
352.083	109.88
352.311	99.88
352.538	93.88
352.765	102.88
352.992	114.88
353.22	115.88
353.447	109.88
353.674	97.88
353.901	105.88
354.128	86.88
354.355	92.88
354.583	82.88
354.81	104.88
355.037	106.88
355.264	98.88
355.491	102.88
355.718	96.88
355.945	86.88
356.172	101.88
356.399	95.88
356.626	91.88
356.853	81.88
357.08	80.88
357.307	110.88
357.534	100.88
357.761	94.88
357.988	102.88
358.215	97.88
358.441	93.88
358.668	89.88
358.895	84.88
359.122	95.88
359.349	98.88
359.576	104.88
359.802	96.88
360.029	107.88
360.256	108.88
360.483	88.88
360.709	88.88
360.936	84.88
361.163	102.88
361.39	92.88
361.616	103.88
361.843	98.88
362.07	95.88
362.296	94.88
362.523	81.88
362.749	88.88
362.976	86.88
363.203	94.88
363.429	99.88
363.656	96.88
363.882	88.88
364.109	72.88
364.335	85.88
364.562	81.88
364.788	94.88
365.015	97.88
365.241	96.88
365.468	113.88
365.694	91.88
365.92	90.88
366.147	81.88
366.373	98.88
366.599	79.88
366.826	70.88
367.052	83.88
367.278	100.88
367.505	100.88
367.731	78.88
367.957	95.88
368.184	86.88
368.41	91.88
368.636	99.88
368.862	120.88
369.089	86.88
369.315	91.88
369.541	94.88
369.767	97.88
369.993	97.88
370.219	89.88
370.445	90.88
370.672	89.88
370.898	93.88
371.124	83.88
371.35	98.88
371.576	86.88
371.802	81.88
372.028	87.88
372.254	98.88
372.48	91.88
372.706	86.88
372.932	89.88
373.158	97.88
373.384	103.88
373.61	89.88
373.835	76.88
374.061	73.88
374.287	100.88
374.513	88.88
374.739	90.88
374.965	88.88
375.191	98.88
375.416	95.88
375.642	86.88
375.868	80.88
376.094	83.88
376.319	77.88
376.545	81.88
376.771	90.88
376.997	92.88
377.222	90.88
377.448	91.88
377.674	75.88
377.899	90.88
378.125	97.88
378.35	91.88
378.576	98.88
378.802	101.88
379.027	93.88
379.253	85.88
379.478	84.88
379.704	101.88
379.929	85.88
380.155	80.88
380.38	96.88
380.606	102.88
380.831	93.88
381.057	103.88
381.282	89.88
381.507	91.88
381.733	88.88
381.958	87.88
382.184	88.88
382.409	99.88
382.634	90.88
382.86	90.88
383.085	108.88
383.31	97.88
383.535	98.88
383.761	96.88
383.986	94.88
384.211	95.88
384.436	93.88
384.662	100.88
384.887	109.88
385.112	111.88
385.337	95.88
385.562	105.88
385.787	110.88
386.013	99.88
386.238	110.88
386.463	117.88
386.688	114.88
386.913	93.88
387.138	98.88
387.363	91.88
387.588	93.88
387.813	102.88
388.038	98.88
388.263	101.88
388.488	95.88
388.713	96.88
388.938	97.88
389.163	86.88
389.387	95.88
389.612	83.88
389.837	101.88
390.062	96.88
390.287	109.88
390.512	96.88
390.736	90.88
390.961	87.88
391.186	96.88
391.411	83.88
391.636	101.88
391.86	93.88
392.085	96.88
392.31	74.88
392.534	84.88
392.759	87.88
392.984	79.88
393.208	101.88
393.433	91.88
393.658	70.88
393.882	85.88
394.107	84.88
394.331	75.88
394.556	85.88
394.78	90.88
395.005	82.88
395.229	79.88
395.454	87.88
395.678	79.88
395.903	89.88
396.127	93.88
396.352	88.88
396.576	78.88
396.801	78.88
397.025	87.88
397.249	77.88
397.474	87.88
397.698	81.88
397.922	80.88
398.147	89.88
398.371	85.88
398.595	88.88
398.82	83.88
399.044	88.88
399.268	85.88
399.492	90.88
399.717	92.88
399.941	100.88
400.165	90.88
400.389	102.88
400.613	93.88
400.837	87.88
401.062	81.88
401.286	84.88
401.51	76.88
401.734	83.88
401.958	85.88
402.182	106.88
402.406	120.88
402.63	109.88
402.854	93.88
403.078	98.88
403.302	83.88
403.526	86.88
403.75	86.88
403.974	75.88
404.198	80.88
404.422	93.88
404.645	87.88
404.869	94.88
405.093	90.88
405.317	76.88
405.541	96.88
405.765	104.88
405.988	106.88
406.212	130.88
406.436	184.88
406.66	123.88
406.883	84.88
407.107	80.88
407.331	93.88
407.555	90.88
407.778	86.88
408.002	94.88
408.226	84.88
408.449	98.88
408.673	102.88
408.896	94.88
409.12	99.88
409.344	86.88
409.567	101.88
409.791	91.88
410.014	99.88
410.238	89.88
410.461	94.88
410.685	87.88
410.908	83.88
411.132	87.88
411.355	106.88
411.578	87.88
411.802	86.88
412.025	91.88
412.249	86.88
412.472	83.88
412.695	96.88
412.919	92.88
413.142	77.88
413.365	80.88
413.589	88.88
413.812	87.88
414.035	75.88
414.258	86.88
414.482	96.88
414.705	85.88
414.928	87.88
415.151	89.88
415.374	93.88
415.597	87.88
415.821	89.88
416.044	93.88
416.267	72.88
416.49	86.88
416.713	74.88
416.936	74.88
417.159	79.88
417.382	69.88
417.605	90.88
417.828	95.88
418.051	92.88
418.274	92.88
418.497	78.88
418.72	74.88
418.943	77.88
419.166	71.88
419.389	85.88
419.611	90.88
419.834	94.88
420.057	87.88
420.28	81.88
420.503	96.88
420.726	93.88
420.948	90.88
421.171	87.88
421.394	91.88
421.617	82.88
421.839	73.88
422.062	75.88
422.285	74.88
422.507	103.88
422.73	102.88
422.953	90.88
423.175	79.88
423.398	84.88
423.621	89.88
423.843	87.88
424.066	88.88
424.288	86.88
424.511	70.88
424.733	103.88
424.956	95.88
425.178	96.88
425.401	89.88
425.623	91.88
425.846	93.88
426.068	88.88
426.291	96.88
426.513	86.88
426.735	97.88
426.958	85.88
427.18	101.88
427.402	149.88
427.625	150.88
427.847	125.88
428.069	91.88
428.292	98.88
428.514	83.88
428.736	86.88
428.958	82.88
429.181	84.88
429.403	74.88
429.625	79.88
429.847	84.88
430.069	90.88
430.292	71.88
430.514	93.88
430.736	78.88
430.958	74.88
431.18	76.88
431.402	77.88
431.624	83.88
431.846	87.88
432.068	89.88
432.29	100.88
432.512	91.88
432.734	91.88
432.956	86.88
433.178	98.88
433.4	81.88
433.622	80.88
433.844	88.88
434.066	88.88
434.287	86.88
434.509	91.88
434.731	85.88
434.953	79.88
435.175	79.88
435.397	102.88
435.618	87.88
435.84	89.88
436.062	110.88
436.284	109.88
436.505	101.88
436.727	96.88
436.949	78.88
437.17	81.88
437.392	92.88
437.614	85.88
437.835	91.88
438.057	102.88
438.278	113.88
438.5	95.88
438.721	103.88
438.943	99.88
439.165	82.88
439.386	77.88
439.608	99.88
439.829	95.88
440.05	109.88
440.272	128.88
440.493	88.88
440.715	78.88
440.936	88.88
441.158	89.88
441.379	89.88
441.6	80.88
441.822	77.88
442.043	77.88
442.264	102.88
442.486	107.88
442.707	87.88
442.928	100.88
443.149	127.88
443.371	109.88
443.592	107.88
443.813	109.88
444.034	86.88
444.255	91.88
444.476	93.88
444.698	95.88
444.919	89.88
445.14	127.88
445.361	112.88
445.582	126.88
445.803	120.88
446.024	116.88
446.245	135.88
446.466	112.88
446.687	86.88
446.908	84.88
447.129	91.88
447.35	84.88
447.571	82.88
447.792	87.88
448.013	81.88
448.234	104.88
448.455	85.88
448.675	116.88
448.896	108.88
449.117	90.88
449.338	100.88
449.559	106.88
449.779	115.88
450	96.88
450.221	90.88
450.442	88.88
450.662	103.88
450.883	95.88
451.104	103.88
451.324	86.88
451.545	74.88
451.766	81.88
451.986	78.88
452.207	92.88
452.428	97.88
452.648	84.88
452.869	93.88
453.089	106.88
453.31	100.88
453.53	81.88
453.751	94.88
453.971	96.88
454.192	106.88
454.412	85.88
454.633	93.88
454.853	79.88
455.073	82.88
455.294	77.88
455.514	85.88
455.734	88.88
455.955	78.88
456.175	84.88
456.395	77.88
456.616	76.88
456.836	89.88
457.056	79.88
457.276	98.88
457.497	73.88
457.717	85.88
457.937	76.88
458.157	87.88
458.377	69.88
458.598	101.88
458.818	123.88
459.038	123.88
459.258	102.88
459.478	91.88
459.698	87.88
459.918	88.88
460.138	92.88
460.358	85.88
460.578	94.88
460.798	93.88
461.018	82.88
461.238	85.88
461.458	89.88
461.678	87.88
461.898	91.88
462.118	98.88
462.338	68.88
462.558	80.88
462.777	87.88
462.997	83.88
463.217	79.88
463.437	72.88
463.657	83.88
463.876	87.88
464.096	86.88
464.316	96.88
464.536	86.88
464.755	94.88
464.975	97.88
465.195	138.88
465.414	127.88
465.634	72.88
465.854	76.88
466.073	78.88
466.293	89.88
466.512	74.88
466.732	87.88
466.951	90.88
467.171	76.88
467.391	97.88
467.61	97.88
467.829	91.88
468.049	120.88
468.268	118.88
468.488	84.88
468.707	90.88
468.927	85.88
469.146	82.88
469.365	89.88
469.585	89.88
469.804	89.88
470.023	83.88
470.243	90.88
470.462	89.88
470.681	82.88
470.901	77.88
471.12	89.88
471.339	83.88
471.558	95.88
471.777	98.88
471.997	107.88
472.216	154.88
472.435	202.88
472.654	122.88
472.873	96.88
473.092	89.88
473.311	80.88
473.53	72.88
473.749	81.88
473.968	89.88
474.187	94.88
474.406	90.88
474.625	80.88
474.844	87.88
475.063	103.88
475.282	78.88
475.501	83.88
475.72	88.88
475.939	93.88
476.158	95.88
476.377	86.88
476.596	101.88
476.814	76.88
477.033	83.88
477.252	89.88
477.471	82.88
477.69	111.88
477.908	89.88
478.127	91.88
478.346	75.88
478.564	98.88
478.783	98.88
479.002	86.88
479.22	97.88
479.439	98.88
479.658	90.88
479.876	99.88
480.095	90.88
480.313	95.88
480.532	97.88
480.751	91.88
480.969	134.88
481.188	305.88
481.406	219.88
481.624	112.88
481.843	82.88
482.061	86.88
482.28	83.88
482.498	97.88
482.717	98.88
482.935	94.88
483.153	85.88
483.372	97.88
483.59	88.88
483.808	87.88
484.027	86.88
484.245	97.88
484.463	91.88
484.681	103.88
484.9	93.88
485.118	93.88
485.336	99.88
485.554	99.88
485.772	90.88
485.99	101.88
486.209	96.88
486.427	109.88
486.645	111.88
486.863	103.88
487.081	91.88
487.299	102.88
487.517	89.88
487.735	93.88
487.953	100.88
488.171	90.88
488.389	83.88
488.607	97.88
488.825	86.88
489.043	100.88
489.261	91.88
489.479	94.88
489.696	75.88
489.914	93.88
490.132	86.88
490.35	98.88
490.568	98.88
490.786	84.88
491.003	97.88
491.221	95.88
491.439	81.88
491.657	71.88
491.874	92.88
492.092	93.88
492.31	86.88
492.527	89.88
492.745	94.88
492.963	81.88
493.18	84.88
493.398	89.88
493.615	96.88
493.833	98.88
494.05	106.88
494.268	75.88
494.485	96.88
494.703	89.88
494.92	90.88
495.138	69.88
495.355	91.88
495.573	84.88
495.79	89.88
496.008	95.88
496.225	88.88
496.442	85.88
496.66	81.88
496.877	94.88
497.094	87.88
497.312	94.88
497.529	80.88
497.746	97.88
497.963	97.88
498.181	89.88
498.398	102.88
498.615	107.88
498.832	101.88
499.049	101.88
499.267	96.88
499.484	88.88
499.701	93.88
499.918	83.88
500.135	74.88
500.352	85.88
500.569	102.88
500.786	89.88
501.003	81.88
501.22	94.88
501.437	73.88
501.654	87.88
501.871	100.88
502.088	82.88
502.305	81.88
502.522	87.88
502.739	95.88
502.956	98.88
503.172	86.88
503.389	87.88
503.606	95.88
503.823	98.88
504.04	82.88
504.256	91.88
504.473	98.88
504.69	85.88
504.907	100.88
505.123	91.88
505.34	80.88
505.557	88.88
505.773	99.88
505.99	92.88
506.207	90.88
506.423	90.88
506.64	93.88
506.856	91.88
507.073	83.88
507.289	87.88
507.506	101.88
507.722	98.88
507.939	110.88
508.155	90.88
508.372	82.88
508.588	89.88
508.805	81.88
509.021	82.88
509.238	100.88
509.454	103.88
509.67	94.88
509.887	113.88
510.103	114.88
510.319	167.88
510.536	566.88
510.752	1729.88
510.968	495.88
511.184	137.88
511.401	99.88
511.617	101.88
511.833	89.88
512.049	102.88
512.265	89.88
512.481	92.88
512.698	87.88
512.914	91.88
513.13	88.88
513.346	84.88
513.562	89.88
513.778	91.88
513.994	92.88
514.21	80.88
514.426	114.88
514.642	104.88
514.858	116.88
515.074	132.88
515.29	330.88
515.506	990.88
515.721	405.88
515.937	122.88
516.153	89.88
516.369	98.88
516.585	83.88
516.801	83.88
