Data from Circ_2002_H10_HRD10591_00035.txt Node
Date: Wed Jan 03 10:41:05 EST 2024
User: Yrep
Spectrometer: HR+D1059
Trigger mode: 1
Integration Time (sec): 1.000000E-1
Scans to average: 1
Electric dark correction enabled: true
Nonlinearity correction enabled: false
Boxcar width: 0
XAxis mode: Wavelengths
Number of Pixels in Spectrum: 2048
>>>>>Begin Spectral Data<<<<<
223.165	-22.38
223.4	-22.38
223.635	-22.38
223.869	-20.38
224.104	-25.38
224.338	-10.38
224.573	-15.38
224.808	-6.38
225.042	-5.38
225.277	1.62
225.511	-17.38
225.746	6.62
225.98	13.62
226.215	15.62
226.449	7.62
226.683	12.62
226.918	35.62
227.152	29.62
227.387	44.62
227.621	49.62
227.856	49.62
228.09	31.62
228.324	52.62
228.559	55.62
228.793	53.62
229.027	59.62
229.262	71.62
229.496	74.62
229.73	89.62
229.964	99.62
230.199	70.62
230.433	83.62
230.667	90.62
230.901	83.62
231.136	76.62
231.37	77.62
231.604	67.62
231.838	84.62
232.072	71.62
232.306	86.62
232.541	94.62
232.775	59.62
233.009	88.62
233.243	72.62
233.477	84.62
233.711	86.62
233.945	73.62
234.179	77.62
234.413	73.62
234.647	79.62
234.881	73.62
235.115	84.62
235.349	76.62
235.583	94.62
235.817	75.62
236.051	81.62
236.285	86.62
236.519	65.62
236.753	72.62
236.987	80.62
237.221	74.62
237.455	77.62
237.689	69.62
237.922	72.62
238.156	79.62
238.39	81.62
238.624	75.62
238.858	81.62
239.091	78.62
239.325	75.62
239.559	63.62
239.793	89.62
240.027	76.62
240.26	73.62
240.494	79.62
240.728	74.62
240.961	77.62
241.195	82.62
241.429	83.62
241.662	84.62
241.896	77.62
242.13	80.62
242.363	78.62
242.597	82.62
242.83	82.62
243.064	80.62
243.298	79.62
243.531	75.62
243.765	61.62
243.998	89.62
244.232	86.62
244.465	97.62
244.699	85.62
244.932	73.62
245.166	77.62
245.399	77.62
245.633	68.62
245.866	80.62
246.099	72.62
246.333	70.62
246.566	64.62
246.8	65.62
247.033	65.62
247.266	85.62
247.5	73.62
247.733	75.62
247.966	91.62
248.2	79.62
248.433	91.62
248.666	79.62
248.899	80.62
249.133	86.62
249.366	106.62
249.599	73.62
249.832	77.62
250.066	80.62
250.299	78.62
250.532	74.62
250.765	72.62
250.998	87.62
251.231	81.62
251.465	65.62
251.698	74.62
251.931	91.62
252.164	69.62
252.397	82.62
252.63	79.62
252.863	74.62
253.096	82.62
253.329	89.62
253.562	74.62
253.795	73.62
254.028	81.62
254.261	93.62
254.494	85.62
254.727	74.62
254.96	79.62
255.193	79.62
255.426	85.62
255.659	71.62
255.892	86.62
256.124	84.62
256.357	85.62
256.59	88.62
256.823	83.62
257.056	84.62
257.289	77.62
257.521	94.62
257.754	70.62
257.987	83.62
258.22	94.62
258.452	68.62
258.685	78.62
258.918	70.62
259.151	71.62
259.383	81.62
259.616	81.62
259.849	91.62
260.081	81.62
260.314	71.62
260.547	85.62
260.779	85.62
261.012	94.62
261.244	81.62
261.477	88.62
261.71	99.62
261.942	114.62
262.175	127.62
262.407	86.62
262.64	85.62
262.872	93.62
263.105	86.62
263.337	89.62
263.57	80.62
263.802	91.62
264.035	90.62
264.267	87.62
264.499	91.62
264.732	89.62
264.964	85.62
265.197	88.62
265.429	71.62
265.661	82.62
265.894	89.62
266.126	80.62
266.358	67.62
266.591	83.62
266.823	73.62
267.055	72.62
267.287	85.62
267.52	85.62
267.752	84.62
267.984	82.62
268.216	87.62
268.448	87.62
268.681	83.62
268.913	78.62
269.145	86.62
269.377	79.62
269.609	85.62
269.841	90.62
270.073	70.62
270.306	80.62
270.538	89.62
270.77	73.62
271.002	94.62
271.234	87.62
271.466	94.62
271.698	96.62
271.93	95.62
272.162	81.62
272.394	95.62
272.626	85.62
272.858	81.62
273.09	88.62
273.322	75.62
273.553	79.62
273.785	91.62
274.017	89.62
274.249	82.62
274.481	98.62
274.713	81.62
274.945	88.62
275.176	90.62
275.408	96.62
275.64	88.62
275.872	88.62
276.104	89.62
276.335	87.62
276.567	117.62
276.799	118.62
277.031	108.62
277.262	107.62
277.494	87.62
277.726	81.62
277.957	78.62
278.189	86.62
278.421	77.62
278.652	69.62
278.884	84.62
279.115	88.62
279.347	89.62
279.579	98.62
279.81	85.62
280.042	91.62
280.273	78.62
280.505	64.62
280.736	86.62
280.968	89.62
281.199	85.62
281.431	80.62
281.662	77.62
281.894	94.62
282.125	109.62
282.356	110.62
282.588	148.62
282.819	117.62
283.051	102.62
283.282	81.62
283.513	79.62
283.745	92.62
283.976	90.62
284.207	77.62
284.439	104.62
284.67	98.62
284.901	79.62
285.132	85.62
285.364	79.62
285.595	91.62
285.826	79.62
286.057	89.62
286.288	68.62
286.52	89.62
286.751	85.62
286.982	99.62
287.213	90.62
287.444	89.62
287.675	81.62
287.906	102.62
288.138	86.62
288.369	94.62
288.6	94.62
288.831	84.62
289.062	78.62
289.293	90.62
289.524	78.62
289.755	81.62
289.986	89.62
290.217	78.62
290.448	82.62
290.679	98.62
290.91	103.62
291.141	94.62
291.371	96.62
291.602	87.62
291.833	89.62
292.064	71.62
292.295	93.62
292.526	98.62
292.757	86.62
292.987	91.62
293.218	90.62
293.449	85.62
293.68	90.62
293.91	87.62
294.141	90.62
294.372	90.62
294.603	98.62
294.833	95.62
295.064	98.62
295.295	79.62
295.525	101.62
295.756	103.62
295.987	135.62
296.217	148.62
296.448	134.62
296.679	91.62
296.909	82.62
297.14	94.62
297.37	97.62
297.601	71.62
297.831	93.62
298.062	100.62
298.292	89.62
298.523	90.62
298.753	76.62
298.984	81.62
299.214	72.62
299.445	98.62
299.675	92.62
299.905	92.62
300.136	79.62
300.366	90.62
300.597	97.62
300.827	92.62
301.057	100.62
301.288	106.62
301.518	112.62
301.748	87.62
301.979	103.62
302.209	77.62
302.439	77.62
302.669	90.62
302.9	82.62
303.13	93.62
303.36	110.62
303.59	109.62
303.82	99.62
304.051	91.62
304.281	87.62
304.511	87.62
304.741	86.62
304.971	83.62
305.201	96.62
305.431	81.62
305.661	97.62
305.891	99.62
306.121	104.62
306.352	106.62
306.582	115.62
306.812	99.62
307.042	92.62
307.272	102.62
307.502	89.62
307.731	94.62
307.961	92.62
308.191	87.62
308.421	100.62
308.651	101.62
308.881	104.62
309.111	76.62
309.341	97.62
309.571	109.62
309.8	86.62
310.03	101.62
310.26	91.62
310.49	86.62
310.72	103.62
310.949	104.62
311.179	108.62
311.409	110.62
311.639	86.62
311.868	114.62
312.098	93.62
312.328	98.62
312.557	110.62
312.787	116.62
313.017	103.62
313.246	83.62
313.476	98.62
313.706	89.62
313.935	97.62
314.165	104.62
314.394	101.62
314.624	95.62
314.853	101.62
315.083	99.62
315.312	95.62
315.542	87.62
315.771	85.62
316.001	91.62
316.23	102.62
316.46	96.62
316.689	96.62
316.919	94.62
317.148	94.62
317.377	93.62
317.607	96.62
317.836	90.62
318.065	97.62
318.295	81.62
318.524	78.62
318.753	87.62
318.983	103.62
319.212	103.62
319.441	116.62
319.67	109.62
319.9	99.62
320.129	88.62
320.358	101.62
320.587	109.62
320.816	109.62
321.046	118.62
321.275	85.62
321.504	92.62
321.733	96.62
321.962	105.62
322.191	119.62
322.42	118.62
322.649	119.62
322.878	106.62
323.108	116.62
323.337	146.62
323.566	154.62
323.795	167.62
324.024	254.62
324.253	511.62
324.482	1113.62
324.71	2351.62
324.939	3043.62
325.168	1082.62
325.397	308.62
325.626	161.62
325.855	144.62
326.084	140.62
326.313	158.62
326.542	172.62
326.77	274.62
326.999	589.62
327.228	1232.62
327.457	2263.62
327.686	1747.62
327.914	464.62
328.143	230.62
328.372	180.62
328.6	129.62
328.829	134.62
329.058	143.62
329.287	148.62
329.515	119.62
329.744	115.62
329.972	107.62
330.201	108.62
330.43	135.62
330.658	131.62
330.887	165.62
331.115	141.62
331.344	98.62
331.572	105.62
331.801	112.62
332.03	112.62
332.258	97.62
332.486	96.62
332.715	97.62
332.943	95.62
333.172	82.62
333.4	97.62
333.629	116.62
333.857	132.62
334.085	116.62
334.314	114.62
334.542	117.62
334.771	110.62
334.999	114.62
335.227	98.62
335.455	73.62
335.684	112.62
335.912	101.62
336.14	98.62
336.369	105.62
336.597	92.62
336.825	103.62
337.053	94.62
337.281	91.62
337.51	93.62
337.738	100.62
337.966	93.62
338.194	108.62
338.422	113.62
338.65	88.62
338.878	92.62
339.106	97.62
339.334	103.62
339.562	85.62
339.79	96.62
340.018	101.62
340.246	94.62
340.474	93.62
340.702	100.62
340.93	93.62
341.158	101.62
341.386	102.62
341.614	86.62
341.842	104.62
342.07	97.62
342.298	105.62
342.526	91.62
342.754	104.62
342.981	100.62
343.209	86.62
343.437	90.62
343.665	85.62
343.893	73.62
344.12	82.62
344.348	86.62
344.576	84.62
344.804	98.62
345.031	109.62
345.259	111.62
345.487	93.62
345.714	85.62
345.942	80.62
346.17	90.62
346.397	83.62
346.625	104.62
346.853	91.62
347.08	99.62
347.308	98.62
347.535	97.62
347.763	91.62
347.99	95.62
348.218	121.62
348.445	108.62
348.673	96.62
348.9	108.62
349.128	100.62
349.355	93.62
349.583	88.62
349.81	106.62
350.037	93.62
350.265	100.62
350.492	89.62
350.72	85.62
350.947	96.62
351.174	84.62
351.402	102.62
351.629	116.62
351.856	110.62
352.083	111.62
352.311	120.62
352.538	114.62
352.765	123.62
352.992	118.62
353.22	118.62
353.447	105.62
353.674	103.62
353.901	92.62
354.128	97.62
354.355	94.62
354.583	91.62
354.81	98.62
355.037	103.62
355.264	106.62
355.491	84.62
355.718	102.62
355.945	83.62
356.172	104.62
356.399	93.62
356.626	96.62
356.853	90.62
357.08	95.62
357.307	85.62
357.534	112.62
357.761	99.62
357.988	94.62
358.215	96.62
358.441	107.62
358.668	89.62
358.895	84.62
359.122	87.62
359.349	93.62
359.576	95.62
359.802	111.62
360.029	118.62
360.256	121.62
360.483	103.62
360.709	83.62
360.936	96.62
361.163	95.62
361.39	108.62
361.616	105.62
361.843	84.62
362.07	107.62
362.296	108.62
362.523	102.62
362.749	90.62
362.976	90.62
363.203	83.62
363.429	93.62
363.656	86.62
363.882	92.62
364.109	100.62
364.335	93.62
364.562	94.62
364.788	81.62
365.015	104.62
365.241	103.62
365.468	107.62
365.694	111.62
365.92	98.62
366.147	102.62
366.373	91.62
366.599	105.62
366.826	87.62
367.052	96.62
367.278	94.62
367.505	96.62
367.731	92.62
367.957	89.62
368.184	91.62
368.41	106.62
368.636	127.62
368.862	122.62
369.089	106.62
369.315	99.62
369.541	91.62
369.767	108.62
369.993	98.62
370.219	84.62
370.445	88.62
370.672	91.62
370.898	90.62
371.124	99.62
371.35	84.62
371.576	90.62
371.802	83.62
372.028	101.62
372.254	90.62
372.48	94.62
372.706	81.62
372.932	77.62
373.158	93.62
373.384	93.62
373.61	92.62
373.835	100.62
374.061	98.62
374.287	91.62
374.513	94.62
374.739	96.62
374.965	96.62
375.191	86.62
375.416	95.62
375.642	96.62
375.868	113.62
376.094	81.62
376.319	98.62
376.545	92.62
376.771	78.62
376.997	76.62
377.222	96.62
377.448	89.62
377.674	85.62
377.899	97.62
378.125	97.62
378.35	82.62
378.576	80.62
378.802	96.62
379.027	77.62
379.253	86.62
379.478	85.62
379.704	91.62
379.929	95.62
380.155	85.62
380.38	81.62
380.606	87.62
380.831	97.62
381.057	97.62
381.282	97.62
381.507	94.62
381.733	95.62
381.958	94.62
382.184	113.62
382.409	103.62
382.634	112.62
382.86	106.62
383.085	104.62
383.31	99.62
383.535	100.62
383.761	99.62
383.986	101.62
384.211	88.62
384.436	97.62
384.662	102.62
384.887	99.62
385.112	107.62
385.337	92.62
385.562	95.62
385.787	104.62
386.013	107.62
386.238	122.62
386.463	123.62
386.688	94.62
386.913	105.62
387.138	103.62
387.363	118.62
387.588	90.62
387.813	102.62
388.038	110.62
388.263	120.62
388.488	102.62
388.713	85.62
388.938	91.62
389.163	102.62
389.387	103.62
389.612	91.62
389.837	77.62
390.062	85.62
390.287	80.62
390.512	93.62
390.736	81.62
390.961	88.62
391.186	110.62
391.411	95.62
391.636	87.62
391.86	91.62
392.085	84.62
392.31	87.62
392.534	86.62
392.759	103.62
392.984	86.62
393.208	87.62
393.433	99.62
393.658	112.62
393.882	81.62
394.107	90.62
394.331	102.62
394.556	85.62
394.78	76.62
395.005	74.62
395.229	82.62
395.454	91.62
395.678	101.62
395.903	83.62
396.127	94.62
396.352	74.62
396.576	94.62
396.801	87.62
397.025	86.62
397.249	74.62
397.474	86.62
397.698	86.62
397.922	85.62
398.147	91.62
398.371	67.62
398.595	89.62
398.82	91.62
399.044	90.62
399.268	81.62
399.492	92.62
399.717	87.62
399.941	87.62
400.165	91.62
400.389	91.62
400.613	97.62
400.837	98.62
401.062	100.62
401.286	90.62
401.51	92.62
401.734	97.62
401.958	86.62
402.182	146.62
402.406	188.62
402.63	126.62
402.854	99.62
403.078	95.62
403.302	81.62
403.526	72.62
403.75	92.62
403.974	82.62
404.198	82.62
404.422	85.62
404.645	97.62
404.869	90.62
405.093	95.62
405.317	93.62
405.541	110.62
405.765	97.62
405.988	126.62
406.212	205.62
406.436	279.62
406.66	186.62
406.883	104.62
407.107	101.62
407.331	115.62
407.555	89.62
407.778	80.62
408.002	96.62
408.226	89.62
408.449	87.62
408.673	93.62
408.896	107.62
409.12	98.62
409.344	89.62
409.567	102.62
409.791	82.62
410.014	81.62
410.238	75.62
410.461	88.62
410.685	105.62
410.908	95.62
411.132	104.62
411.355	87.62
411.578	99.62
411.802	82.62
412.025	85.62
412.249	92.62
412.472	88.62
412.695	90.62
412.919	106.62
413.142	91.62
413.365	86.62
413.589	80.62
413.812	88.62
414.035	92.62
414.258	85.62
414.482	84.62
414.705	72.62
414.928	92.62
415.151	104.62
415.374	91.62
415.597	83.62
415.821	77.62
416.044	77.62
416.267	105.62
416.49	96.62
416.713	87.62
416.936	85.62
417.159	90.62
417.382	91.62
417.605	97.62
417.828	91.62
418.051	97.62
418.274	95.62
418.497	66.62
418.72	79.62
418.943	90.62
419.166	83.62
419.389	84.62
419.611	75.62
419.834	71.62
420.057	72.62
420.28	88.62
420.503	89.62
420.726	89.62
420.948	74.62
421.171	82.62
421.394	94.62
421.617	90.62
421.839	87.62
422.062	85.62
422.285	102.62
422.507	89.62
422.73	105.62
422.953	86.62
423.175	82.62
423.398	85.62
423.621	83.62
423.843	90.62
424.066	81.62
424.288	95.62
424.511	93.62
424.733	98.62
424.956	111.62
425.178	99.62
425.401	112.62
425.623	108.62
425.846	85.62
426.068	98.62
426.291	90.62
426.513	89.62
426.735	86.62
426.958	95.62
427.18	109.62
427.402	144.62
427.625	204.62
427.847	150.62
428.069	103.62
428.292	83.62
428.514	86.62
428.736	78.62
428.958	92.62
429.181	93.62
429.403	82.62
429.625	82.62
429.847	91.62
430.069	86.62
430.292	97.62
430.514	85.62
430.736	91.62
430.958	93.62
431.18	88.62
431.402	86.62
431.624	85.62
431.846	72.62
432.068	96.62
432.29	90.62
432.512	102.62
432.734	84.62
432.956	100.62
433.178	87.62
433.4	96.62
433.622	95.62
433.844	89.62
434.066	92.62
434.287	93.62
434.509	92.62
434.731	87.62
434.953	86.62
435.175	103.62
435.397	90.62
435.618	84.62
435.84	111.62
436.062	121.62
436.284	106.62
436.505	103.62
436.727	110.62
436.949	102.62
437.17	81.62
437.392	91.62
437.614	99.62
437.835	116.62
438.057	123.62
438.278	127.62
438.5	98.62
438.721	110.62
438.943	102.62
439.165	86.62
439.386	90.62
439.608	86.62
439.829	93.62
440.05	121.62
440.272	161.62
440.493	101.62
440.715	92.62
440.936	99.62
441.158	99.62
441.379	70.62
441.6	94.62
441.822	81.62
442.043	104.62
442.264	102.62
442.486	111.62
442.707	100.62
442.928	108.62
443.149	147.62
443.371	163.62
443.592	131.62
443.813	112.62
444.034	113.62
444.255	98.62
444.476	78.62
444.698	93.62
444.919	76.62
445.14	146.62
445.361	109.62
445.582	129.62
445.803	148.62
446.024	156.62
446.245	145.62
446.466	113.62
446.687	79.62
446.908	85.62
447.129	93.62
447.35	88.62
447.571	87.62
447.792	99.62
448.013	108.62
448.234	117.62
448.455	98.62
448.675	125.62
448.896	140.62
449.117	106.62
449.338	97.62
449.559	133.62
449.779	144.62
450	104.62
450.221	88.62
450.442	85.62
450.662	100.62
450.883	122.62
451.104	129.62
451.324	107.62
451.545	87.62
451.766	80.62
451.986	97.62
452.207	80.62
452.428	88.62
452.648	103.62
452.869	134.62
453.089	117.62
453.31	138.62
453.53	94.62
453.751	104.62
453.971	110.62
454.192	129.62
454.412	94.62
454.633	95.62
454.853	87.62
455.073	101.62
455.294	97.62
455.514	94.62
455.734	85.62
455.955	73.62
456.175	84.62
456.395	96.62
456.616	93.62
456.836	87.62
457.056	90.62
457.276	76.62
457.497	83.62
457.717	86.62
457.937	92.62
458.157	81.62
458.377	80.62
458.598	119.62
458.818	178.62
459.038	197.62
459.258	135.62
459.478	94.62
459.698	96.62
459.918	86.62
460.138	70.62
460.358	97.62
460.578	95.62
460.798	92.62
461.018	79.62
461.238	88.62
461.458	76.62
461.678	89.62
461.898	78.62
462.118	91.62
462.338	86.62
462.558	79.62
462.777	77.62
462.997	100.62
463.217	80.62
463.437	93.62
463.657	87.62
463.876	83.62
464.096	75.62
464.316	107.62
464.536	94.62
464.755	102.62
464.975	117.62
465.195	211.62
465.414	213.62
465.634	105.62
465.854	91.62
466.073	91.62
466.293	96.62
466.512	88.62
466.732	80.62
466.951	106.62
467.171	77.62
467.391	91.62
467.61	103.62
467.829	89.62
468.049	106.62
468.268	106.62
468.488	81.62
468.707	89.62
468.927	75.62
469.146	98.62
469.365	87.62
469.585	77.62
469.804	102.62
470.023	104.62
470.243	97.62
470.462	107.62
470.681	141.62
470.901	94.62
471.12	94.62
471.339	84.62
471.558	77.62
471.777	87.62
471.997	84.62
472.216	100.62
472.435	107.62
472.654	86.62
472.873	87.62
473.092	92.62
473.311	85.62
473.53	80.62
473.749	90.62
473.968	86.62
474.187	110.62
474.406	98.62
474.625	87.62
474.844	82.62
475.063	79.62
475.282	79.62
475.501	102.62
475.72	93.62
475.939	95.62
476.158	86.62
476.377	87.62
476.596	94.62
476.814	88.62
477.033	102.62
477.252	101.62
477.471	87.62
477.69	101.62
477.908	75.62
478.127	86.62
478.346	84.62
478.564	100.62
478.783	103.62
479.002	91.62
479.22	96.62
479.439	98.62
479.658	110.62
479.876	111.62
480.095	95.62
480.313	92.62
480.532	82.62
480.751	92.62
480.969	113.62
481.188	161.62
481.406	116.62
481.624	99.62
481.843	95.62
482.061	91.62
482.28	87.62
482.498	97.62
482.717	79.62
482.935	85.62
483.153	91.62
483.372	97.62
483.59	93.62
483.808	80.62
484.027	87.62
484.245	91.62
484.463	93.62
484.681	97.62
484.9	88.62
485.118	97.62
485.336	89.62
485.554	108.62
485.772	94.62
485.99	99.62
486.209	110.62
486.427	95.62
486.645	115.62
486.863	119.62
487.081	106.62
487.299	94.62
487.517	100.62
487.735	94.62
487.953	84.62
488.171	99.62
488.389	100.62
488.607	90.62
488.825	104.62
489.043	100.62
489.261	82.62
489.479	81.62
489.696	102.62
489.914	95.62
490.132	88.62
490.35	89.62
490.568	82.62
490.786	84.62
491.003	80.62
491.221	92.62
491.439	89.62
491.657	93.62
491.874	76.62
492.092	97.62
492.31	71.62
492.527	82.62
492.745	91.62
492.963	82.62
493.18	95.62
493.398	109.62
493.615	107.62
493.833	97.62
494.05	86.62
494.268	88.62
494.485	89.62
494.703	71.62
494.92	82.62
495.138	83.62
495.355	78.62
495.573	103.62
495.79	88.62
496.008	98.62
496.225	88.62
496.442	87.62
496.66	97.62
496.877	87.62
497.094	96.62
497.312	88.62
497.529	95.62
497.746	86.62
497.963	94.62
498.181	101.62
498.398	100.62
498.615	106.62
498.832	101.62
499.049	96.62
499.267	85.62
499.484	83.62
499.701	76.62
499.918	85.62
500.135	87.62
500.352	85.62
500.569	92.62
500.786	88.62
501.003	78.62
501.22	92.62
501.437	91.62
501.654	90.62
501.871	114.62
502.088	98.62
502.305	90.62
502.522	86.62
502.739	88.62
502.956	96.62
503.172	90.62
503.389	89.62
503.606	104.62
503.823	95.62
504.04	77.62
504.256	90.62
504.473	81.62
504.69	92.62
504.907	94.62
505.123	103.62
505.34	93.62
505.557	89.62
505.773	95.62
505.99	88.62
506.207	77.62
506.423	96.62
506.64	73.62
506.856	89.62
507.073	99.62
507.289	92.62
507.506	96.62
507.722	118.62
507.939	131.62
508.155	98.62
508.372	105.62
508.588	97.62
508.805	99.62
509.021	81.62
509.238	97.62
509.454	103.62
509.67	107.62
509.887	106.62
510.103	151.62
510.319	247.62
510.536	915.62
510.752	3097.62
510.968	828.62
511.184	180.62
511.401	109.62
511.617	83.62
511.833	108.62
512.049	111.62
512.265	88.62
512.481	89.62
512.698	95.62
512.914	85.62
513.13	91.62
513.346	97.62
513.562	90.62
513.778	93.62
513.994	97.62
514.21	112.62
514.426	133.62
514.642	166.62
514.858	143.62
515.074	189.62
