Data from Circ_2002_H10_HRD10591_00053.txt Node
Date: Wed Jan 03 10:41:08 EST 2024
User: Yrep
Spectrometer: HR+D1059
Trigger mode: 1
Integration Time (sec): 1.000000E-1
Scans to average: 1
Electric dark correction enabled: true
Nonlinearity correction enabled: false
Boxcar width: 0
XAxis mode: Wavelengths
Number of Pixels in Spectrum: 2048
>>>>>Begin Spectral Data<<<<<
223.165	-22.56
223.4	-22.56
223.635	-22.56
223.869	-23.56
224.104	-24.56
224.338	-12.56
224.573	-8.56
224.808	-19.56
225.042	-7.56
225.277	-7.56
225.511	-6.56
225.746	13.44
225.98	4.44
226.215	16.44
226.449	8.44
226.683	18.44
226.918	32.44
227.152	39.44
227.387	31.44
227.621	30.44
227.856	48.44
228.09	49.44
228.324	58.44
228.559	64.44
228.793	65.44
229.027	62.44
229.262	70.44
229.496	76.44
229.73	76.44
229.964	79.44
230.199	79.44
230.433	74.44
230.667	93.44
230.901	75.44
231.136	74.44
231.37	84.44
231.604	88.44
231.838	81.44
232.072	80.44
232.306	66.44
232.541	87.44
232.775	95.44
233.009	79.44
233.243	66.44
233.477	81.44
233.711	78.44
233.945	68.44
234.179	80.44
234.413	83.44
234.647	86.44
234.881	71.44
235.115	76.44
235.349	81.44
235.583	70.44
235.817	82.44
236.051	77.44
236.285	77.44
236.519	87.44
236.753	94.44
236.987	75.44
237.221	75.44
237.455	79.44
237.689	79.44
237.922	79.44
238.156	72.44
238.39	81.44
238.624	75.44
238.858	92.44
239.091	85.44
239.325	67.44
239.559	89.44
239.793	68.44
240.027	70.44
240.26	81.44
240.494	75.44
240.728	74.44
240.961	72.44
241.195	90.44
241.429	91.44
241.662	75.44
241.896	74.44
242.13	77.44
242.363	81.44
242.597	63.44
242.83	65.44
243.064	73.44
243.298	72.44
243.531	88.44
243.765	84.44
243.998	88.44
244.232	81.44
244.465	95.44
244.699	88.44
244.932	77.44
245.166	71.44
245.399	69.44
245.633	75.44
245.866	71.44
246.099	85.44
246.333	84.44
246.566	84.44
246.8	88.44
247.033	84.44
247.266	76.44
247.5	82.44
247.733	76.44
247.966	78.44
248.2	88.44
248.433	87.44
248.666	85.44
248.899	80.44
249.133	89.44
249.366	97.44
249.599	99.44
249.832	75.44
250.066	77.44
250.299	82.44
250.532	81.44
250.765	87.44
250.998	83.44
251.231	85.44
251.465	65.44
251.698	77.44
251.931	80.44
252.164	91.44
252.397	76.44
252.63	68.44
252.863	84.44
253.096	89.44
253.329	79.44
253.562	68.44
253.795	82.44
254.028	76.44
254.261	85.44
254.494	87.44
254.727	74.44
254.96	79.44
255.193	90.44
255.426	85.44
255.659	88.44
255.892	78.44
256.124	79.44
256.357	67.44
256.59	83.44
256.823	72.44
257.056	90.44
257.289	92.44
257.521	64.44
257.754	69.44
257.987	91.44
258.22	79.44
258.452	92.44
258.685	87.44
258.918	89.44
259.151	68.44
259.383	90.44
259.616	78.44
259.849	84.44
260.081	74.44
260.314	89.44
260.547	80.44
260.779	85.44
261.012	86.44
261.244	95.44
261.477	83.44
261.71	79.44
261.942	84.44
262.175	117.44
262.407	86.44
262.64	78.44
262.872	76.44
263.105	85.44
263.337	86.44
263.57	81.44
263.802	91.44
264.035	92.44
264.267	80.44
264.499	70.44
264.732	87.44
264.964	68.44
265.197	73.44
265.429	65.44
265.661	87.44
265.894	80.44
266.126	66.44
266.358	90.44
266.591	74.44
266.823	93.44
267.055	89.44
267.287	88.44
267.52	76.44
267.752	106.44
267.984	83.44
268.216	87.44
268.448	87.44
268.681	90.44
268.913	84.44
269.145	78.44
269.377	73.44
269.609	76.44
269.841	85.44
270.073	84.44
270.306	86.44
270.538	83.44
270.77	72.44
271.002	76.44
271.234	85.44
271.466	95.44
271.698	81.44
271.93	80.44
272.162	86.44
272.394	82.44
272.626	93.44
272.858	77.44
273.09	86.44
273.322	88.44
273.553	86.44
273.785	93.44
274.017	73.44
274.249	80.44
274.481	100.44
274.713	77.44
274.945	82.44
275.176	93.44
275.408	98.44
275.64	93.44
275.872	98.44
276.104	93.44
276.335	94.44
276.567	107.44
276.799	99.44
277.031	108.44
277.262	92.44
277.494	90.44
277.726	87.44
277.957	70.44
278.189	84.44
278.421	72.44
278.652	92.44
278.884	90.44
279.115	93.44
279.347	99.44
279.579	82.44
279.81	83.44
280.042	97.44
280.273	96.44
280.505	82.44
280.736	86.44
280.968	83.44
281.199	96.44
281.431	88.44
281.662	101.44
281.894	89.44
282.125	101.44
282.356	107.44
282.588	133.44
282.819	108.44
283.051	97.44
283.282	82.44
283.513	84.44
283.745	82.44
283.976	65.44
284.207	93.44
284.439	94.44
284.67	82.44
284.901	87.44
285.132	78.44
285.364	90.44
285.595	83.44
285.826	86.44
286.057	84.44
286.288	91.44
286.52	90.44
286.751	79.44
286.982	83.44
287.213	90.44
287.444	84.44
287.675	78.44
287.906	99.44
288.138	86.44
288.369	93.44
288.6	90.44
288.831	93.44
289.062	84.44
289.293	81.44
289.524	86.44
289.755	92.44
289.986	91.44
290.217	93.44
290.448	85.44
290.679	89.44
290.91	88.44
291.141	85.44
291.371	91.44
291.602	84.44
291.833	98.44
292.064	87.44
292.295	112.44
292.526	74.44
292.757	90.44
292.987	84.44
293.218	88.44
293.449	85.44
293.68	87.44
293.91	75.44
294.141	84.44
294.372	102.44
294.603	89.44
294.833	77.44
295.064	88.44
295.295	81.44
295.525	97.44
295.756	106.44
295.987	111.44
296.217	131.44
296.448	95.44
296.679	109.44
296.909	95.44
297.14	81.44
297.37	95.44
297.601	97.44
297.831	93.44
298.062	102.44
298.292	86.44
298.523	69.44
298.753	82.44
298.984	97.44
299.214	90.44
299.445	85.44
299.675	84.44
299.905	109.44
300.136	75.44
300.366	77.44
300.597	84.44
300.827	92.44
301.057	96.44
301.288	90.44
301.518	96.44
301.748	108.44
301.979	91.44
302.209	86.44
302.439	85.44
302.669	91.44
302.9	94.44
303.13	92.44
303.36	88.44
303.59	92.44
303.82	91.44
304.051	96.44
304.281	76.44
304.511	88.44
304.741	90.44
304.971	95.44
305.201	101.44
305.431	86.44
305.661	105.44
305.891	91.44
306.121	72.44
306.352	101.44
306.582	114.44
306.812	90.44
307.042	111.44
307.272	90.44
307.502	77.44
307.731	92.44
307.961	87.44
308.191	82.44
308.421	92.44
308.651	99.44
308.881	106.44
309.111	96.44
309.341	101.44
309.571	116.44
309.8	105.44
310.03	95.44
310.26	104.44
310.49	100.44
310.72	99.44
310.949	98.44
311.179	107.44
311.409	88.44
311.639	97.44
311.868	95.44
312.098	110.44
312.328	93.44
312.557	105.44
312.787	98.44
313.017	108.44
313.246	90.44
313.476	103.44
313.706	95.44
313.935	112.44
314.165	97.44
314.394	102.44
314.624	98.44
314.853	99.44
315.083	98.44
315.312	88.44
315.542	89.44
315.771	80.44
316.001	93.44
316.23	100.44
316.46	91.44
316.689	92.44
316.919	99.44
317.148	89.44
317.377	107.44
317.607	90.44
317.836	91.44
318.065	80.44
318.295	86.44
318.524	105.44
318.753	108.44
318.983	96.44
319.212	98.44
319.441	98.44
319.67	96.44
319.9	97.44
320.129	98.44
320.358	87.44
320.587	93.44
320.816	94.44
321.046	104.44
321.275	102.44
321.504	106.44
321.733	105.44
321.962	79.44
322.191	91.44
322.42	114.44
322.649	104.44
322.878	112.44
323.108	111.44
323.337	118.44
323.566	118.44
323.795	147.44
324.024	180.44
324.253	373.44
324.482	750.44
324.71	1508.44
324.939	1953.44
325.168	748.44
325.397	221.44
325.626	152.44
325.855	116.44
326.084	128.44
326.313	132.44
326.542	137.44
326.77	219.44
326.999	433.44
327.228	874.44
327.457	1582.44
327.686	1238.44
327.914	339.44
328.143	185.44
328.372	163.44
328.6	119.44
328.829	106.44
329.058	120.44
329.287	127.44
329.515	105.44
329.744	90.44
329.972	99.44
330.201	119.44
330.43	133.44
330.658	116.44
330.887	116.44
331.115	118.44
331.344	96.44
331.572	101.44
331.801	99.44
332.03	101.44
332.258	97.44
332.486	100.44
332.715	95.44
332.943	105.44
333.172	105.44
333.4	98.44
333.629	99.44
333.857	90.44
334.085	109.44
334.314	106.44
334.542	124.44
334.771	133.44
334.999	99.44
335.227	96.44
335.455	96.44
335.684	92.44
335.912	95.44
336.14	90.44
336.369	105.44
336.597	92.44
336.825	98.44
337.053	110.44
337.281	97.44
337.51	75.44
337.738	102.44
337.966	88.44
338.194	93.44
338.422	91.44
338.65	94.44
338.878	106.44
339.106	91.44
339.334	83.44
339.562	88.44
339.79	85.44
340.018	92.44
340.246	105.44
340.474	90.44
340.702	86.44
340.93	91.44
341.158	92.44
341.386	96.44
341.614	93.44
341.842	118.44
342.07	94.44
342.298	92.44
342.526	77.44
342.754	85.44
342.981	84.44
343.209	99.44
343.437	98.44
343.665	99.44
343.893	104.44
344.12	96.44
344.348	91.44
344.576	100.44
344.804	89.44
345.031	97.44
345.259	87.44
345.487	92.44
345.714	94.44
345.942	82.44
346.17	105.44
346.397	80.44
346.625	74.44
346.853	85.44
347.08	85.44
347.308	111.44
347.535	100.44
347.763	76.44
347.99	92.44
348.218	107.44
348.445	101.44
348.673	99.44
348.9	105.44
349.128	99.44
349.355	101.44
349.583	99.44
349.81	103.44
350.037	84.44
350.265	100.44
350.492	100.44
350.72	102.44
350.947	101.44
351.174	108.44
351.402	101.44
351.629	99.44
351.856	96.44
352.083	94.44
352.311	109.44
352.538	107.44
352.765	112.44
352.992	115.44
353.22	93.44
353.447	107.44
353.674	105.44
353.901	99.44
354.128	103.44
354.355	105.44
354.583	103.44
354.81	94.44
355.037	104.44
355.264	110.44
355.491	104.44
355.718	86.44
355.945	92.44
356.172	101.44
356.399	93.44
356.626	89.44
356.853	96.44
357.08	92.44
357.307	91.44
357.534	86.44
357.761	101.44
357.988	98.44
358.215	95.44
358.441	101.44
358.668	93.44
358.895	93.44
359.122	83.44
359.349	82.44
359.576	94.44
359.802	99.44
360.029	100.44
360.256	112.44
360.483	110.44
360.709	96.44
360.936	102.44
361.163	96.44
361.39	92.44
361.616	90.44
361.843	69.44
362.07	81.44
362.296	90.44
362.523	82.44
362.749	101.44
362.976	90.44
363.203	79.44
363.429	94.44
363.656	108.44
363.882	77.44
364.109	91.44
364.335	99.44
364.562	98.44
364.788	85.44
365.015	83.44
365.241	110.44
365.468	105.44
365.694	99.44
365.92	90.44
366.147	92.44
366.373	103.44
366.599	85.44
366.826	101.44
367.052	101.44
367.278	100.44
367.505	92.44
367.731	81.44
367.957	96.44
368.184	92.44
368.41	88.44
368.636	97.44
368.862	131.44
369.089	89.44
369.315	90.44
369.541	115.44
369.767	86.44
369.993	84.44
370.219	87.44
370.445	98.44
370.672	86.44
370.898	82.44
371.124	73.44
371.35	67.44
371.576	82.44
371.802	80.44
372.028	97.44
372.254	89.44
372.48	102.44
372.706	90.44
372.932	90.44
373.158	84.44
373.384	100.44
373.61	100.44
373.835	99.44
374.061	89.44
374.287	97.44
374.513	93.44
374.739	97.44
374.965	99.44
375.191	105.44
375.416	82.44
375.642	97.44
375.868	88.44
376.094	92.44
376.319	103.44
376.545	97.44
376.771	84.44
376.997	97.44
377.222	103.44
377.448	83.44
377.674	98.44
377.899	93.44
378.125	87.44
378.35	78.44
378.576	95.44
378.802	97.44
379.027	88.44
379.253	88.44
379.478	99.44
379.704	100.44
379.929	106.44
380.155	102.44
380.38	97.44
380.606	92.44
380.831	83.44
381.057	91.44
381.282	100.44
381.507	90.44
381.733	93.44
381.958	98.44
382.184	94.44
382.409	98.44
382.634	109.44
382.86	119.44
383.085	105.44
383.31	103.44
383.535	102.44
383.761	101.44
383.986	77.44
384.211	100.44
384.436	104.44
384.662	105.44
384.887	110.44
385.112	97.44
385.337	106.44
385.562	97.44
385.787	109.44
386.013	108.44
386.238	123.44
386.463	120.44
386.688	105.44
386.913	100.44
387.138	101.44
387.363	100.44
387.588	108.44
387.813	98.44
388.038	114.44
388.263	116.44
388.488	110.44
388.713	92.44
388.938	92.44
389.163	101.44
389.387	102.44
389.612	97.44
389.837	76.44
390.062	94.44
390.287	101.44
390.512	100.44
390.736	90.44
390.961	94.44
391.186	89.44
391.411	105.44
391.636	96.44
391.86	97.44
392.085	84.44
392.31	79.44
392.534	92.44
392.759	79.44
392.984	96.44
393.208	80.44
393.433	103.44
393.658	111.44
393.882	89.44
394.107	79.44
394.331	74.44
394.556	87.44
394.78	85.44
395.005	83.44
395.229	82.44
395.454	80.44
395.678	82.44
395.903	80.44
396.127	96.44
396.352	83.44
396.576	83.44
396.801	79.44
397.025	91.44
397.249	77.44
397.474	78.44
397.698	80.44
397.922	101.44
398.147	95.44
398.371	84.44
398.595	102.44
398.82	79.44
399.044	96.44
399.268	94.44
399.492	84.44
399.717	108.44
399.941	98.44
400.165	93.44
400.389	95.44
400.613	90.44
400.837	92.44
401.062	88.44
401.286	91.44
401.51	96.44
401.734	83.44
401.958	91.44
402.182	106.44
402.406	141.44
402.63	118.44
402.854	90.44
403.078	87.44
403.302	99.44
403.526	99.44
403.75	98.44
403.974	90.44
404.198	83.44
404.422	83.44
404.645	95.44
404.869	95.44
405.093	90.44
405.317	100.44
405.541	111.44
405.765	89.44
405.988	105.44
406.212	148.44
406.436	177.44
406.66	143.44
406.883	97.44
407.107	93.44
407.331	98.44
407.555	97.44
407.778	99.44
408.002	92.44
408.226	86.44
408.449	79.44
408.673	92.44
408.896	84.44
409.12	99.44
409.344	81.44
409.567	98.44
409.791	87.44
410.014	92.44
410.238	97.44
410.461	85.44
410.685	88.44
410.908	107.44
411.132	95.44
411.355	88.44
411.578	84.44
411.802	88.44
412.025	99.44
412.249	91.44
412.472	92.44
412.695	93.44
412.919	78.44
413.142	83.44
413.365	84.44
413.589	98.44
413.812	76.44
414.035	75.44
414.258	96.44
414.482	100.44
414.705	69.44
414.928	86.44
415.151	95.44
415.374	98.44
415.597	90.44
415.821	92.44
416.044	87.44
416.267	84.44
416.49	94.44
416.713	100.44
416.936	94.44
417.159	91.44
417.382	92.44
417.605	105.44
417.828	88.44
418.051	91.44
418.274	89.44
418.497	88.44
418.72	84.44
418.943	85.44
419.166	97.44
419.389	76.44
419.611	89.44
419.834	81.44
420.057	93.44
420.28	83.44
420.503	95.44
420.726	92.44
420.948	89.44
421.171	96.44
421.394	100.44
421.617	100.44
421.839	98.44
422.062	101.44
422.285	90.44
422.507	98.44
422.73	102.44
422.953	92.44
423.175	105.44
423.398	85.44
423.621	83.44
423.843	89.44
424.066	103.44
424.288	110.44
424.511	95.44
424.733	92.44
424.956	101.44
425.178	96.44
425.401	106.44
425.623	114.44
425.846	88.44
426.068	92.44
426.291	84.44
426.513	98.44
426.735	88.44
426.958	102.44
427.18	111.44
427.402	137.44
427.625	160.44
427.847	122.44
428.069	107.44
428.292	90.44
428.514	93.44
428.736	88.44
428.958	87.44
429.181	85.44
429.403	91.44
429.625	83.44
429.847	88.44
430.069	95.44
430.292	84.44
430.514	83.44
430.736	79.44
430.958	101.44
431.18	93.44
431.402	90.44
431.624	68.44
431.846	88.44
432.068	93.44
432.29	90.44
432.512	86.44
432.734	113.44
432.956	75.44
433.178	103.44
433.4	87.44
433.622	97.44
433.844	102.44
434.066	99.44
434.287	102.44
434.509	84.44
434.731	96.44
434.953	98.44
435.175	85.44
435.397	86.44
435.618	98.44
435.84	93.44
436.062	120.44
436.284	115.44
436.505	104.44
436.727	105.44
436.949	88.44
437.17	91.44
437.392	87.44
437.614	100.44
437.835	101.44
438.057	124.44
438.278	107.44
438.5	98.44
438.721	128.44
438.943	101.44
439.165	92.44
439.386	95.44
439.608	86.44
439.829	99.44
440.05	134.44
440.272	141.44
440.493	92.44
440.715	77.44
440.936	84.44
441.158	81.44
441.379	86.44
441.6	106.44
441.822	101.44
442.043	93.44
442.264	93.44
442.486	90.44
442.707	99.44
442.928	96.44
443.149	127.44
443.371	129.44
443.592	106.44
443.813	108.44
444.034	106.44
444.255	92.44
444.476	95.44
444.698	80.44
444.919	97.44
445.14	131.44
445.361	121.44
445.582	134.44
445.803	129.44
446.024	122.44
446.245	139.44
446.466	118.44
446.687	92.44
446.908	84.44
447.129	84.44
447.35	87.44
447.571	88.44
447.792	77.44
448.013	102.44
448.234	88.44
448.455	97.44
448.675	114.44
448.896	115.44
449.117	90.44
449.338	91.44
449.559	126.44
449.779	135.44
450	85.44
450.221	95.44
450.442	90.44
450.662	88.44
450.883	92.44
451.104	97.44
451.324	103.44
451.545	92.44
451.766	75.44
451.986	85.44
452.207	75.44
452.428	111.44
452.648	91.44
452.869	115.44
453.089	101.44
453.31	101.44
453.53	74.44
453.751	75.44
453.971	110.44
454.192	105.44
454.412	87.44
454.633	63.44
454.853	95.44
455.073	96.44
455.294	88.44
455.514	80.44
455.734	85.44
455.955	91.44
456.175	83.44
456.395	76.44
456.616	85.44
456.836	97.44
457.056	88.44
457.276	77.44
457.497	89.44
457.717	98.44
457.937	98.44
458.157	91.44
458.377	101.44
458.598	108.44
458.818	128.44
459.038	144.44
459.258	114.44
459.478	93.44
459.698	78.44
459.918	84.44
460.138	89.44
460.358	78.44
460.578	98.44
460.798	96.44
461.018	103.44
461.238	82.44
461.458	84.44
461.678	89.44
461.898	81.44
462.118	92.44
462.338	92.44
462.558	89.44
462.777	80.44
462.997	86.44
463.217	87.44
463.437	84.44
463.657	94.44
463.876	81.44
464.096	89.44
464.316	81.44
464.536	96.44
464.755	91.44
464.975	103.44
465.195	146.44
465.414	131.44
465.634	92.44
465.854	96.44
466.073	88.44
466.293	88.44
466.512	87.44
466.732	97.44
466.951	90.44
467.171	79.44
467.391	98.44
467.61	107.44
467.829	97.44
468.049	87.44
468.268	98.44
468.488	97.44
468.707	85.44
468.927	87.44
469.146	96.44
469.365	81.44
469.585	86.44
469.804	90.44
470.023	88.44
470.243	97.44
470.462	91.44
470.681	93.44
470.901	88.44
471.12	82.44
471.339	105.44
471.558	89.44
471.777	93.44
471.997	98.44
472.216	107.44
472.435	131.44
472.654	100.44
472.873	89.44
473.092	75.44
473.311	81.44
473.53	89.44
473.749	89.44
473.968	90.44
474.187	85.44
474.406	91.44
474.625	90.44
474.844	70.44
475.063	90.44
475.282	91.44
475.501	105.44
475.72	92.44
475.939	95.44
476.158	81.44
476.377	91.44
476.596	87.44
476.814	98.44
477.033	102.44
477.252	81.44
477.471	72.44
477.69	87.44
477.908	87.44
478.127	87.44
478.346	85.44
478.564	79.44
478.783	99.44
479.002	99.44
479.22	97.44
479.439	99.44
479.658	89.44
479.876	83.44
480.095	92.44
480.313	82.44
480.532	84.44
480.751	84.44
480.969	119.44
481.188	185.44
481.406	149.44
481.624	94.44
481.843	93.44
482.061	104.44
482.28	102.44
482.498	111.44
482.717	89.44
482.935	97.44
483.153	83.44
483.372	80.44
483.59	105.44
483.808	92.44
484.027	85.44
484.245	100.44
484.463	101.44
484.681	99.44
484.9	108.44
485.118	89.44
485.336	96.44
485.554	96.44
485.772	93.44
485.99	90.44
486.209	102.44
486.427	105.44
486.645	96.44
486.863	96.44
487.081	103.44
487.299	92.44
487.517	93.44
487.735	96.44
487.953	81.44
488.171	77.44
488.389	95.44
488.607	98.44
488.825	89.44
489.043	88.44
489.261	98.44
489.479	93.44
489.696	93.44
489.914	89.44
490.132	96.44
490.35	89.44
490.568	87.44
490.786	80.44
491.003	82.44
491.221	98.44
491.439	89.44
491.657	98.44
491.874	97.44
492.092	88.44
492.31	76.44
492.527	91.44
492.745	100.44
492.963	95.44
493.18	82.44
493.398	93.44
493.615	87.44
493.833	86.44
494.05	93.44
494.268	97.44
494.485	92.44
494.703	100.44
494.92	98.44
495.138	101.44
495.355	90.44
495.573	98.44
495.79	83.44
496.008	93.44
496.225	84.44
496.442	82.44
496.66	76.44
496.877	89.44
497.094	81.44
497.312	72.44
497.529	86.44
497.746	92.44
497.963	84.44
498.181	95.44
498.398	86.44
498.615	97.44
498.832	76.44
499.049	90.44
499.267	93.44
499.484	91.44
499.701	95.44
499.918	90.44
500.135	91.44
500.352	97.44
500.569	86.44
500.786	96.44
501.003	88.44
501.22	99.44
501.437	99.44
501.654	92.44
501.871	100.44
502.088	80.44
502.305	93.44
502.522	86.44
502.739	81.44
502.956	76.44
503.172	87.44
503.389	97.44
503.606	116.44
503.823	89.44
504.04	90.44
504.256	101.44
504.473	97.44
504.69	88.44
504.907	90.44
505.123	100.44
505.34	97.44
505.557	84.44
505.773	83.44
505.99	95.44
506.207	79.44
506.423	75.44
506.64	91.44
506.856	87.44
507.073	111.44
507.289	108.44
507.506	105.44
507.722	109.44
507.939	93.44
508.155	107.44
508.372	83.44
508.588	87.44
508.805	108.44
509.021	91.44
509.238	95.44
509.454	97.44
509.67	101.44
509.887	93.44
510.103	107.44
510.319	205.44
510.536	609.44
510.752	1815.44
510.968	539.44
511.184	141.44
511.401	102.44
511.617	93.44
511.833	101.44
512.049	92.44
512.265	101.44
512.481	90.44
512.698	99.44
512.914	108.44
513.13	87.44
513.346	93.44
513.562	85.44
513.778	101.44
513.994	82.44
514.21	97.44
514.426	112.44
514.642	127.44
514.858	109.44
515.074	144.44
515.29	343.44
515.506	1097.44
