Data from Circ_2002_H10_HRD10591_00066.txt Node
Date: Wed Jan 03 10:41:11 EST 2024
User: Yrep
Spectrometer: HR+D1059
Trigger mode: 1
Integration Time (sec): 1.000000E-1
Scans to average: 1
Electric dark correction enabled: true
Nonlinearity correction enabled: false
Boxcar width: 0
XAxis mode: Wavelengths
Number of Pixels in Spectrum: 2048
>>>>>Begin Spectral Data<<<<<
223.165	-17.44
223.4	-17.44
223.635	-17.44
223.869	-13.44
224.104	-17.44
224.338	-21.44
224.573	-22.44
224.808	-12.44
225.042	6.56
225.277	6.56
225.511	-4.44
225.746	-3.44
225.98	-6.44
226.215	16.56
226.449	22.56
226.683	20.56
226.918	23.56
227.152	22.56
227.387	29.56
227.621	24.56
227.856	39.56
228.09	45.56
228.324	69.56
228.559	50.56
228.793	56.56
229.027	54.56
229.262	69.56
229.496	75.56
229.73	70.56
229.964	81.56
230.199	70.56
230.433	88.56
230.667	71.56
230.901	70.56
231.136	76.56
231.37	74.56
231.604	76.56
231.838	78.56
232.072	85.56
232.306	74.56
232.541	98.56
232.775	65.56
233.009	79.56
233.243	80.56
233.477	78.56
233.711	87.56
233.945	80.56
234.179	86.56
234.413	90.56
234.647	78.56
234.881	79.56
235.115	80.56
235.349	84.56
235.583	79.56
235.817	82.56
236.051	72.56
236.285	83.56
236.519	81.56
236.753	82.56
236.987	73.56
237.221	76.56
237.455	94.56
237.689	71.56
237.922	76.56
238.156	64.56
238.39	73.56
238.624	79.56
238.858	77.56
239.091	75.56
239.325	79.56
239.559	83.56
239.793	72.56
240.027	80.56
240.26	69.56
240.494	71.56
240.728	64.56
240.961	77.56
241.195	75.56
241.429	62.56
241.662	74.56
241.896	78.56
242.13	90.56
242.363	64.56
242.597	70.56
242.83	60.56
243.064	86.56
243.298	77.56
243.531	79.56
243.765	73.56
243.998	82.56
244.232	70.56
244.465	81.56
244.699	78.56
244.932	80.56
245.166	78.56
245.399	85.56
245.633	81.56
245.866	66.56
246.099	94.56
246.333	76.56
246.566	74.56
246.8	67.56
247.033	78.56
247.266	79.56
247.5	74.56
247.733	62.56
247.966	83.56
248.2	82.56
248.433	74.56
248.666	82.56
248.899	85.56
249.133	90.56
249.366	82.56
249.599	86.56
249.832	58.56
250.066	75.56
250.299	89.56
250.532	97.56
250.765	84.56
250.998	73.56
251.231	83.56
251.465	80.56
251.698	78.56
251.931	79.56
252.164	80.56
252.397	80.56
252.63	73.56
252.863	81.56
253.096	91.56
253.329	75.56
253.562	93.56
253.795	87.56
254.028	76.56
254.261	85.56
254.494	81.56
254.727	72.56
254.96	84.56
255.193	88.56
255.426	71.56
255.659	76.56
255.892	86.56
256.124	84.56
256.357	83.56
256.59	87.56
256.823	79.56
257.056	69.56
257.289	75.56
257.521	86.56
257.754	77.56
257.987	70.56
258.22	85.56
258.452	68.56
258.685	81.56
258.918	75.56
259.151	86.56
259.383	75.56
259.616	82.56
259.849	66.56
260.081	77.56
260.314	84.56
260.547	67.56
260.779	82.56
261.012	78.56
261.244	77.56
261.477	93.56
261.71	87.56
261.942	89.56
262.175	104.56
262.407	84.56
262.64	79.56
262.872	91.56
263.105	76.56
263.337	98.56
263.57	87.56
263.802	81.56
264.035	75.56
264.267	68.56
264.499	78.56
264.732	99.56
264.964	74.56
265.197	80.56
265.429	90.56
265.661	83.56
265.894	88.56
266.126	78.56
266.358	90.56
266.591	71.56
266.823	89.56
267.055	88.56
267.287	80.56
267.52	83.56
267.752	76.56
267.984	71.56
268.216	84.56
268.448	70.56
268.681	94.56
268.913	83.56
269.145	88.56
269.377	87.56
269.609	80.56
269.841	90.56
270.073	75.56
270.306	74.56
270.538	69.56
270.77	100.56
271.002	87.56
271.234	80.56
271.466	79.56
271.698	78.56
271.93	76.56
272.162	83.56
272.394	87.56
272.626	78.56
272.858	81.56
273.09	88.56
273.322	100.56
273.553	76.56
273.785	78.56
274.017	64.56
274.249	95.56
274.481	77.56
274.713	89.56
274.945	89.56
275.176	89.56
275.408	88.56
275.64	69.56
275.872	90.56
276.104	90.56
276.335	95.56
276.567	98.56
276.799	86.56
277.031	102.56
277.262	107.56
277.494	79.56
277.726	78.56
277.957	82.56
278.189	81.56
278.421	83.56
278.652	83.56
278.884	82.56
279.115	88.56
279.347	100.56
279.579	81.56
279.81	71.56
280.042	90.56
280.273	105.56
280.505	90.56
280.736	78.56
280.968	95.56
281.199	90.56
281.431	89.56
281.662	81.56
281.894	84.56
282.125	92.56
282.356	104.56
282.588	108.56
282.819	100.56
283.051	99.56
283.282	76.56
283.513	80.56
283.745	87.56
283.976	68.56
284.207	77.56
284.439	86.56
284.67	87.56
284.901	92.56
285.132	95.56
285.364	89.56
285.595	108.56
285.826	74.56
286.057	87.56
286.288	83.56
286.52	79.56
286.751	90.56
286.982	91.56
287.213	88.56
287.444	93.56
287.675	89.56
287.906	78.56
288.138	77.56
288.369	89.56
288.6	94.56
288.831	89.56
289.062	91.56
289.293	86.56
289.524	81.56
289.755	81.56
289.986	93.56
290.217	78.56
290.448	92.56
290.679	90.56
290.91	94.56
291.141	94.56
291.371	90.56
291.602	87.56
291.833	90.56
292.064	83.56
292.295	83.56
292.526	91.56
292.757	85.56
292.987	80.56
293.218	83.56
293.449	88.56
293.68	82.56
293.91	76.56
294.141	100.56
294.372	82.56
294.603	79.56
294.833	92.56
295.064	96.56
295.295	86.56
295.525	83.56
295.756	89.56
295.987	107.56
296.217	110.56
296.448	97.56
296.679	99.56
296.909	73.56
297.14	104.56
297.37	80.56
297.601	76.56
297.831	81.56
298.062	78.56
298.292	96.56
298.523	79.56
298.753	85.56
298.984	88.56
299.214	90.56
299.445	86.56
299.675	94.56
299.905	82.56
300.136	82.56
300.366	79.56
300.597	98.56
300.827	91.56
301.057	100.56
301.288	110.56
301.518	87.56
301.748	85.56
301.979	95.56
302.209	108.56
302.439	89.56
302.669	67.56
302.9	84.56
303.13	96.56
303.36	88.56
303.59	81.56
303.82	103.56
304.051	87.56
304.281	82.56
304.511	92.56
304.741	90.56
304.971	102.56
305.201	83.56
305.431	95.56
305.661	94.56
305.891	99.56
306.121	95.56
306.352	85.56
306.582	93.56
306.812	88.56
307.042	88.56
307.272	109.56
307.502	91.56
307.731	96.56
307.961	78.56
308.191	83.56
308.421	100.56
308.651	95.56
308.881	97.56
309.111	101.56
309.341	90.56
309.571	83.56
309.8	94.56
310.03	98.56
310.26	94.56
310.49	96.56
310.72	103.56
310.949	98.56
311.179	102.56
311.409	90.56
311.639	81.56
311.868	96.56
312.098	81.56
312.328	87.56
312.557	94.56
312.787	78.56
313.017	96.56
313.246	97.56
313.476	87.56
313.706	90.56
313.935	89.56
314.165	91.56
314.394	91.56
314.624	96.56
314.853	101.56
315.083	78.56
315.312	92.56
315.542	98.56
315.771	88.56
316.001	88.56
316.23	87.56
316.46	83.56
316.689	95.56
316.919	85.56
317.148	96.56
317.377	85.56
317.607	87.56
317.836	74.56
318.065	85.56
318.295	95.56
318.524	104.56
318.753	86.56
318.983	81.56
319.212	109.56
319.441	95.56
319.67	102.56
319.9	100.56
320.129	93.56
320.358	86.56
320.587	95.56
320.816	96.56
321.046	104.56
321.275	79.56
321.504	96.56
321.733	94.56
321.962	90.56
322.191	89.56
322.42	87.56
322.649	118.56
322.878	108.56
323.108	112.56
323.337	105.56
323.566	128.56
323.795	133.56
324.024	179.56
324.253	310.56
324.482	667.56
324.71	1338.56
324.939	1758.56
325.168	646.56
325.397	214.56
325.626	129.56
325.855	112.56
326.084	109.56
326.313	115.56
326.542	132.56
326.77	200.56
326.999	386.56
327.228	787.56
327.457	1444.56
327.686	1100.56
327.914	307.56
328.143	154.56
328.372	148.56
328.6	115.56
328.829	113.56
329.058	118.56
329.287	112.56
329.515	98.56
329.744	103.56
329.972	114.56
330.201	114.56
330.43	122.56
330.658	113.56
330.887	118.56
331.115	105.56
331.344	89.56
331.572	92.56
331.801	102.56
332.03	104.56
332.258	92.56
332.486	89.56
332.715	95.56
332.943	98.56
333.172	86.56
333.4	90.56
333.629	83.56
333.857	96.56
334.085	99.56
334.314	111.56
334.542	136.56
334.771	142.56
334.999	101.56
335.227	87.56
335.455	91.56
335.684	90.56
335.912	83.56
336.14	107.56
336.369	90.56
336.597	77.56
336.825	90.56
337.053	90.56
337.281	97.56
337.51	85.56
337.738	97.56
337.966	97.56
338.194	97.56
338.422	98.56
338.65	86.56
338.878	100.56
339.106	92.56
339.334	88.56
339.562	89.56
339.79	88.56
340.018	86.56
340.246	89.56
340.474	98.56
340.702	91.56
340.93	80.56
341.158	90.56
341.386	89.56
341.614	86.56
341.842	84.56
342.07	76.56
342.298	98.56
342.526	80.56
342.754	97.56
342.981	84.56
343.209	95.56
343.437	102.56
343.665	103.56
343.893	91.56
344.12	88.56
344.348	88.56
344.576	105.56
344.804	92.56
345.031	94.56
345.259	102.56
345.487	98.56
345.714	89.56
345.942	85.56
346.17	97.56
346.397	90.56
346.625	96.56
346.853	105.56
347.08	91.56
347.308	100.56
347.535	95.56
347.763	79.56
347.99	96.56
348.218	103.56
348.445	111.56
348.673	80.56
348.9	87.56
349.128	87.56
349.355	92.56
349.583	105.56
349.81	88.56
350.037	97.56
350.265	90.56
350.492	108.56
350.72	89.56
350.947	109.56
351.174	100.56
351.402	101.56
351.629	101.56
351.856	96.56
352.083	95.56
352.311	92.56
352.538	111.56
352.765	112.56
352.992	96.56
353.22	95.56
353.447	103.56
353.674	97.56
353.901	98.56
354.128	99.56
354.355	74.56
354.583	94.56
354.81	104.56
355.037	96.56
355.264	93.56
355.491	90.56
355.718	90.56
355.945	76.56
356.172	105.56
356.399	108.56
356.626	89.56
356.853	89.56
357.08	97.56
357.307	108.56
357.534	99.56
357.761	106.56
357.988	97.56
358.215	76.56
358.441	87.56
358.668	87.56
358.895	83.56
359.122	78.56
359.349	86.56
359.576	83.56
359.802	89.56
360.029	87.56
360.256	87.56
360.483	99.56
360.709	82.56
360.936	87.56
361.163	73.56
361.39	90.56
361.616	83.56
361.843	97.56
362.07	94.56
362.296	95.56
362.523	70.56
362.749	92.56
362.976	92.56
363.203	85.56
363.429	85.56
363.656	83.56
363.882	84.56
364.109	106.56
364.335	90.56
364.562	81.56
364.788	103.56
365.015	83.56
365.241	93.56
365.468	106.56
365.694	84.56
365.92	89.56
366.147	100.56
366.373	96.56
366.599	95.56
366.826	101.56
367.052	84.56
367.278	92.56
367.505	81.56
367.731	75.56
367.957	89.56
368.184	104.56
368.41	86.56
368.636	107.56
368.862	110.56
369.089	99.56
369.315	98.56
369.541	81.56
369.767	92.56
369.993	85.56
370.219	85.56
370.445	87.56
370.672	78.56
370.898	88.56
371.124	82.56
371.35	89.56
371.576	81.56
371.802	92.56
372.028	87.56
372.254	78.56
372.48	81.56
372.706	71.56
372.932	89.56
373.158	90.56
373.384	82.56
373.61	85.56
373.835	87.56
374.061	89.56
374.287	85.56
374.513	87.56
374.739	75.56
374.965	99.56
375.191	77.56
375.416	85.56
375.642	98.56
375.868	91.56
376.094	83.56
376.319	80.56
376.545	81.56
376.771	101.56
376.997	97.56
377.222	98.56
377.448	91.56
377.674	98.56
377.899	78.56
378.125	88.56
378.35	96.56
378.576	93.56
378.802	102.56
379.027	95.56
379.253	87.56
379.478	87.56
379.704	89.56
379.929	94.56
380.155	83.56
380.38	101.56
380.606	98.56
380.831	87.56
381.057	98.56
381.282	95.56
381.507	92.56
381.733	99.56
381.958	100.56
382.184	99.56
382.409	101.56
382.634	96.56
382.86	83.56
383.085	87.56
383.31	104.56
383.535	74.56
383.761	95.56
383.986	92.56
384.211	86.56
384.436	93.56
384.662	87.56
384.887	91.56
385.112	98.56
385.337	99.56
385.562	107.56
385.787	109.56
386.013	115.56
386.238	116.56
386.463	92.56
386.688	103.56
386.913	101.56
387.138	108.56
387.363	96.56
387.588	94.56
387.813	87.56
388.038	101.56
388.263	108.56
388.488	99.56
388.713	92.56
388.938	104.56
389.163	95.56
389.387	98.56
389.612	88.56
389.837	106.56
390.062	91.56
390.287	97.56
390.512	80.56
390.736	85.56
390.961	82.56
391.186	99.56
391.411	92.56
391.636	92.56
391.86	87.56
392.085	87.56
392.31	82.56
392.534	78.56
392.759	87.56
392.984	81.56
393.208	97.56
393.433	88.56
393.658	92.56
393.882	87.56
394.107	91.56
394.331	86.56
394.556	73.56
394.78	83.56
395.005	106.56
395.229	87.56
395.454	87.56
395.678	85.56
395.903	87.56
396.127	90.56
396.352	97.56
396.576	82.56
396.801	75.56
397.025	72.56
397.249	84.56
397.474	79.56
397.698	87.56
397.922	92.56
398.147	80.56
398.371	82.56
398.595	91.56
398.82	90.56
399.044	90.56
399.268	94.56
399.492	88.56
399.717	92.56
399.941	71.56
400.165	89.56
400.389	88.56
400.613	97.56
400.837	77.56
401.062	77.56
401.286	76.56
401.51	83.56
401.734	79.56
401.958	107.56
402.182	116.56
402.406	126.56
402.63	112.56
402.854	90.56
403.078	89.56
403.302	84.56
403.526	86.56
403.75	101.56
403.974	75.56
404.198	84.56
404.422	93.56
404.645	82.56
404.869	87.56
405.093	99.56
405.317	105.56
405.541	106.56
405.765	96.56
405.988	111.56
406.212	136.56
406.436	176.56
406.66	103.56
406.883	84.56
407.107	97.56
407.331	103.56
407.555	88.56
407.778	84.56
408.002	86.56
408.226	100.56
408.449	65.56
408.673	83.56
408.896	94.56
409.12	82.56
409.344	88.56
409.567	86.56
409.791	97.56
410.014	91.56
410.238	87.56
410.461	103.56
410.685	92.56
410.908	99.56
411.132	101.56
411.355	94.56
411.578	88.56
411.802	87.56
412.025	89.56
412.249	84.56
412.472	89.56
412.695	95.56
412.919	80.56
413.142	69.56
413.365	92.56
413.589	92.56
413.812	80.56
414.035	83.56
414.258	89.56
414.482	87.56
414.705	73.56
414.928	84.56
415.151	101.56
415.374	88.56
415.597	86.56
415.821	88.56
416.044	83.56
416.267	94.56
416.49	82.56
416.713	91.56
416.936	90.56
417.159	91.56
417.382	86.56
417.605	90.56
417.828	89.56
418.051	91.56
418.274	95.56
418.497	98.56
418.72	83.56
418.943	97.56
419.166	92.56
419.389	75.56
419.611	78.56
419.834	89.56
420.057	82.56
420.28	101.56
420.503	90.56
420.726	74.56
420.948	93.56
421.171	86.56
421.394	84.56
421.617	92.56
421.839	97.56
422.062	73.56
422.285	89.56
422.507	84.56
422.73	84.56
422.953	78.56
423.175	95.56
423.398	83.56
423.621	87.56
423.843	93.56
424.066	86.56
424.288	100.56
424.511	82.56
424.733	104.56
424.956	107.56
425.178	89.56
425.401	92.56
425.623	102.56
425.846	97.56
426.068	93.56
426.291	83.56
426.513	83.56
426.735	98.56
426.958	90.56
427.18	96.56
427.402	110.56
427.625	139.56
427.847	123.56
428.069	114.56
428.292	86.56
428.514	97.56
428.736	92.56
428.958	90.56
429.181	99.56
429.403	84.56
429.625	85.56
429.847	87.56
430.069	96.56
430.292	98.56
430.514	99.56
430.736	88.56
430.958	79.56
431.18	92.56
431.402	97.56
431.624	91.56
431.846	86.56
432.068	95.56
432.29	94.56
432.512	101.56
432.734	98.56
432.956	81.56
433.178	86.56
433.4	92.56
433.622	95.56
433.844	83.56
434.066	98.56
434.287	99.56
434.509	87.56
434.731	82.56
434.953	86.56
435.175	76.56
435.397	86.56
435.618	86.56
435.84	85.56
436.062	108.56
436.284	105.56
436.505	91.56
436.727	106.56
436.949	99.56
437.17	89.56
437.392	91.56
437.614	74.56
437.835	96.56
438.057	98.56
438.278	98.56
438.5	103.56
438.721	99.56
438.943	95.56
439.165	87.56
439.386	86.56
439.608	86.56
439.829	88.56
440.05	113.56
440.272	129.56
440.493	100.56
440.715	89.56
440.936	94.56
441.158	90.56
441.379	86.56
441.6	87.56
441.822	81.56
442.043	77.56
442.264	102.56
442.486	90.56
442.707	105.56
442.928	90.56
443.149	117.56
443.371	113.56
443.592	106.56
443.813	112.56
444.034	98.56
444.255	97.56
444.476	86.56
444.698	75.56
444.919	87.56
445.14	122.56
445.361	116.56
445.582	100.56
445.803	121.56
446.024	110.56
446.245	117.56
446.466	107.56
446.687	96.56
446.908	74.56
447.129	83.56
447.35	86.56
447.571	80.56
447.792	85.56
448.013	95.56
448.234	98.56
448.455	104.56
448.675	107.56
448.896	106.56
449.117	90.56
449.338	107.56
449.559	119.56
449.779	106.56
450	83.56
450.221	88.56
450.442	90.56
450.662	87.56
450.883	113.56
451.104	95.56
451.324	90.56
451.545	78.56
451.766	86.56
451.986	88.56
452.207	96.56
452.428	92.56
452.648	97.56
452.869	100.56
453.089	107.56
453.31	98.56
453.53	95.56
453.751	78.56
453.971	87.56
454.192	97.56
454.412	109.56
454.633	90.56
454.853	86.56
455.073	87.56
455.294	83.56
455.514	85.56
455.734	84.56
455.955	86.56
456.175	87.56
456.395	87.56
456.616	71.56
456.836	94.56
457.056	90.56
457.276	80.56
457.497	79.56
457.717	78.56
457.937	92.56
458.157	72.56
458.377	69.56
458.598	88.56
458.818	134.56
459.038	137.56
459.258	107.56
459.478	80.56
459.698	89.56
459.918	98.56
460.138	80.56
460.358	91.56
460.578	84.56
460.798	85.56
461.018	78.56
461.238	98.56
461.458	95.56
461.678	76.56
461.898	92.56
462.118	91.56
462.338	81.56
462.558	86.56
462.777	76.56
462.997	103.56
463.217	97.56
463.437	91.56
463.657	81.56
463.876	100.56
464.096	81.56
464.316	78.56
464.536	85.56
464.755	91.56
464.975	95.56
465.195	130.56
465.414	113.56
465.634	90.56
465.854	78.56
466.073	86.56
466.293	89.56
466.512	95.56
466.732	92.56
466.951	95.56
467.171	109.56
467.391	92.56
467.61	98.56
467.829	84.56
468.049	91.56
468.268	106.56
468.488	85.56
468.707	82.56
468.927	91.56
469.146	84.56
469.365	92.56
469.585	91.56
469.804	99.56
470.023	93.56
470.243	93.56
470.462	86.56
470.681	102.56
470.901	90.56
471.12	83.56
471.339	95.56
471.558	86.56
471.777	90.56
471.997	87.56
472.216	100.56
472.435	155.56
472.654	94.56
472.873	84.56
473.092	83.56
473.311	98.56
473.53	96.56
473.749	95.56
473.968	98.56
474.187	96.56
474.406	97.56
474.625	96.56
474.844	86.56
475.063	95.56
475.282	80.56
475.501	71.56
475.72	94.56
475.939	81.56
476.158	82.56
476.377	90.56
476.596	85.56
476.814	91.56
477.033	85.56
477.252	92.56
477.471	88.56
477.69	92.56
477.908	77.56
478.127	96.56
478.346	84.56
478.564	96.56
478.783	103.56
479.002	94.56
479.22	59.56
479.439	88.56
479.658	93.56
479.876	105.56
480.095	80.56
480.313	91.56
480.532	84.56
480.751	90.56
480.969	120.56
481.188	209.56
481.406	147.56
481.624	87.56
481.843	87.56
482.061	84.56
482.28	91.56
482.498	90.56
482.717	87.56
482.935	83.56
483.153	87.56
483.372	108.56
483.59	91.56
483.808	94.56
484.027	98.56
484.245	91.56
484.463	98.56
484.681	92.56
484.9	87.56
485.118	88.56
485.336	89.56
485.554	98.56
485.772	99.56
485.99	103.56
486.209	112.56
486.427	103.56
486.645	91.56
486.863	106.56
487.081	92.56
487.299	98.56
487.517	75.56
487.735	98.56
487.953	91.56
488.171	93.56
488.389	81.56
488.607	103.56
488.825	87.56
489.043	99.56
489.261	95.56
489.479	106.56
489.696	95.56
489.914	80.56
490.132	83.56
490.35	85.56
490.568	87.56
490.786	89.56
491.003	85.56
491.221	82.56
491.439	96.56
491.657	95.56
491.874	103.56
492.092	90.56
492.31	84.56
492.527	90.56
492.745	98.56
492.963	94.56
493.18	79.56
493.398	86.56
493.615	91.56
493.833	91.56
494.05	79.56
494.268	91.56
494.485	83.56
494.703	89.56
494.92	84.56
495.138	95.56
495.355	90.56
495.573	96.56
495.79	97.56
496.008	86.56
496.225	73.56
496.442	78.56
496.66	95.56
496.877	93.56
497.094	102.56
497.312	82.56
497.529	85.56
497.746	93.56
497.963	87.56
498.181	84.56
498.398	88.56
498.615	97.56
498.832	100.56
499.049	96.56
499.267	92.56
499.484	84.56
499.701	95.56
499.918	91.56
500.135	83.56
500.352	91.56
500.569	90.56
500.786	91.56
501.003	89.56
501.22	94.56
501.437	86.56
501.654	95.56
501.871	99.56
502.088	83.56
502.305	95.56
502.522	79.56
502.739	102.56
502.956	94.56
503.172	83.56
503.389	106.56
503.606	91.56
503.823	88.56
504.04	96.56
504.256	86.56
504.473	106.56
504.69	83.56
504.907	92.56
505.123	97.56
505.34	95.56
505.557	98.56
505.773	86.56
505.99	93.56
506.207	81.56
506.423	101.56
506.64	90.56
506.856	95.56
507.073	100.56
507.289	91.56
507.506	78.56
507.722	94.56
507.939	94.56
508.155	90.56
508.372	88.56
508.588	100.56
508.805	90.56
509.021	105.56
509.238	75.56
509.454	94.56
509.67	88.56
509.887	108.56
510.103	121.56
510.319	177.56
510.536	535.56
510.752	1619.56
510.968	469.56
511.184	134.56
511.401	92.56
511.617	91.56
511.833	88.56
512.049	94.56
512.265	81.56
512.481	82.56
512.698	85.56
512.914	98.56
513.13	96.56
513.346	103.56
513.562	101.56
513.778	95.56
513.994	103.56
514.21	78.56
514.426	113.56
514.642	103.56
514.858	111.56
515.074	137.56
515.29	303.56
515.506	967.56
515.721	362.56
515.937	130.56
516.153	105.56
516.369	86.56
516.585	90.56
516.801	89.56
