Data from Circ_2002_H10_HRD10591_00086.txt Node
Date: Wed Jan 03 10:41:15 EST 2024
User: Yrep
Spectrometer: HR+D1059
Trigger mode: 1
Integration Time (sec): 1.000000E-1
Scans to average: 1
Electric dark correction enabled: true
Nonlinearity correction enabled: false
Boxcar width: 0
XAxis mode: Wavelengths
Number of Pixels in Spectrum: 2048
>>>>>Begin Spectral Data<<<<<
223.165	-7.06
223.4	-7.06
223.635	-7.06
223.869	-29.06
224.104	-13.06
224.338	-22.06
224.573	-22.06
224.808	-24.06
225.042	-9.06
225.277	-4.06
225.511	2.94
225.746	3.94
225.98	7.94
226.215	18.94
226.449	20.94
226.683	20.94
226.918	25.94
227.152	28.94
227.387	32.94
227.621	39.94
227.856	54.94
228.09	39.94
228.324	51.94
228.559	58.94
228.793	50.94
229.027	70.94
229.262	65.94
229.496	69.94
229.73	71.94
229.964	72.94
230.199	74.94
230.433	72.94
230.667	79.94
230.901	79.94
231.136	85.94
231.37	79.94
231.604	78.94
231.838	77.94
232.072	70.94
232.306	83.94
232.541	65.94
232.775	81.94
233.009	74.94
233.243	90.94
233.477	79.94
233.711	73.94
233.945	78.94
234.179	88.94
234.413	81.94
234.647	85.94
234.881	65.94
235.115	68.94
235.349	75.94
235.583	80.94
235.817	77.94
236.051	96.94
236.285	84.94
236.519	74.94
236.753	70.94
236.987	68.94
237.221	75.94
237.455	79.94
237.689	75.94
237.922	73.94
238.156	57.94
238.39	70.94
238.624	78.94
238.858	69.94
239.091	74.94
239.325	75.94
239.559	88.94
239.793	87.94
240.027	78.94
240.26	77.94
240.494	85.94
240.728	82.94
240.961	89.94
241.195	66.94
241.429	79.94
241.662	73.94
241.896	68.94
242.13	77.94
242.363	75.94
242.597	84.94
242.83	61.94
243.064	81.94
243.298	63.94
243.531	82.94
243.765	85.94
243.998	80.94
244.232	77.94
244.465	71.94
244.699	74.94
244.932	81.94
245.166	75.94
245.399	77.94
245.633	70.94
245.866	89.94
246.099	74.94
246.333	73.94
246.566	69.94
246.8	79.94
247.033	78.94
247.266	67.94
247.5	82.94
247.733	66.94
247.966	89.94
248.2	88.94
248.433	75.94
248.666	81.94
248.899	83.94
249.133	77.94
249.366	90.94
249.599	100.94
249.832	80.94
250.066	80.94
250.299	79.94
250.532	85.94
250.765	81.94
250.998	81.94
251.231	66.94
251.465	73.94
251.698	89.94
251.931	78.94
252.164	81.94
252.397	78.94
252.63	83.94
252.863	73.94
253.096	77.94
253.329	82.94
253.562	77.94
253.795	70.94
254.028	86.94
254.261	77.94
254.494	71.94
254.727	78.94
254.96	94.94
255.193	75.94
255.426	77.94
255.659	78.94
255.892	83.94
256.124	73.94
256.357	73.94
256.59	76.94
256.823	90.94
257.056	86.94
257.289	78.94
257.521	83.94
257.754	83.94
257.987	82.94
258.22	80.94
258.452	81.94
258.685	82.94
258.918	74.94
259.151	82.94
259.383	71.94
259.616	86.94
259.849	72.94
260.081	74.94
260.314	85.94
260.547	78.94
260.779	85.94
261.012	63.94
261.244	97.94
261.477	65.94
261.71	103.94
261.942	106.94
262.175	100.94
262.407	85.94
262.64	73.94
262.872	81.94
263.105	69.94
263.337	86.94
263.57	86.94
263.802	75.94
264.035	82.94
264.267	75.94
264.499	81.94
264.732	70.94
264.964	89.94
265.197	78.94
265.429	76.94
265.661	85.94
265.894	86.94
266.126	98.94
266.358	75.94
266.591	91.94
266.823	81.94
267.055	78.94
267.287	77.94
267.52	85.94
267.752	80.94
267.984	97.94
268.216	86.94
268.448	100.94
268.681	91.94
268.913	77.94
269.145	95.94
269.377	86.94
269.609	80.94
269.841	74.94
270.073	69.94
270.306	94.94
270.538	74.94
270.77	67.94
271.002	65.94
271.234	81.94
271.466	72.94
271.698	80.94
271.93	89.94
272.162	80.94
272.394	88.94
272.626	85.94
272.858	72.94
273.09	73.94
273.322	97.94
273.553	86.94
273.785	91.94
274.017	82.94
274.249	86.94
274.481	82.94
274.713	79.94
274.945	83.94
275.176	83.94
275.408	93.94
275.64	95.94
275.872	87.94
276.104	102.94
276.335	96.94
276.567	87.94
276.799	91.94
277.031	108.94
277.262	95.94
277.494	76.94
277.726	75.94
277.957	91.94
278.189	86.94
278.421	75.94
278.652	78.94
278.884	76.94
279.115	85.94
279.347	81.94
279.579	69.94
279.81	87.94
280.042	87.94
280.273	70.94
280.505	69.94
280.736	92.94
280.968	83.94
281.199	90.94
281.431	87.94
281.662	83.94
281.894	90.94
282.125	93.94
282.356	109.94
282.588	127.94
282.819	116.94
283.051	87.94
283.282	88.94
283.513	77.94
283.745	97.94
283.976	78.94
284.207	98.94
284.439	88.94
284.67	77.94
284.901	81.94
285.132	83.94
285.364	89.94
285.595	81.94
285.826	90.94
286.057	84.94
286.288	75.94
286.52	81.94
286.751	84.94
286.982	87.94
287.213	84.94
287.444	82.94
287.675	81.94
287.906	88.94
288.138	85.94
288.369	109.94
288.6	79.94
288.831	86.94
289.062	105.94
289.293	90.94
289.524	81.94
289.755	77.94
289.986	99.94
290.217	90.94
290.448	88.94
290.679	90.94
290.91	90.94
291.141	83.94
291.371	82.94
291.602	89.94
291.833	91.94
292.064	80.94
292.295	97.94
292.526	84.94
292.757	100.94
292.987	81.94
293.218	96.94
293.449	90.94
293.68	87.94
293.91	91.94
294.141	90.94
294.372	102.94
294.603	74.94
294.833	73.94
295.064	79.94
295.295	88.94
295.525	86.94
295.756	91.94
295.987	93.94
296.217	129.94
296.448	98.94
296.679	99.94
296.909	102.94
297.14	94.94
297.37	89.94
297.601	85.94
297.831	86.94
298.062	90.94
298.292	97.94
298.523	99.94
298.753	94.94
298.984	84.94
299.214	84.94
299.445	88.94
299.675	91.94
299.905	77.94
300.136	89.94
300.366	104.94
300.597	90.94
300.827	87.94
301.057	98.94
301.288	95.94
301.518	90.94
301.748	78.94
301.979	98.94
302.209	86.94
302.439	79.94
302.669	67.94
302.9	73.94
303.13	83.94
303.36	89.94
303.59	88.94
303.82	105.94
304.051	100.94
304.281	83.94
304.511	94.94
304.741	73.94
304.971	86.94
305.201	87.94
305.431	84.94
305.661	82.94
305.891	94.94
306.121	83.94
306.352	87.94
306.582	106.94
306.812	94.94
307.042	95.94
307.272	92.94
307.502	105.94
307.731	94.94
307.961	80.94
308.191	90.94
308.421	98.94
308.651	91.94
308.881	85.94
309.111	86.94
309.341	90.94
309.571	87.94
309.8	95.94
310.03	102.94
310.26	88.94
310.49	97.94
310.72	103.94
310.949	89.94
311.179	98.94
311.409	87.94
311.639	90.94
311.868	96.94
312.098	98.94
312.328	88.94
312.557	88.94
312.787	109.94
313.017	107.94
313.246	85.94
313.476	90.94
313.706	68.94
313.935	94.94
314.165	97.94
314.394	93.94
314.624	93.94
314.853	96.94
315.083	110.94
315.312	94.94
315.542	91.94
315.771	84.94
316.001	84.94
316.23	91.94
316.46	97.94
316.689	103.94
316.919	87.94
317.148	88.94
317.377	86.94
317.607	89.94
317.836	89.94
318.065	109.94
318.295	83.94
318.524	75.94
318.753	80.94
318.983	104.94
319.212	101.94
319.441	97.94
319.67	93.94
319.9	85.94
320.129	98.94
320.358	90.94
320.587	84.94
320.816	101.94
321.046	91.94
321.275	88.94
321.504	98.94
321.733	102.94
321.962	99.94
322.191	84.94
322.42	89.94
322.649	106.94
322.878	104.94
323.108	94.94
323.337	97.94
323.566	134.94
323.795	161.94
324.024	188.94
324.253	365.94
324.482	726.94
324.71	1530.94
324.939	2015.94
325.168	726.94
325.397	223.94
325.626	132.94
325.855	117.94
326.084	128.94
326.313	122.94
326.542	139.94
326.77	218.94
326.999	431.94
327.228	891.94
327.457	1594.94
327.686	1279.94
327.914	343.94
328.143	181.94
328.372	153.94
328.6	128.94
328.829	109.94
329.058	107.94
329.287	108.94
329.515	90.94
329.744	115.94
329.972	127.94
330.201	134.94
330.43	148.94
330.658	129.94
330.887	128.94
331.115	112.94
331.344	95.94
331.572	83.94
331.801	101.94
332.03	101.94
332.258	86.94
332.486	84.94
332.715	106.94
332.943	86.94
333.172	83.94
333.4	90.94
333.629	98.94
333.857	105.94
334.085	112.94
334.314	138.94
334.542	189.94
334.771	181.94
334.999	107.94
335.227	101.94
335.455	96.94
335.684	97.94
335.912	99.94
336.14	95.94
336.369	105.94
336.597	97.94
336.825	93.94
337.053	98.94
337.281	98.94
337.51	92.94
337.738	106.94
337.966	91.94
338.194	95.94
338.422	90.94
338.65	80.94
338.878	86.94
339.106	90.94
339.334	94.94
339.562	95.94
339.79	91.94
340.018	85.94
340.246	91.94
340.474	97.94
340.702	90.94
340.93	85.94
341.158	92.94
341.386	89.94
341.614	90.94
341.842	94.94
342.07	98.94
342.298	107.94
342.526	98.94
342.754	84.94
342.981	91.94
343.209	83.94
343.437	88.94
343.665	101.94
343.893	92.94
344.12	94.94
344.348	87.94
344.576	92.94
344.804	89.94
345.031	93.94
345.259	106.94
345.487	96.94
345.714	85.94
345.942	95.94
346.17	88.94
346.397	76.94
346.625	89.94
346.853	80.94
347.08	91.94
347.308	80.94
347.535	90.94
347.763	103.94
347.99	96.94
348.218	97.94
348.445	111.94
348.673	104.94
348.9	88.94
349.128	98.94
349.355	100.94
349.583	83.94
349.81	81.94
350.037	99.94
350.265	99.94
350.492	83.94
350.72	104.94
350.947	103.94
351.174	120.94
351.402	103.94
351.629	98.94
351.856	102.94
352.083	88.94
352.311	98.94
352.538	98.94
352.765	94.94
352.992	111.94
353.22	113.94
353.447	107.94
353.674	104.94
353.901	96.94
354.128	85.94
354.355	105.94
354.583	97.94
354.81	85.94
355.037	90.94
355.264	88.94
355.491	94.94
355.718	95.94
355.945	84.94
356.172	111.94
356.399	94.94
356.626	88.94
356.853	97.94
357.08	89.94
357.307	97.94
357.534	86.94
357.761	91.94
357.988	81.94
358.215	95.94
358.441	89.94
358.668	88.94
358.895	90.94
359.122	76.94
359.349	90.94
359.576	85.94
359.802	92.94
360.029	93.94
360.256	110.94
360.483	77.94
360.709	94.94
360.936	84.94
361.163	87.94
361.39	84.94
361.616	94.94
361.843	102.94
362.07	92.94
362.296	100.94
362.523	90.94
362.749	90.94
362.976	94.94
363.203	105.94
363.429	82.94
363.656	89.94
363.882	81.94
364.109	94.94
364.335	98.94
364.562	102.94
364.788	76.94
365.015	104.94
365.241	97.94
365.468	103.94
365.694	85.94
365.92	101.94
366.147	85.94
366.373	81.94
366.599	77.94
366.826	87.94
367.052	90.94
367.278	85.94
367.505	109.94
367.731	97.94
367.957	92.94
368.184	96.94
368.41	102.94
368.636	109.94
368.862	109.94
369.089	108.94
369.315	103.94
369.541	108.94
369.767	85.94
369.993	86.94
370.219	92.94
370.445	88.94
370.672	80.94
370.898	73.94
371.124	86.94
371.35	81.94
371.576	86.94
371.802	79.94
372.028	89.94
372.254	95.94
372.48	82.94
372.706	78.94
372.932	88.94
373.158	89.94
373.384	91.94
373.61	88.94
373.835	89.94
374.061	83.94
374.287	89.94
374.513	94.94
374.739	93.94
374.965	84.94
375.191	95.94
375.416	90.94
375.642	95.94
375.868	98.94
376.094	88.94
376.319	91.94
376.545	87.94
376.771	88.94
376.997	103.94
377.222	83.94
377.448	69.94
377.674	96.94
377.899	83.94
378.125	99.94
378.35	84.94
378.576	81.94
378.802	107.94
379.027	89.94
379.253	87.94
379.478	83.94
379.704	91.94
379.929	97.94
380.155	97.94
380.38	78.94
380.606	90.94
380.831	95.94
381.057	94.94
381.282	98.94
381.507	103.94
381.733	87.94
381.958	86.94
382.184	77.94
382.409	97.94
382.634	98.94
382.86	85.94
383.085	100.94
383.31	115.94
383.535	98.94
383.761	107.94
383.986	104.94
384.211	84.94
384.436	80.94
384.662	101.94
384.887	90.94
385.112	108.94
385.337	106.94
385.562	108.94
385.787	90.94
386.013	87.94
386.238	104.94
386.463	98.94
386.688	122.94
386.913	106.94
387.138	100.94
387.363	97.94
387.588	102.94
387.813	108.94
388.038	103.94
388.263	111.94
388.488	104.94
388.713	96.94
388.938	91.94
389.163	99.94
389.387	90.94
389.612	98.94
389.837	81.94
390.062	90.94
390.287	98.94
390.512	93.94
390.736	98.94
390.961	80.94
391.186	78.94
391.411	84.94
391.636	90.94
391.86	86.94
392.085	73.94
392.31	71.94
392.534	78.94
392.759	77.94
392.984	93.94
393.208	98.94
393.433	91.94
393.658	91.94
393.882	87.94
394.107	79.94
394.331	79.94
394.556	81.94
394.78	95.94
395.005	91.94
395.229	91.94
395.454	99.94
395.678	96.94
395.903	88.94
396.127	94.94
396.352	81.94
396.576	102.94
396.801	80.94
397.025	96.94
397.249	84.94
397.474	81.94
397.698	79.94
397.922	79.94
398.147	80.94
398.371	91.94
398.595	86.94
398.82	82.94
399.044	86.94
399.268	88.94
399.492	73.94
399.717	88.94
399.941	90.94
400.165	83.94
400.389	91.94
400.613	87.94
400.837	88.94
401.062	77.94
401.286	85.94
401.51	84.94
401.734	85.94
401.958	94.94
402.182	112.94
402.406	155.94
402.63	112.94
402.854	95.94
403.078	91.94
403.302	88.94
403.526	74.94
403.75	93.94
403.974	84.94
404.198	81.94
404.422	82.94
404.645	93.94
404.869	84.94
405.093	93.94
405.317	115.94
405.541	98.94
405.765	90.94
405.988	103.94
406.212	143.94
406.436	195.94
406.66	122.94
406.883	104.94
407.107	83.94
407.331	79.94
407.555	86.94
407.778	90.94
408.002	78.94
408.226	94.94
408.449	102.94
408.673	86.94
408.896	88.94
409.12	106.94
409.344	73.94
409.567	81.94
409.791	81.94
410.014	91.94
410.238	91.94
410.461	88.94
410.685	93.94
410.908	101.94
411.132	94.94
411.355	111.94
411.578	90.94
411.802	79.94
412.025	86.94
412.249	97.94
412.472	95.94
412.695	101.94
412.919	92.94
413.142	82.94
413.365	76.94
413.589	77.94
413.812	89.94
414.035	90.94
414.258	80.94
414.482	79.94
414.705	81.94
414.928	89.94
415.151	97.94
415.374	80.94
415.597	94.94
415.821	74.94
416.044	93.94
416.267	80.94
416.49	90.94
416.713	94.94
416.936	101.94
417.159	85.94
417.382	77.94
417.605	76.94
417.828	87.94
418.051	94.94
418.274	81.94
418.497	90.94
418.72	82.94
418.943	91.94
419.166	86.94
419.389	100.94
419.611	89.94
419.834	67.94
420.057	96.94
420.28	85.94
420.503	84.94
420.726	74.94
420.948	73.94
421.171	86.94
421.394	66.94
421.617	83.94
421.839	88.94
422.062	80.94
422.285	76.94
422.507	91.94
422.73	87.94
422.953	94.94
423.175	85.94
423.398	89.94
423.621	80.94
423.843	86.94
424.066	67.94
424.288	75.94
424.511	100.94
424.733	91.94
424.956	112.94
425.178	95.94
425.401	91.94
425.623	97.94
425.846	99.94
426.068	91.94
426.291	83.94
426.513	86.94
426.735	93.94
426.958	82.94
427.18	94.94
427.402	130.94
427.625	152.94
427.847	133.94
428.069	97.94
428.292	85.94
428.514	87.94
428.736	73.94
428.958	74.94
429.181	76.94
429.403	80.94
429.625	76.94
429.847	86.94
430.069	103.94
430.292	86.94
430.514	79.94
430.736	70.94
430.958	90.94
431.18	92.94
431.402	87.94
431.624	81.94
431.846	83.94
432.068	78.94
432.29	91.94
432.512	94.94
432.734	79.94
432.956	93.94
433.178	93.94
433.4	102.94
433.622	85.94
433.844	85.94
434.066	83.94
434.287	94.94
434.509	92.94
434.731	90.94
434.953	85.94
435.175	96.94
435.397	82.94
435.618	85.94
435.84	105.94
436.062	121.94
436.284	106.94
436.505	105.94
436.727	91.94
436.949	92.94
437.17	77.94
437.392	91.94
437.614	78.94
437.835	104.94
438.057	110.94
438.278	95.94
438.5	105.94
438.721	126.94
438.943	105.94
439.165	96.94
439.386	93.94
439.608	77.94
439.829	98.94
440.05	121.94
440.272	137.94
440.493	101.94
440.715	88.94
440.936	88.94
441.158	96.94
441.379	86.94
441.6	81.94
441.822	94.94
442.043	95.94
442.264	102.94
442.486	84.94
442.707	87.94
442.928	84.94
443.149	114.94
443.371	116.94
443.592	105.94
443.813	106.94
444.034	87.94
444.255	91.94
444.476	87.94
444.698	81.94
444.919	83.94
445.14	126.94
445.361	129.94
445.582	105.94
445.803	112.94
446.024	116.94
446.245	124.94
446.466	108.94
446.687	83.94
446.908	88.94
447.129	95.94
447.35	95.94
447.571	77.94
447.792	101.94
448.013	89.94
448.234	100.94
448.455	98.94
448.675	115.94
448.896	111.94
449.117	89.94
449.338	103.94
449.559	99.94
449.779	108.94
450	81.94
450.221	80.94
450.442	74.94
450.662	93.94
450.883	85.94
451.104	87.94
451.324	90.94
451.545	77.94
451.766	77.94
451.986	86.94
452.207	78.94
452.428	87.94
452.648	104.94
452.869	102.94
453.089	104.94
453.31	95.94
453.53	85.94
453.751	77.94
453.971	101.94
454.192	102.94
454.412	82.94
454.633	87.94
454.853	92.94
455.073	77.94
455.294	80.94
455.514	99.94
455.734	95.94
455.955	91.94
456.175	80.94
456.395	78.94
456.616	83.94
456.836	81.94
457.056	73.94
457.276	78.94
457.497	82.94
457.717	82.94
457.937	82.94
458.157	75.94
458.377	91.94
458.598	105.94
458.818	126.94
459.038	143.94
459.258	105.94
459.478	85.94
459.698	96.94
459.918	76.94
460.138	81.94
460.358	74.94
460.578	86.94
460.798	79.94
461.018	97.94
461.238	91.94
461.458	85.94
461.678	88.94
461.898	94.94
462.118	87.94
462.338	98.94
462.558	82.94
462.777	87.94
462.997	72.94
463.217	76.94
463.437	99.94
463.657	104.94
463.876	97.94
464.096	86.94
464.316	97.94
464.536	94.94
464.755	75.94
464.975	98.94
465.195	149.94
465.414	126.94
465.634	97.94
465.854	96.94
466.073	74.94
466.293	93.94
466.512	106.94
466.732	86.94
466.951	77.94
467.171	81.94
467.391	101.94
467.61	84.94
467.829	98.94
468.049	97.94
468.268	126.94
468.488	90.94
468.707	84.94
468.927	112.94
469.146	86.94
469.365	87.94
469.585	99.94
469.804	95.94
470.023	89.94
470.243	84.94
470.462	89.94
470.681	80.94
470.901	86.94
471.12	88.94
471.339	85.94
471.558	88.94
471.777	97.94
471.997	105.94
472.216	146.94
472.435	200.94
472.654	99.94
472.873	85.94
473.092	81.94
473.311	95.94
473.53	89.94
473.749	81.94
473.968	89.94
474.187	105.94
474.406	87.94
474.625	87.94
474.844	82.94
475.063	72.94
475.282	84.94
475.501	102.94
475.72	91.94
475.939	86.94
476.158	91.94
476.377	92.94
476.596	91.94
476.814	92.94
477.033	99.94
477.252	81.94
477.471	73.94
477.69	86.94
477.908	93.94
478.127	81.94
478.346	87.94
478.564	86.94
478.783	86.94
479.002	96.94
479.22	90.94
479.439	90.94
479.658	99.94
479.876	92.94
480.095	95.94
480.313	93.94
480.532	98.94
480.751	103.94
480.969	160.94
481.188	335.94
481.406	219.94
481.624	99.94
481.843	88.94
482.061	80.94
482.28	90.94
482.498	90.94
482.717	102.94
482.935	75.94
483.153	77.94
483.372	97.94
483.59	82.94
483.808	89.94
484.027	91.94
484.245	85.94
484.463	86.94
484.681	83.94
484.9	89.94
485.118	92.94
485.336	97.94
485.554	88.94
485.772	109.94
485.99	97.94
486.209	101.94
486.427	105.94
486.645	100.94
486.863	104.94
487.081	101.94
487.299	100.94
487.517	102.94
487.735	101.94
487.953	75.94
488.171	89.94
488.389	105.94
488.607	90.94
488.825	96.94
489.043	85.94
489.261	81.94
489.479	96.94
489.696	73.94
489.914	80.94
490.132	90.94
490.35	87.94
490.568	86.94
490.786	91.94
491.003	83.94
491.221	82.94
491.439	80.94
491.657	82.94
491.874	90.94
492.092	93.94
492.31	86.94
492.527	89.94
492.745	95.94
492.963	95.94
493.18	90.94
493.398	83.94
493.615	106.94
493.833	88.94
494.05	84.94
494.268	74.94
494.485	94.94
494.703	85.94
494.92	91.94
495.138	92.94
495.355	88.94
495.573	93.94
495.79	73.94
496.008	89.94
496.225	101.94
496.442	94.94
496.66	85.94
496.877	85.94
497.094	93.94
497.312	95.94
497.529	94.94
497.746	87.94
497.963	86.94
498.181	95.94
498.398	92.94
498.615	102.94
498.832	101.94
499.049	85.94
499.267	82.94
499.484	86.94
499.701	86.94
499.918	87.94
500.135	79.94
500.352	77.94
500.569	98.94
500.786	98.94
501.003	91.94
501.22	81.94
501.437	109.94
501.654	87.94
501.871	91.94
502.088	97.94
502.305	98.94
502.522	82.94
502.739	87.94
502.956	95.94
503.172	87.94
503.389	90.94
503.606	98.94
503.823	100.94
504.04	85.94
504.256	94.94
504.473	85.94
504.69	91.94
504.907	102.94
505.123	82.94
505.34	94.94
505.557	101.94
505.773	93.94
505.99	85.94
506.207	98.94
506.423	92.94
506.64	78.94
506.856	87.94
507.073	90.94
507.289	86.94
507.506	90.94
507.722	105.94
507.939	105.94
508.155	98.94
508.372	89.94
508.588	87.94
508.805	84.94
509.021	90.94
509.238	97.94
509.454	87.94
509.67	106.94
509.887	96.94
510.103	118.94
510.319	173.94
510.536	589.94
510.752	1854.94
510.968	539.94
511.184	133.94
511.401	96.94
511.617	105.94
511.833	91.94
512.049	74.94
512.265	88.94
512.481	87.94
512.698	85.94
512.914	91.94
513.13	102.94
513.346	95.94
513.562	91.94
513.778	81.94
513.994	95.94
514.21	102.94
514.426	105.94
514.642	121.94
514.858	125.94
515.074	142.94
515.29	354.94
515.506	1140.94
515.721	425.94
515.937	127.94
516.153	105.94
516.369	90.94
516.585	101.94
