Data from Circ_2002_H10_HRD10591_00044.txt Node
Date: Wed Jan 03 10:41:07 EST 2024
User: Yrep
Spectrometer: HR+D1059
Trigger mode: 1
Integration Time (sec): 1.000000E-1
Scans to average: 1
Electric dark correction enabled: true
Nonlinearity correction enabled: false
Boxcar width: 0
XAxis mode: Wavelengths
Number of Pixels in Spectrum: 2048
>>>>>Begin Spectral Data<<<<<
223.165	-21.69
223.4	-21.69
223.635	-21.69
223.869	-19.69
224.104	-24.69
224.338	-15.69
224.573	-12.69
224.808	-13.69
225.042	-7.69
225.277	3.31
225.511	-4.69
225.746	4.31
225.98	2.31
226.215	4.31
226.449	20.31
226.683	28.31
226.918	31.31
227.152	26.31
227.387	38.31
227.621	42.31
227.856	44.31
228.09	54.31
228.324	66.31
228.559	60.31
228.793	57.31
229.027	63.31
229.262	54.31
229.496	65.31
229.73	70.31
229.964	77.31
230.199	60.31
230.433	84.31
230.667	84.31
230.901	77.31
231.136	74.31
231.37	71.31
231.604	62.31
231.838	86.31
232.072	84.31
232.306	69.31
232.541	76.31
232.775	63.31
233.009	68.31
233.243	82.31
233.477	73.31
233.711	70.31
233.945	70.31
234.179	77.31
234.413	71.31
234.647	73.31
234.881	72.31
235.115	74.31
235.349	64.31
235.583	86.31
235.817	66.31
236.051	80.31
236.285	86.31
236.519	77.31
236.753	75.31
236.987	67.31
237.221	84.31
237.455	88.31
237.689	90.31
237.922	73.31
238.156	61.31
238.39	80.31
238.624	69.31
238.858	83.31
239.091	73.31
239.325	92.31
239.559	84.31
239.793	72.31
240.027	81.31
240.26	73.31
240.494	68.31
240.728	61.31
240.961	88.31
241.195	70.31
241.429	80.31
241.662	82.31
241.896	74.31
242.13	71.31
242.363	71.31
242.597	65.31
242.83	79.31
243.064	79.31
243.298	70.31
243.531	81.31
243.765	69.31
243.998	91.31
244.232	73.31
244.465	81.31
244.699	84.31
244.932	77.31
245.166	68.31
245.399	74.31
245.633	75.31
245.866	68.31
246.099	73.31
246.333	68.31
246.566	82.31
246.8	77.31
247.033	74.31
247.266	90.31
247.5	69.31
247.733	79.31
247.966	73.31
248.2	65.31
248.433	69.31
248.666	76.31
248.899	83.31
249.133	72.31
249.366	81.31
249.599	89.31
249.832	81.31
250.066	81.31
250.299	61.31
250.532	80.31
250.765	71.31
250.998	81.31
251.231	71.31
251.465	80.31
251.698	77.31
251.931	82.31
252.164	72.31
252.397	71.31
252.63	64.31
252.863	74.31
253.096	72.31
253.329	69.31
253.562	68.31
253.795	80.31
254.028	87.31
254.261	98.31
254.494	84.31
254.727	81.31
254.96	88.31
255.193	64.31
255.426	83.31
255.659	72.31
255.892	81.31
256.124	71.31
256.357	78.31
256.59	82.31
256.823	79.31
257.056	69.31
257.289	82.31
257.521	88.31
257.754	86.31
257.987	71.31
258.22	86.31
258.452	90.31
258.685	84.31
258.918	76.31
259.151	80.31
259.383	76.31
259.616	67.31
259.849	71.31
260.081	76.31
260.314	75.31
260.547	69.31
260.779	56.31
261.012	75.31
261.244	69.31
261.477	101.31
261.71	92.31
261.942	113.31
262.175	103.31
262.407	92.31
262.64	94.31
262.872	67.31
263.105	91.31
263.337	88.31
263.57	68.31
263.802	84.31
264.035	77.31
264.267	72.31
264.499	83.31
264.732	80.31
264.964	82.31
265.197	83.31
265.429	68.31
265.661	84.31
265.894	87.31
266.126	82.31
266.358	90.31
266.591	96.31
266.823	66.31
267.055	75.31
267.287	92.31
267.52	81.31
267.752	88.31
267.984	76.31
268.216	74.31
268.448	80.31
268.681	72.31
268.913	74.31
269.145	73.31
269.377	74.31
269.609	81.31
269.841	82.31
270.073	85.31
270.306	96.31
270.538	65.31
270.77	70.31
271.002	72.31
271.234	86.31
271.466	79.31
271.698	87.31
271.93	87.31
272.162	82.31
272.394	93.31
272.626	88.31
272.858	74.31
273.09	87.31
273.322	79.31
273.553	72.31
273.785	66.31
274.017	87.31
274.249	85.31
274.481	85.31
274.713	96.31
274.945	90.31
275.176	85.31
275.408	91.31
275.64	74.31
275.872	75.31
276.104	94.31
276.335	101.31
276.567	77.31
276.799	98.31
277.031	86.31
277.262	91.31
277.494	82.31
277.726	80.31
277.957	75.31
278.189	80.31
278.421	78.31
278.652	77.31
278.884	88.31
279.115	80.31
279.347	88.31
279.579	91.31
279.81	81.31
280.042	97.31
280.273	94.31
280.505	83.31
280.736	65.31
280.968	74.31
281.199	86.31
281.431	79.31
281.662	86.31
281.894	72.31
282.125	97.31
282.356	110.31
282.588	129.31
282.819	119.31
283.051	87.31
283.282	87.31
283.513	93.31
283.745	81.31
283.976	81.31
284.207	94.31
284.439	98.31
284.67	84.31
284.901	70.31
285.132	79.31
285.364	78.31
285.595	81.31
285.826	89.31
286.057	94.31
286.288	77.31
286.52	92.31
286.751	75.31
286.982	88.31
287.213	89.31
287.444	83.31
287.675	108.31
287.906	94.31
288.138	79.31
288.369	93.31
288.6	87.31
288.831	85.31
289.062	77.31
289.293	88.31
289.524	91.31
289.755	96.31
289.986	70.31
290.217	86.31
290.448	78.31
290.679	95.31
290.91	99.31
291.141	87.31
291.371	87.31
291.602	98.31
291.833	100.31
292.064	95.31
292.295	92.31
292.526	76.31
292.757	88.31
292.987	95.31
293.218	83.31
293.449	97.31
293.68	89.31
293.91	85.31
294.141	93.31
294.372	86.31
294.603	90.31
294.833	93.31
295.064	82.31
295.295	96.31
295.525	101.31
295.756	107.31
295.987	109.31
296.217	119.31
296.448	115.31
296.679	79.31
296.909	84.31
297.14	100.31
297.37	95.31
297.601	84.31
297.831	76.31
298.062	90.31
298.292	81.31
298.523	86.31
298.753	95.31
298.984	70.31
299.214	81.31
299.445	73.31
299.675	84.31
299.905	91.31
300.136	99.31
300.366	89.31
300.597	88.31
300.827	97.31
301.057	103.31
301.288	80.31
301.518	84.31
301.748	86.31
301.979	97.31
302.209	80.31
302.439	80.31
302.669	93.31
302.9	89.31
303.13	81.31
303.36	96.31
303.59	113.31
303.82	92.31
304.051	104.31
304.281	86.31
304.511	89.31
304.741	94.31
304.971	92.31
305.201	84.31
305.431	81.31
305.661	84.31
305.891	93.31
306.121	90.31
306.352	102.31
306.582	102.31
306.812	79.31
307.042	102.31
307.272	101.31
307.502	93.31
307.731	91.31
307.961	90.31
308.191	92.31
308.421	100.31
308.651	89.31
308.881	101.31
309.111	103.31
309.341	89.31
309.571	102.31
309.8	79.31
310.03	98.31
310.26	99.31
310.49	105.31
310.72	87.31
310.949	104.31
311.179	96.31
311.409	100.31
311.639	112.31
311.868	97.31
312.098	91.31
312.328	105.31
312.557	82.31
312.787	90.31
313.017	85.31
313.246	82.31
313.476	88.31
313.706	78.31
313.935	78.31
314.165	107.31
314.394	109.31
314.624	100.31
314.853	101.31
315.083	85.31
315.312	88.31
315.542	94.31
315.771	83.31
316.001	90.31
316.23	79.31
316.46	82.31
316.689	89.31
316.919	102.31
317.148	94.31
317.377	100.31
317.607	88.31
317.836	92.31
318.065	94.31
318.295	86.31
318.524	87.31
318.753	92.31
318.983	102.31
319.212	98.31
319.441	111.31
319.67	96.31
319.9	93.31
320.129	86.31
320.358	97.31
320.587	82.31
320.816	86.31
321.046	93.31
321.275	105.31
321.504	85.31
321.733	106.31
321.962	87.31
322.191	86.31
322.42	91.31
322.649	110.31
322.878	101.31
323.108	113.31
323.337	118.31
323.566	132.31
323.795	157.31
324.024	174.31
324.253	328.31
324.482	710.31
324.71	1409.31
324.939	1846.31
325.168	721.31
325.397	212.31
325.626	136.31
325.855	143.31
326.084	118.31
326.313	131.31
326.542	144.31
326.77	222.31
326.999	410.31
327.228	811.31
327.457	1449.31
327.686	1167.31
327.914	320.31
328.143	176.31
328.372	140.31
328.6	116.31
328.829	94.31
329.058	104.31
329.287	120.31
329.515	94.31
329.744	98.31
329.972	98.31
330.201	97.31
330.43	123.31
330.658	109.31
330.887	120.31
331.115	104.31
331.344	91.31
331.572	105.31
331.801	93.31
332.03	100.31
332.258	97.31
332.486	100.31
332.715	105.31
332.943	87.31
333.172	93.31
333.4	92.31
333.629	103.31
333.857	106.31
334.085	101.31
334.314	97.31
334.542	115.31
334.771	105.31
334.999	111.31
335.227	88.31
335.455	88.31
335.684	97.31
335.912	86.31
336.14	111.31
336.369	89.31
336.597	101.31
336.825	89.31
337.053	81.31
337.281	100.31
337.51	93.31
337.738	86.31
337.966	101.31
338.194	92.31
338.422	88.31
338.65	93.31
338.878	88.31
339.106	89.31
339.334	76.31
339.562	96.31
339.79	85.31
340.018	94.31
340.246	91.31
340.474	98.31
340.702	96.31
340.93	96.31
341.158	89.31
341.386	86.31
341.614	82.31
341.842	82.31
342.07	91.31
342.298	94.31
342.526	98.31
342.754	80.31
342.981	79.31
343.209	102.31
343.437	101.31
343.665	81.31
343.893	94.31
344.12	99.31
344.348	81.31
344.576	79.31
344.804	85.31
345.031	88.31
345.259	90.31
345.487	86.31
345.714	102.31
345.942	74.31
346.17	96.31
346.397	86.31
346.625	87.31
346.853	85.31
347.08	84.31
347.308	104.31
347.535	89.31
347.763	102.31
347.99	102.31
348.218	101.31
348.445	85.31
348.673	112.31
348.9	95.31
349.128	94.31
349.355	98.31
349.583	94.31
349.81	87.31
350.037	89.31
350.265	90.31
350.492	93.31
350.72	110.31
350.947	96.31
351.174	95.31
351.402	96.31
351.629	109.31
351.856	92.31
352.083	100.31
352.311	88.31
352.538	92.31
352.765	96.31
352.992	104.31
353.22	114.31
353.447	111.31
353.674	116.31
353.901	115.31
354.128	95.31
354.355	82.31
354.583	91.31
354.81	100.31
355.037	110.31
355.264	102.31
355.491	98.31
355.718	90.31
355.945	113.31
356.172	89.31
356.399	98.31
356.626	87.31
356.853	97.31
357.08	103.31
357.307	102.31
357.534	106.31
357.761	87.31
357.988	93.31
358.215	100.31
358.441	82.31
358.668	77.31
358.895	87.31
359.122	102.31
359.349	87.31
359.576	94.31
359.802	81.31
360.029	121.31
360.256	85.31
360.483	85.31
360.709	93.31
360.936	90.31
361.163	76.31
361.39	100.31
361.616	86.31
361.843	97.31
362.07	86.31
362.296	78.31
362.523	92.31
362.749	87.31
362.976	93.31
363.203	81.31
363.429	87.31
363.656	99.31
363.882	87.31
364.109	78.31
364.335	92.31
364.562	76.31
364.788	85.31
365.015	109.31
365.241	91.31
365.468	100.31
365.694	98.31
365.92	94.31
366.147	81.31
366.373	75.31
366.599	80.31
366.826	78.31
367.052	91.31
367.278	75.31
367.505	87.31
367.731	88.31
367.957	82.31
368.184	81.31
368.41	91.31
368.636	102.31
368.862	115.31
369.089	96.31
369.315	87.31
369.541	84.31
369.767	81.31
369.993	82.31
370.219	86.31
370.445	104.31
370.672	82.31
370.898	77.31
371.124	83.31
371.35	78.31
371.576	91.31
371.802	98.31
372.028	88.31
372.254	70.31
372.48	85.31
372.706	89.31
372.932	76.31
373.158	72.31
373.384	90.31
373.61	78.31
373.835	82.31
374.061	98.31
374.287	68.31
374.513	97.31
374.739	86.31
374.965	93.31
375.191	88.31
375.416	92.31
375.642	97.31
375.868	98.31
376.094	92.31
376.319	82.31
376.545	88.31
376.771	88.31
376.997	82.31
377.222	95.31
377.448	96.31
377.674	85.31
377.899	93.31
378.125	96.31
378.35	76.31
378.576	88.31
378.802	92.31
379.027	98.31
379.253	100.31
379.478	94.31
379.704	87.31
379.929	88.31
380.155	101.31
380.38	94.31
380.606	100.31
380.831	83.31
381.057	95.31
381.282	96.31
381.507	88.31
381.733	99.31
381.958	89.31
382.184	109.31
382.409	92.31
382.634	111.31
382.86	110.31
383.085	107.31
383.31	103.31
383.535	104.31
383.761	81.31
383.986	100.31
384.211	100.31
384.436	98.31
384.662	97.31
384.887	106.31
385.112	96.31
385.337	99.31
385.562	96.31
385.787	92.31
386.013	119.31
386.238	108.31
386.463	110.31
386.688	94.31
386.913	90.31
387.138	102.31
387.363	114.31
387.588	98.31
387.813	90.31
388.038	89.31
388.263	105.31
388.488	109.31
388.713	86.31
388.938	94.31
389.163	83.31
389.387	93.31
389.612	102.31
389.837	101.31
390.062	104.31
390.287	94.31
390.512	100.31
390.736	79.31
390.961	84.31
391.186	110.31
391.411	98.31
391.636	84.31
391.86	84.31
392.085	93.31
392.31	61.31
392.534	78.31
392.759	92.31
392.984	86.31
393.208	87.31
393.433	95.31
393.658	74.31
393.882	97.31
394.107	90.31
394.331	89.31
394.556	82.31
394.78	90.31
395.005	92.31
395.229	79.31
395.454	74.31
395.678	87.31
395.903	89.31
396.127	78.31
396.352	87.31
396.576	83.31
396.801	91.31
397.025	96.31
397.249	78.31
397.474	84.31
397.698	82.31
397.922	79.31
398.147	85.31
398.371	85.31
398.595	85.31
398.82	91.31
399.044	91.31
399.268	85.31
399.492	91.31
399.717	91.31
399.941	79.31
400.165	88.31
400.389	87.31
400.613	90.31
400.837	83.31
401.062	75.31
401.286	80.31
401.51	85.31
401.734	79.31
401.958	84.31
402.182	123.31
402.406	136.31
402.63	122.31
402.854	95.31
403.078	84.31
403.302	87.31
403.526	90.31
403.75	72.31
403.974	79.31
404.198	87.31
404.422	82.31
404.645	93.31
404.869	98.31
405.093	87.31
405.317	94.31
405.541	91.31
405.765	94.31
405.988	106.31
406.212	158.31
406.436	200.31
406.66	139.31
406.883	96.31
407.107	85.31
407.331	90.31
407.555	99.31
407.778	100.31
408.002	98.31
408.226	83.31
408.449	92.31
408.673	71.31
408.896	86.31
409.12	89.31
409.344	78.31
409.567	86.31
409.791	93.31
410.014	93.31
410.238	86.31
410.461	81.31
410.685	83.31
410.908	95.31
411.132	108.31
411.355	76.31
411.578	85.31
411.802	86.31
412.025	86.31
412.249	97.31
412.472	84.31
412.695	81.31
412.919	74.31
413.142	95.31
413.365	84.31
413.589	80.31
413.812	89.31
414.035	87.31
414.258	64.31
414.482	84.31
414.705	98.31
414.928	84.31
415.151	90.31
415.374	76.31
415.597	80.31
415.821	76.31
416.044	66.31
416.267	96.31
416.49	93.31
416.713	84.31
416.936	88.31
417.159	89.31
417.382	77.31
417.605	76.31
417.828	83.31
418.051	90.31
418.274	81.31
418.497	90.31
418.72	82.31
418.943	80.31
419.166	79.31
419.389	93.31
419.611	94.31
419.834	97.31
420.057	90.31
420.28	89.31
420.503	77.31
420.726	83.31
420.948	79.31
421.171	90.31
421.394	86.31
421.617	93.31
421.839	87.31
422.062	100.31
422.285	87.31
422.507	91.31
422.73	93.31
422.953	90.31
423.175	78.31
423.398	82.31
423.621	93.31
423.843	83.31
424.066	79.31
424.288	62.31
424.511	81.31
424.733	97.31
424.956	84.31
425.178	104.31
425.401	92.31
425.623	102.31
425.846	86.31
426.068	84.31
426.291	93.31
426.513	102.31
426.735	88.31
426.958	89.31
427.18	86.31
427.402	108.31
427.625	148.31
427.847	115.31
428.069	96.31
428.292	89.31
428.514	82.31
428.736	88.31
428.958	82.31
429.181	86.31
429.403	84.31
429.625	88.31
429.847	76.31
430.069	88.31
430.292	99.31
430.514	93.31
430.736	84.31
430.958	77.31
431.18	91.31
431.402	89.31
431.624	84.31
431.846	81.31
432.068	92.31
432.29	81.31
432.512	95.31
432.734	68.31
432.956	87.31
433.178	93.31
433.4	100.31
433.622	84.31
433.844	88.31
434.066	81.31
434.287	94.31
434.509	78.31
434.731	83.31
434.953	96.31
435.175	81.31
435.397	86.31
435.618	77.31
435.84	100.31
436.062	94.31
436.284	101.31
436.505	98.31
436.727	94.31
436.949	90.31
437.17	85.31
437.392	81.31
437.614	96.31
437.835	100.31
438.057	101.31
438.278	97.31
438.5	94.31
438.721	101.31
438.943	95.31
439.165	94.31
439.386	73.31
439.608	103.31
439.829	113.31
440.05	111.31
440.272	124.31
440.493	84.31
440.715	80.31
440.936	82.31
441.158	85.31
441.379	92.31
441.6	96.31
441.822	91.31
442.043	89.31
442.264	94.31
442.486	89.31
442.707	66.31
442.928	96.31
443.149	127.31
443.371	127.31
443.592	101.31
443.813	90.31
444.034	114.31
444.255	88.31
444.476	83.31
444.698	83.31
444.919	84.31
445.14	113.31
445.361	110.31
445.582	102.31
445.803	118.31
446.024	112.31
446.245	124.31
446.466	104.31
446.687	87.31
446.908	83.31
447.129	80.31
447.35	86.31
447.571	88.31
447.792	88.31
448.013	84.31
448.234	93.31
448.455	95.31
448.675	96.31
448.896	109.31
449.117	90.31
449.338	95.31
449.559	96.31
449.779	116.31
450	99.31
450.221	79.31
450.442	88.31
450.662	96.31
450.883	111.31
451.104	88.31
451.324	85.31
451.545	81.31
451.766	90.31
451.986	88.31
452.207	78.31
452.428	81.31
452.648	96.31
452.869	105.31
453.089	119.31
453.31	104.31
453.53	85.31
453.751	97.31
453.971	94.31
454.192	88.31
454.412	91.31
454.633	76.31
454.853	76.31
455.073	96.31
455.294	90.31
455.514	89.31
455.734	80.31
455.955	77.31
456.175	84.31
456.395	74.31
456.616	84.31
456.836	95.31
457.056	73.31
457.276	78.31
457.497	66.31
457.717	74.31
457.937	94.31
458.157	72.31
458.377	95.31
458.598	99.31
458.818	114.31
459.038	119.31
459.258	104.31
459.478	87.31
459.698	85.31
459.918	73.31
460.138	78.31
460.358	87.31
460.578	95.31
460.798	85.31
461.018	79.31
461.238	86.31
461.458	78.31
461.678	72.31
461.898	73.31
462.118	91.31
462.338	91.31
462.558	87.31
462.777	72.31
462.997	85.31
463.217	85.31
463.437	82.31
463.657	97.31
463.876	87.31
464.096	95.31
464.316	86.31
464.536	76.31
464.755	90.31
464.975	84.31
465.195	138.31
465.414	125.31
465.634	87.31
465.854	87.31
466.073	83.31
466.293	82.31
466.512	72.31
466.732	96.31
466.951	84.31
467.171	103.31
467.391	66.31
467.61	87.31
467.829	94.31
468.049	93.31
468.268	86.31
468.488	80.31
468.707	71.31
468.927	90.31
469.146	73.31
469.365	88.31
469.585	79.31
469.804	88.31
470.023	99.31
470.243	85.31
470.462	87.31
470.681	105.31
470.901	68.31
471.12	88.31
471.339	81.31
471.558	80.31
471.777	81.31
471.997	81.31
472.216	99.31
472.435	113.31
472.654	92.31
472.873	74.31
473.092	97.31
473.311	69.31
473.53	85.31
473.749	80.31
473.968	98.31
474.187	106.31
474.406	105.31
474.625	94.31
474.844	89.31
475.063	62.31
475.282	76.31
475.501	92.31
475.72	79.31
475.939	82.31
476.158	68.31
476.377	78.31
476.596	78.31
476.814	82.31
477.033	84.31
477.252	95.31
477.471	98.31
477.69	87.31
477.908	96.31
478.127	103.31
478.346	94.31
478.564	91.31
478.783	89.31
479.002	92.31
479.22	91.31
479.439	97.31
479.658	93.31
479.876	96.31
480.095	85.31
480.313	82.31
480.532	84.31
480.751	90.31
480.969	111.31
481.188	129.31
481.406	116.31
481.624	98.31
481.843	90.31
482.061	84.31
482.28	77.31
482.498	62.31
482.717	86.31
482.935	87.31
483.153	77.31
483.372	82.31
483.59	94.31
483.808	81.31
484.027	104.31
484.245	81.31
484.463	98.31
484.681	89.31
484.9	97.31
485.118	89.31
485.336	93.31
485.554	91.31
485.772	100.31
485.99	102.31
486.209	81.31
486.427	100.31
486.645	113.31
486.863	95.31
487.081	98.31
487.299	91.31
487.517	100.31
487.735	83.31
487.953	103.31
488.171	100.31
488.389	103.31
488.607	99.31
488.825	91.31
489.043	90.31
489.261	84.31
489.479	81.31
489.696	81.31
489.914	78.31
490.132	80.31
490.35	91.31
490.568	88.31
490.786	80.31
491.003	80.31
491.221	86.31
491.439	97.31
491.657	80.31
491.874	100.31
492.092	82.31
492.31	83.31
492.527	84.31
492.745	78.31
492.963	92.31
493.18	96.31
493.398	91.31
493.615	72.31
493.833	88.31
494.05	88.31
494.268	85.31
494.485	88.31
494.703	98.31
494.92	90.31
495.138	88.31
495.355	92.31
495.573	87.31
495.79	97.31
496.008	93.31
496.225	99.31
496.442	87.31
496.66	85.31
496.877	78.31
497.094	74.31
497.312	79.31
497.529	83.31
497.746	86.31
497.963	79.31
498.181	101.31
498.398	83.31
498.615	104.31
498.832	89.31
499.049	86.31
499.267	105.31
499.484	78.31
499.701	89.31
499.918	84.31
500.135	87.31
500.352	80.31
500.569	88.31
500.786	92.31
501.003	74.31
501.22	85.31
501.437	79.31
501.654	93.31
501.871	97.31
502.088	77.31
502.305	104.31
502.522	86.31
502.739	83.31
502.956	93.31
503.172	86.31
503.389	94.31
503.606	88.31
503.823	97.31
504.04	89.31
504.256	88.31
504.473	95.31
504.69	90.31
504.907	90.31
505.123	92.31
505.34	82.31
505.557	88.31
505.773	88.31
505.99	88.31
506.207	92.31
506.423	76.31
506.64	101.31
506.856	85.31
507.073	85.31
507.289	93.31
507.506	95.31
507.722	113.31
507.939	120.31
508.155	88.31
508.372	90.31
508.588	93.31
508.805	89.31
509.021	82.31
509.238	72.31
509.454	87.31
509.67	99.31
509.887	111.31
510.103	113.31
510.319	176.31
510.536	600.31
510.752	1868.31
510.968	556.31
511.184	143.31
511.401	98.31
511.617	98.31
511.833	82.31
512.049	95.31
512.265	94.31
512.481	106.31
512.698	95.31
512.914	82.31
513.13	93.31
513.346	96.31
513.562	89.31
513.778	80.31
513.994	74.31
514.21	97.31
514.426	113.31
514.642	127.31
514.858	123.31
515.074	157.31
515.29	361.31
515.506	1132.31
515.721	444.31
515.937	133.31
516.153	102.31
516.369	95.31
516.585	81.31
516.801	91.31
