Data from Circ_2002_H10_HRD10591_00013.txt Node
Date: Wed Jan 03 10:41:00 EST 2024
User: Yrep
Spectrometer: HR+D1059
Trigger mode: 1
Integration Time (sec): 1.000000E-1
Scans to average: 1
Electric dark correction enabled: true
Nonlinearity correction enabled: false
Boxcar width: 0
XAxis mode: Wavelengths
Number of Pixels in Spectrum: 2048
>>>>>Begin Spectral Data<<<<<
223.165	-18.19
223.4	-18.19
223.635	-18.19
223.869	-19.19
224.104	-27.19
224.338	-15.19
224.573	-17.19
224.808	-8.19
225.042	-14.19
225.277	-12.19
225.511	-6.19
225.746	17.81
225.98	9.81
226.215	9.81
226.449	12.81
226.683	27.81
226.918	28.81
227.152	30.81
227.387	18.81
227.621	40.81
227.856	36.81
228.09	44.81
228.324	48.81
228.559	47.81
228.793	53.81
229.027	63.81
229.262	58.81
229.496	62.81
229.73	67.81
229.964	78.81
230.199	70.81
230.433	61.81
230.667	72.81
230.901	70.81
231.136	71.81
231.37	66.81
231.604	75.81
231.838	68.81
232.072	73.81
232.306	60.81
232.541	79.81
232.775	70.81
233.009	79.81
233.243	78.81
233.477	86.81
233.711	71.81
233.945	78.81
234.179	74.81
234.413	76.81
234.647	78.81
234.881	71.81
235.115	71.81
235.349	77.81
235.583	82.81
235.817	79.81
236.051	60.81
236.285	86.81
236.519	71.81
236.753	67.81
236.987	79.81
237.221	85.81
237.455	78.81
237.689	73.81
237.922	55.81
238.156	65.81
238.39	76.81
238.624	58.81
238.858	53.81
239.091	65.81
239.325	57.81
239.559	76.81
239.793	83.81
240.027	73.81
240.26	68.81
240.494	76.81
240.728	63.81
240.961	70.81
241.195	71.81
241.429	74.81
241.662	63.81
241.896	71.81
242.13	72.81
242.363	72.81
242.597	68.81
242.83	72.81
243.064	73.81
243.298	77.81
243.531	74.81
243.765	81.81
243.998	75.81
244.232	80.81
244.465	71.81
244.699	80.81
244.932	63.81
245.166	63.81
245.399	76.81
245.633	82.81
245.866	80.81
246.099	75.81
246.333	89.81
246.566	68.81
246.8	73.81
247.033	81.81
247.266	77.81
247.5	79.81
247.733	70.81
247.966	73.81
248.2	79.81
248.433	79.81
248.666	82.81
248.899	67.81
249.133	74.81
249.366	96.81
249.599	79.81
249.832	67.81
250.066	77.81
250.299	69.81
250.532	71.81
250.765	73.81
250.998	72.81
251.231	78.81
251.465	80.81
251.698	88.81
251.931	81.81
252.164	74.81
252.397	78.81
252.63	75.81
252.863	61.81
253.096	72.81
253.329	79.81
253.562	67.81
253.795	80.81
254.028	74.81
254.261	77.81
254.494	85.81
254.727	80.81
254.96	82.81
255.193	73.81
255.426	71.81
255.659	85.81
255.892	77.81
256.124	75.81
256.357	76.81
256.59	79.81
256.823	77.81
257.056	91.81
257.289	84.81
257.521	74.81
257.754	70.81
257.987	81.81
258.22	84.81
258.452	65.81
258.685	75.81
258.918	83.81
259.151	80.81
259.383	55.81
259.616	78.81
259.849	88.81
260.081	78.81
260.314	86.81
260.547	89.81
260.779	73.81
261.012	85.81
261.244	81.81
261.477	91.81
261.71	71.81
261.942	91.81
262.175	85.81
262.407	77.81
262.64	78.81
262.872	75.81
263.105	68.81
263.337	82.81
263.57	75.81
263.802	92.81
264.035	67.81
264.267	78.81
264.499	74.81
264.732	81.81
264.964	74.81
265.197	86.81
265.429	72.81
265.661	60.81
265.894	78.81
266.126	61.81
266.358	81.81
266.591	73.81
266.823	76.81
267.055	78.81
267.287	88.81
267.52	65.81
267.752	90.81
267.984	80.81
268.216	86.81
268.448	83.81
268.681	77.81
268.913	79.81
269.145	64.81
269.377	76.81
269.609	82.81
269.841	72.81
270.073	85.81
270.306	76.81
270.538	88.81
270.77	91.81
271.002	93.81
271.234	78.81
271.466	75.81
271.698	80.81
271.93	71.81
272.162	77.81
272.394	77.81
272.626	87.81
272.858	74.81
273.09	72.81
273.322	81.81
273.553	77.81
273.785	71.81
274.017	78.81
274.249	68.81
274.481	74.81
274.713	78.81
274.945	88.81
275.176	79.81
275.408	78.81
275.64	82.81
275.872	81.81
276.104	74.81
276.335	98.81
276.567	83.81
276.799	98.81
277.031	83.81
277.262	85.81
277.494	78.81
277.726	71.81
277.957	73.81
278.189	87.81
278.421	74.81
278.652	82.81
278.884	94.81
279.115	64.81
279.347	77.81
279.579	83.81
279.81	87.81
280.042	74.81
280.273	70.81
280.505	87.81
280.736	83.81
280.968	83.81
281.199	85.81
281.431	84.81
281.662	86.81
281.894	69.81
282.125	68.81
282.356	117.81
282.588	113.81
282.819	108.81
283.051	99.81
283.282	91.81
283.513	85.81
283.745	74.81
283.976	76.81
284.207	74.81
284.439	92.81
284.67	77.81
284.901	71.81
285.132	76.81
285.364	96.81
285.595	74.81
285.826	81.81
286.057	80.81
286.288	101.81
286.52	76.81
286.751	79.81
286.982	85.81
287.213	88.81
287.444	85.81
287.675	79.81
287.906	72.81
288.138	81.81
288.369	85.81
288.6	88.81
288.831	82.81
289.062	90.81
289.293	83.81
289.524	80.81
289.755	98.81
289.986	87.81
290.217	82.81
290.448	74.81
290.679	88.81
290.91	94.81
291.141	77.81
291.371	94.81
291.602	78.81
291.833	80.81
292.064	86.81
292.295	84.81
292.526	90.81
292.757	83.81
292.987	92.81
293.218	65.81
293.449	87.81
293.68	82.81
293.91	85.81
294.141	85.81
294.372	82.81
294.603	84.81
294.833	95.81
295.064	82.81
295.295	88.81
295.525	79.81
295.756	96.81
295.987	109.81
296.217	104.81
296.448	95.81
296.679	94.81
296.909	87.81
297.14	84.81
297.37	98.81
297.601	72.81
297.831	81.81
298.062	82.81
298.292	96.81
298.523	83.81
298.753	71.81
298.984	78.81
299.214	86.81
299.445	90.81
299.675	82.81
299.905	73.81
300.136	69.81
300.366	93.81
300.597	80.81
300.827	74.81
301.057	83.81
301.288	96.81
301.518	86.81
301.748	88.81
301.979	92.81
302.209	92.81
302.439	73.81
302.669	79.81
302.9	91.81
303.13	83.81
303.36	93.81
303.59	88.81
303.82	83.81
304.051	96.81
304.281	85.81
304.511	100.81
304.741	84.81
304.971	68.81
305.201	78.81
305.431	87.81
305.661	77.81
305.891	78.81
306.121	90.81
306.352	87.81
306.582	82.81
306.812	78.81
307.042	75.81
307.272	99.81
307.502	98.81
307.731	93.81
307.961	71.81
308.191	81.81
308.421	93.81
308.651	87.81
308.881	91.81
309.111	90.81
309.341	86.81
309.571	90.81
309.8	82.81
310.03	92.81
310.26	83.81
310.49	80.81
310.72	87.81
310.949	89.81
311.179	86.81
311.409	83.81
311.639	87.81
311.868	97.81
312.098	86.81
312.328	102.81
312.557	86.81
312.787	99.81
313.017	80.81
313.246	82.81
313.476	78.81
313.706	91.81
313.935	77.81
314.165	85.81
314.394	98.81
314.624	74.81
314.853	80.81
315.083	104.81
315.312	73.81
315.542	87.81
315.771	97.81
316.001	90.81
316.23	94.81
316.46	88.81
316.689	85.81
316.919	77.81
317.148	95.81
317.377	73.81
317.607	87.81
317.836	88.81
318.065	91.81
318.295	79.81
318.524	83.81
318.753	98.81
318.983	97.81
319.212	82.81
319.441	87.81
319.67	106.81
319.9	86.81
320.129	79.81
320.358	75.81
320.587	102.81
320.816	82.81
321.046	84.81
321.275	96.81
321.504	79.81
321.733	92.81
321.962	94.81
322.191	98.81
322.42	103.81
322.649	99.81
322.878	106.81
323.108	114.81
323.337	106.81
323.566	96.81
323.795	132.81
324.024	173.81
324.253	307.81
324.482	647.81
324.71	1299.81
324.939	1688.81
325.168	608.81
325.397	189.81
325.626	126.81
325.855	111.81
326.084	103.81
326.313	118.81
326.542	119.81
326.77	187.81
326.999	368.81
327.228	748.81
327.457	1368.81
327.686	1058.81
327.914	299.81
328.143	162.81
328.372	122.81
328.6	93.81
328.829	103.81
329.058	112.81
329.287	107.81
329.515	101.81
329.744	94.81
329.972	93.81
330.201	106.81
330.43	90.81
330.658	120.81
330.887	114.81
331.115	107.81
331.344	93.81
331.572	100.81
331.801	94.81
332.03	86.81
332.258	92.81
332.486	84.81
332.715	91.81
332.943	95.81
333.172	84.81
333.4	78.81
333.629	85.81
333.857	107.81
334.085	86.81
334.314	82.81
334.542	79.81
334.771	87.81
334.999	98.81
335.227	103.81
335.455	88.81
335.684	83.81
335.912	88.81
336.14	107.81
336.369	108.81
336.597	99.81
336.825	79.81
337.053	78.81
337.281	92.81
337.51	90.81
337.738	76.81
337.966	83.81
338.194	77.81
338.422	92.81
338.65	93.81
338.878	95.81
339.106	84.81
339.334	76.81
339.562	82.81
339.79	70.81
340.018	82.81
340.246	91.81
340.474	84.81
340.702	76.81
340.93	78.81
341.158	87.81
341.386	100.81
341.614	82.81
341.842	85.81
342.07	103.81
342.298	94.81
342.526	77.81
342.754	75.81
342.981	100.81
343.209	98.81
343.437	85.81
343.665	80.81
343.893	90.81
344.12	97.81
344.348	77.81
344.576	84.81
344.804	74.81
345.031	91.81
345.259	78.81
345.487	86.81
345.714	76.81
345.942	75.81
346.17	80.81
346.397	81.81
346.625	93.81
346.853	79.81
347.08	77.81
347.308	96.81
347.535	83.81
347.763	88.81
347.99	87.81
348.218	93.81
348.445	111.81
348.673	82.81
348.9	116.81
349.128	87.81
349.355	68.81
349.583	103.81
349.81	86.81
350.037	78.81
350.265	78.81
350.492	109.81
350.72	92.81
350.947	98.81
351.174	111.81
351.402	93.81
351.629	95.81
351.856	84.81
352.083	99.81
352.311	95.81
352.538	112.81
352.765	101.81
352.992	94.81
353.22	99.81
353.447	98.81
353.674	92.81
353.901	97.81
354.128	87.81
354.355	90.81
354.583	93.81
354.81	83.81
355.037	82.81
355.264	91.81
355.491	96.81
355.718	86.81
355.945	91.81
356.172	88.81
356.399	82.81
356.626	90.81
356.853	97.81
357.08	98.81
357.307	98.81
357.534	85.81
357.761	96.81
357.988	99.81
358.215	97.81
358.441	96.81
358.668	104.81
358.895	79.81
359.122	78.81
359.349	62.81
359.576	88.81
359.802	91.81
360.029	94.81
360.256	96.81
360.483	95.81
360.709	92.81
360.936	88.81
361.163	83.81
361.39	85.81
361.616	96.81
361.843	96.81
362.07	86.81
362.296	83.81
362.523	91.81
362.749	76.81
362.976	87.81
363.203	85.81
363.429	79.81
363.656	77.81
363.882	87.81
364.109	80.81
364.335	82.81
364.562	77.81
364.788	84.81
365.015	91.81
365.241	86.81
365.468	93.81
365.694	79.81
365.92	90.81
366.147	88.81
366.373	83.81
366.599	79.81
366.826	88.81
367.052	75.81
367.278	82.81
367.505	79.81
367.731	93.81
367.957	95.81
368.184	77.81
368.41	95.81
368.636	105.81
368.862	99.81
369.089	83.81
369.315	79.81
369.541	85.81
369.767	80.81
369.993	79.81
370.219	83.81
370.445	75.81
370.672	86.81
370.898	84.81
371.124	86.81
371.35	95.81
371.576	72.81
371.802	79.81
372.028	88.81
372.254	90.81
372.48	76.81
372.706	75.81
372.932	78.81
373.158	90.81
373.384	80.81
373.61	78.81
373.835	85.81
374.061	82.81
374.287	88.81
374.513	102.81
374.739	84.81
374.965	96.81
375.191	84.81
375.416	88.81
375.642	82.81
375.868	71.81
376.094	94.81
376.319	86.81
376.545	70.81
376.771	91.81
376.997	86.81
377.222	91.81
377.448	78.81
377.674	91.81
377.899	98.81
378.125	77.81
378.35	90.81
378.576	98.81
378.802	82.81
379.027	80.81
379.253	106.81
379.478	100.81
379.704	97.81
379.929	101.81
380.155	87.81
380.38	89.81
380.606	101.81
380.831	85.81
381.057	103.81
381.282	101.81
381.507	102.81
381.733	95.81
381.958	93.81
382.184	87.81
382.409	94.81
382.634	94.81
382.86	102.81
383.085	113.81
383.31	103.81
383.535	109.81
383.761	122.81
383.986	108.81
384.211	94.81
384.436	100.81
384.662	103.81
384.887	105.81
385.112	111.81
385.337	98.81
385.562	91.81
385.787	102.81
386.013	115.81
386.238	129.81
386.463	113.81
386.688	101.81
386.913	115.81
387.138	102.81
387.363	109.81
387.588	101.81
387.813	109.81
388.038	110.81
388.263	122.81
388.488	117.81
388.713	98.81
388.938	95.81
389.163	98.81
389.387	97.81
389.612	96.81
389.837	71.81
390.062	90.81
390.287	88.81
390.512	72.81
390.736	92.81
390.961	72.81
391.186	95.81
391.411	88.81
391.636	94.81
391.86	86.81
392.085	87.81
392.31	80.81
392.534	80.81
392.759	85.81
392.984	83.81
393.208	86.81
393.433	103.81
393.658	86.81
393.882	85.81
394.107	75.81
394.331	80.81
394.556	88.81
394.78	87.81
395.005	92.81
395.229	83.81
395.454	88.81
395.678	76.81
395.903	94.81
396.127	96.81
396.352	99.81
396.576	83.81
396.801	80.81
397.025	93.81
397.249	95.81
397.474	85.81
397.698	82.81
397.922	75.81
398.147	89.81
398.371	78.81
398.595	76.81
398.82	79.81
399.044	74.81
399.268	91.81
399.492	92.81
399.717	91.81
399.941	82.81
400.165	71.81
400.389	77.81
400.613	78.81
400.837	85.81
401.062	88.81
401.286	85.81
401.51	76.81
401.734	75.81
401.958	89.81
402.182	109.81
402.406	127.81
402.63	94.81
402.854	84.81
403.078	76.81
403.302	79.81
403.526	86.81
403.75	83.81
403.974	85.81
404.198	88.81
404.422	71.81
404.645	78.81
404.869	77.81
405.093	91.81
405.317	87.81
405.541	101.81
405.765	96.81
405.988	93.81
406.212	111.81
406.436	184.81
406.66	119.81
406.883	92.81
407.107	83.81
407.331	90.81
407.555	87.81
407.778	92.81
408.002	71.81
408.226	91.81
408.449	93.81
408.673	84.81
408.896	88.81
409.12	87.81
409.344	92.81
409.567	86.81
409.791	98.81
410.014	92.81
410.238	88.81
410.461	85.81
410.685	82.81
410.908	88.81
411.132	96.81
411.355	103.81
411.578	89.81
411.802	79.81
412.025	78.81
412.249	86.81
412.472	76.81
412.695	75.81
412.919	86.81
413.142	88.81
413.365	89.81
413.589	74.81
413.812	77.81
414.035	86.81
414.258	102.81
414.482	94.81
414.705	94.81
414.928	106.81
415.151	93.81
415.374	88.81
415.597	81.81
415.821	80.81
416.044	86.81
416.267	98.81
416.49	77.81
416.713	81.81
416.936	78.81
417.159	83.81
417.382	78.81
417.605	84.81
417.828	92.81
418.051	76.81
418.274	78.81
418.497	90.81
418.72	83.81
418.943	95.81
419.166	76.81
419.389	83.81
419.611	102.81
419.834	76.81
420.057	88.81
420.28	83.81
420.503	83.81
420.726	86.81
420.948	93.81
421.171	87.81
421.394	87.81
421.617	78.81
421.839	86.81
422.062	85.81
422.285	87.81
422.507	93.81
422.73	95.81
422.953	96.81
423.175	92.81
423.398	87.81
423.621	92.81
423.843	83.81
424.066	79.81
424.288	82.81
424.511	87.81
424.733	96.81
424.956	103.81
425.178	93.81
425.401	93.81
425.623	86.81
425.846	78.81
426.068	103.81
426.291	85.81
426.513	76.81
426.735	82.81
426.958	81.81
427.18	97.81
427.402	117.81
427.625	141.81
427.847	98.81
428.069	99.81
428.292	81.81
428.514	80.81
428.736	75.81
428.958	96.81
429.181	74.81
429.403	93.81
429.625	77.81
429.847	86.81
430.069	98.81
430.292	88.81
430.514	76.81
430.736	74.81
430.958	78.81
431.18	75.81
431.402	73.81
431.624	79.81
431.846	70.81
432.068	72.81
432.29	82.81
432.512	79.81
432.734	85.81
432.956	95.81
433.178	98.81
433.4	101.81
433.622	92.81
433.844	80.81
434.066	78.81
434.287	96.81
434.509	88.81
434.731	75.81
434.953	88.81
435.175	88.81
435.397	84.81
435.618	92.81
435.84	96.81
436.062	94.81
436.284	91.81
436.505	84.81
436.727	101.81
436.949	95.81
437.17	106.81
437.392	80.81
437.614	81.81
437.835	87.81
438.057	104.81
438.278	100.81
438.5	94.81
438.721	107.81
438.943	83.81
439.165	87.81
439.386	90.81
439.608	94.81
439.829	92.81
440.05	111.81
440.272	117.81
440.493	100.81
440.715	94.81
440.936	79.81
441.158	72.81
441.379	70.81
441.6	94.81
441.822	80.81
442.043	84.81
442.264	100.81
442.486	95.81
442.707	77.81
442.928	95.81
443.149	113.81
443.371	102.81
443.592	94.81
443.813	94.81
444.034	110.81
444.255	92.81
444.476	80.81
444.698	72.81
444.919	87.81
445.14	126.81
445.361	102.81
445.582	92.81
445.803	94.81
446.024	115.81
446.245	117.81
446.466	102.81
446.687	78.81
446.908	75.81
447.129	87.81
447.35	81.81
447.571	80.81
447.792	88.81
448.013	67.81
448.234	84.81
448.455	97.81
448.675	90.81
448.896	103.81
449.117	94.81
449.338	92.81
449.559	124.81
449.779	111.81
450	92.81
450.221	88.81
450.442	98.81
450.662	83.81
450.883	84.81
451.104	99.81
451.324	87.81
451.545	78.81
451.766	84.81
451.986	84.81
452.207	87.81
452.428	66.81
452.648	93.81
452.869	96.81
453.089	95.81
453.31	92.81
453.53	79.81
453.751	84.81
453.971	95.81
454.192	89.81
454.412	92.81
454.633	72.81
454.853	83.81
455.073	82.81
455.294	74.81
455.514	84.81
455.734	79.81
455.955	68.81
456.175	88.81
456.395	84.81
456.616	85.81
456.836	71.81
457.056	85.81
457.276	84.81
457.497	88.81
457.717	72.81
457.937	75.81
458.157	76.81
458.377	77.81
458.598	93.81
458.818	116.81
459.038	124.81
459.258	96.81
459.478	86.81
459.698	86.81
459.918	80.81
460.138	74.81
460.358	75.81
460.578	73.81
460.798	76.81
461.018	78.81
461.238	85.81
461.458	85.81
461.678	74.81
461.898	88.81
462.118	78.81
462.338	82.81
462.558	87.81
462.777	83.81
462.997	76.81
463.217	87.81
463.437	70.81
463.657	81.81
463.876	78.81
464.096	88.81
464.316	84.81
464.536	92.81
464.755	94.81
464.975	101.81
465.195	118.81
465.414	122.81
465.634	80.81
465.854	83.81
466.073	83.81
466.293	77.81
466.512	81.81
466.732	85.81
466.951	80.81
467.171	88.81
467.391	77.81
467.61	82.81
467.829	81.81
468.049	79.81
468.268	83.81
468.488	94.81
468.707	77.81
468.927	68.81
469.146	95.81
469.365	85.81
469.585	87.81
469.804	91.81
470.023	88.81
470.243	83.81
470.462	90.81
470.681	102.81
470.901	85.81
471.12	74.81
471.339	78.81
471.558	84.81
471.777	70.81
471.997	87.81
472.216	74.81
472.435	86.81
472.654	90.81
472.873	83.81
473.092	75.81
473.311	83.81
473.53	78.81
473.749	79.81
473.968	93.81
474.187	95.81
474.406	79.81
474.625	81.81
474.844	85.81
475.063	63.81
475.282	85.81
475.501	77.81
475.72	88.81
475.939	75.81
476.158	83.81
476.377	62.81
476.596	70.81
476.814	92.81
477.033	82.81
477.252	87.81
477.471	75.81
477.69	84.81
477.908	79.81
478.127	81.81
478.346	80.81
478.564	86.81
478.783	98.81
479.002	74.81
479.22	85.81
479.439	87.81
479.658	109.81
479.876	90.81
480.095	82.81
480.313	84.81
480.532	82.81
480.751	92.81
480.969	73.81
481.188	88.81
481.406	93.81
481.624	88.81
481.843	95.81
482.061	85.81
482.28	81.81
482.498	91.81
482.717	80.81
482.935	86.81
483.153	82.81
483.372	76.81
483.59	75.81
483.808	86.81
484.027	83.81
484.245	98.81
484.463	83.81
484.681	91.81
484.9	84.81
485.118	99.81
485.336	84.81
485.554	93.81
485.772	97.81
485.99	94.81
486.209	98.81
486.427	99.81
486.645	102.81
486.863	105.81
487.081	91.81
487.299	93.81
487.517	92.81
487.735	82.81
487.953	94.81
488.171	99.81
488.389	86.81
488.607	95.81
488.825	81.81
489.043	93.81
489.261	107.81
489.479	91.81
489.696	92.81
489.914	80.81
490.132	87.81
490.35	91.81
490.568	92.81
490.786	93.81
491.003	88.81
491.221	88.81
491.439	78.81
491.657	84.81
491.874	88.81
492.092	80.81
492.31	95.81
492.527	92.81
492.745	72.81
492.963	82.81
493.18	78.81
493.398	88.81
493.615	94.81
493.833	86.81
494.05	87.81
494.268	81.81
494.485	92.81
494.703	78.81
494.92	86.81
495.138	87.81
495.355	79.81
495.573	94.81
495.79	80.81
496.008	88.81
496.225	88.81
496.442	88.81
496.66	87.81
496.877	89.81
497.094	86.81
497.312	81.81
497.529	85.81
497.746	94.81
497.963	92.81
498.181	84.81
498.398	84.81
498.615	97.81
498.832	88.81
499.049	72.81
499.267	87.81
499.484	84.81
499.701	79.81
499.918	96.81
500.135	89.81
500.352	72.81
500.569	84.81
500.786	81.81
501.003	76.81
501.22	79.81
501.437	83.81
501.654	72.81
501.871	83.81
502.088	82.81
502.305	82.81
502.522	88.81
502.739	83.81
502.956	74.81
503.172	87.81
503.389	86.81
503.606	103.81
503.823	97.81
504.04	98.81
504.256	91.81
504.473	86.81
504.69	85.81
504.907	86.81
505.123	82.81
505.34	72.81
505.557	96.81
505.773	104.81
505.99	83.81
506.207	80.81
506.423	75.81
506.64	98.81
506.856	75.81
507.073	84.81
507.289	85.81
507.506	79.81
507.722	86.81
507.939	97.81
508.155	84.81
508.372	75.81
508.588	81.81
508.805	88.81
509.021	83.81
509.238	95.81
509.454	86.81
509.67	92.81
509.887	108.81
510.103	108.81
510.319	156.81
510.536	485.81
510.752	1492.81
510.968	443.81
511.184	131.81
511.401	92.81
511.617	82.81
511.833	77.81
512.049	79.81
512.265	82.81
512.481	101.81
512.698	94.81
512.914	60.81
513.13	79.81
513.346	69.81
513.562	81.81
513.778	91.81
513.994	84.81
514.21	89.81
514.426	100.81
514.642	95.81
514.858	103.81
515.074	143.81
515.29	284.81
515.506	922.81
515.721	343.81
515.937	109.81
516.153	92.81
516.369	82.81
516.585	78.81
516.801	76.81
517.016	86.81
517.232	86.81
517.448	90.81
517.664	67.81
517.879	80.81
