Data from Circ_2002_H10_HRD10591_00054.txt Node
Date: Wed Jan 03 10:41:09 EST 2024
User: Yrep
Spectrometer: HR+D1059
Trigger mode: 1
Integration Time (sec): 1.000000E-1
Scans to average: 1
Electric dark correction enabled: true
Nonlinearity correction enabled: false
Boxcar width: 0
XAxis mode: Wavelengths
Number of Pixels in Spectrum: 2048
>>>>>Begin Spectral Data<<<<<
223.165	-13.69
223.4	-13.69
223.635	-13.69
223.869	-17.69
224.104	-10.69
224.338	-5.69
224.573	-22.69
224.808	-13.69
225.042	-12.69
225.277	-15.69
225.511	-5.69
225.746	-2.69
225.98	6.31
226.215	11.31
226.449	11.31
226.683	21.31
226.918	35.31
227.152	35.31
227.387	19.31
227.621	49.31
227.856	28.31
228.09	60.31
228.324	51.31
228.559	62.31
228.793	68.31
229.027	54.31
229.262	65.31
229.496	76.31
229.73	59.31
229.964	78.31
230.199	78.31
230.433	75.31
230.667	70.31
230.901	84.31
231.136	83.31
231.37	83.31
231.604	94.31
231.838	75.31
232.072	73.31
232.306	75.31
232.541	84.31
232.775	83.31
233.009	87.31
233.243	83.31
233.477	87.31
233.711	83.31
233.945	79.31
234.179	88.31
234.413	68.31
234.647	81.31
234.881	65.31
235.115	71.31
235.349	88.31
235.583	80.31
235.817	83.31
236.051	82.31
236.285	87.31
236.519	96.31
236.753	90.31
236.987	84.31
237.221	84.31
237.455	81.31
237.689	72.31
237.922	92.31
238.156	77.31
238.39	79.31
238.624	81.31
238.858	87.31
239.091	82.31
239.325	81.31
239.559	88.31
239.793	65.31
240.027	88.31
240.26	78.31
240.494	79.31
240.728	77.31
240.961	71.31
241.195	68.31
241.429	87.31
241.662	84.31
241.896	73.31
242.13	74.31
242.363	76.31
242.597	71.31
242.83	84.31
243.064	79.31
243.298	69.31
243.531	83.31
243.765	57.31
243.998	79.31
244.232	75.31
244.465	81.31
244.699	86.31
244.932	83.31
245.166	82.31
245.399	99.31
245.633	83.31
245.866	68.31
246.099	71.31
246.333	83.31
246.566	85.31
246.8	72.31
247.033	80.31
247.266	71.31
247.5	75.31
247.733	86.31
247.966	80.31
248.2	86.31
248.433	69.31
248.666	63.31
248.899	81.31
249.133	79.31
249.366	82.31
249.599	104.31
249.832	74.31
250.066	80.31
250.299	72.31
250.532	88.31
250.765	81.31
250.998	76.31
251.231	59.31
251.465	84.31
251.698	86.31
251.931	81.31
252.164	87.31
252.397	89.31
252.63	83.31
252.863	81.31
253.096	63.31
253.329	92.31
253.562	78.31
253.795	86.31
254.028	84.31
254.261	70.31
254.494	92.31
254.727	96.31
254.96	84.31
255.193	93.31
255.426	98.31
255.659	93.31
255.892	89.31
256.124	72.31
256.357	86.31
256.59	68.31
256.823	88.31
257.056	79.31
257.289	88.31
257.521	96.31
257.754	79.31
257.987	89.31
258.22	79.31
258.452	84.31
258.685	85.31
258.918	79.31
259.151	76.31
259.383	97.31
259.616	86.31
259.849	82.31
260.081	79.31
260.314	75.31
260.547	79.31
260.779	90.31
261.012	89.31
261.244	90.31
261.477	111.31
261.71	84.31
261.942	102.31
262.175	112.31
262.407	78.31
262.64	88.31
262.872	103.31
263.105	81.31
263.337	84.31
263.57	80.31
263.802	96.31
264.035	70.31
264.267	79.31
264.499	75.31
264.732	88.31
264.964	73.31
265.197	79.31
265.429	86.31
265.661	77.31
265.894	87.31
266.126	77.31
266.358	74.31
266.591	88.31
266.823	87.31
267.055	89.31
267.287	68.31
267.52	85.31
267.752	81.31
267.984	77.31
268.216	84.31
268.448	90.31
268.681	80.31
268.913	80.31
269.145	91.31
269.377	92.31
269.609	60.31
269.841	75.31
270.073	60.31
270.306	82.31
270.538	82.31
270.77	71.31
271.002	74.31
271.234	92.31
271.466	85.31
271.698	84.31
271.93	73.31
272.162	93.31
272.394	85.31
272.626	86.31
272.858	77.31
273.09	80.31
273.322	73.31
273.553	72.31
273.785	61.31
274.017	90.31
274.249	85.31
274.481	95.31
274.713	79.31
274.945	104.31
275.176	94.31
275.408	91.31
275.64	79.31
275.872	81.31
276.104	77.31
276.335	83.31
276.567	92.31
276.799	108.31
277.031	87.31
277.262	91.31
277.494	93.31
277.726	79.31
277.957	76.31
278.189	84.31
278.421	105.31
278.652	77.31
278.884	87.31
279.115	95.31
279.347	85.31
279.579	84.31
279.81	87.31
280.042	72.31
280.273	81.31
280.505	97.31
280.736	109.31
280.968	104.31
281.199	93.31
281.431	85.31
281.662	85.31
281.894	87.31
282.125	104.31
282.356	96.31
282.588	115.31
282.819	118.31
283.051	90.31
283.282	89.31
283.513	93.31
283.745	92.31
283.976	74.31
284.207	88.31
284.439	85.31
284.67	79.31
284.901	91.31
285.132	73.31
285.364	80.31
285.595	81.31
285.826	94.31
286.057	106.31
286.288	101.31
286.52	88.31
286.751	83.31
286.982	87.31
287.213	88.31
287.444	107.31
287.675	84.31
287.906	87.31
288.138	92.31
288.369	98.31
288.6	102.31
288.831	101.31
289.062	99.31
289.293	87.31
289.524	79.31
289.755	86.31
289.986	82.31
290.217	86.31
290.448	100.31
290.679	87.31
290.91	75.31
291.141	89.31
291.371	92.31
291.602	102.31
291.833	76.31
292.064	80.31
292.295	89.31
292.526	85.31
292.757	104.31
292.987	93.31
293.218	71.31
293.449	78.31
293.68	86.31
293.91	99.31
294.141	94.31
294.372	82.31
294.603	99.31
294.833	96.31
295.064	101.31
295.295	93.31
295.525	76.31
295.756	103.31
295.987	98.31
296.217	114.31
296.448	134.31
296.679	91.31
296.909	96.31
297.14	88.31
297.37	88.31
297.601	95.31
297.831	97.31
298.062	89.31
298.292	85.31
298.523	99.31
298.753	81.31
298.984	95.31
299.214	93.31
299.445	77.31
299.675	88.31
299.905	88.31
300.136	75.31
300.366	96.31
300.597	89.31
300.827	89.31
301.057	98.31
301.288	115.31
301.518	97.31
301.748	89.31
301.979	98.31
302.209	88.31
302.439	86.31
302.669	70.31
302.9	81.31
303.13	85.31
303.36	79.31
303.59	86.31
303.82	97.31
304.051	97.31
304.281	82.31
304.511	80.31
304.741	79.31
304.971	83.31
305.201	96.31
305.431	89.31
305.661	100.31
305.891	90.31
306.121	95.31
306.352	83.31
306.582	102.31
306.812	91.31
307.042	98.31
307.272	95.31
307.502	83.31
307.731	85.31
307.961	91.31
308.191	86.31
308.421	78.31
308.651	85.31
308.881	101.31
309.111	89.31
309.341	101.31
309.571	92.31
309.8	88.31
310.03	100.31
310.26	96.31
310.49	103.31
310.72	92.31
310.949	91.31
311.179	85.31
311.409	91.31
311.639	101.31
311.868	107.31
312.098	95.31
312.328	104.31
312.557	97.31
312.787	88.31
313.017	110.31
313.246	103.31
313.476	89.31
313.706	84.31
313.935	87.31
314.165	85.31
314.394	99.31
314.624	90.31
314.853	90.31
315.083	90.31
315.312	89.31
315.542	103.31
315.771	91.31
316.001	99.31
316.23	80.31
316.46	83.31
316.689	90.31
316.919	93.31
317.148	76.31
317.377	91.31
317.607	88.31
317.836	103.31
318.065	99.31
318.295	87.31
318.524	92.31
318.753	100.31
318.983	81.31
319.212	99.31
319.441	92.31
319.67	96.31
319.9	90.31
320.129	87.31
320.358	95.31
320.587	95.31
320.816	76.31
321.046	97.31
321.275	86.31
321.504	104.31
321.733	102.31
321.962	107.31
322.191	89.31
322.42	93.31
322.649	101.31
322.878	115.31
323.108	110.31
323.337	104.31
323.566	120.31
323.795	131.31
324.024	184.31
324.253	344.31
324.482	687.31
324.71	1386.31
324.939	1790.31
325.168	676.31
325.397	223.31
325.626	149.31
325.855	114.31
326.084	114.31
326.313	128.31
326.542	141.31
326.77	200.31
326.999	378.31
327.228	803.31
327.457	1407.31
327.686	1097.31
327.914	324.31
328.143	167.31
328.372	137.31
328.6	123.31
328.829	108.31
329.058	122.31
329.287	122.31
329.515	103.31
329.744	103.31
329.972	104.31
330.201	108.31
330.43	124.31
330.658	132.31
330.887	117.31
331.115	99.31
331.344	93.31
331.572	114.31
331.801	108.31
332.03	91.31
332.258	95.31
332.486	105.31
332.715	90.31
332.943	86.31
333.172	99.31
333.4	93.31
333.629	101.31
333.857	104.31
334.085	98.31
334.314	112.31
334.542	126.31
334.771	118.31
334.999	97.31
335.227	112.31
335.455	100.31
335.684	87.31
335.912	90.31
336.14	108.31
336.369	98.31
336.597	108.31
336.825	99.31
337.053	95.31
337.281	87.31
337.51	88.31
337.738	88.31
337.966	92.31
338.194	94.31
338.422	86.31
338.65	98.31
338.878	97.31
339.106	99.31
339.334	88.31
339.562	98.31
339.79	96.31
340.018	85.31
340.246	91.31
340.474	95.31
340.702	97.31
340.93	92.31
341.158	89.31
341.386	88.31
341.614	97.31
341.842	88.31
342.07	76.31
342.298	101.31
342.526	104.31
342.754	97.31
342.981	108.31
343.209	91.31
343.437	105.31
343.665	82.31
343.893	93.31
344.12	84.31
344.348	91.31
344.576	92.31
344.804	91.31
345.031	93.31
345.259	108.31
345.487	105.31
345.714	92.31
345.942	98.31
346.17	93.31
346.397	93.31
346.625	98.31
346.853	94.31
347.08	87.31
347.308	85.31
347.535	111.31
347.763	95.31
347.99	94.31
348.218	89.31
348.445	106.31
348.673	99.31
348.9	91.31
349.128	98.31
349.355	93.31
349.583	90.31
349.81	96.31
350.037	103.31
350.265	102.31
350.492	90.31
350.72	90.31
350.947	106.31
351.174	95.31
351.402	108.31
351.629	94.31
351.856	93.31
352.083	109.31
352.311	105.31
352.538	98.31
352.765	109.31
352.992	105.31
353.22	97.31
353.447	96.31
353.674	101.31
353.901	95.31
354.128	93.31
354.355	100.31
354.583	88.31
354.81	93.31
355.037	115.31
355.264	102.31
355.491	93.31
355.718	108.31
355.945	105.31
356.172	109.31
356.399	91.31
356.626	103.31
356.853	88.31
357.08	84.31
357.307	93.31
357.534	96.31
357.761	103.31
357.988	90.31
358.215	107.31
358.441	96.31
358.668	104.31
358.895	97.31
359.122	91.31
359.349	85.31
359.576	96.31
359.802	79.31
360.029	98.31
360.256	105.31
360.483	101.31
360.709	90.31
360.936	89.31
361.163	88.31
361.39	73.31
361.616	89.31
361.843	92.31
362.07	92.31
362.296	89.31
362.523	83.31
362.749	82.31
362.976	91.31
363.203	100.31
363.429	97.31
363.656	90.31
363.882	105.31
364.109	87.31
364.335	82.31
364.562	97.31
364.788	86.31
365.015	88.31
365.241	97.31
365.468	105.31
365.694	106.31
365.92	87.31
366.147	90.31
366.373	83.31
366.599	93.31
366.826	103.31
367.052	93.31
367.278	91.31
367.505	93.31
367.731	81.31
367.957	86.31
368.184	86.31
368.41	104.31
368.636	95.31
368.862	104.31
369.089	82.31
369.315	105.31
369.541	87.31
369.767	81.31
369.993	81.31
370.219	97.31
370.445	93.31
370.672	85.31
370.898	99.31
371.124	79.31
371.35	93.31
371.576	87.31
371.802	91.31
372.028	79.31
372.254	84.31
372.48	88.31
372.706	79.31
372.932	84.31
373.158	89.31
373.384	89.31
373.61	103.31
373.835	96.31
374.061	104.31
374.287	102.31
374.513	89.31
374.739	81.31
374.965	98.31
375.191	79.31
375.416	86.31
375.642	93.31
375.868	103.31
376.094	90.31
376.319	77.31
376.545	91.31
376.771	86.31
376.997	92.31
377.222	82.31
377.448	100.31
377.674	98.31
377.899	100.31
378.125	83.31
378.35	85.31
378.576	94.31
378.802	93.31
379.027	95.31
379.253	103.31
379.478	93.31
379.704	95.31
379.929	89.31
380.155	82.31
380.38	103.31
380.606	81.31
380.831	97.31
381.057	94.31
381.282	94.31
381.507	77.31
381.733	91.31
381.958	97.31
382.184	85.31
382.409	92.31
382.634	96.31
382.86	97.31
383.085	103.31
383.31	106.31
383.535	101.31
383.761	98.31
383.986	111.31
384.211	101.31
384.436	93.31
384.662	112.31
384.887	112.31
385.112	105.31
385.337	106.31
385.562	107.31
385.787	101.31
386.013	102.31
386.238	113.31
386.463	118.31
386.688	114.31
386.913	107.31
387.138	100.31
387.363	106.31
387.588	95.31
387.813	87.31
388.038	97.31
388.263	112.31
388.488	97.31
388.713	93.31
388.938	85.31
389.163	95.31
389.387	98.31
389.612	105.31
389.837	100.31
390.062	80.31
390.287	83.31
390.512	98.31
390.736	100.31
390.961	97.31
391.186	85.31
391.411	92.31
391.636	98.31
391.86	82.31
392.085	95.31
392.31	96.31
392.534	72.31
392.759	100.31
392.984	85.31
393.208	95.31
393.433	94.31
393.658	91.31
393.882	80.31
394.107	86.31
394.331	90.31
394.556	91.31
394.78	84.31
395.005	79.31
395.229	92.31
395.454	91.31
395.678	81.31
395.903	98.31
396.127	98.31
396.352	103.31
396.576	82.31
396.801	83.31
397.025	79.31
397.249	86.31
397.474	94.31
397.698	91.31
397.922	87.31
398.147	87.31
398.371	88.31
398.595	91.31
398.82	80.31
399.044	90.31
399.268	97.31
399.492	90.31
399.717	96.31
399.941	91.31
400.165	98.31
400.389	91.31
400.613	87.31
400.837	88.31
401.062	82.31
401.286	81.31
401.51	81.31
401.734	92.31
401.958	92.31
402.182	103.31
402.406	138.31
402.63	108.31
402.854	88.31
403.078	89.31
403.302	87.31
403.526	91.31
403.75	87.31
403.974	101.31
404.198	98.31
404.422	84.31
404.645	71.31
404.869	78.31
405.093	87.31
405.317	103.31
405.541	94.31
405.765	102.31
405.988	105.31
406.212	149.31
406.436	183.31
406.66	130.31
406.883	94.31
407.107	87.31
407.331	95.31
407.555	104.31
407.778	91.31
408.002	101.31
408.226	78.31
408.449	93.31
408.673	87.31
408.896	80.31
409.12	85.31
409.344	85.31
409.567	76.31
409.791	93.31
410.014	106.31
410.238	109.31
410.461	94.31
410.685	86.31
410.908	93.31
411.132	96.31
411.355	84.31
411.578	91.31
411.802	90.31
412.025	89.31
412.249	85.31
412.472	90.31
412.695	90.31
412.919	91.31
413.142	89.31
413.365	81.31
413.589	96.31
413.812	96.31
414.035	94.31
414.258	88.31
414.482	69.31
414.705	76.31
414.928	97.31
415.151	101.31
415.374	93.31
415.597	98.31
415.821	95.31
416.044	94.31
416.267	99.31
416.49	87.31
416.713	87.31
416.936	79.31
417.159	86.31
417.382	91.31
417.605	81.31
417.828	84.31
418.051	98.31
418.274	84.31
418.497	82.31
418.72	74.31
418.943	91.31
419.166	100.31
419.389	87.31
419.611	90.31
419.834	94.31
420.057	98.31
420.28	104.31
420.503	84.31
420.726	89.31
420.948	100.31
421.171	93.31
421.394	98.31
421.617	97.31
421.839	93.31
422.062	94.31
422.285	91.31
422.507	94.31
422.73	98.31
422.953	95.31
423.175	88.31
423.398	86.31
423.621	91.31
423.843	90.31
424.066	95.31
424.288	91.31
424.511	95.31
424.733	99.31
424.956	86.31
425.178	103.31
425.401	95.31
425.623	103.31
425.846	87.31
426.068	100.31
426.291	90.31
426.513	88.31
426.735	92.31
426.958	105.31
427.18	108.31
427.402	134.31
427.625	147.31
427.847	130.31
428.069	104.31
428.292	111.31
428.514	87.31
428.736	79.31
428.958	88.31
429.181	96.31
429.403	85.31
429.625	83.31
429.847	96.31
430.069	87.31
430.292	96.31
430.514	96.31
430.736	67.31
430.958	91.31
431.18	78.31
431.402	91.31
431.624	84.31
431.846	84.31
432.068	90.31
432.29	92.31
432.512	127.31
432.734	103.31
432.956	93.31
433.178	107.31
433.4	108.31
433.622	88.31
433.844	91.31
434.066	81.31
434.287	92.31
434.509	80.31
434.731	87.31
434.953	79.31
435.175	96.31
435.397	82.31
435.618	89.31
435.84	89.31
436.062	104.31
436.284	107.31
436.505	107.31
436.727	95.31
436.949	91.31
437.17	89.31
437.392	82.31
437.614	96.31
437.835	115.31
438.057	108.31
438.278	113.31
438.5	88.31
438.721	110.31
438.943	98.31
439.165	91.31
439.386	89.31
439.608	85.31
439.829	99.31
440.05	117.31
440.272	113.31
440.493	95.31
440.715	81.31
440.936	77.31
441.158	87.31
441.379	75.31
441.6	86.31
441.822	100.31
442.043	96.31
442.264	94.31
442.486	98.31
442.707	117.31
442.928	97.31
443.149	107.31
443.371	109.31
443.592	91.31
443.813	106.31
444.034	104.31
444.255	97.31
444.476	96.31
444.698	98.31
444.919	93.31
445.14	134.31
445.361	122.31
445.582	107.31
445.803	119.31
446.024	121.31
446.245	114.31
446.466	114.31
446.687	94.31
446.908	93.31
447.129	90.31
447.35	96.31
447.571	86.31
447.792	77.31
448.013	91.31
448.234	97.31
448.455	103.31
448.675	113.31
448.896	102.31
449.117	98.31
449.338	103.31
449.559	122.31
449.779	123.31
450	91.31
450.221	90.31
450.442	72.31
450.662	98.31
450.883	93.31
451.104	94.31
451.324	91.31
451.545	91.31
451.766	88.31
451.986	92.31
452.207	83.31
452.428	89.31
452.648	87.31
452.869	103.31
453.089	109.31
453.31	101.31
453.53	96.31
453.751	93.31
453.971	98.31
454.192	100.31
454.412	101.31
454.633	81.31
454.853	83.31
455.073	85.31
455.294	101.31
455.514	109.31
455.734	82.31
455.955	84.31
456.175	87.31
456.395	76.31
456.616	73.31
456.836	86.31
457.056	92.31
457.276	99.31
457.497	83.31
457.717	91.31
457.937	93.31
458.157	94.31
458.377	93.31
458.598	104.31
458.818	117.31
459.038	129.31
459.258	115.31
459.478	96.31
459.698	88.31
459.918	84.31
460.138	89.31
460.358	89.31
460.578	93.31
460.798	87.31
461.018	79.31
461.238	97.31
461.458	76.31
461.678	71.31
461.898	80.31
462.118	89.31
462.338	78.31
462.558	89.31
462.777	89.31
462.997	96.31
463.217	83.31
463.437	92.31
463.657	80.31
463.876	87.31
464.096	77.31
464.316	93.31
464.536	75.31
464.755	90.31
464.975	87.31
465.195	143.31
465.414	139.31
465.634	89.31
465.854	88.31
466.073	98.31
466.293	97.31
466.512	91.31
466.732	87.31
466.951	87.31
467.171	88.31
467.391	95.31
467.61	98.31
467.829	102.31
468.049	108.31
468.268	104.31
468.488	92.31
468.707	90.31
468.927	91.31
469.146	79.31
469.365	94.31
469.585	91.31
469.804	92.31
470.023	101.31
470.243	71.31
470.462	111.31
470.681	104.31
470.901	90.31
471.12	86.31
471.339	86.31
471.558	91.31
471.777	91.31
471.997	85.31
472.216	104.31
472.435	129.31
472.654	95.31
472.873	96.31
473.092	96.31
473.311	78.31
473.53	87.31
473.749	93.31
473.968	95.31
474.187	104.31
474.406	107.31
474.625	105.31
474.844	101.31
475.063	99.31
475.282	88.31
475.501	78.31
475.72	79.31
475.939	87.31
476.158	88.31
476.377	86.31
476.596	84.31
476.814	99.31
477.033	92.31
477.252	89.31
477.471	90.31
477.69	88.31
477.908	81.31
478.127	81.31
478.346	96.31
478.564	84.31
478.783	84.31
479.002	93.31
479.22	81.31
479.439	96.31
479.658	106.31
479.876	98.31
480.095	93.31
480.313	87.31
480.532	83.31
480.751	81.31
480.969	119.31
481.188	149.31
481.406	119.31
481.624	107.31
481.843	87.31
482.061	86.31
482.28	90.31
482.498	87.31
482.717	90.31
482.935	83.31
483.153	98.31
483.372	76.31
483.59	98.31
483.808	84.31
484.027	102.31
484.245	95.31
484.463	94.31
484.681	104.31
484.9	87.31
485.118	76.31
485.336	96.31
485.554	99.31
485.772	98.31
485.99	105.31
486.209	111.31
486.427	116.31
486.645	118.31
486.863	123.31
487.081	117.31
487.299	90.31
487.517	106.31
487.735	96.31
487.953	86.31
488.171	92.31
488.389	105.31
488.607	106.31
488.825	83.31
489.043	85.31
489.261	85.31
489.479	88.31
489.696	87.31
489.914	79.31
490.132	116.31
490.35	98.31
490.568	96.31
490.786	85.31
491.003	95.31
491.221	80.31
491.439	88.31
491.657	98.31
491.874	88.31
492.092	88.31
492.31	90.31
492.527	108.31
492.745	89.31
492.963	82.31
493.18	92.31
493.398	82.31
493.615	101.31
493.833	102.31
494.05	93.31
494.268	88.31
494.485	99.31
494.703	85.31
494.92	95.31
495.138	89.31
495.355	87.31
495.573	100.31
495.79	77.31
496.008	89.31
496.225	115.31
496.442	88.31
496.66	93.31
496.877	103.31
497.094	92.31
497.312	101.31
497.529	93.31
497.746	93.31
497.963	75.31
498.181	73.31
498.398	95.31
498.615	110.31
498.832	101.31
499.049	79.31
499.267	90.31
499.484	89.31
499.701	96.31
499.918	88.31
500.135	85.31
500.352	88.31
500.569	93.31
500.786	80.31
501.003	85.31
501.22	92.31
501.437	90.31
501.654	94.31
501.871	102.31
502.088	94.31
502.305	90.31
502.522	81.31
502.739	78.31
502.956	88.31
503.172	99.31
503.389	91.31
503.606	103.31
503.823	104.31
504.04	88.31
504.256	101.31
504.473	98.31
504.69	86.31
504.907	80.31
505.123	87.31
505.34	84.31
505.557	97.31
505.773	80.31
505.99	80.31
506.207	81.31
506.423	91.31
506.64	89.31
506.856	94.31
507.073	84.31
507.289	82.31
507.506	74.31
507.722	114.31
507.939	105.31
508.155	80.31
508.372	105.31
508.588	100.31
508.805	105.31
509.021	88.31
509.238	98.31
509.454	82.31
509.67	103.31
509.887	92.31
510.103	112.31
510.319	179.31
510.536	610.31
510.752	1783.31
510.968	515.31
511.184	121.31
511.401	108.31
511.617	85.31
511.833	73.31
512.049	84.31
512.265	89.31
512.481	98.31
512.698	82.31
512.914	91.31
513.13	92.31
513.346	87.31
513.562	88.31
513.778	106.31
513.994	98.31
514.21	101.31
514.426	117.31
514.642	123.31
514.858	122.31
515.074	122.31
515.29	333.31
515.506	1033.31
515.721	412.31
