Data from Circ_2002_H10_HRD10591_00017.txt Node
Date: Wed Jan 03 10:41:01 EST 2024
User: Yrep
Spectrometer: HR+D1059
Trigger mode: 1
Integration Time (sec): 1.000000E-1
Scans to average: 1
Electric dark correction enabled: true
Nonlinearity correction enabled: false
Boxcar width: 0
XAxis mode: Wavelengths
Number of Pixels in Spectrum: 2048
>>>>>Begin Spectral Data<<<<<
223.165	-22.25
223.4	-22.25
223.635	-22.25
223.869	-12.25
224.104	-18.25
224.338	-8.25
224.573	-25.25
224.808	-20.25
225.042	-12.25
225.277	-2.25
225.511	-8.25
225.746	14.75
225.98	9.75
226.215	13.75
226.449	14.75
226.683	18.75
226.918	18.75
227.152	38.75
227.387	34.75
227.621	42.75
227.856	53.75
228.09	47.75
228.324	53.75
228.559	56.75
228.793	63.75
229.027	53.75
229.262	69.75
229.496	79.75
229.73	89.75
229.964	85.75
230.199	73.75
230.433	70.75
230.667	95.75
230.901	82.75
231.136	70.75
231.37	73.75
231.604	99.75
231.838	74.75
232.072	82.75
232.306	74.75
232.541	90.75
232.775	85.75
233.009	57.75
233.243	79.75
233.477	73.75
233.711	81.75
233.945	65.75
234.179	79.75
234.413	72.75
234.647	85.75
234.881	82.75
235.115	84.75
235.349	86.75
235.583	68.75
235.817	74.75
236.051	82.75
236.285	77.75
236.519	83.75
236.753	84.75
236.987	88.75
237.221	77.75
237.455	81.75
237.689	77.75
237.922	73.75
238.156	86.75
238.39	56.75
238.624	73.75
238.858	72.75
239.091	74.75
239.325	63.75
239.559	81.75
239.793	79.75
240.027	88.75
240.26	89.75
240.494	86.75
240.728	72.75
240.961	79.75
241.195	67.75
241.429	83.75
241.662	74.75
241.896	65.75
242.13	73.75
242.363	75.75
242.597	66.75
242.83	79.75
243.064	78.75
243.298	75.75
243.531	99.75
243.765	74.75
243.998	76.75
244.232	79.75
244.465	84.75
244.699	72.75
244.932	63.75
245.166	78.75
245.399	81.75
245.633	73.75
245.866	85.75
246.099	81.75
246.333	75.75
246.566	76.75
246.8	74.75
247.033	80.75
247.266	75.75
247.5	67.75
247.733	78.75
247.966	69.75
248.2	84.75
248.433	78.75
248.666	85.75
248.899	94.75
249.133	89.75
249.366	90.75
249.599	85.75
249.832	72.75
250.066	70.75
250.299	89.75
250.532	67.75
250.765	88.75
250.998	77.75
251.231	73.75
251.465	78.75
251.698	84.75
251.931	78.75
252.164	87.75
252.397	72.75
252.63	80.75
252.863	82.75
253.096	78.75
253.329	51.75
253.562	77.75
253.795	67.75
254.028	75.75
254.261	81.75
254.494	95.75
254.727	89.75
254.96	80.75
255.193	69.75
255.426	78.75
255.659	78.75
255.892	86.75
256.124	90.75
256.357	83.75
256.59	78.75
256.823	75.75
257.056	80.75
257.289	84.75
257.521	83.75
257.754	82.75
257.987	77.75
258.22	82.75
258.452	87.75
258.685	93.75
258.918	86.75
259.151	90.75
259.383	85.75
259.616	87.75
259.849	82.75
260.081	71.75
260.314	82.75
260.547	80.75
260.779	91.75
261.012	89.75
261.244	82.75
261.477	76.75
261.71	88.75
261.942	106.75
262.175	103.75
262.407	89.75
262.64	88.75
262.872	78.75
263.105	81.75
263.337	82.75
263.57	84.75
263.802	70.75
264.035	78.75
264.267	62.75
264.499	80.75
264.732	83.75
264.964	78.75
265.197	77.75
265.429	89.75
265.661	95.75
265.894	87.75
266.126	86.75
266.358	79.75
266.591	73.75
266.823	87.75
267.055	70.75
267.287	88.75
267.52	82.75
267.752	80.75
267.984	85.75
268.216	77.75
268.448	96.75
268.681	84.75
268.913	82.75
269.145	87.75
269.377	76.75
269.609	77.75
269.841	81.75
270.073	90.75
270.306	86.75
270.538	77.75
270.77	73.75
271.002	78.75
271.234	77.75
271.466	102.75
271.698	77.75
271.93	77.75
272.162	78.75
272.394	94.75
272.626	91.75
272.858	86.75
273.09	73.75
273.322	72.75
273.553	71.75
273.785	88.75
274.017	70.75
274.249	85.75
274.481	87.75
274.713	71.75
274.945	99.75
275.176	84.75
275.408	78.75
275.64	84.75
275.872	85.75
276.104	79.75
276.335	93.75
276.567	84.75
276.799	109.75
277.031	91.75
277.262	84.75
277.494	93.75
277.726	95.75
277.957	62.75
278.189	78.75
278.421	81.75
278.652	88.75
278.884	81.75
279.115	83.75
279.347	88.75
279.579	78.75
279.81	89.75
280.042	82.75
280.273	89.75
280.505	84.75
280.736	84.75
280.968	77.75
281.199	96.75
281.431	96.75
281.662	87.75
281.894	95.75
282.125	81.75
282.356	107.75
282.588	144.75
282.819	121.75
283.051	101.75
283.282	85.75
283.513	98.75
283.745	82.75
283.976	86.75
284.207	91.75
284.439	77.75
284.67	87.75
284.901	80.75
285.132	79.75
285.364	80.75
285.595	92.75
285.826	81.75
286.057	83.75
286.288	78.75
286.52	87.75
286.751	93.75
286.982	79.75
287.213	88.75
287.444	95.75
287.675	81.75
287.906	91.75
288.138	83.75
288.369	103.75
288.6	87.75
288.831	79.75
289.062	86.75
289.293	89.75
289.524	109.75
289.755	107.75
289.986	84.75
290.217	89.75
290.448	89.75
290.679	83.75
290.91	88.75
291.141	84.75
291.371	76.75
291.602	80.75
291.833	90.75
292.064	83.75
292.295	83.75
292.526	94.75
292.757	90.75
292.987	97.75
293.218	85.75
293.449	97.75
293.68	91.75
293.91	93.75
294.141	90.75
294.372	87.75
294.603	81.75
294.833	98.75
295.064	90.75
295.295	77.75
295.525	106.75
295.756	86.75
295.987	97.75
296.217	146.75
296.448	121.75
296.679	103.75
296.909	87.75
297.14	82.75
297.37	83.75
297.601	94.75
297.831	81.75
298.062	97.75
298.292	86.75
298.523	90.75
298.753	87.75
298.984	94.75
299.214	93.75
299.445	86.75
299.675	96.75
299.905	103.75
300.136	86.75
300.366	90.75
300.597	97.75
300.827	89.75
301.057	105.75
301.288	116.75
301.518	85.75
301.748	90.75
301.979	93.75
302.209	95.75
302.439	82.75
302.669	77.75
302.9	87.75
303.13	101.75
303.36	88.75
303.59	90.75
303.82	102.75
304.051	89.75
304.281	93.75
304.511	84.75
304.741	77.75
304.971	96.75
305.201	91.75
305.431	88.75
305.661	94.75
305.891	89.75
306.121	99.75
306.352	99.75
306.582	106.75
306.812	95.75
307.042	100.75
307.272	85.75
307.502	84.75
307.731	104.75
307.961	89.75
308.191	83.75
308.421	92.75
308.651	91.75
308.881	93.75
309.111	85.75
309.341	86.75
309.571	101.75
309.8	86.75
310.03	81.75
310.26	98.75
310.49	87.75
310.72	102.75
310.949	97.75
311.179	108.75
311.409	93.75
311.639	88.75
311.868	101.75
312.098	94.75
312.328	94.75
312.557	108.75
312.787	103.75
313.017	97.75
313.246	83.75
313.476	88.75
313.706	85.75
313.935	87.75
314.165	111.75
314.394	108.75
314.624	81.75
314.853	85.75
315.083	91.75
315.312	93.75
315.542	83.75
315.771	99.75
316.001	89.75
316.23	93.75
316.46	100.75
316.689	96.75
316.919	93.75
317.148	101.75
317.377	88.75
317.607	94.75
317.836	89.75
318.065	91.75
318.295	95.75
318.524	88.75
318.753	89.75
318.983	100.75
319.212	97.75
319.441	112.75
319.67	110.75
319.9	92.75
320.129	88.75
320.358	91.75
320.587	91.75
320.816	102.75
321.046	107.75
321.275	89.75
321.504	91.75
321.733	97.75
321.962	91.75
322.191	89.75
322.42	89.75
322.649	114.75
322.878	127.75
323.108	101.75
323.337	120.75
323.566	133.75
323.795	155.75
324.024	203.75
324.253	397.75
324.482	824.75
324.71	1747.75
324.939	2291.75
325.168	838.75
325.397	239.75
325.626	147.75
325.855	120.75
326.084	138.75
326.313	137.75
326.542	149.75
326.77	223.75
326.999	454.75
327.228	991.75
327.457	1762.75
327.686	1423.75
327.914	373.75
328.143	200.75
328.372	150.75
328.6	109.75
328.829	119.75
329.058	123.75
329.287	132.75
329.515	93.75
329.744	100.75
329.972	103.75
330.201	107.75
330.43	103.75
330.658	136.75
330.887	143.75
331.115	115.75
331.344	79.75
331.572	110.75
331.801	99.75
332.03	104.75
332.258	95.75
332.486	94.75
332.715	94.75
332.943	102.75
333.172	82.75
333.4	92.75
333.629	102.75
333.857	106.75
334.085	97.75
334.314	97.75
334.542	95.75
334.771	102.75
334.999	84.75
335.227	86.75
335.455	115.75
335.684	112.75
335.912	89.75
336.14	104.75
336.369	75.75
336.597	97.75
336.825	112.75
337.053	98.75
337.281	88.75
337.51	95.75
337.738	105.75
337.966	95.75
338.194	105.75
338.422	88.75
338.65	89.75
338.878	81.75
339.106	86.75
339.334	72.75
339.562	95.75
339.79	87.75
340.018	103.75
340.246	95.75
340.474	115.75
340.702	85.75
340.93	79.75
341.158	90.75
341.386	97.75
341.614	110.75
341.842	103.75
342.07	92.75
342.298	85.75
342.526	102.75
342.754	85.75
342.981	86.75
343.209	89.75
343.437	95.75
343.665	88.75
343.893	88.75
344.12	101.75
344.348	83.75
344.576	85.75
344.804	95.75
345.031	91.75
345.259	100.75
345.487	89.75
345.714	89.75
345.942	84.75
346.17	103.75
346.397	97.75
346.625	83.75
346.853	93.75
347.08	90.75
347.308	77.75
347.535	101.75
347.763	90.75
347.99	104.75
348.218	97.75
348.445	103.75
348.673	95.75
348.9	93.75
349.128	82.75
349.355	82.75
349.583	93.75
349.81	106.75
350.037	93.75
350.265	89.75
350.492	91.75
350.72	108.75
350.947	118.75
351.174	106.75
351.402	114.75
351.629	98.75
351.856	96.75
352.083	104.75
352.311	101.75
352.538	109.75
352.765	106.75
352.992	102.75
353.22	98.75
353.447	101.75
353.674	102.75
353.901	106.75
354.128	103.75
354.355	95.75
354.583	105.75
354.81	101.75
355.037	96.75
355.264	94.75
355.491	88.75
355.718	83.75
355.945	90.75
356.172	83.75
356.399	96.75
356.626	105.75
356.853	89.75
357.08	93.75
357.307	102.75
357.534	96.75
357.761	99.75
357.988	108.75
358.215	96.75
358.441	94.75
358.668	100.75
358.895	89.75
359.122	95.75
359.349	87.75
359.576	88.75
359.802	85.75
360.029	104.75
360.256	110.75
360.483	93.75
360.709	103.75
360.936	91.75
361.163	91.75
361.39	100.75
361.616	86.75
361.843	103.75
362.07	97.75
362.296	105.75
362.523	99.75
362.749	78.75
362.976	89.75
363.203	91.75
363.429	76.75
363.656	86.75
363.882	87.75
364.109	91.75
364.335	94.75
364.562	86.75
364.788	86.75
365.015	83.75
365.241	86.75
365.468	125.75
365.694	93.75
365.92	99.75
366.147	94.75
366.373	79.75
366.599	94.75
366.826	89.75
367.052	79.75
367.278	87.75
367.505	88.75
367.731	86.75
367.957	95.75
368.184	84.75
368.41	93.75
368.636	93.75
368.862	114.75
369.089	86.75
369.315	97.75
369.541	84.75
369.767	85.75
369.993	96.75
370.219	98.75
370.445	81.75
370.672	81.75
370.898	88.75
371.124	91.75
371.35	83.75
371.576	82.75
371.802	86.75
372.028	89.75
372.254	88.75
372.48	79.75
372.706	84.75
372.932	89.75
373.158	96.75
373.384	78.75
373.61	94.75
373.835	97.75
374.061	86.75
374.287	81.75
374.513	94.75
374.739	71.75
374.965	78.75
375.191	89.75
375.416	88.75
375.642	80.75
375.868	98.75
376.094	81.75
376.319	88.75
376.545	99.75
376.771	81.75
376.997	90.75
377.222	82.75
377.448	87.75
377.674	96.75
377.899	100.75
378.125	68.75
378.35	94.75
378.576	96.75
378.802	86.75
379.027	88.75
379.253	74.75
379.478	83.75
379.704	98.75
379.929	93.75
380.155	83.75
380.38	90.75
380.606	90.75
380.831	97.75
381.057	106.75
381.282	86.75
381.507	103.75
381.733	101.75
381.958	112.75
382.184	91.75
382.409	97.75
382.634	98.75
382.86	102.75
383.085	103.75
383.31	101.75
383.535	110.75
383.761	96.75
383.986	112.75
384.211	107.75
384.436	103.75
384.662	93.75
384.887	110.75
385.112	117.75
385.337	111.75
385.562	105.75
385.787	108.75
386.013	112.75
386.238	115.75
386.463	121.75
386.688	116.75
386.913	109.75
387.138	104.75
387.363	102.75
387.588	101.75
387.813	97.75
388.038	113.75
388.263	126.75
388.488	113.75
388.713	99.75
388.938	104.75
389.163	109.75
389.387	110.75
389.612	88.75
389.837	96.75
390.062	110.75
390.287	85.75
390.512	78.75
390.736	82.75
390.961	82.75
391.186	84.75
391.411	98.75
391.636	95.75
391.86	82.75
392.085	85.75
392.31	65.75
392.534	80.75
392.759	90.75
392.984	92.75
393.208	97.75
393.433	99.75
393.658	98.75
393.882	81.75
394.107	75.75
394.331	87.75
394.556	90.75
394.78	76.75
395.005	88.75
395.229	88.75
395.454	87.75
395.678	74.75
395.903	85.75
396.127	89.75
396.352	85.75
396.576	91.75
396.801	113.75
397.025	94.75
397.249	91.75
397.474	80.75
397.698	84.75
397.922	82.75
398.147	100.75
398.371	86.75
398.595	81.75
398.82	88.75
399.044	93.75
399.268	94.75
399.492	90.75
399.717	101.75
399.941	96.75
400.165	94.75
400.389	90.75
400.613	83.75
400.837	83.75
401.062	86.75
401.286	83.75
401.51	87.75
401.734	99.75
401.958	99.75
402.182	122.75
402.406	158.75
402.63	131.75
402.854	90.75
403.078	87.75
403.302	88.75
403.526	100.75
403.75	92.75
403.974	85.75
404.198	71.75
404.422	91.75
404.645	84.75
404.869	89.75
405.093	92.75
405.317	81.75
405.541	88.75
405.765	91.75
405.988	105.75
406.212	152.75
406.436	209.75
406.66	139.75
406.883	101.75
407.107	81.75
407.331	85.75
407.555	93.75
407.778	81.75
408.002	81.75
408.226	94.75
408.449	87.75
408.673	91.75
408.896	86.75
409.12	92.75
409.344	83.75
409.567	89.75
409.791	87.75
410.014	89.75
410.238	80.75
410.461	85.75
410.685	96.75
410.908	91.75
411.132	103.75
411.355	109.75
411.578	82.75
411.802	80.75
412.025	81.75
412.249	79.75
412.472	110.75
412.695	93.75
412.919	89.75
413.142	98.75
413.365	91.75
413.589	86.75
413.812	85.75
414.035	95.75
414.258	95.75
414.482	80.75
414.705	95.75
414.928	95.75
415.151	88.75
415.374	88.75
415.597	86.75
415.821	85.75
416.044	96.75
416.267	89.75
416.49	92.75
416.713	91.75
416.936	97.75
417.159	90.75
417.382	80.75
417.605	94.75
417.828	88.75
418.051	90.75
418.274	103.75
418.497	82.75
418.72	102.75
418.943	89.75
419.166	91.75
419.389	87.75
419.611	89.75
419.834	97.75
420.057	92.75
420.28	84.75
420.503	102.75
420.726	98.75
420.948	84.75
421.171	93.75
421.394	97.75
421.617	83.75
421.839	90.75
422.062	88.75
422.285	88.75
422.507	101.75
422.73	98.75
422.953	90.75
423.175	71.75
423.398	77.75
423.621	83.75
423.843	90.75
424.066	98.75
424.288	89.75
424.511	83.75
424.733	79.75
424.956	102.75
425.178	98.75
425.401	98.75
425.623	96.75
425.846	84.75
426.068	97.75
426.291	97.75
426.513	87.75
426.735	85.75
426.958	83.75
427.18	97.75
427.402	128.75
427.625	162.75
427.847	117.75
428.069	97.75
428.292	78.75
428.514	97.75
428.736	81.75
428.958	90.75
429.181	86.75
429.403	93.75
429.625	74.75
429.847	90.75
430.069	84.75
430.292	90.75
430.514	76.75
430.736	73.75
430.958	85.75
431.18	83.75
431.402	73.75
431.624	81.75
431.846	86.75
432.068	87.75
432.29	87.75
432.512	94.75
432.734	84.75
432.956	87.75
433.178	102.75
433.4	102.75
433.622	80.75
433.844	93.75
434.066	79.75
434.287	74.75
434.509	88.75
434.731	81.75
434.953	82.75
435.175	89.75
435.397	89.75
435.618	84.75
435.84	110.75
436.062	128.75
436.284	104.75
436.505	99.75
436.727	108.75
436.949	86.75
437.17	87.75
437.392	88.75
437.614	91.75
437.835	103.75
438.057	106.75
438.278	101.75
438.5	102.75
438.721	102.75
438.943	100.75
439.165	101.75
439.386	94.75
439.608	85.75
439.829	109.75
440.05	126.75
440.272	137.75
440.493	95.75
440.715	84.75
440.936	72.75
441.158	84.75
441.379	91.75
441.6	79.75
441.822	86.75
442.043	91.75
442.264	111.75
442.486	95.75
442.707	89.75
442.928	100.75
443.149	134.75
443.371	122.75
443.592	97.75
443.813	110.75
444.034	98.75
444.255	93.75
444.476	73.75
444.698	93.75
444.919	100.75
445.14	136.75
445.361	108.75
445.582	99.75
445.803	143.75
446.024	159.75
446.245	128.75
446.466	103.75
446.687	84.75
446.908	85.75
447.129	87.75
447.35	91.75
447.571	82.75
447.792	79.75
448.013	116.75
448.234	100.75
448.455	100.75
448.675	110.75
448.896	119.75
449.117	83.75
449.338	101.75
449.559	138.75
449.779	115.75
450	91.75
450.221	88.75
450.442	77.75
450.662	94.75
450.883	118.75
451.104	105.75
451.324	112.75
451.545	96.75
451.766	94.75
451.986	91.75
452.207	87.75
452.428	74.75
452.648	102.75
452.869	112.75
453.089	103.75
453.31	109.75
453.53	104.75
453.751	113.75
453.971	102.75
454.192	106.75
454.412	94.75
454.633	88.75
454.853	80.75
455.073	81.75
455.294	87.75
455.514	90.75
455.734	93.75
455.955	78.75
456.175	80.75
456.395	77.75
456.616	85.75
456.836	88.75
457.056	83.75
457.276	88.75
457.497	84.75
457.717	90.75
457.937	82.75
458.157	86.75
458.377	97.75
458.598	103.75
458.818	143.75
459.038	150.75
459.258	112.75
459.478	85.75
459.698	103.75
459.918	91.75
460.138	90.75
460.358	79.75
460.578	81.75
460.798	101.75
461.018	100.75
461.238	84.75
461.458	85.75
461.678	84.75
461.898	96.75
462.118	98.75
462.338	90.75
462.558	82.75
462.777	90.75
462.997	93.75
463.217	84.75
463.437	79.75
463.657	85.75
463.876	85.75
464.096	100.75
464.316	83.75
464.536	85.75
464.755	96.75
464.975	114.75
465.195	154.75
465.414	149.75
465.634	105.75
465.854	83.75
466.073	93.75
466.293	82.75
466.512	95.75
466.732	91.75
466.951	94.75
467.171	103.75
467.391	95.75
467.61	102.75
467.829	102.75
468.049	85.75
468.268	90.75
468.488	68.75
468.707	92.75
468.927	87.75
469.146	78.75
469.365	87.75
469.585	87.75
469.804	72.75
470.023	84.75
470.243	85.75
470.462	91.75
470.681	87.75
470.901	90.75
471.12	85.75
471.339	79.75
471.558	95.75
471.777	97.75
471.997	88.75
472.216	95.75
472.435	84.75
472.654	91.75
472.873	95.75
473.092	84.75
473.311	69.75
473.53	59.75
473.749	78.75
473.968	82.75
474.187	103.75
474.406	95.75
474.625	74.75
474.844	100.75
475.063	91.75
475.282	87.75
475.501	89.75
475.72	89.75
475.939	85.75
476.158	93.75
476.377	90.75
476.596	82.75
476.814	96.75
477.033	89.75
477.252	94.75
477.471	85.75
477.69	94.75
477.908	90.75
478.127	90.75
478.346	91.75
478.564	87.75
478.783	101.75
479.002	99.75
479.22	84.75
479.439	106.75
479.658	99.75
479.876	93.75
480.095	90.75
480.313	88.75
480.532	96.75
480.751	105.75
480.969	98.75
481.188	108.75
481.406	94.75
481.624	90.75
481.843	90.75
482.061	96.75
482.28	93.75
482.498	83.75
482.717	85.75
482.935	81.75
483.153	94.75
483.372	78.75
483.59	81.75
483.808	78.75
484.027	90.75
484.245	104.75
484.463	85.75
484.681	98.75
484.9	93.75
485.118	95.75
485.336	99.75
485.554	99.75
485.772	107.75
485.99	105.75
486.209	97.75
486.427	100.75
486.645	103.75
486.863	110.75
487.081	98.75
487.299	103.75
487.517	94.75
487.735	91.75
487.953	87.75
488.171	99.75
488.389	98.75
488.607	91.75
488.825	93.75
489.043	73.75
489.261	86.75
489.479	82.75
489.696	95.75
489.914	89.75
490.132	92.75
490.35	81.75
490.568	87.75
490.786	73.75
491.003	81.75
491.221	89.75
491.439	88.75
491.657	101.75
491.874	82.75
492.092	87.75
492.31	93.75
492.527	82.75
492.745	86.75
492.963	82.75
493.18	86.75
493.398	90.75
493.615	104.75
493.833	98.75
494.05	77.75
494.268	87.75
494.485	89.75
494.703	74.75
494.92	96.75
495.138	82.75
495.355	74.75
495.573	87.75
495.79	93.75
496.008	78.75
496.225	73.75
496.442	84.75
496.66	95.75
496.877	84.75
497.094	89.75
497.312	84.75
497.529	83.75
497.746	91.75
497.963	94.75
498.181	74.75
498.398	86.75
498.615	113.75
498.832	109.75
499.049	81.75
499.267	91.75
499.484	78.75
499.701	84.75
499.918	84.75
500.135	99.75
500.352	84.75
500.569	74.75
500.786	94.75
501.003	83.75
501.22	87.75
501.437	77.75
501.654	99.75
501.871	106.75
502.088	101.75
502.305	86.75
502.522	93.75
502.739	90.75
502.956	82.75
503.172	84.75
503.389	88.75
503.606	94.75
503.823	86.75
504.04	86.75
504.256	90.75
504.473	82.75
504.69	86.75
504.907	101.75
505.123	103.75
505.34	83.75
505.557	76.75
505.773	91.75
505.99	90.75
506.207	90.75
506.423	102.75
506.64	88.75
506.856	86.75
507.073	93.75
507.289	93.75
507.506	85.75
507.722	104.75
507.939	101.75
508.155	82.75
508.372	88.75
508.588	89.75
508.805	91.75
509.021	87.75
509.238	87.75
509.454	89.75
509.67	89.75
509.887	97.75
510.103	129.75
510.319	204.75
510.536	683.75
510.752	2224.75
510.968	635.75
511.184	158.75
511.401	109.75
511.617	110.75
511.833	90.75
512.049	105.75
512.265	102.75
512.481	97.75
512.698	89.75
512.914	100.75
513.13	81.75
513.346	97.75
513.562	90.75
513.778	92.75
513.994	94.75
514.21	106.75
514.426	110.75
514.642	131.75
514.858	125.75
515.074	160.75
515.29	404.75
515.506	1392.75
515.721	511.75
515.937	158.75
