Data from Circ_2002_H10_HRD10591_00022.txt Node
Date: Wed Jan 03 10:41:02 EST 2024
User: Yrep
Spectrometer: HR+D1059
Trigger mode: 1
Integration Time (sec): 1.000000E-1
Scans to average: 1
Electric dark correction enabled: true
Nonlinearity correction enabled: false
Boxcar width: 0
XAxis mode: Wavelengths
Number of Pixels in Spectrum: 2048
>>>>>Begin Spectral Data<<<<<
223.165	-15.31
223.4	-15.31
223.635	-15.31
223.869	-17.31
224.104	-25.31
224.338	-0.31
224.573	-12.31
224.808	-11.31
225.042	-9.31
225.277	-10.31
225.511	-4.31
225.746	2.69
225.98	6.69
226.215	12.69
226.449	19.69
226.683	22.69
226.918	16.69
227.152	24.69
227.387	52.69
227.621	36.69
227.856	36.69
228.09	31.69
228.324	58.69
228.559	46.69
228.793	53.69
229.027	62.69
229.262	91.69
229.496	70.69
229.73	81.69
229.964	75.69
230.199	75.69
230.433	67.69
230.667	66.69
230.901	68.69
231.136	71.69
231.37	75.69
231.604	82.69
231.838	95.69
232.072	72.69
232.306	79.69
232.541	82.69
232.775	74.69
233.009	72.69
233.243	80.69
233.477	82.69
233.711	88.69
233.945	81.69
234.179	64.69
234.413	82.69
234.647	86.69
234.881	65.69
235.115	83.69
235.349	82.69
235.583	72.69
235.817	83.69
236.051	86.69
236.285	85.69
236.519	82.69
236.753	71.69
236.987	86.69
237.221	83.69
237.455	73.69
237.689	86.69
237.922	62.69
238.156	77.69
238.39	72.69
238.624	66.69
238.858	78.69
239.091	68.69
239.325	80.69
239.559	76.69
239.793	80.69
240.027	85.69
240.26	79.69
240.494	86.69
240.728	72.69
240.961	86.69
241.195	78.69
241.429	73.69
241.662	82.69
241.896	91.69
242.13	76.69
242.363	72.69
242.597	75.69
242.83	80.69
243.064	74.69
243.298	80.69
243.531	79.69
243.765	78.69
243.998	86.69
244.232	68.69
244.465	76.69
244.699	73.69
244.932	74.69
245.166	91.69
245.399	71.69
245.633	75.69
245.866	58.69
246.099	71.69
246.333	67.69
246.566	71.69
246.8	80.69
247.033	75.69
247.266	82.69
247.5	72.69
247.733	81.69
247.966	75.69
248.2	83.69
248.433	79.69
248.666	70.69
248.899	96.69
249.133	89.69
249.366	111.69
249.599	98.69
249.832	78.69
250.066	89.69
250.299	76.69
250.532	77.69
250.765	74.69
250.998	89.69
251.231	82.69
251.465	76.69
251.698	90.69
251.931	89.69
252.164	88.69
252.397	79.69
252.63	78.69
252.863	78.69
253.096	83.69
253.329	89.69
253.562	92.69
253.795	98.69
254.028	82.69
254.261	78.69
254.494	73.69
254.727	81.69
254.96	79.69
255.193	70.69
255.426	78.69
255.659	76.69
255.892	84.69
256.124	83.69
256.357	72.69
256.59	84.69
256.823	85.69
257.056	72.69
257.289	84.69
257.521	85.69
257.754	80.69
257.987	83.69
258.22	74.69
258.452	79.69
258.685	74.69
258.918	91.69
259.151	76.69
259.383	83.69
259.616	75.69
259.849	80.69
260.081	81.69
260.314	91.69
260.547	90.69
260.779	87.69
261.012	78.69
261.244	73.69
261.477	87.69
261.71	79.69
261.942	90.69
262.175	111.69
262.407	92.69
262.64	79.69
262.872	87.69
263.105	90.69
263.337	91.69
263.57	89.69
263.802	78.69
264.035	90.69
264.267	88.69
264.499	94.69
264.732	88.69
264.964	73.69
265.197	77.69
265.429	77.69
265.661	80.69
265.894	75.69
266.126	94.69
266.358	69.69
266.591	72.69
266.823	95.69
267.055	80.69
267.287	90.69
267.52	84.69
267.752	89.69
267.984	89.69
268.216	66.69
268.448	86.69
268.681	84.69
268.913	79.69
269.145	90.69
269.377	86.69
269.609	80.69
269.841	72.69
270.073	78.69
270.306	87.69
270.538	90.69
270.77	78.69
271.002	85.69
271.234	77.69
271.466	81.69
271.698	99.69
271.93	89.69
272.162	91.69
272.394	89.69
272.626	89.69
272.858	82.69
273.09	78.69
273.322	80.69
273.553	96.69
273.785	86.69
274.017	80.69
274.249	98.69
274.481	89.69
274.713	83.69
274.945	90.69
275.176	76.69
275.408	74.69
275.64	76.69
275.872	83.69
276.104	79.69
276.335	95.69
276.567	95.69
276.799	106.69
277.031	97.69
277.262	92.69
277.494	86.69
277.726	79.69
277.957	81.69
278.189	87.69
278.421	85.69
278.652	89.69
278.884	85.69
279.115	87.69
279.347	80.69
279.579	92.69
279.81	84.69
280.042	99.69
280.273	81.69
280.505	82.69
280.736	78.69
280.968	69.69
281.199	95.69
281.431	80.69
281.662	82.69
281.894	88.69
282.125	93.69
282.356	113.69
282.588	135.69
282.819	107.69
283.051	88.69
283.282	76.69
283.513	104.69
283.745	86.69
283.976	89.69
284.207	99.69
284.439	86.69
284.67	77.69
284.901	74.69
285.132	92.69
285.364	81.69
285.595	95.69
285.826	105.69
286.057	88.69
286.288	75.69
286.52	74.69
286.751	88.69
286.982	80.69
287.213	95.69
287.444	83.69
287.675	85.69
287.906	83.69
288.138	87.69
288.369	84.69
288.6	104.69
288.831	90.69
289.062	91.69
289.293	87.69
289.524	90.69
289.755	94.69
289.986	82.69
290.217	85.69
290.448	91.69
290.679	89.69
290.91	85.69
291.141	86.69
291.371	94.69
291.602	102.69
291.833	82.69
292.064	76.69
292.295	78.69
292.526	71.69
292.757	93.69
292.987	86.69
293.218	97.69
293.449	92.69
293.68	77.69
293.91	95.69
294.141	84.69
294.372	84.69
294.603	88.69
294.833	92.69
295.064	86.69
295.295	74.69
295.525	84.69
295.756	105.69
295.987	123.69
296.217	127.69
296.448	112.69
296.679	89.69
296.909	85.69
297.14	79.69
297.37	97.69
297.601	99.69
297.831	98.69
298.062	90.69
298.292	85.69
298.523	99.69
298.753	90.69
298.984	94.69
299.214	89.69
299.445	87.69
299.675	86.69
299.905	78.69
300.136	79.69
300.366	80.69
300.597	76.69
300.827	90.69
301.057	98.69
301.288	107.69
301.518	100.69
301.748	97.69
301.979	100.69
302.209	90.69
302.439	87.69
302.669	90.69
302.9	86.69
303.13	91.69
303.36	106.69
303.59	113.69
303.82	99.69
304.051	83.69
304.281	92.69
304.511	96.69
304.741	84.69
304.971	86.69
305.201	75.69
305.431	96.69
305.661	92.69
305.891	94.69
306.121	96.69
306.352	97.69
306.582	112.69
306.812	97.69
307.042	82.69
307.272	95.69
307.502	96.69
307.731	105.69
307.961	92.69
308.191	100.69
308.421	91.69
308.651	79.69
308.881	86.69
309.111	83.69
309.341	97.69
309.571	97.69
309.8	100.69
310.03	103.69
310.26	84.69
310.49	74.69
310.72	84.69
310.949	73.69
311.179	84.69
311.409	86.69
311.639	90.69
311.868	88.69
312.098	84.69
312.328	82.69
312.557	99.69
312.787	98.69
313.017	92.69
313.246	86.69
313.476	104.69
313.706	99.69
313.935	94.69
314.165	92.69
314.394	103.69
314.624	92.69
314.853	86.69
315.083	85.69
315.312	78.69
315.542	89.69
315.771	88.69
316.001	94.69
316.23	91.69
316.46	91.69
316.689	79.69
316.919	88.69
317.148	90.69
317.377	99.69
317.607	89.69
317.836	92.69
318.065	99.69
318.295	92.69
318.524	83.69
318.753	90.69
318.983	90.69
319.212	89.69
319.441	100.69
319.67	91.69
319.9	93.69
320.129	108.69
320.358	89.69
320.587	73.69
320.816	107.69
321.046	102.69
321.275	89.69
321.504	106.69
321.733	83.69
321.962	84.69
322.191	105.69
322.42	99.69
322.649	90.69
322.878	123.69
323.108	115.69
323.337	129.69
323.566	116.69
323.795	142.69
324.024	208.69
324.253	371.69
324.482	770.69
324.71	1600.69
324.939	2161.69
325.168	782.69
325.397	247.69
325.626	156.69
325.855	126.69
326.084	125.69
326.313	118.69
326.542	150.69
326.77	240.69
326.999	467.69
327.228	896.69
327.457	1660.69
327.686	1316.69
327.914	369.69
328.143	184.69
328.372	147.69
328.6	126.69
328.829	105.69
329.058	117.69
329.287	127.69
329.515	89.69
329.744	103.69
329.972	105.69
330.201	101.69
330.43	101.69
330.658	117.69
330.887	135.69
331.115	117.69
331.344	101.69
331.572	110.69
331.801	89.69
332.03	95.69
332.258	94.69
332.486	86.69
332.715	92.69
332.943	75.69
333.172	92.69
333.4	91.69
333.629	98.69
333.857	99.69
334.085	98.69
334.314	110.69
334.542	103.69
334.771	90.69
334.999	98.69
335.227	104.69
335.455	102.69
335.684	102.69
335.912	94.69
336.14	96.69
336.369	94.69
336.597	99.69
336.825	99.69
337.053	97.69
337.281	86.69
337.51	101.69
337.738	106.69
337.966	98.69
338.194	73.69
338.422	105.69
338.65	99.69
338.878	96.69
339.106	89.69
339.334	114.69
339.562	91.69
339.79	98.69
340.018	86.69
340.246	85.69
340.474	98.69
340.702	94.69
340.93	89.69
341.158	109.69
341.386	99.69
341.614	90.69
341.842	97.69
342.07	92.69
342.298	91.69
342.526	90.69
342.754	82.69
342.981	99.69
343.209	95.69
343.437	94.69
343.665	103.69
343.893	83.69
344.12	106.69
344.348	84.69
344.576	91.69
344.804	73.69
345.031	104.69
345.259	98.69
345.487	108.69
345.714	95.69
345.942	98.69
346.17	105.69
346.397	85.69
346.625	98.69
346.853	99.69
347.08	90.69
347.308	98.69
347.535	99.69
347.763	102.69
347.99	96.69
348.218	103.69
348.445	113.69
348.673	95.69
348.9	92.69
349.128	95.69
349.355	102.69
349.583	104.69
349.81	97.69
350.037	86.69
350.265	110.69
350.492	103.69
350.72	90.69
350.947	96.69
351.174	95.69
351.402	102.69
351.629	92.69
351.856	104.69
352.083	102.69
352.311	101.69
352.538	106.69
352.765	99.69
352.992	113.69
353.22	106.69
353.447	107.69
353.674	101.69
353.901	108.69
354.128	96.69
354.355	99.69
354.583	98.69
354.81	103.69
355.037	100.69
355.264	84.69
355.491	85.69
355.718	88.69
355.945	98.69
356.172	92.69
356.399	110.69
356.626	83.69
356.853	98.69
357.08	95.69
357.307	81.69
357.534	84.69
357.761	98.69
357.988	102.69
358.215	90.69
358.441	90.69
358.668	105.69
358.895	93.69
359.122	92.69
359.349	99.69
359.576	89.69
359.802	103.69
360.029	100.69
360.256	97.69
360.483	85.69
360.709	88.69
360.936	103.69
361.163	110.69
361.39	83.69
361.616	92.69
361.843	89.69
362.07	78.69
362.296	92.69
362.523	80.69
362.749	84.69
362.976	88.69
363.203	82.69
363.429	78.69
363.656	98.69
363.882	97.69
364.109	85.69
364.335	70.69
364.562	88.69
364.788	90.69
365.015	104.69
365.241	101.69
365.468	98.69
365.694	106.69
365.92	96.69
366.147	83.69
366.373	82.69
366.599	79.69
366.826	92.69
367.052	87.69
367.278	94.69
367.505	73.69
367.731	91.69
367.957	87.69
368.184	92.69
368.41	98.69
368.636	102.69
368.862	103.69
369.089	101.69
369.315	89.69
369.541	99.69
369.767	90.69
369.993	95.69
370.219	110.69
370.445	87.69
370.672	82.69
370.898	90.69
371.124	101.69
371.35	82.69
371.576	76.69
371.802	83.69
372.028	98.69
372.254	79.69
372.48	80.69
372.706	92.69
372.932	72.69
373.158	85.69
373.384	83.69
373.61	78.69
373.835	90.69
374.061	85.69
374.287	84.69
374.513	85.69
374.739	83.69
374.965	78.69
375.191	109.69
375.416	100.69
375.642	92.69
375.868	98.69
376.094	76.69
376.319	82.69
376.545	83.69
376.771	87.69
376.997	89.69
377.222	97.69
377.448	88.69
377.674	88.69
377.899	99.69
378.125	98.69
378.35	86.69
378.576	97.69
378.802	95.69
379.027	88.69
379.253	84.69
379.478	86.69
379.704	97.69
379.929	109.69
380.155	97.69
380.38	89.69
380.606	102.69
380.831	82.69
381.057	100.69
381.282	100.69
381.507	98.69
381.733	80.69
381.958	88.69
382.184	92.69
382.409	78.69
382.634	93.69
382.86	106.69
383.085	107.69
383.31	104.69
383.535	107.69
383.761	85.69
383.986	101.69
384.211	87.69
384.436	103.69
384.662	106.69
384.887	112.69
385.112	122.69
385.337	113.69
385.562	118.69
385.787	105.69
386.013	115.69
386.238	123.69
386.463	111.69
386.688	120.69
386.913	108.69
387.138	134.69
387.363	110.69
387.588	86.69
387.813	105.69
388.038	103.69
388.263	120.69
388.488	114.69
388.713	88.69
388.938	88.69
389.163	101.69
389.387	116.69
389.612	93.69
389.837	90.69
390.062	88.69
390.287	110.69
390.512	95.69
390.736	101.69
390.961	89.69
391.186	97.69
391.411	98.69
391.636	92.69
391.86	74.69
392.085	102.69
392.31	82.69
392.534	94.69
392.759	94.69
392.984	85.69
393.208	87.69
393.433	101.69
393.658	107.69
393.882	97.69
394.107	94.69
394.331	78.69
394.556	83.69
394.78	100.69
395.005	90.69
395.229	74.69
395.454	77.69
395.678	87.69
395.903	99.69
396.127	82.69
396.352	87.69
396.576	88.69
396.801	90.69
397.025	90.69
397.249	91.69
397.474	88.69
397.698	90.69
397.922	91.69
398.147	88.69
398.371	75.69
398.595	79.69
398.82	79.69
399.044	88.69
399.268	80.69
399.492	74.69
399.717	88.69
399.941	85.69
400.165	87.69
400.389	102.69
400.613	100.69
400.837	84.69
401.062	82.69
401.286	91.69
401.51	88.69
401.734	94.69
401.958	97.69
402.182	108.69
402.406	155.69
402.63	121.69
402.854	93.69
403.078	90.69
403.302	84.69
403.526	88.69
403.75	84.69
403.974	91.69
404.198	92.69
404.422	85.69
404.645	79.69
404.869	102.69
405.093	87.69
405.317	78.69
405.541	101.69
405.765	102.69
405.988	102.69
406.212	147.69
406.436	225.69
406.66	132.69
406.883	111.69
407.107	81.69
407.331	91.69
407.555	82.69
407.778	104.69
408.002	97.69
408.226	94.69
408.449	84.69
408.673	87.69
408.896	95.69
409.12	94.69
409.344	93.69
409.567	75.69
409.791	91.69
410.014	103.69
410.238	80.69
410.461	82.69
410.685	81.69
410.908	89.69
411.132	101.69
411.355	89.69
411.578	92.69
411.802	84.69
412.025	78.69
412.249	90.69
412.472	86.69
412.695	75.69
412.919	83.69
413.142	97.69
413.365	102.69
413.589	95.69
413.812	87.69
414.035	99.69
414.258	85.69
414.482	94.69
414.705	81.69
414.928	83.69
415.151	107.69
415.374	92.69
415.597	105.69
415.821	93.69
416.044	95.69
416.267	82.69
416.49	76.69
416.713	93.69
416.936	92.69
417.159	84.69
417.382	95.69
417.605	83.69
417.828	88.69
418.051	87.69
418.274	84.69
418.497	89.69
418.72	82.69
418.943	68.69
419.166	79.69
419.389	91.69
419.611	94.69
419.834	94.69
420.057	82.69
420.28	89.69
420.503	91.69
420.726	79.69
420.948	92.69
421.171	94.69
421.394	92.69
421.617	99.69
421.839	82.69
422.062	81.69
422.285	85.69
422.507	98.69
422.73	110.69
422.953	88.69
423.175	87.69
423.398	83.69
423.621	86.69
423.843	91.69
424.066	89.69
424.288	81.69
424.511	84.69
424.733	84.69
424.956	101.69
425.178	84.69
425.401	80.69
425.623	91.69
425.846	84.69
426.068	98.69
426.291	92.69
426.513	85.69
426.735	89.69
426.958	96.69
427.18	108.69
427.402	140.69
427.625	154.69
427.847	124.69
428.069	120.69
428.292	64.69
428.514	86.69
428.736	87.69
428.958	95.69
429.181	80.69
429.403	102.69
429.625	81.69
429.847	89.69
430.069	95.69
430.292	88.69
430.514	82.69
430.736	76.69
430.958	79.69
431.18	75.69
431.402	85.69
431.624	90.69
431.846	90.69
432.068	88.69
432.29	88.69
432.512	68.69
432.734	99.69
432.956	86.69
433.178	103.69
433.4	104.69
433.622	99.69
433.844	89.69
434.066	84.69
434.287	99.69
434.509	82.69
434.731	92.69
434.953	92.69
435.175	73.69
435.397	95.69
435.618	76.69
435.84	92.69
436.062	107.69
436.284	103.69
436.505	103.69
436.727	100.69
436.949	102.69
437.17	91.69
437.392	93.69
437.614	78.69
437.835	95.69
438.057	114.69
438.278	114.69
438.5	104.69
438.721	119.69
438.943	113.69
439.165	86.69
439.386	90.69
439.608	93.69
439.829	95.69
440.05	107.69
440.272	131.69
440.493	105.69
440.715	96.69
440.936	94.69
441.158	78.69
441.379	82.69
441.6	92.69
441.822	85.69
442.043	105.69
442.264	99.69
442.486	104.69
442.707	99.69
442.928	105.69
443.149	100.69
443.371	110.69
443.592	99.69
443.813	111.69
444.034	102.69
444.255	96.69
444.476	91.69
444.698	92.69
444.919	87.69
445.14	143.69
445.361	116.69
445.582	119.69
445.803	118.69
446.024	134.69
446.245	132.69
446.466	103.69
446.687	85.69
446.908	92.69
447.129	94.69
447.35	93.69
447.571	87.69
447.792	76.69
448.013	86.69
448.234	121.69
448.455	81.69
448.675	103.69
448.896	104.69
449.117	94.69
449.338	104.69
449.559	124.69
449.779	120.69
450	93.69
450.221	76.69
450.442	86.69
450.662	88.69
450.883	87.69
451.104	105.69
451.324	97.69
451.545	89.69
451.766	79.69
451.986	95.69
452.207	88.69
452.428	90.69
452.648	102.69
452.869	98.69
453.089	103.69
453.31	115.69
453.53	98.69
453.751	87.69
453.971	100.69
454.192	87.69
454.412	93.69
454.633	96.69
454.853	81.69
455.073	85.69
455.294	71.69
455.514	95.69
455.734	94.69
455.955	88.69
456.175	84.69
456.395	79.69
456.616	70.69
456.836	92.69
457.056	92.69
457.276	93.69
457.497	75.69
457.717	92.69
457.937	74.69
458.157	83.69
458.377	78.69
458.598	102.69
458.818	139.69
459.038	143.69
459.258	120.69
459.478	84.69
459.698	95.69
459.918	71.69
460.138	76.69
460.358	86.69
460.578	90.69
460.798	91.69
461.018	77.69
461.238	82.69
461.458	87.69
461.678	92.69
461.898	78.69
462.118	100.69
462.338	99.69
462.558	81.69
462.777	83.69
462.997	85.69
463.217	72.69
463.437	95.69
463.657	90.69
463.876	81.69
464.096	94.69
464.316	81.69
464.536	86.69
464.755	92.69
464.975	98.69
465.195	138.69
465.414	152.69
465.634	81.69
465.854	84.69
466.073	98.69
466.293	97.69
466.512	89.69
466.732	90.69
466.951	94.69
467.171	86.69
467.391	95.69
467.61	101.69
467.829	98.69
468.049	84.69
468.268	77.69
468.488	83.69
468.707	100.69
468.927	88.69
469.146	84.69
469.365	76.69
469.585	71.69
469.804	87.69
470.023	87.69
470.243	91.69
470.462	96.69
470.681	112.69
470.901	95.69
471.12	85.69
471.339	88.69
471.558	99.69
471.777	82.69
471.997	90.69
472.216	84.69
472.435	95.69
472.654	84.69
472.873	89.69
473.092	84.69
473.311	81.69
473.53	89.69
473.749	104.69
473.968	92.69
474.187	101.69
474.406	86.69
474.625	88.69
474.844	88.69
475.063	74.69
475.282	74.69
475.501	84.69
475.72	98.69
475.939	84.69
476.158	87.69
476.377	75.69
476.596	94.69
476.814	89.69
477.033	86.69
477.252	89.69
477.471	99.69
477.69	78.69
477.908	88.69
478.127	75.69
478.346	92.69
478.564	101.69
478.783	104.69
479.002	94.69
479.22	87.69
479.439	91.69
479.658	123.69
479.876	97.69
480.095	69.69
480.313	72.69
480.532	81.69
480.751	88.69
480.969	92.69
481.188	108.69
481.406	113.69
481.624	90.69
481.843	98.69
482.061	81.69
482.28	93.69
482.498	88.69
482.717	83.69
482.935	78.69
483.153	85.69
483.372	93.69
483.59	90.69
483.808	91.69
484.027	78.69
484.245	83.69
484.463	91.69
484.681	99.69
484.9	80.69
485.118	80.69
485.336	95.69
485.554	105.69
485.772	95.69
485.99	104.69
486.209	107.69
486.427	111.69
486.645	104.69
486.863	107.69
487.081	111.69
487.299	118.69
487.517	99.69
487.735	94.69
487.953	86.69
488.171	92.69
488.389	98.69
488.607	98.69
488.825	91.69
489.043	100.69
489.261	88.69
489.479	86.69
489.696	83.69
489.914	94.69
490.132	89.69
490.35	71.69
490.568	92.69
490.786	88.69
491.003	90.69
491.221	92.69
491.439	85.69
491.657	82.69
491.874	85.69
492.092	88.69
492.31	109.69
492.527	76.69
492.745	86.69
492.963	86.69
493.18	75.69
493.398	87.69
493.615	105.69
493.833	104.69
494.05	97.69
494.268	82.69
494.485	98.69
494.703	91.69
494.92	87.69
495.138	92.69
495.355	92.69
495.573	95.69
495.79	90.69
496.008	87.69
496.225	76.69
496.442	91.69
496.66	81.69
496.877	80.69
497.094	72.69
497.312	95.69
497.529	90.69
497.746	83.69
497.963	86.69
498.181	97.69
498.398	92.69
498.615	108.69
498.832	95.69
499.049	89.69
499.267	94.69
499.484	102.69
499.701	94.69
499.918	74.69
500.135	92.69
500.352	82.69
500.569	78.69
500.786	90.69
501.003	106.69
501.22	79.69
501.437	90.69
501.654	93.69
501.871	106.69
502.088	90.69
502.305	96.69
502.522	87.69
502.739	100.69
502.956	86.69
503.172	94.69
503.389	93.69
503.606	101.69
503.823	107.69
504.04	100.69
504.256	100.69
504.473	103.69
504.69	99.69
504.907	95.69
505.123	104.69
505.34	92.69
505.557	95.69
505.773	96.69
505.99	90.69
506.207	82.69
506.423	86.69
506.64	99.69
506.856	78.69
507.073	92.69
507.289	86.69
507.506	91.69
507.722	114.69
507.939	113.69
508.155	82.69
508.372	101.69
508.588	100.69
508.805	91.69
509.021	106.69
509.238	86.69
509.454	110.69
509.67	100.69
509.887	113.69
510.103	114.69
510.319	200.69
510.536	663.69
510.752	2132.69
510.968	595.69
511.184	146.69
511.401	98.69
511.617	101.69
511.833	94.69
512.049	82.69
512.265	91.69
512.481	94.69
512.698	102.69
512.914	87.69
513.13	96.69
513.346	93.69
513.562	88.69
513.778	92.69
513.994	89.69
514.21	96.69
514.426	115.69
514.642	132.69
514.858	110.69
515.074	151.69
515.29	410.69
515.506	1300.69
515.721	492.69
515.937	136.69
