Data from Circ_2002_H10_HRD10591_00051.txt Node
Date: Wed Jan 03 10:41:08 EST 2024
User: Yrep
Spectrometer: HR+D1059
Trigger mode: 1
Integration Time (sec): 1.000000E-1
Scans to average: 1
Electric dark correction enabled: true
Nonlinearity correction enabled: false
Boxcar width: 0
XAxis mode: Wavelengths
Number of Pixels in Spectrum: 2048
>>>>>Begin Spectral Data<<<<<
223.165	-20.12
223.4	-20.12
223.635	-20.12
223.869	-21.12
224.104	-14.12
224.338	-14.12
224.573	1.88
224.808	-24.12
225.042	-12.12
225.277	-4.12
225.511	9.88
225.746	-3.12
225.98	10.88
226.215	12.88
226.449	16.88
226.683	14.88
226.918	26.88
227.152	18.88
227.387	20.88
227.621	39.88
227.856	52.88
228.09	46.88
228.324	34.88
228.559	62.88
228.793	62.88
229.027	59.88
229.262	66.88
229.496	86.88
229.73	90.88
229.964	92.88
230.199	87.88
230.433	83.88
230.667	89.88
230.901	82.88
231.136	79.88
231.37	88.88
231.604	88.88
231.838	84.88
232.072	76.88
232.306	88.88
232.541	82.88
232.775	75.88
233.009	90.88
233.243	83.88
233.477	88.88
233.711	75.88
233.945	95.88
234.179	87.88
234.413	77.88
234.647	90.88
234.881	88.88
235.115	83.88
235.349	66.88
235.583	87.88
235.817	91.88
236.051	72.88
236.285	85.88
236.519	89.88
236.753	108.88
236.987	72.88
237.221	92.88
237.455	82.88
237.689	97.88
237.922	91.88
238.156	72.88
238.39	82.88
238.624	104.88
238.858	72.88
239.091	61.88
239.325	74.88
239.559	81.88
239.793	76.88
240.027	89.88
240.26	68.88
240.494	90.88
240.728	89.88
240.961	72.88
241.195	88.88
241.429	75.88
241.662	75.88
241.896	79.88
242.13	83.88
242.363	66.88
242.597	69.88
242.83	80.88
243.064	78.88
243.298	78.88
243.531	62.88
243.765	76.88
243.998	65.88
244.232	86.88
244.465	92.88
244.699	82.88
244.932	88.88
245.166	91.88
245.399	74.88
245.633	87.88
245.866	84.88
246.099	82.88
246.333	81.88
246.566	80.88
246.8	76.88
247.033	83.88
247.266	86.88
247.5	86.88
247.733	85.88
247.966	81.88
248.2	81.88
248.433	86.88
248.666	77.88
248.899	79.88
249.133	85.88
249.366	94.88
249.599	105.88
249.832	72.88
250.066	90.88
250.299	71.88
250.532	87.88
250.765	82.88
250.998	81.88
251.231	81.88
251.465	92.88
251.698	85.88
251.931	75.88
252.164	76.88
252.397	80.88
252.63	74.88
252.863	91.88
253.096	82.88
253.329	78.88
253.562	88.88
253.795	85.88
254.028	74.88
254.261	86.88
254.494	77.88
254.727	87.88
254.96	81.88
255.193	88.88
255.426	90.88
255.659	76.88
255.892	83.88
256.124	74.88
256.357	86.88
256.59	70.88
256.823	82.88
257.056	81.88
257.289	89.88
257.521	82.88
257.754	79.88
257.987	73.88
258.22	92.88
258.452	97.88
258.685	89.88
258.918	77.88
259.151	91.88
259.383	94.88
259.616	92.88
259.849	99.88
260.081	83.88
260.314	85.88
260.547	85.88
260.779	77.88
261.012	71.88
261.244	78.88
261.477	73.88
261.71	97.88
261.942	122.88
262.175	130.88
262.407	83.88
262.64	90.88
262.872	91.88
263.105	80.88
263.337	80.88
263.57	77.88
263.802	92.88
264.035	87.88
264.267	59.88
264.499	80.88
264.732	92.88
264.964	77.88
265.197	94.88
265.429	85.88
265.661	78.88
265.894	92.88
266.126	88.88
266.358	88.88
266.591	74.88
266.823	80.88
267.055	85.88
267.287	85.88
267.52	93.88
267.752	77.88
267.984	92.88
268.216	77.88
268.448	93.88
268.681	86.88
268.913	84.88
269.145	97.88
269.377	94.88
269.609	78.88
269.841	97.88
270.073	80.88
270.306	88.88
270.538	89.88
270.77	76.88
271.002	74.88
271.234	93.88
271.466	84.88
271.698	88.88
271.93	86.88
272.162	92.88
272.394	94.88
272.626	80.88
272.858	87.88
273.09	74.88
273.322	87.88
273.553	101.88
273.785	81.88
274.017	89.88
274.249	85.88
274.481	91.88
274.713	85.88
274.945	90.88
275.176	90.88
275.408	84.88
275.64	101.88
275.872	81.88
276.104	112.88
276.335	108.88
276.567	104.88
276.799	100.88
277.031	110.88
277.262	107.88
277.494	85.88
277.726	85.88
277.957	74.88
278.189	90.88
278.421	85.88
278.652	83.88
278.884	60.88
279.115	87.88
279.347	80.88
279.579	89.88
279.81	83.88
280.042	97.88
280.273	109.88
280.505	86.88
280.736	88.88
280.968	77.88
281.199	82.88
281.431	94.88
281.662	85.88
281.894	89.88
282.125	104.88
282.356	104.88
282.588	133.88
282.819	114.88
283.051	94.88
283.282	98.88
283.513	100.88
283.745	87.88
283.976	85.88
284.207	85.88
284.439	92.88
284.67	82.88
284.901	96.88
285.132	85.88
285.364	76.88
285.595	98.88
285.826	89.88
286.057	102.88
286.288	89.88
286.52	80.88
286.751	96.88
286.982	100.88
287.213	83.88
287.444	89.88
287.675	91.88
287.906	90.88
288.138	91.88
288.369	90.88
288.6	91.88
288.831	98.88
289.062	98.88
289.293	103.88
289.524	92.88
289.755	94.88
289.986	85.88
290.217	90.88
290.448	99.88
290.679	77.88
290.91	87.88
291.141	94.88
291.371	86.88
291.602	95.88
291.833	93.88
292.064	81.88
292.295	72.88
292.526	102.88
292.757	80.88
292.987	93.88
293.218	87.88
293.449	89.88
293.68	89.88
293.91	74.88
294.141	95.88
294.372	98.88
294.603	90.88
294.833	98.88
295.064	83.88
295.295	98.88
295.525	107.88
295.756	105.88
295.987	120.88
296.217	149.88
296.448	148.88
296.679	102.88
296.909	94.88
297.14	97.88
297.37	94.88
297.601	82.88
297.831	104.88
298.062	97.88
298.292	85.88
298.523	83.88
298.753	93.88
298.984	89.88
299.214	96.88
299.445	88.88
299.675	93.88
299.905	89.88
300.136	86.88
300.366	94.88
300.597	93.88
300.827	107.88
301.057	107.88
301.288	97.88
301.518	93.88
301.748	91.88
301.979	84.88
302.209	87.88
302.439	90.88
302.669	93.88
302.9	85.88
303.13	93.88
303.36	96.88
303.59	101.88
303.82	111.88
304.051	85.88
304.281	82.88
304.511	83.88
304.741	96.88
304.971	92.88
305.201	86.88
305.431	86.88
305.661	100.88
305.891	100.88
306.121	105.88
306.352	91.88
306.582	103.88
306.812	94.88
307.042	95.88
307.272	101.88
307.502	98.88
307.731	89.88
307.961	96.88
308.191	80.88
308.421	84.88
308.651	84.88
308.881	110.88
309.111	118.88
309.341	101.88
309.571	102.88
309.8	86.88
310.03	99.88
310.26	106.88
310.49	84.88
310.72	95.88
310.949	108.88
311.179	96.88
311.409	96.88
311.639	89.88
311.868	96.88
312.098	111.88
312.328	102.88
312.557	105.88
312.787	105.88
313.017	95.88
313.246	94.88
313.476	78.88
313.706	95.88
313.935	92.88
314.165	101.88
314.394	109.88
314.624	98.88
314.853	80.88
315.083	96.88
315.312	111.88
315.542	94.88
315.771	90.88
316.001	87.88
316.23	89.88
316.46	93.88
316.689	95.88
316.919	91.88
317.148	93.88
317.377	97.88
317.607	103.88
317.836	99.88
318.065	99.88
318.295	94.88
318.524	81.88
318.753	98.88
318.983	104.88
319.212	96.88
319.441	96.88
319.67	104.88
319.9	96.88
320.129	90.88
320.358	94.88
320.587	100.88
320.816	106.88
321.046	101.88
321.275	99.88
321.504	99.88
321.733	103.88
321.962	103.88
322.191	117.88
322.42	101.88
322.649	107.88
322.878	113.88
323.108	121.88
323.337	110.88
323.566	136.88
323.795	151.88
324.024	209.88
324.253	411.88
324.482	843.88
324.71	1743.88
324.939	2352.88
325.168	857.88
325.397	250.88
325.626	141.88
325.855	143.88
326.084	128.88
326.313	154.88
326.542	152.88
326.77	240.88
326.999	498.88
327.228	990.88
327.457	1859.88
327.686	1470.88
327.914	388.88
328.143	184.88
328.372	148.88
328.6	131.88
328.829	121.88
329.058	132.88
329.287	125.88
329.515	116.88
329.744	102.88
329.972	104.88
330.201	114.88
330.43	136.88
330.658	138.88
330.887	149.88
331.115	116.88
331.344	98.88
331.572	105.88
331.801	105.88
332.03	94.88
332.258	85.88
332.486	111.88
332.715	96.88
332.943	84.88
333.172	101.88
333.4	100.88
333.629	101.88
333.857	117.88
334.085	108.88
334.314	107.88
334.542	124.88
334.771	112.88
334.999	95.88
335.227	101.88
335.455	96.88
335.684	101.88
335.912	94.88
336.14	104.88
336.369	99.88
336.597	105.88
336.825	103.88
337.053	108.88
337.281	98.88
337.51	92.88
337.738	93.88
337.966	92.88
338.194	103.88
338.422	101.88
338.65	95.88
338.878	97.88
339.106	102.88
339.334	94.88
339.562	100.88
339.79	101.88
340.018	85.88
340.246	97.88
340.474	100.88
340.702	78.88
340.93	85.88
341.158	94.88
341.386	94.88
341.614	96.88
341.842	102.88
342.07	94.88
342.298	81.88
342.526	101.88
342.754	89.88
342.981	89.88
343.209	94.88
343.437	99.88
343.665	97.88
343.893	96.88
344.12	91.88
344.348	92.88
344.576	86.88
344.804	94.88
345.031	99.88
345.259	101.88
345.487	92.88
345.714	103.88
345.942	89.88
346.17	87.88
346.397	91.88
346.625	97.88
346.853	96.88
347.08	97.88
347.308	100.88
347.535	109.88
347.763	99.88
347.99	94.88
348.218	103.88
348.445	93.88
348.673	113.88
348.9	116.88
349.128	100.88
349.355	107.88
349.583	90.88
349.81	94.88
350.037	88.88
350.265	93.88
350.492	90.88
350.72	93.88
350.947	103.88
351.174	123.88
351.402	90.88
351.629	99.88
351.856	77.88
352.083	93.88
352.311	114.88
352.538	101.88
352.765	91.88
352.992	118.88
353.22	105.88
353.447	112.88
353.674	96.88
353.901	104.88
354.128	95.88
354.355	86.88
354.583	103.88
354.81	100.88
355.037	100.88
355.264	86.88
355.491	105.88
355.718	102.88
355.945	107.88
356.172	109.88
356.399	107.88
356.626	107.88
356.853	98.88
357.08	93.88
357.307	98.88
357.534	90.88
357.761	94.88
357.988	98.88
358.215	106.88
358.441	95.88
358.668	92.88
358.895	116.88
359.122	91.88
359.349	88.88
359.576	85.88
359.802	103.88
360.029	112.88
360.256	118.88
360.483	108.88
360.709	94.88
360.936	86.88
361.163	105.88
361.39	105.88
361.616	97.88
361.843	94.88
362.07	99.88
362.296	102.88
362.523	97.88
362.749	93.88
362.976	111.88
363.203	93.88
363.429	88.88
363.656	85.88
363.882	81.88
364.109	98.88
364.335	94.88
364.562	92.88
364.788	95.88
365.015	78.88
365.241	102.88
365.468	108.88
365.694	106.88
365.92	96.88
366.147	110.88
366.373	99.88
366.599	100.88
366.826	93.88
367.052	99.88
367.278	91.88
367.505	84.88
367.731	92.88
367.957	89.88
368.184	87.88
368.41	92.88
368.636	128.88
368.862	127.88
369.089	112.88
369.315	86.88
369.541	84.88
369.767	94.88
369.993	85.88
370.219	97.88
370.445	92.88
370.672	86.88
370.898	91.88
371.124	91.88
371.35	94.88
371.576	80.88
371.802	104.88
372.028	89.88
372.254	99.88
372.48	110.88
372.706	108.88
372.932	88.88
373.158	91.88
373.384	98.88
373.61	100.88
373.835	86.88
374.061	97.88
374.287	80.88
374.513	72.88
374.739	84.88
374.965	98.88
375.191	90.88
375.416	80.88
375.642	93.88
375.868	99.88
376.094	94.88
376.319	89.88
376.545	92.88
376.771	78.88
376.997	103.88
377.222	83.88
377.448	85.88
377.674	94.88
377.899	98.88
378.125	99.88
378.35	97.88
378.576	98.88
378.802	84.88
379.027	87.88
379.253	99.88
379.478	84.88
379.704	94.88
379.929	104.88
380.155	100.88
380.38	89.88
380.606	108.88
380.831	88.88
381.057	90.88
381.282	87.88
381.507	106.88
381.733	107.88
381.958	109.88
382.184	113.88
382.409	115.88
382.634	95.88
382.86	107.88
383.085	111.88
383.31	102.88
383.535	101.88
383.761	103.88
383.986	100.88
384.211	98.88
384.436	105.88
384.662	94.88
384.887	108.88
385.112	105.88
385.337	102.88
385.562	111.88
385.787	124.88
386.013	119.88
386.238	119.88
386.463	104.88
386.688	109.88
386.913	102.88
387.138	94.88
387.363	111.88
387.588	98.88
387.813	103.88
388.038	100.88
388.263	120.88
388.488	110.88
388.713	95.88
388.938	96.88
389.163	98.88
389.387	109.88
389.612	102.88
389.837	98.88
390.062	103.88
390.287	79.88
390.512	90.88
390.736	96.88
390.961	100.88
391.186	105.88
391.411	94.88
391.636	94.88
391.86	84.88
392.085	97.88
392.31	93.88
392.534	84.88
392.759	89.88
392.984	91.88
393.208	90.88
393.433	79.88
393.658	94.88
393.882	86.88
394.107	93.88
394.331	106.88
394.556	91.88
394.78	98.88
395.005	98.88
395.229	70.88
395.454	83.88
395.678	88.88
395.903	89.88
396.127	99.88
396.352	84.88
396.576	77.88
396.801	90.88
397.025	87.88
397.249	80.88
397.474	99.88
397.698	98.88
397.922	85.88
398.147	88.88
398.371	76.88
398.595	86.88
398.82	86.88
399.044	84.88
399.268	88.88
399.492	98.88
399.717	97.88
399.941	102.88
400.165	113.88
400.389	90.88
400.613	96.88
400.837	85.88
401.062	99.88
401.286	96.88
401.51	103.88
401.734	104.88
401.958	100.88
402.182	120.88
402.406	153.88
402.63	113.88
402.854	112.88
403.078	100.88
403.302	92.88
403.526	90.88
403.75	89.88
403.974	82.88
404.198	90.88
404.422	102.88
404.645	88.88
404.869	78.88
405.093	106.88
405.317	104.88
405.541	112.88
405.765	88.88
405.988	120.88
406.212	166.88
406.436	219.88
406.66	157.88
406.883	92.88
407.107	89.88
407.331	94.88
407.555	102.88
407.778	108.88
408.002	102.88
408.226	98.88
408.449	87.88
408.673	105.88
408.896	97.88
409.12	85.88
409.344	91.88
409.567	76.88
409.791	88.88
410.014	111.88
410.238	99.88
410.461	82.88
410.685	113.88
410.908	102.88
411.132	103.88
411.355	103.88
411.578	112.88
411.802	96.88
412.025	89.88
412.249	99.88
412.472	105.88
412.695	103.88
412.919	106.88
413.142	99.88
413.365	84.88
413.589	82.88
413.812	90.88
414.035	88.88
414.258	93.88
414.482	82.88
414.705	94.88
414.928	97.88
415.151	93.88
415.374	77.88
415.597	93.88
415.821	88.88
416.044	102.88
416.267	76.88
416.49	88.88
416.713	96.88
416.936	94.88
417.159	94.88
417.382	93.88
417.605	92.88
417.828	102.88
418.051	81.88
418.274	116.88
418.497	100.88
418.72	88.88
418.943	91.88
419.166	95.88
419.389	94.88
419.611	90.88
419.834	99.88
420.057	82.88
420.28	90.88
420.503	68.88
420.726	96.88
420.948	96.88
421.171	89.88
421.394	99.88
421.617	104.88
421.839	96.88
422.062	85.88
422.285	100.88
422.507	93.88
422.73	105.88
422.953	91.88
423.175	92.88
423.398	70.88
423.621	90.88
423.843	94.88
424.066	82.88
424.288	85.88
424.511	93.88
424.733	91.88
424.956	103.88
425.178	89.88
425.401	105.88
425.623	107.88
425.846	98.88
426.068	86.88
426.291	85.88
426.513	91.88
426.735	94.88
426.958	103.88
427.18	106.88
427.402	155.88
427.625	176.88
427.847	140.88
428.069	103.88
428.292	102.88
428.514	93.88
428.736	91.88
428.958	105.88
429.181	90.88
429.403	86.88
429.625	83.88
429.847	98.88
430.069	96.88
430.292	93.88
430.514	84.88
430.736	88.88
430.958	84.88
431.18	78.88
431.402	83.88
431.624	93.88
431.846	82.88
432.068	98.88
432.29	88.88
432.512	106.88
432.734	88.88
432.956	87.88
433.178	105.88
433.4	104.88
433.622	88.88
433.844	91.88
434.066	88.88
434.287	106.88
434.509	99.88
434.731	89.88
434.953	100.88
435.175	92.88
435.397	101.88
435.618	110.88
435.84	106.88
436.062	121.88
436.284	123.88
436.505	102.88
436.727	105.88
436.949	104.88
437.17	102.88
437.392	80.88
437.614	83.88
437.835	101.88
438.057	120.88
438.278	122.88
438.5	101.88
438.721	133.88
438.943	102.88
439.165	84.88
439.386	89.88
439.608	82.88
439.829	98.88
440.05	125.88
440.272	146.88
440.493	117.88
440.715	102.88
440.936	95.88
441.158	85.88
441.379	79.88
441.6	87.88
441.822	96.88
442.043	92.88
442.264	106.88
442.486	100.88
442.707	91.88
442.928	100.88
443.149	126.88
443.371	114.88
443.592	97.88
443.813	110.88
444.034	102.88
444.255	98.88
444.476	103.88
444.698	82.88
444.919	91.88
445.14	133.88
445.361	142.88
445.582	109.88
445.803	141.88
446.024	139.88
446.245	130.88
446.466	106.88
446.687	92.88
446.908	89.88
447.129	97.88
447.35	106.88
447.571	90.88
447.792	98.88
448.013	100.88
448.234	96.88
448.455	100.88
448.675	116.88
448.896	109.88
449.117	111.88
449.338	98.88
449.559	141.88
449.779	117.88
450	104.88
450.221	106.88
450.442	81.88
450.662	102.88
450.883	105.88
451.104	112.88
451.324	106.88
451.545	85.88
451.766	86.88
451.986	83.88
452.207	90.88
452.428	106.88
452.648	104.88
452.869	111.88
453.089	96.88
453.31	117.88
453.53	86.88
453.751	91.88
453.971	89.88
454.192	106.88
454.412	100.88
454.633	94.88
454.853	93.88
455.073	97.88
455.294	101.88
455.514	102.88
455.734	97.88
455.955	92.88
456.175	92.88
456.395	88.88
456.616	88.88
456.836	81.88
457.056	85.88
457.276	92.88
457.497	98.88
457.717	92.88
457.937	94.88
458.157	91.88
458.377	99.88
458.598	100.88
458.818	166.88
459.038	161.88
459.258	121.88
459.478	113.88
459.698	100.88
459.918	98.88
460.138	89.88
460.358	87.88
460.578	91.88
460.798	89.88
461.018	92.88
461.238	94.88
461.458	109.88
461.678	110.88
461.898	88.88
462.118	85.88
462.338	96.88
462.558	98.88
462.777	91.88
462.997	90.88
463.217	87.88
463.437	105.88
463.657	104.88
463.876	90.88
464.096	82.88
464.316	97.88
464.536	107.88
464.755	92.88
464.975	109.88
465.195	148.88
465.414	177.88
465.634	98.88
465.854	92.88
466.073	90.88
466.293	88.88
466.512	83.88
466.732	92.88
466.951	93.88
467.171	92.88
467.391	93.88
467.61	113.88
467.829	92.88
468.049	99.88
468.268	106.88
468.488	89.88
468.707	110.88
468.927	88.88
469.146	93.88
469.365	86.88
469.585	96.88
469.804	73.88
470.023	86.88
470.243	96.88
470.462	106.88
470.681	105.88
470.901	77.88
471.12	99.88
471.339	104.88
471.558	102.88
471.777	101.88
471.997	94.88
472.216	107.88
472.435	135.88
472.654	108.88
472.873	106.88
473.092	92.88
473.311	101.88
473.53	95.88
473.749	90.88
473.968	87.88
474.187	111.88
474.406	93.88
474.625	89.88
474.844	97.88
475.063	84.88
475.282	84.88
475.501	97.88
475.72	91.88
475.939	101.88
476.158	82.88
476.377	87.88
476.596	78.88
476.814	91.88
477.033	98.88
477.252	88.88
477.471	82.88
477.69	94.88
477.908	97.88
478.127	92.88
478.346	104.88
478.564	90.88
478.783	100.88
479.002	102.88
479.22	88.88
479.439	94.88
479.658	121.88
479.876	85.88
480.095	86.88
480.313	98.88
480.532	92.88
480.751	90.88
480.969	116.88
481.188	169.88
481.406	126.88
481.624	89.88
481.843	85.88
482.061	97.88
482.28	101.88
482.498	101.88
482.717	91.88
482.935	72.88
483.153	94.88
483.372	84.88
483.59	81.88
483.808	90.88
484.027	82.88
484.245	98.88
484.463	104.88
484.681	109.88
484.9	93.88
485.118	107.88
485.336	101.88
485.554	100.88
485.772	123.88
485.99	107.88
486.209	106.88
486.427	105.88
486.645	129.88
486.863	102.88
487.081	107.88
487.299	105.88
487.517	101.88
487.735	96.88
487.953	87.88
488.171	108.88
488.389	100.88
488.607	97.88
488.825	96.88
489.043	100.88
489.261	88.88
489.479	92.88
489.696	99.88
489.914	100.88
490.132	92.88
490.35	94.88
490.568	86.88
490.786	89.88
491.003	85.88
491.221	100.88
491.439	96.88
491.657	101.88
491.874	89.88
492.092	101.88
492.31	94.88
492.527	94.88
492.745	73.88
492.963	81.88
493.18	83.88
493.398	96.88
493.615	103.88
493.833	93.88
494.05	94.88
494.268	86.88
494.485	100.88
494.703	83.88
494.92	93.88
495.138	93.88
495.355	90.88
495.573	97.88
495.79	86.88
496.008	104.88
496.225	90.88
496.442	94.88
496.66	89.88
496.877	104.88
497.094	98.88
497.312	100.88
497.529	97.88
497.746	97.88
497.963	84.88
498.181	80.88
498.398	100.88
498.615	101.88
498.832	110.88
499.049	101.88
499.267	97.88
499.484	101.88
499.701	92.88
499.918	95.88
500.135	86.88
500.352	101.88
500.569	97.88
500.786	97.88
501.003	102.88
501.22	93.88
501.437	99.88
501.654	95.88
501.871	108.88
502.088	92.88
502.305	93.88
502.522	104.88
502.739	102.88
502.956	109.88
503.172	106.88
503.389	98.88
503.606	116.88
503.823	99.88
504.04	94.88
504.256	102.88
504.473	90.88
504.69	87.88
504.907	89.88
505.123	77.88
505.34	89.88
505.557	88.88
505.773	83.88
505.99	80.88
506.207	84.88
506.423	93.88
506.64	95.88
506.856	101.88
507.073	94.88
507.289	99.88
507.506	98.88
507.722	93.88
507.939	105.88
508.155	101.88
508.372	91.88
508.588	100.88
508.805	90.88
509.021	97.88
509.238	94.88
509.454	101.88
509.67	95.88
509.887	113.88
510.103	120.88
510.319	187.88
510.536	705.88
510.752	2248.88
510.968	646.88
511.184	156.88
511.401	115.88
511.617	107.88
511.833	111.88
512.049	103.88
512.265	94.88
512.481	80.88
512.698	90.88
512.914	106.88
513.13	99.88
513.346	107.88
513.562	103.88
513.778	87.88
513.994	94.88
514.21	110.88
