Data from Circ_2002_H10_HRD10591_00015.txt Node
Date: Wed Jan 03 10:41:01 EST 2024
User: Yrep
Spectrometer: HR+D1059
Trigger mode: 1
Integration Time (sec): 1.000000E-1
Scans to average: 1
Electric dark correction enabled: true
Nonlinearity correction enabled: false
Boxcar width: 0
XAxis mode: Wavelengths
Number of Pixels in Spectrum: 2048
>>>>>Begin Spectral Data<<<<<
223.165	-13.69
223.4	-13.69
223.635	-13.69
223.869	-6.69
224.104	-22.69
224.338	-10.69
224.573	-16.69
224.808	-28.69
225.042	-14.69
225.277	-14.69
225.511	-0.69
225.746	8.31
225.98	8.31
226.215	21.31
226.449	14.31
226.683	19.31
226.918	36.31
227.152	21.31
227.387	37.31
227.621	45.31
227.856	29.31
228.09	53.31
228.324	68.31
228.559	52.31
228.793	170.31
229.027	412.31
229.262	472.31
229.496	551.31
229.73	736.31
229.964	747.31
230.199	491.31
230.433	447.31
230.667	426.31
230.901	434.31
231.136	430.31
231.37	414.31
231.604	405.31
231.838	421.31
232.072	408.31
232.306	426.31
232.541	431.31
232.775	432.31
233.009	444.31
233.243	422.31
233.477	432.31
233.711	466.31
233.945	462.31
234.179	488.31
234.413	488.31
234.647	485.31
234.881	474.31
235.115	494.31
235.349	502.31
235.583	517.31
235.817	544.31
236.051	599.31
236.285	575.31
236.519	567.31
236.753	635.31
236.987	844.31
237.221	1274.31
237.455	1345.31
237.689	842.31
237.922	684.31
238.156	692.31
238.39	623.31
238.624	616.31
238.858	606.31
239.091	615.31
239.325	610.31
239.559	645.31
239.793	635.31
240.027	704.31
240.26	816.31
240.494	879.31
240.728	872.31
240.961	800.31
241.195	758.31
241.429	736.31
241.662	708.31
241.896	712.31
242.13	721.31
242.363	753.31
242.597	733.31
242.83	738.31
243.064	772.31
243.298	763.31
243.531	768.31
243.765	816.31
243.998	781.31
244.232	791.31
244.465	796.31
244.699	855.31
244.932	835.31
245.166	818.31
245.399	864.31
245.633	841.31
245.866	840.31
246.099	844.31
246.333	864.31
246.566	897.31
246.8	916.31
247.033	962.31
247.266	969.31
247.5	1007.31
247.733	1075.31
247.966	1095.31
248.2	1046.31
248.433	1060.31
248.666	1097.31
248.899	1231.31
249.133	1308.31
249.366	1295.31
249.599	1180.31
249.832	1142.31
250.066	1110.31
250.299	1172.31
250.532	1208.31
250.765	1413.31
250.998	1574.31
251.231	1498.31
251.465	1341.31
251.698	1306.31
251.931	1265.31
252.164	1290.31
252.397	1296.31
252.63	1324.31
252.863	1418.31
253.096	1572.31
253.329	1607.31
253.562	1542.31
253.795	1434.31
254.028	1412.31
254.261	1502.31
254.494	1651.31
254.727	2033.31
254.96	2041.31
255.193	1756.31
255.426	1619.31
255.659	1490.31
255.892	1489.31
256.124	1438.31
256.357	1396.31
256.59	1390.31
256.823	1432.31
257.056	1405.31
257.289	1395.31
257.521	1447.31
257.754	1420.31
257.987	1408.31
258.22	1401.31
258.452	1434.31
258.685	1400.31
258.918	1455.31
259.151	1528.31
259.383	1591.31
259.616	1574.31
259.849	1626.31
260.081	1800.31
260.314	1921.31
260.547	1924.31
260.779	1701.31
261.012	1626.31
261.244	1614.31
261.477	1575.31
261.71	1590.31
261.942	1633.31
262.175	1635.31
262.407	1604.31
262.64	1536.31
262.872	1535.31
263.105	1538.31
263.337	1526.31
263.57	1554.31
263.802	1570.31
264.035	1555.31
264.267	1566.31
264.499	1590.31
264.732	1578.31
264.964	1618.31
265.197	1596.31
265.429	1587.31
265.661	1604.31
265.894	1590.31
266.126	1599.31
266.358	1651.31
266.591	1705.31
266.823	1753.31
267.055	1733.31
267.287	1760.31
267.52	1722.31
267.752	1729.31
267.984	1729.31
268.216	1779.31
268.448	1806.31
268.681	1861.31
268.913	1980.31
269.145	2147.31
269.377	2173.31
269.609	2108.31
269.841	2154.31
270.073	2153.31
270.306	2448.31
270.538	2631.31
270.77	2448.31
271.002	2316.31
271.234	2276.31
271.466	2404.31
271.698	2580.31
271.93	2539.31
272.162	2549.31
272.394	2441.31
272.626	2314.31
272.858	2230.31
273.09	2156.31
273.322	2162.31
273.553	2073.31
273.785	2116.31
274.017	2106.31
274.249	2110.31
274.481	2127.31
274.713	2116.31
274.945	2125.31
275.176	2092.31
275.408	2076.31
275.64	2123.31
275.872	2116.31
276.104	2148.31
276.335	2169.31
276.567	2256.31
276.799	2373.31
277.031	2586.31
277.262	2692.31
277.494	2617.31
277.726	2405.31
277.957	2324.31
278.189	2302.31
278.421	2270.31
278.652	2278.31
278.884	2236.31
279.115	2260.31
279.347	2274.31
279.579	2271.31
279.81	2237.31
280.042	2274.31
280.273	2307.31
280.505	2266.31
280.736	2283.31
280.968	2245.31
281.199	2302.31
281.431	2296.31
281.662	2336.31
281.894	2318.31
282.125	2394.31
282.356	2546.31
282.588	2600.31
282.819	2497.31
283.051	2425.31
283.282	2387.31
283.513	2420.31
283.745	2457.31
283.976	2530.31
284.207	2508.31
284.439	2492.31
284.67	2500.31
284.901	2456.31
285.132	2510.31
285.364	2479.31
285.595	2499.31
285.826	2478.31
286.057	2504.31
286.288	2510.31
286.52	2535.31
286.751	2588.31
286.982	2574.31
287.213	2598.31
287.444	2541.31
287.675	2666.31
287.906	2754.31
288.138	2748.31
288.369	2771.31
288.6	2749.31
288.831	2661.31
289.062	2680.31
289.293	2665.31
289.524	2670.31
289.755	2613.31
289.986	2645.31
290.217	2668.31
290.448	2671.31
290.679	2697.31
290.91	2672.31
291.141	2656.31
291.371	2641.31
291.602	2689.31
291.833	2634.31
292.064	2690.31
292.295	2657.31
292.526	2684.31
292.757	2730.31
292.987	2707.31
293.218	2664.31
293.449	2741.31
293.68	2709.31
293.91	2743.31
294.141	2713.31
294.372	2693.31
294.603	2732.31
294.833	2797.31
295.064	2777.31
295.295	2770.31
295.525	2737.31
295.756	2802.31
295.987	2840.31
296.217	3033.31
296.448	2966.31
296.679	2844.31
296.909	2805.31
297.14	2835.31
297.37	2833.31
297.601	2928.31
297.831	2913.31
298.062	2912.31
298.292	2912.31
298.523	2960.31
298.753	3010.31
298.984	2935.31
299.214	2968.31
299.445	2994.31
299.675	2971.31
299.905	2992.31
300.136	2960.31
300.366	2945.31
300.597	3071.31
300.827	3127.31
301.057	3225.31
301.288	3281.31
301.518	3183.31
301.748	3193.31
301.979	3263.31
302.209	3248.31
302.439	3281.31
302.669	3183.31
302.9	3143.31
303.13	3145.31
303.36	3212.31
303.59	3160.31
303.82	3189.31
304.051	3201.31
304.281	3177.31
304.511	3118.31
304.741	3158.31
304.971	3165.31
305.201	3073.31
305.431	3135.31
305.661	3136.31
305.891	3124.31
306.121	3151.31
306.352	3171.31
306.582	3160.31
306.812	3065.31
307.042	3111.31
307.272	3160.31
307.502	3160.31
307.731	3125.31
307.961	3120.31
308.191	3088.31
308.421	3119.31
308.651	3145.31
308.881	3183.31
309.111	3217.31
309.341	3222.31
309.571	3283.31
309.8	3294.31
310.03	3385.31
310.26	3425.31
310.49	3373.31
310.72	3503.31
310.949	3478.31
311.179	3568.31
311.409	3502.31
311.639	3426.31
311.868	3500.31
312.098	3517.31
312.328	3596.31
312.557	3699.31
312.787	3737.31
313.017	3652.31
313.246	3549.31
313.476	3530.31
313.706	3596.31
313.935	3730.31
314.165	3732.31
314.394	3782.31
314.624	3766.31
314.853	3655.31
315.083	3570.31
315.312	3558.31
315.542	3520.31
315.771	3480.31
316.001	3560.31
316.23	3530.31
316.46	3512.31
316.689	3533.31
316.919	3582.31
317.148	3658.31
317.377	3557.31
317.607	3572.31
317.836	3592.31
318.065	3506.31
318.295	3470.31
318.524	3545.31
318.753	3432.31
318.983	3511.31
319.212	3497.31
319.441	3589.31
319.67	3584.31
319.9	3548.31
320.129	3519.31
320.358	3554.31
320.587	3588.31
320.816	3629.31
321.046	3731.31
321.275	3592.31
321.504	3605.31
321.733	3697.31
321.962	3746.31
322.191	3816.31
322.42	3885.31
322.649	3925.31
322.878	3975.31
323.108	4072.31
323.337	4248.31
323.566	4348.31
323.795	4588.31
324.024	5130.31
324.253	6556.31
324.482	9630.31
324.71	14262.31
324.939	15610.31
325.168	10995.31
325.397	5932.31
325.626	4880.31
325.855	4496.31
326.084	4422.31
326.313	4421.31
326.542	4604.31
326.77	5145.31
326.999	6375.31
327.228	9109.31
327.457	13305.31
327.686	12548.31
327.914	6670.31
328.143	5390.31
328.372	5026.31
328.6	4917.31
328.829	4896.31
329.058	5106.31
329.287	5021.31
329.515	4627.31
329.744	4439.31
329.972	4450.31
330.201	4584.31
330.43	4766.31
330.658	5048.31
330.887	5399.31
331.115	5038.31
331.344	4676.31
331.572	4591.31
331.801	4782.31
332.03	4786.31
332.258	4753.31
332.486	4736.31
332.715	4826.31
332.943	4926.31
333.172	5088.31
333.4	5268.31
333.629	5221.31
333.857	5368.31
334.085	5276.31
334.314	5207.31
334.542	5116.31
334.771	5147.31
334.999	5025.31
335.227	5042.31
335.455	4936.31
335.684	4865.31
335.912	4731.31
336.14	4788.31
336.369	4723.31
336.597	4810.31
336.825	4688.31
337.053	4699.31
337.281	4586.31
337.51	4479.31
337.738	4511.31
337.966	4507.31
338.194	4403.31
338.422	4444.31
338.65	4339.31
338.878	4295.31
339.106	4314.31
339.334	4290.31
339.562	4289.31
339.79	4238.31
340.018	4206.31
340.246	4232.31
340.474	4261.31
340.702	4292.31
340.93	4214.31
341.158	4213.31
341.386	4224.31
341.614	4180.31
341.842	4191.31
342.07	4155.31
342.298	4132.31
342.526	4088.31
342.754	4119.31
342.981	4161.31
343.209	4227.31
343.437	4472.31
343.665	4744.31
343.893	5027.31
344.12	5040.31
344.348	4745.31
344.576	4605.31
344.804	4543.31
345.031	4381.31
345.259	4402.31
345.487	4265.31
345.714	4174.31
345.942	4126.31
346.17	4046.31
346.397	4036.31
346.625	4022.31
346.853	3969.31
347.08	3987.31
347.308	4036.31
347.535	4116.31
347.763	4142.31
347.99	4126.31
348.218	4111.31
348.445	4175.31
348.673	4042.31
348.9	3974.31
349.128	3947.31
349.355	3973.31
349.583	3886.31
349.81	3831.31
350.037	3908.31
350.265	3874.31
350.492	3884.31
350.72	3885.31
350.947	3930.31
351.174	4001.31
351.402	4070.31
351.629	3986.31
351.856	3991.31
352.083	3988.31
352.311	4062.31
352.538	4025.31
352.765	4005.31
352.992	4001.31
353.22	3917.31
353.447	3872.31
353.674	3811.31
353.901	3791.31
354.128	3786.31
354.355	3805.31
354.583	3808.31
354.81	3839.31
355.037	3831.31
355.264	3818.31
355.491	3793.31
355.718	3818.31
355.945	3792.31
356.172	3799.31
356.399	3788.31
356.626	3759.31
356.853	3837.31
357.08	3822.31
357.307	3766.31
357.534	3816.31
357.761	3811.31
357.988	3849.31
358.215	3820.31
358.441	3841.31
358.668	3796.31
358.895	3927.31
359.122	3875.31
359.349	4013.31
359.576	4030.31
359.802	4254.31
360.029	4445.31
360.256	4397.31
360.483	4190.31
360.709	4066.31
360.936	4023.31
361.163	3977.31
361.39	4072.31
361.616	4062.31
361.843	4017.31
362.07	4023.31
362.296	3985.31
362.523	4024.31
362.749	4023.31
362.976	3957.31
363.203	3905.31
363.429	3881.31
363.656	3922.31
363.882	3916.31
364.109	3882.31
364.335	3850.31
364.562	3895.31
364.788	3882.31
365.015	3865.31
365.241	3903.31
365.468	3925.31
365.694	3930.31
365.92	3907.31
366.147	3900.31
366.373	3849.31
366.599	3875.31
366.826	3927.31
367.052	3865.31
367.278	3919.31
367.505	3880.31
367.731	3938.31
367.957	3904.31
368.184	3954.31
368.41	4040.31
368.636	4055.31
368.862	4066.31
369.089	4024.31
369.315	3993.31
369.541	3941.31
369.767	4009.31
369.993	3959.31
370.219	4026.31
370.445	4044.31
370.672	4077.31
370.898	4022.31
371.124	4139.31
371.35	4171.31
371.576	4128.31
371.802	4150.31
372.028	4185.31
372.254	4142.31
372.48	4208.31
372.706	4258.31
372.932	4358.31
373.158	4254.31
373.384	4201.31
373.61	4178.31
373.835	4298.31
374.061	4220.31
374.287	4301.31
374.513	4345.31
374.739	4481.31
374.965	4642.31
375.191	4538.31
375.416	4540.31
375.642	4360.31
375.868	4322.31
376.094	4260.31
376.319	4270.31
376.545	4217.31
376.771	4244.31
376.997	4178.31
377.222	4144.31
377.448	4132.31
377.674	4128.31
377.899	4152.31
378.125	4135.31
378.35	4068.31
378.576	4126.31
378.802	4112.31
379.027	4074.31
379.253	4181.31
379.478	4053.31
379.704	4094.31
379.929	4193.31
380.155	4146.31
380.38	4147.31
380.606	4226.31
380.831	4166.31
381.057	4184.31
381.282	4190.31
381.507	4214.31
381.733	4266.31
381.958	4278.31
382.184	4348.31
382.409	4398.31
382.634	4397.31
382.86	4439.31
383.085	4516.31
383.31	4555.31
383.535	4647.31
383.761	4708.31
383.986	4727.31
384.211	4815.31
384.436	4871.31
384.662	5010.31
384.887	5037.31
385.112	5001.31
385.337	5125.31
385.562	5024.31
385.787	5109.31
386.013	5134.31
386.238	5199.31
386.463	5102.31
386.688	5144.31
386.913	5070.31
387.138	5028.31
387.363	5047.31
387.588	4998.31
387.813	4982.31
388.038	5006.31
388.263	5032.31
388.488	5038.31
388.713	5033.31
388.938	4971.31
389.163	4973.31
389.387	4934.31
389.612	4948.31
389.837	4872.31
390.062	4941.31
390.287	4905.31
390.512	4908.31
390.736	4990.31
390.961	5068.31
391.186	5162.31
391.411	5264.31
391.636	5436.31
391.86	5600.31
392.085	5622.31
392.31	5504.31
392.534	5431.31
392.759	5310.31
392.984	5219.31
393.208	5251.31
393.433	5257.31
393.658	5171.31
393.882	5183.31
394.107	5249.31
394.331	5291.31
394.556	5245.31
394.78	5346.31
395.005	5373.31
395.229	5348.31
395.454	5562.31
395.678	5640.31
395.903	5645.31
396.127	5640.31
396.352	5554.31
396.576	5369.31
396.801	5431.31
397.025	5416.31
397.249	5519.31
397.474	5584.31
397.698	5628.31
397.922	5817.31
398.147	5901.31
398.371	5966.31
398.595	6052.31
398.82	6387.31
399.044	7022.31
399.268	7654.31
399.492	8855.31
399.717	9387.31
399.941	9139.31
400.165	8497.31
400.389	7688.31
400.613	6956.31
400.837	6582.31
401.062	6440.31
401.286	6350.31
401.51	6309.31
401.734	6242.31
401.958	6442.31
402.182	6584.31
402.406	6596.31
402.63	6676.31
402.854	6827.31
403.078	6879.31
403.302	6965.31
403.526	7112.31
403.75	7164.31
403.974	7245.31
404.198	7100.31
404.422	7217.31
404.645	7038.31
404.869	7149.31
405.093	7246.31
405.317	7311.31
405.541	7305.31
405.765	7024.31
405.988	7007.31
406.212	7167.31
406.436	7290.31
406.66	7428.31
406.883	7486.31
407.107	8006.31
407.331	8575.31
407.555	9120.31
407.778	8668.31
408.002	7974.31
408.226	7585.31
408.449	7478.31
408.673	7388.31
408.896	7553.31
409.12	7672.31
409.344	7225.31
409.567	6948.31
409.791	6940.31
410.014	6890.31
410.238	6666.31
410.461	6768.31
410.685	6820.31
410.908	6872.31
411.132	7119.31
411.355	7095.31
411.578	6697.31
411.802	6524.31
412.025	6542.31
412.249	6671.31
412.472	6490.31
412.695	6465.31
412.919	6350.31
413.142	6245.31
413.365	6120.31
413.589	6153.31
413.812	6097.31
414.035	6122.31
414.258	6125.31
414.482	6159.31
414.705	6321.31
414.928	6207.31
415.151	6243.31
415.374	6154.31
415.597	6128.31
415.821	6100.31
416.044	6094.31
416.267	6080.31
416.49	6001.31
416.713	5989.31
416.936	6098.31
417.159	6047.31
417.382	6176.31
417.605	6089.31
417.828	6229.31
418.051	6505.31
418.274	6279.31
418.497	6159.31
418.72	6356.31
418.943	6213.31
419.166	6697.31
419.389	7040.31
419.611	6799.31
419.834	6618.31
420.057	6566.31
420.28	6310.31
420.503	6152.31
420.726	6191.31
420.948	6362.31
421.171	6840.31
421.394	6721.31
421.617	6307.31
421.839	6281.31
422.062	6350.31
422.285	6534.31
422.507	7135.31
422.73	7650.31
422.953	6996.31
423.175	6773.31
423.398	6739.31
423.621	6811.31
423.843	7005.31
424.066	6937.31
424.288	6844.31
424.511	7044.31
424.733	7492.31
424.956	7833.31
425.178	7339.31
425.401	7522.31
425.623	7397.31
425.846	6521.31
426.068	6335.31
426.291	6225.31
426.513	6321.31
426.735	6374.31
426.958	6826.31
427.18	7502.31
427.402	8517.31
427.625	8540.31
427.847	7262.31
428.069	6508.31
428.292	6165.31
428.514	5837.31
428.736	5657.31
428.958	5764.31
429.181	5542.31
429.403	5605.31
429.625	5770.31
429.847	6141.31
430.069	6576.31
430.292	6116.31
430.514	5632.31
430.736	5641.31
430.958	5510.31
431.18	5412.31
431.402	5447.31
431.624	5444.31
431.846	5543.31
432.068	5585.31
432.29	5674.31
432.512	5527.31
432.734	5669.31
432.956	5625.31
433.178	5604.31
433.4	5573.31
433.622	5497.31
433.844	5537.31
434.066	5626.31
434.287	5673.31
434.509	5954.31
434.731	6122.31
434.953	6308.31
435.175	6404.31
435.397	6343.31
435.618	6332.31
435.84	6672.31
436.062	7471.31
436.284	7371.31
436.505	6196.31
436.727	5938.31
436.949	5746.31
437.17	5621.31
437.392	5508.31
437.614	5710.31
437.835	6081.31
438.057	6988.31
438.278	7538.31
438.5	7550.31
438.721	8254.31
438.943	7186.31
439.165	6080.31
439.386	5930.31
439.608	6032.31
439.829	6125.31
440.05	6391.31
440.272	6617.31
440.493	6188.31
440.715	5984.31
440.936	5919.31
441.158	5933.31
441.379	5997.31
441.6	6337.31
441.822	6580.31
442.043	6946.31
442.264	7660.31
442.486	7397.31
442.707	6568.31
442.928	6449.31
443.149	6668.31
443.371	6871.31
443.592	7399.31
443.813	8296.31
444.034	8184.31
444.255	7259.31
444.476	7075.31
444.698	7362.31
444.919	7385.31
445.14	7177.31
445.361	7021.31
445.582	7085.31
445.803	7603.31
446.024	8136.31
446.245	7842.31
446.466	7068.31
446.687	6225.31
446.908	5891.31
447.129	5570.31
447.35	5505.31
447.571	5379.31
447.792	5301.31
448.013	5387.31
448.234	5654.31
448.455	6204.31
448.675	7361.31
448.896	7714.31
449.117	6381.31
449.338	6564.31
449.559	7813.31
449.779	7956.31
450	6160.31
450.221	5509.31
450.442	5288.31
450.662	5182.31
450.883	5378.31
451.104	5384.31
451.324	5219.31
451.545	5111.31
451.766	4979.31
451.986	4913.31
452.207	4851.31
452.428	4834.31
452.648	4853.31
452.869	4894.31
453.089	4927.31
453.31	5077.31
453.53	4890.31
453.751	4846.31
453.971	4875.31
454.192	4963.31
454.412	4761.31
454.633	4740.31
454.853	4691.31
455.073	4743.31
455.294	5166.31
455.514	5655.31
455.734	5094.31
455.955	4640.31
456.175	4550.31
456.395	4524.31
456.616	4404.31
456.836	4453.31
457.056	4510.31
457.276	4442.31
457.497	4513.31
457.717	4540.31
457.937	4665.31
458.157	4624.31
458.377	4856.31
458.598	5134.31
458.818	5654.31
459.038	6396.31
459.258	6342.31
459.478	5702.31
459.698	5619.31
459.918	5665.31
460.138	5916.31
460.358	6100.31
460.578	6057.31
460.798	6111.31
461.018	6150.31
461.238	6039.31
461.458	6036.31
461.678	5958.31
461.898	6092.31
462.118	6230.31
462.338	6537.31
462.558	6583.31
462.777	6918.31
462.997	7546.31
463.217	7925.31
463.437	7623.31
463.657	7108.31
463.876	6889.31
464.096	6970.31
464.316	6974.31
464.536	7004.31
464.755	6755.31
464.975	6699.31
465.195	6761.31
465.414	6754.31
465.634	6008.31
465.854	5688.31
466.073	5466.31
466.293	5240.31
466.512	5114.31
466.732	5080.31
466.951	5045.31
467.171	5020.31
467.391	5125.31
467.61	5109.31
467.829	5068.31
468.049	5009.31
468.268	4822.31
468.488	4882.31
468.707	4744.31
468.927	4809.31
469.146	4779.31
469.365	4861.31
469.585	4906.31
469.804	5092.31
470.023	5181.31
470.243	5268.31
470.462	5260.31
470.681	5408.31
470.901	5363.31
471.12	5122.31
471.339	5092.31
471.558	5095.31
471.777	5044.31
471.997	4873.31
472.216	4875.31
472.435	4889.31
472.654	4728.31
472.873	4750.31
473.092	4804.31
473.311	4792.31
473.53	4841.31
473.749	4927.31
473.968	5385.31
474.187	6272.31
474.406	5925.31
474.625	5039.31
474.844	4894.31
475.063	4868.31
475.282	4828.31
475.501	4837.31
475.72	4927.31
475.939	4926.31
476.158	4963.31
476.377	5006.31
476.596	5023.31
476.814	5137.31
477.033	5171.31
477.252	5247.31
477.471	5338.31
477.69	5382.31
477.908	5550.31
478.127	5609.31
478.346	5758.31
478.564	5868.31
478.783	5932.31
479.002	6061.31
479.22	6116.31
479.439	6155.31
479.658	6232.31
479.876	6275.31
480.095	6594.31
480.313	6909.31
480.532	6771.31
480.751	6598.31
480.969	6489.31
481.188	6485.31
481.406	6218.31
481.624	6014.31
481.843	5887.31
482.061	5762.31
482.28	5700.31
482.498	5653.31
482.717	5630.31
482.935	5626.31
483.153	5639.31
483.372	5559.31
483.59	5575.31
483.808	5669.31
484.027	5561.31
484.245	5727.31
484.463	5718.31
484.681	5766.31
484.9	5794.31
485.118	5890.31
485.336	5871.31
485.554	5960.31
485.772	6051.31
485.99	5982.31
486.209	5968.31
486.427	6061.31
486.645	6090.31
486.863	6297.31
487.081	6166.31
487.299	6072.31
487.517	6037.31
487.735	6028.31
487.953	5989.31
