Data from Circ_2002_H10_HRD10591_00090.txt Node
Date: Wed Jan 03 10:41:16 EST 2024
User: Yrep
Spectrometer: HR+D1059
Trigger mode: 1
Integration Time (sec): 1.000000E-1
Scans to average: 1
Electric dark correction enabled: true
Nonlinearity correction enabled: false
Boxcar width: 0
XAxis mode: Wavelengths
Number of Pixels in Spectrum: 2048
>>>>>Begin Spectral Data<<<<<
223.165	-19.56
223.4	-19.56
223.635	-19.56
223.869	-9.56
224.104	-21.56
224.338	-21.56
224.573	-5.56
224.808	-10.56
225.042	-8.56
225.277	-3.56
225.511	-5.56
225.746	-2.56
225.98	15.44
226.215	2.44
226.449	13.44
226.683	26.44
226.918	21.44
227.152	29.44
227.387	35.44
227.621	37.44
227.856	41.44
228.09	50.44
228.324	44.44
228.559	62.44
228.793	63.44
229.027	55.44
229.262	67.44
229.496	79.44
229.73	85.44
229.964	78.44
230.199	80.44
230.433	72.44
230.667	74.44
230.901	73.44
231.136	82.44
231.37	90.44
231.604	82.44
231.838	84.44
232.072	80.44
232.306	75.44
232.541	80.44
232.775	80.44
233.009	79.44
233.243	85.44
233.477	87.44
233.711	81.44
233.945	75.44
234.179	66.44
234.413	83.44
234.647	76.44
234.881	79.44
235.115	77.44
235.349	86.44
235.583	70.44
235.817	89.44
236.051	71.44
236.285	92.44
236.519	80.44
236.753	68.44
236.987	82.44
237.221	85.44
237.455	85.44
237.689	86.44
237.922	70.44
238.156	81.44
238.39	71.44
238.624	75.44
238.858	83.44
239.091	89.44
239.325	85.44
239.559	69.44
239.793	86.44
240.027	71.44
240.26	81.44
240.494	82.44
240.728	79.44
240.961	75.44
241.195	63.44
241.429	79.44
241.662	73.44
241.896	75.44
242.13	76.44
242.363	70.44
242.597	83.44
242.83	75.44
243.064	80.44
243.298	74.44
243.531	72.44
243.765	91.44
243.998	70.44
244.232	82.44
244.465	79.44
244.699	74.44
244.932	79.44
245.166	80.44
245.399	67.44
245.633	75.44
245.866	71.44
246.099	91.44
246.333	89.44
246.566	76.44
246.8	69.44
247.033	69.44
247.266	73.44
247.5	73.44
247.733	90.44
247.966	90.44
248.2	76.44
248.433	72.44
248.666	81.44
248.899	76.44
249.133	76.44
249.366	105.44
249.599	87.44
249.832	92.44
250.066	83.44
250.299	74.44
250.532	85.44
250.765	74.44
250.998	85.44
251.231	84.44
251.465	83.44
251.698	83.44
251.931	87.44
252.164	86.44
252.397	83.44
252.63	88.44
252.863	82.44
253.096	83.44
253.329	77.44
253.562	98.44
253.795	77.44
254.028	87.44
254.261	89.44
254.494	83.44
254.727	76.44
254.96	77.44
255.193	89.44
255.426	73.44
255.659	81.44
255.892	81.44
256.124	82.44
256.357	84.44
256.59	87.44
256.823	87.44
257.056	85.44
257.289	93.44
257.521	84.44
257.754	84.44
257.987	80.44
258.22	83.44
258.452	77.44
258.685	74.44
258.918	86.44
259.151	90.44
259.383	79.44
259.616	80.44
259.849	83.44
260.081	68.44
260.314	81.44
260.547	76.44
260.779	90.44
261.012	77.44
261.244	98.44
261.477	94.44
261.71	89.44
261.942	124.44
262.175	98.44
262.407	89.44
262.64	79.44
262.872	91.44
263.105	99.44
263.337	89.44
263.57	70.44
263.802	81.44
264.035	77.44
264.267	85.44
264.499	74.44
264.732	73.44
264.964	95.44
265.197	83.44
265.429	100.44
265.661	77.44
265.894	75.44
266.126	101.44
266.358	85.44
266.591	83.44
266.823	85.44
267.055	89.44
267.287	85.44
267.52	81.44
267.752	86.44
267.984	94.44
268.216	97.44
268.448	73.44
268.681	85.44
268.913	70.44
269.145	77.44
269.377	79.44
269.609	75.44
269.841	71.44
270.073	77.44
270.306	90.44
270.538	73.44
270.77	100.44
271.002	80.44
271.234	104.44
271.466	94.44
271.698	78.44
271.93	83.44
272.162	81.44
272.394	106.44
272.626	78.44
272.858	81.44
273.09	91.44
273.322	92.44
273.553	80.44
273.785	84.44
274.017	82.44
274.249	84.44
274.481	97.44
274.713	84.44
274.945	93.44
275.176	86.44
275.408	91.44
275.64	94.44
275.872	106.44
276.104	89.44
276.335	92.44
276.567	87.44
276.799	103.44
277.031	100.44
277.262	94.44
277.494	85.44
277.726	83.44
277.957	99.44
278.189	92.44
278.421	82.44
278.652	94.44
278.884	86.44
279.115	89.44
279.347	84.44
279.579	87.44
279.81	89.44
280.042	86.44
280.273	93.44
280.505	82.44
280.736	81.44
280.968	88.44
281.199	91.44
281.431	88.44
281.662	90.44
281.894	84.44
282.125	95.44
282.356	101.44
282.588	118.44
282.819	123.44
283.051	96.44
283.282	90.44
283.513	85.44
283.745	79.44
283.976	90.44
284.207	77.44
284.439	83.44
284.67	87.44
284.901	69.44
285.132	85.44
285.364	82.44
285.595	78.44
285.826	82.44
286.057	93.44
286.288	93.44
286.52	99.44
286.751	87.44
286.982	100.44
287.213	85.44
287.444	84.44
287.675	87.44
287.906	98.44
288.138	83.44
288.369	80.44
288.6	87.44
288.831	89.44
289.062	71.44
289.293	85.44
289.524	105.44
289.755	80.44
289.986	101.44
290.217	87.44
290.448	84.44
290.679	87.44
290.91	79.44
291.141	75.44
291.371	93.44
291.602	84.44
291.833	98.44
292.064	91.44
292.295	100.44
292.526	91.44
292.757	102.44
292.987	96.44
293.218	90.44
293.449	84.44
293.68	102.44
293.91	92.44
294.141	89.44
294.372	85.44
294.603	98.44
294.833	90.44
295.064	100.44
295.295	95.44
295.525	81.44
295.756	111.44
295.987	116.44
296.217	105.44
296.448	108.44
296.679	91.44
296.909	66.44
297.14	90.44
297.37	98.44
297.601	97.44
297.831	91.44
298.062	92.44
298.292	81.44
298.523	86.44
298.753	88.44
298.984	100.44
299.214	83.44
299.445	84.44
299.675	80.44
299.905	98.44
300.136	87.44
300.366	82.44
300.597	99.44
300.827	92.44
301.057	86.44
301.288	90.44
301.518	98.44
301.748	87.44
301.979	85.44
302.209	91.44
302.439	90.44
302.669	107.44
302.9	95.44
303.13	93.44
303.36	85.44
303.59	111.44
303.82	104.44
304.051	98.44
304.281	80.44
304.511	82.44
304.741	88.44
304.971	88.44
305.201	101.44
305.431	90.44
305.661	90.44
305.891	93.44
306.121	84.44
306.352	101.44
306.582	95.44
306.812	96.44
307.042	94.44
307.272	101.44
307.502	94.44
307.731	105.44
307.961	83.44
308.191	100.44
308.421	93.44
308.651	79.44
308.881	95.44
309.111	93.44
309.341	98.44
309.571	87.44
309.8	87.44
310.03	98.44
310.26	74.44
310.49	93.44
310.72	93.44
310.949	102.44
311.179	108.44
311.409	107.44
311.639	92.44
311.868	83.44
312.098	76.44
312.328	100.44
312.557	85.44
312.787	101.44
313.017	95.44
313.246	95.44
313.476	98.44
313.706	93.44
313.935	90.44
314.165	102.44
314.394	83.44
314.624	102.44
314.853	99.44
315.083	101.44
315.312	97.44
315.542	88.44
315.771	90.44
316.001	100.44
316.23	90.44
316.46	85.44
316.689	93.44
316.919	97.44
317.148	104.44
317.377	85.44
317.607	99.44
317.836	100.44
318.065	100.44
318.295	89.44
318.524	86.44
318.753	90.44
318.983	96.44
319.212	101.44
319.441	99.44
319.67	96.44
319.9	73.44
320.129	82.44
320.358	88.44
320.587	99.44
320.816	97.44
321.046	95.44
321.275	95.44
321.504	98.44
321.733	100.44
321.962	99.44
322.191	90.44
322.42	94.44
322.649	110.44
322.878	107.44
323.108	118.44
323.337	108.44
323.566	124.44
323.795	137.44
324.024	177.44
324.253	348.44
324.482	721.44
324.71	1415.44
324.939	1903.44
325.168	709.44
325.397	231.44
325.626	156.44
325.855	118.44
326.084	116.44
326.313	109.44
326.542	150.44
326.77	215.44
326.999	423.44
327.228	826.44
327.457	1494.44
327.686	1175.44
327.914	321.44
328.143	175.44
328.372	163.44
328.6	134.44
328.829	116.44
329.058	125.44
329.287	124.44
329.515	102.44
329.744	108.44
329.972	118.44
330.201	124.44
330.43	153.44
330.658	122.44
330.887	125.44
331.115	106.44
331.344	93.44
331.572	98.44
331.801	102.44
332.03	86.44
332.258	97.44
332.486	96.44
332.715	91.44
332.943	85.44
333.172	89.44
333.4	98.44
333.629	90.44
333.857	104.44
334.085	105.44
334.314	144.44
334.542	174.44
334.771	161.44
334.999	112.44
335.227	95.44
335.455	98.44
335.684	98.44
335.912	84.44
336.14	97.44
336.369	93.44
336.597	94.44
336.825	95.44
337.053	88.44
337.281	99.44
337.51	88.44
337.738	106.44
337.966	88.44
338.194	108.44
338.422	83.44
338.65	98.44
338.878	95.44
339.106	99.44
339.334	98.44
339.562	73.44
339.79	82.44
340.018	95.44
340.246	76.44
340.474	91.44
340.702	86.44
340.93	91.44
341.158	90.44
341.386	97.44
341.614	85.44
341.842	100.44
342.07	85.44
342.298	90.44
342.526	96.44
342.754	97.44
342.981	100.44
343.209	86.44
343.437	89.44
343.665	98.44
343.893	89.44
344.12	93.44
344.348	103.44
344.576	89.44
344.804	89.44
345.031	98.44
345.259	85.44
345.487	91.44
345.714	94.44
345.942	94.44
346.17	85.44
346.397	104.44
346.625	106.44
346.853	84.44
347.08	90.44
347.308	94.44
347.535	86.44
347.763	89.44
347.99	87.44
348.218	102.44
348.445	95.44
348.673	88.44
348.9	91.44
349.128	111.44
349.355	81.44
349.583	89.44
349.81	79.44
350.037	92.44
350.265	98.44
350.492	82.44
350.72	100.44
350.947	103.44
351.174	95.44
351.402	110.44
351.629	100.44
351.856	103.44
352.083	91.44
352.311	95.44
352.538	99.44
352.765	106.44
352.992	104.44
353.22	117.44
353.447	111.44
353.674	90.44
353.901	99.44
354.128	93.44
354.355	99.44
354.583	95.44
354.81	100.44
355.037	101.44
355.264	83.44
355.491	91.44
355.718	93.44
355.945	105.44
356.172	108.44
356.399	101.44
356.626	89.44
356.853	97.44
357.08	107.44
357.307	97.44
357.534	87.44
357.761	77.44
357.988	105.44
358.215	82.44
358.441	103.44
358.668	84.44
358.895	89.44
359.122	87.44
359.349	90.44
359.576	88.44
359.802	108.44
360.029	100.44
360.256	97.44
360.483	95.44
360.709	85.44
360.936	88.44
361.163	91.44
361.39	85.44
361.616	104.44
361.843	108.44
362.07	93.44
362.296	103.44
362.523	93.44
362.749	74.44
362.976	81.44
363.203	91.44
363.429	85.44
363.656	88.44
363.882	90.44
364.109	89.44
364.335	86.44
364.562	73.44
364.788	86.44
365.015	89.44
365.241	108.44
365.468	113.44
365.694	101.44
365.92	84.44
366.147	88.44
366.373	89.44
366.599	90.44
366.826	91.44
367.052	80.44
367.278	91.44
367.505	88.44
367.731	96.44
367.957	102.44
368.184	108.44
368.41	86.44
368.636	101.44
368.862	106.44
369.089	108.44
369.315	81.44
369.541	81.44
369.767	103.44
369.993	90.44
370.219	88.44
370.445	105.44
370.672	102.44
370.898	82.44
371.124	110.44
371.35	88.44
371.576	82.44
371.802	103.44
372.028	93.44
372.254	87.44
372.48	81.44
372.706	99.44
372.932	76.44
373.158	81.44
373.384	99.44
373.61	106.44
373.835	93.44
374.061	77.44
374.287	86.44
374.513	82.44
374.739	90.44
374.965	98.44
375.191	101.44
375.416	91.44
375.642	87.44
375.868	83.44
376.094	85.44
376.319	99.44
376.545	84.44
376.771	93.44
376.997	91.44
377.222	97.44
377.448	76.44
377.674	86.44
377.899	90.44
378.125	76.44
378.35	100.44
378.576	86.44
378.802	87.44
379.027	92.44
379.253	99.44
379.478	101.44
379.704	95.44
379.929	85.44
380.155	94.44
380.38	85.44
380.606	96.44
380.831	88.44
381.057	88.44
381.282	92.44
381.507	97.44
381.733	100.44
381.958	106.44
382.184	100.44
382.409	93.44
382.634	99.44
382.86	99.44
383.085	100.44
383.31	96.44
383.535	95.44
383.761	90.44
383.986	101.44
384.211	111.44
384.436	101.44
384.662	96.44
384.887	92.44
385.112	97.44
385.337	86.44
385.562	93.44
385.787	108.44
386.013	105.44
386.238	98.44
386.463	112.44
386.688	108.44
386.913	116.44
387.138	87.44
387.363	89.44
387.588	113.44
387.813	115.44
388.038	108.44
388.263	93.44
388.488	91.44
388.713	96.44
388.938	109.44
389.163	88.44
389.387	88.44
389.612	81.44
389.837	102.44
390.062	93.44
390.287	91.44
390.512	96.44
390.736	74.44
390.961	54.44
391.186	91.44
391.411	88.44
391.636	89.44
391.86	84.44
392.085	103.44
392.31	93.44
392.534	84.44
392.759	94.44
392.984	77.44
393.208	91.44
393.433	82.44
393.658	88.44
393.882	95.44
394.107	90.44
394.331	96.44
394.556	82.44
394.78	85.44
395.005	87.44
395.229	77.44
395.454	96.44
395.678	86.44
395.903	95.44
396.127	100.44
396.352	88.44
396.576	85.44
396.801	89.44
397.025	83.44
397.249	102.44
397.474	92.44
397.698	92.44
397.922	90.44
398.147	94.44
398.371	92.44
398.595	81.44
398.82	68.44
399.044	85.44
399.268	84.44
399.492	86.44
399.717	89.44
399.941	99.44
400.165	93.44
400.389	99.44
400.613	96.44
400.837	84.44
401.062	83.44
401.286	77.44
401.51	86.44
401.734	83.44
401.958	100.44
402.182	113.44
402.406	129.44
402.63	115.44
402.854	102.44
403.078	90.44
403.302	80.44
403.526	85.44
403.75	77.44
403.974	83.44
404.198	86.44
404.422	91.44
404.645	84.44
404.869	81.44
405.093	101.44
405.317	101.44
405.541	100.44
405.765	90.44
405.988	111.44
406.212	155.44
406.436	169.44
406.66	114.44
406.883	99.44
407.107	84.44
407.331	77.44
407.555	99.44
407.778	96.44
408.002	104.44
408.226	100.44
408.449	91.44
408.673	73.44
408.896	80.44
409.12	97.44
409.344	94.44
409.567	88.44
409.791	85.44
410.014	87.44
410.238	89.44
410.461	98.44
410.685	104.44
410.908	115.44
411.132	96.44
411.355	90.44
411.578	87.44
411.802	80.44
412.025	88.44
412.249	111.44
412.472	102.44
412.695	91.44
412.919	92.44
413.142	89.44
413.365	97.44
413.589	99.44
413.812	76.44
414.035	97.44
414.258	97.44
414.482	90.44
414.705	84.44
414.928	89.44
415.151	73.44
415.374	97.44
415.597	87.44
415.821	81.44
416.044	99.44
416.267	86.44
416.49	87.44
416.713	76.44
416.936	89.44
417.159	86.44
417.382	74.44
417.605	78.44
417.828	102.44
418.051	86.44
418.274	92.44
418.497	90.44
418.72	91.44
418.943	101.44
419.166	75.44
419.389	95.44
419.611	95.44
419.834	87.44
420.057	86.44
420.28	75.44
420.503	83.44
420.726	92.44
420.948	91.44
421.171	91.44
421.394	103.44
421.617	91.44
421.839	81.44
422.062	80.44
422.285	88.44
422.507	93.44
422.73	100.44
422.953	85.44
423.175	101.44
423.398	105.44
423.621	93.44
423.843	98.44
424.066	93.44
424.288	87.44
424.511	83.44
424.733	103.44
424.956	91.44
425.178	100.44
425.401	80.44
425.623	89.44
425.846	86.44
426.068	99.44
426.291	90.44
426.513	100.44
426.735	87.44
426.958	89.44
427.18	92.44
427.402	132.44
427.625	154.44
427.847	147.44
428.069	110.44
428.292	95.44
428.514	105.44
428.736	90.44
428.958	90.44
429.181	84.44
429.403	78.44
429.625	89.44
429.847	88.44
430.069	89.44
430.292	92.44
430.514	92.44
430.736	90.44
430.958	77.44
431.18	76.44
431.402	79.44
431.624	97.44
431.846	83.44
432.068	93.44
432.29	95.44
432.512	103.44
432.734	78.44
432.956	83.44
433.178	105.44
433.4	93.44
433.622	87.44
433.844	93.44
434.066	70.44
434.287	86.44
434.509	93.44
434.731	86.44
434.953	97.44
435.175	83.44
435.397	83.44
435.618	85.44
435.84	86.44
436.062	119.44
436.284	104.44
436.505	105.44
436.727	104.44
436.949	80.44
437.17	79.44
437.392	102.44
437.614	84.44
437.835	102.44
438.057	103.44
438.278	99.44
438.5	116.44
438.721	102.44
438.943	91.44
439.165	83.44
439.386	90.44
439.608	86.44
439.829	103.44
440.05	111.44
440.272	121.44
440.493	100.44
440.715	86.44
440.936	88.44
441.158	85.44
441.379	77.44
441.6	90.44
441.822	85.44
442.043	86.44
442.264	102.44
442.486	96.44
442.707	82.44
442.928	101.44
443.149	110.44
443.371	120.44
443.592	105.44
443.813	104.44
444.034	111.44
444.255	81.44
444.476	84.44
444.698	93.44
444.919	93.44
445.14	118.44
445.361	124.44
445.582	106.44
445.803	125.44
446.024	145.44
446.245	120.44
446.466	112.44
446.687	105.44
446.908	84.44
447.129	91.44
447.35	89.44
447.571	92.44
447.792	85.44
448.013	91.44
448.234	108.44
448.455	112.44
448.675	97.44
448.896	111.44
449.117	105.44
449.338	103.44
449.559	118.44
449.779	123.44
450	86.44
450.221	99.44
450.442	101.44
450.662	91.44
450.883	94.44
451.104	115.44
451.324	95.44
451.545	83.44
451.766	100.44
451.986	94.44
452.207	96.44
452.428	101.44
452.648	89.44
452.869	106.44
453.089	115.44
453.31	108.44
453.53	79.44
453.751	88.44
453.971	98.44
454.192	94.44
454.412	87.44
454.633	83.44
454.853	84.44
455.073	95.44
455.294	109.44
455.514	99.44
455.734	103.44
455.955	90.44
456.175	84.44
456.395	90.44
456.616	78.44
456.836	80.44
457.056	93.44
457.276	96.44
457.497	84.44
457.717	99.44
457.937	79.44
458.157	96.44
458.377	86.44
458.598	100.44
458.818	123.44
459.038	132.44
459.258	106.44
459.478	85.44
459.698	90.44
459.918	109.44
460.138	79.44
460.358	91.44
460.578	85.44
460.798	98.44
461.018	89.44
461.238	92.44
461.458	89.44
461.678	89.44
461.898	91.44
462.118	87.44
462.338	75.44
462.558	85.44
462.777	91.44
462.997	91.44
463.217	75.44
463.437	76.44
463.657	80.44
463.876	94.44
464.096	76.44
464.316	92.44
464.536	85.44
464.755	90.44
464.975	87.44
465.195	144.44
465.414	131.44
465.634	92.44
465.854	86.44
466.073	72.44
466.293	92.44
466.512	86.44
466.732	91.44
466.951	85.44
467.171	81.44
467.391	86.44
467.61	110.44
467.829	99.44
468.049	99.44
468.268	104.44
468.488	93.44
468.707	92.44
468.927	90.44
469.146	79.44
469.365	83.44
469.585	95.44
469.804	95.44
470.023	94.44
470.243	83.44
470.462	88.44
470.681	96.44
470.901	73.44
471.12	66.44
471.339	87.44
471.558	75.44
471.777	84.44
471.997	103.44
472.216	137.44
472.435	190.44
472.654	106.44
472.873	87.44
473.092	87.44
473.311	100.44
473.53	97.44
473.749	90.44
473.968	81.44
474.187	103.44
474.406	91.44
474.625	92.44
474.844	89.44
475.063	88.44
475.282	91.44
475.501	87.44
475.72	81.44
475.939	89.44
476.158	75.44
476.377	78.44
476.596	95.44
476.814	97.44
477.033	91.44
477.252	85.44
477.471	83.44
477.69	96.44
477.908	90.44
478.127	79.44
478.346	87.44
478.564	86.44
478.783	80.44
479.002	79.44
479.22	97.44
479.439	100.44
479.658	101.44
479.876	112.44
480.095	92.44
480.313	81.44
480.532	93.44
480.751	115.44
480.969	128.44
481.188	295.44
481.406	213.44
481.624	102.44
481.843	93.44
482.061	91.44
482.28	85.44
482.498	96.44
482.717	74.44
482.935	77.44
483.153	87.44
483.372	85.44
483.59	86.44
483.808	90.44
484.027	89.44
484.245	95.44
484.463	85.44
484.681	107.44
484.9	100.44
485.118	89.44
485.336	87.44
485.554	92.44
485.772	110.44
485.99	84.44
486.209	106.44
486.427	104.44
486.645	113.44
486.863	106.44
487.081	92.44
487.299	107.44
487.517	105.44
487.735	94.44
487.953	100.44
488.171	92.44
488.389	91.44
488.607	97.44
488.825	103.44
489.043	92.44
489.261	101.44
489.479	69.44
489.696	92.44
489.914	86.44
490.132	91.44
490.35	89.44
490.568	102.44
490.786	89.44
491.003	91.44
491.221	86.44
491.439	79.44
491.657	102.44
491.874	89.44
492.092	99.44
492.31	81.44
492.527	87.44
492.745	101.44
492.963	92.44
493.18	85.44
493.398	85.44
493.615	98.44
493.833	87.44
494.05	84.44
494.268	103.44
494.485	78.44
494.703	82.44
494.92	86.44
495.138	105.44
495.355	97.44
495.573	88.44
495.79	87.44
496.008	85.44
496.225	85.44
496.442	92.44
496.66	96.44
496.877	100.44
497.094	91.44
497.312	84.44
497.529	79.44
497.746	83.44
497.963	89.44
498.181	89.44
498.398	87.44
498.615	96.44
498.832	82.44
499.049	85.44
499.267	89.44
499.484	91.44
499.701	90.44
499.918	87.44
500.135	86.44
500.352	76.44
500.569	83.44
500.786	90.44
501.003	96.44
501.22	96.44
501.437	78.44
501.654	99.44
501.871	106.44
502.088	92.44
502.305	105.44
502.522	95.44
502.739	91.44
502.956	100.44
503.172	110.44
503.389	95.44
503.606	98.44
503.823	95.44
504.04	92.44
504.256	89.44
504.473	89.44
504.69	85.44
504.907	97.44
505.123	91.44
505.34	106.44
505.557	92.44
505.773	93.44
505.99	86.44
506.207	81.44
506.423	83.44
506.64	93.44
506.856	93.44
507.073	70.44
507.289	89.44
507.506	91.44
507.722	107.44
507.939	98.44
508.155	93.44
508.372	75.44
508.588	89.44
508.805	102.44
509.021	92.44
509.238	107.44
509.454	97.44
509.67	98.44
509.887	104.44
510.103	106.44
510.319	183.44
510.536	569.44
510.752	1863.44
510.968	536.44
511.184	133.44
511.401	97.44
511.617	97.44
511.833	89.44
512.049	84.44
512.265	95.44
512.481	81.44
512.698	82.44
512.914	88.44
513.13	105.44
513.346	106.44
513.562	76.44
513.778	82.44
513.994	97.44
514.21	99.44
514.426	104.44
514.642	108.44
514.858	108.44
515.074	140.44
515.29	375.44
515.506	1106.44
515.721	407.44
