Data from Circ_2002_H10_HRD10591_00050.txt Node
Date: Wed Jan 03 10:41:08 EST 2024
User: Yrep
Spectrometer: HR+D1059
Trigger mode: 1
Integration Time (sec): 1.000000E-1
Scans to average: 1
Electric dark correction enabled: true
Nonlinearity correction enabled: false
Boxcar width: 0
XAxis mode: Wavelengths
Number of Pixels in Spectrum: 2048
>>>>>Begin Spectral Data<<<<<
223.165	-20.5
223.4	-20.5
223.635	-20.5
223.869	-17.5
224.104	-18.5
224.338	-11.5
224.573	-12.5
224.808	-5.5
225.042	-16.5
225.277	-10.5
225.511	1.5
225.746	6.5
225.98	21.5
226.215	10.5
226.449	16.5
226.683	17.5
226.918	21.5
227.152	17.5
227.387	25.5
227.621	36.5
227.856	46.5
228.09	38.5
228.324	59.5
228.559	55.5
228.793	43.5
229.027	58.5
229.262	59.5
229.496	68.5
229.73	89.5
229.964	92.5
230.199	78.5
230.433	72.5
230.667	63.5
230.901	71.5
231.136	81.5
231.37	78.5
231.604	67.5
231.838	69.5
232.072	71.5
232.306	78.5
232.541	70.5
232.775	62.5
233.009	77.5
233.243	59.5
233.477	95.5
233.711	82.5
233.945	89.5
234.179	71.5
234.413	87.5
234.647	70.5
234.881	85.5
235.115	79.5
235.349	72.5
235.583	71.5
235.817	67.5
236.051	91.5
236.285	100.5
236.519	64.5
236.753	81.5
236.987	83.5
237.221	72.5
237.455	74.5
237.689	83.5
237.922	76.5
238.156	70.5
238.39	69.5
238.624	64.5
238.858	76.5
239.091	79.5
239.325	79.5
239.559	72.5
239.793	79.5
240.027	71.5
240.26	85.5
240.494	68.5
240.728	75.5
240.961	79.5
241.195	67.5
241.429	75.5
241.662	68.5
241.896	85.5
242.13	67.5
242.363	75.5
242.597	64.5
242.83	64.5
243.064	73.5
243.298	75.5
243.531	85.5
243.765	81.5
243.998	80.5
244.232	75.5
244.465	82.5
244.699	78.5
244.932	65.5
245.166	72.5
245.399	69.5
245.633	73.5
245.866	78.5
246.099	76.5
246.333	73.5
246.566	78.5
246.8	68.5
247.033	72.5
247.266	58.5
247.5	67.5
247.733	71.5
247.966	76.5
248.2	62.5
248.433	72.5
248.666	65.5
248.899	66.5
249.133	77.5
249.366	107.5
249.599	88.5
249.832	69.5
250.066	74.5
250.299	91.5
250.532	69.5
250.765	84.5
250.998	62.5
251.231	83.5
251.465	77.5
251.698	83.5
251.931	98.5
252.164	64.5
252.397	78.5
252.63	82.5
252.863	80.5
253.096	79.5
253.329	78.5
253.562	67.5
253.795	89.5
254.028	82.5
254.261	74.5
254.494	70.5
254.727	78.5
254.96	78.5
255.193	76.5
255.426	82.5
255.659	80.5
255.892	86.5
256.124	62.5
256.357	79.5
256.59	75.5
256.823	63.5
257.056	78.5
257.289	82.5
257.521	84.5
257.754	88.5
257.987	74.5
258.22	69.5
258.452	77.5
258.685	69.5
258.918	78.5
259.151	74.5
259.383	71.5
259.616	83.5
259.849	71.5
260.081	90.5
260.314	69.5
260.547	78.5
260.779	73.5
261.012	78.5
261.244	81.5
261.477	91.5
261.71	92.5
261.942	119.5
262.175	100.5
262.407	93.5
262.64	86.5
262.872	80.5
263.105	79.5
263.337	71.5
263.57	80.5
263.802	80.5
264.035	84.5
264.267	75.5
264.499	79.5
264.732	79.5
264.964	80.5
265.197	84.5
265.429	74.5
265.661	71.5
265.894	66.5
266.126	88.5
266.358	77.5
266.591	75.5
266.823	86.5
267.055	78.5
267.287	91.5
267.52	90.5
267.752	85.5
267.984	76.5
268.216	78.5
268.448	84.5
268.681	89.5
268.913	70.5
269.145	68.5
269.377	71.5
269.609	70.5
269.841	83.5
270.073	87.5
270.306	87.5
270.538	87.5
270.77	72.5
271.002	73.5
271.234	74.5
271.466	84.5
271.698	90.5
271.93	68.5
272.162	71.5
272.394	82.5
272.626	64.5
272.858	77.5
273.09	87.5
273.322	87.5
273.553	79.5
273.785	71.5
274.017	87.5
274.249	78.5
274.481	67.5
274.713	84.5
274.945	56.5
275.176	78.5
275.408	63.5
275.64	85.5
275.872	82.5
276.104	86.5
276.335	80.5
276.567	79.5
276.799	88.5
277.031	84.5
277.262	66.5
277.494	85.5
277.726	75.5
277.957	87.5
278.189	83.5
278.421	90.5
278.652	71.5
278.884	62.5
279.115	84.5
279.347	72.5
279.579	75.5
279.81	78.5
280.042	89.5
280.273	92.5
280.505	82.5
280.736	69.5
280.968	80.5
281.199	84.5
281.431	75.5
281.662	91.5
281.894	88.5
282.125	85.5
282.356	117.5
282.588	124.5
282.819	97.5
283.051	88.5
283.282	84.5
283.513	74.5
283.745	74.5
283.976	74.5
284.207	76.5
284.439	75.5
284.67	87.5
284.901	82.5
285.132	83.5
285.364	87.5
285.595	82.5
285.826	87.5
286.057	90.5
286.288	71.5
286.52	85.5
286.751	95.5
286.982	87.5
287.213	83.5
287.444	91.5
287.675	86.5
287.906	70.5
288.138	92.5
288.369	79.5
288.6	84.5
288.831	75.5
289.062	82.5
289.293	80.5
289.524	82.5
289.755	90.5
289.986	83.5
290.217	73.5
290.448	78.5
290.679	84.5
290.91	92.5
291.141	74.5
291.371	84.5
291.602	84.5
291.833	93.5
292.064	80.5
292.295	93.5
292.526	81.5
292.757	79.5
292.987	92.5
293.218	88.5
293.449	66.5
293.68	80.5
293.91	80.5
294.141	85.5
294.372	92.5
294.603	90.5
294.833	82.5
295.064	75.5
295.295	79.5
295.525	87.5
295.756	93.5
295.987	103.5
296.217	122.5
296.448	109.5
296.679	94.5
296.909	84.5
297.14	87.5
297.37	87.5
297.601	72.5
297.831	77.5
298.062	74.5
298.292	82.5
298.523	88.5
298.753	80.5
298.984	91.5
299.214	88.5
299.445	90.5
299.675	76.5
299.905	71.5
300.136	86.5
300.366	77.5
300.597	84.5
300.827	93.5
301.057	95.5
301.288	91.5
301.518	80.5
301.748	74.5
301.979	104.5
302.209	90.5
302.439	88.5
302.669	98.5
302.9	87.5
303.13	71.5
303.36	87.5
303.59	90.5
303.82	96.5
304.051	89.5
304.281	96.5
304.511	90.5
304.741	83.5
304.971	101.5
305.201	85.5
305.431	88.5
305.661	82.5
305.891	87.5
306.121	92.5
306.352	90.5
306.582	103.5
306.812	95.5
307.042	91.5
307.272	90.5
307.502	80.5
307.731	79.5
307.961	86.5
308.191	85.5
308.421	86.5
308.651	93.5
308.881	84.5
309.111	82.5
309.341	86.5
309.571	88.5
309.8	70.5
310.03	94.5
310.26	94.5
310.49	84.5
310.72	90.5
310.949	94.5
311.179	88.5
311.409	93.5
311.639	97.5
311.868	88.5
312.098	88.5
312.328	79.5
312.557	82.5
312.787	93.5
313.017	100.5
313.246	89.5
313.476	111.5
313.706	80.5
313.935	82.5
314.165	87.5
314.394	73.5
314.624	93.5
314.853	82.5
315.083	74.5
315.312	85.5
315.542	88.5
315.771	90.5
316.001	91.5
316.23	78.5
316.46	90.5
316.689	87.5
316.919	96.5
317.148	82.5
317.377	84.5
317.607	88.5
317.836	83.5
318.065	90.5
318.295	72.5
318.524	79.5
318.753	74.5
318.983	91.5
319.212	83.5
319.441	94.5
319.67	93.5
319.9	87.5
320.129	81.5
320.358	76.5
320.587	81.5
320.816	87.5
321.046	92.5
321.275	90.5
321.504	85.5
321.733	89.5
321.962	88.5
322.191	90.5
322.42	107.5
322.649	91.5
322.878	105.5
323.108	101.5
323.337	100.5
323.566	117.5
323.795	121.5
324.024	178.5
324.253	352.5
324.482	691.5
324.71	1418.5
324.939	1819.5
325.168	678.5
325.397	214.5
325.626	135.5
325.855	123.5
326.084	119.5
326.313	120.5
326.542	140.5
326.77	218.5
326.999	400.5
327.228	807.5
327.457	1484.5
327.686	1162.5
327.914	305.5
328.143	171.5
328.372	136.5
328.6	119.5
328.829	107.5
329.058	133.5
329.287	116.5
329.515	110.5
329.744	105.5
329.972	84.5
330.201	97.5
330.43	110.5
330.658	94.5
330.887	122.5
331.115	128.5
331.344	79.5
331.572	88.5
331.801	80.5
332.03	100.5
332.258	92.5
332.486	82.5
332.715	87.5
332.943	87.5
333.172	99.5
333.4	83.5
333.629	103.5
333.857	111.5
334.085	100.5
334.314	106.5
334.542	112.5
334.771	96.5
334.999	101.5
335.227	82.5
335.455	85.5
335.684	88.5
335.912	80.5
336.14	99.5
336.369	106.5
336.597	91.5
336.825	103.5
337.053	100.5
337.281	76.5
337.51	78.5
337.738	82.5
337.966	97.5
338.194	90.5
338.422	85.5
338.65	102.5
338.878	85.5
339.106	94.5
339.334	88.5
339.562	85.5
339.79	75.5
340.018	86.5
340.246	88.5
340.474	94.5
340.702	98.5
340.93	89.5
341.158	76.5
341.386	98.5
341.614	85.5
341.842	80.5
342.07	87.5
342.298	83.5
342.526	97.5
342.754	90.5
342.981	88.5
343.209	78.5
343.437	91.5
343.665	90.5
343.893	103.5
344.12	93.5
344.348	84.5
344.576	103.5
344.804	91.5
345.031	83.5
345.259	75.5
345.487	91.5
345.714	101.5
345.942	84.5
346.17	82.5
346.397	76.5
346.625	96.5
346.853	73.5
347.08	94.5
347.308	96.5
347.535	84.5
347.763	87.5
347.99	100.5
348.218	100.5
348.445	87.5
348.673	106.5
348.9	92.5
349.128	100.5
349.355	101.5
349.583	90.5
349.81	88.5
350.037	102.5
350.265	92.5
350.492	99.5
350.72	85.5
350.947	87.5
351.174	101.5
351.402	104.5
351.629	96.5
351.856	111.5
352.083	83.5
352.311	99.5
352.538	93.5
352.765	106.5
352.992	96.5
353.22	103.5
353.447	108.5
353.674	113.5
353.901	109.5
354.128	104.5
354.355	95.5
354.583	80.5
354.81	84.5
355.037	90.5
355.264	92.5
355.491	82.5
355.718	87.5
355.945	92.5
356.172	88.5
356.399	99.5
356.626	105.5
356.853	84.5
357.08	86.5
357.307	76.5
357.534	74.5
357.761	106.5
357.988	92.5
358.215	90.5
358.441	92.5
358.668	93.5
358.895	96.5
359.122	90.5
359.349	83.5
359.576	102.5
359.802	91.5
360.029	107.5
360.256	87.5
360.483	96.5
360.709	71.5
360.936	77.5
361.163	100.5
361.39	93.5
361.616	83.5
361.843	92.5
362.07	82.5
362.296	83.5
362.523	83.5
362.749	75.5
362.976	101.5
363.203	78.5
363.429	92.5
363.656	78.5
363.882	78.5
364.109	86.5
364.335	93.5
364.562	84.5
364.788	78.5
365.015	90.5
365.241	87.5
365.468	86.5
365.694	96.5
365.92	88.5
366.147	78.5
366.373	83.5
366.599	79.5
366.826	87.5
367.052	84.5
367.278	94.5
367.505	77.5
367.731	102.5
367.957	92.5
368.184	97.5
368.41	97.5
368.636	102.5
368.862	103.5
369.089	99.5
369.315	88.5
369.541	102.5
369.767	83.5
369.993	92.5
370.219	98.5
370.445	82.5
370.672	78.5
370.898	92.5
371.124	81.5
371.35	90.5
371.576	78.5
371.802	86.5
372.028	79.5
372.254	91.5
372.48	83.5
372.706	87.5
372.932	101.5
373.158	81.5
373.384	91.5
373.61	85.5
373.835	74.5
374.061	80.5
374.287	92.5
374.513	94.5
374.739	76.5
374.965	79.5
375.191	72.5
375.416	89.5
375.642	105.5
375.868	102.5
376.094	85.5
376.319	93.5
376.545	85.5
376.771	88.5
376.997	68.5
377.222	85.5
377.448	81.5
377.674	95.5
377.899	85.5
378.125	95.5
378.35	88.5
378.576	68.5
378.802	83.5
379.027	88.5
379.253	77.5
379.478	95.5
379.704	92.5
379.929	81.5
380.155	91.5
380.38	70.5
380.606	90.5
380.831	88.5
381.057	100.5
381.282	84.5
381.507	95.5
381.733	82.5
381.958	104.5
382.184	87.5
382.409	92.5
382.634	88.5
382.86	91.5
383.085	90.5
383.31	98.5
383.535	93.5
383.761	85.5
383.986	90.5
384.211	93.5
384.436	114.5
384.662	83.5
384.887	89.5
385.112	102.5
385.337	106.5
385.562	91.5
385.787	98.5
386.013	94.5
386.238	114.5
386.463	107.5
386.688	110.5
386.913	107.5
387.138	100.5
387.363	80.5
387.588	102.5
387.813	102.5
388.038	112.5
388.263	122.5
388.488	105.5
388.713	96.5
388.938	99.5
389.163	108.5
389.387	96.5
389.612	90.5
389.837	74.5
390.062	94.5
390.287	81.5
390.512	93.5
390.736	89.5
390.961	88.5
391.186	97.5
391.411	94.5
391.636	79.5
391.86	87.5
392.085	91.5
392.31	67.5
392.534	90.5
392.759	87.5
392.984	96.5
393.208	71.5
393.433	94.5
393.658	55.5
393.882	104.5
394.107	75.5
394.331	74.5
394.556	84.5
394.78	98.5
395.005	87.5
395.229	78.5
395.454	80.5
395.678	92.5
395.903	91.5
396.127	83.5
396.352	100.5
396.576	82.5
396.801	82.5
397.025	86.5
397.249	71.5
397.474	97.5
397.698	88.5
397.922	66.5
398.147	81.5
398.371	81.5
398.595	87.5
398.82	74.5
399.044	77.5
399.268	82.5
399.492	56.5
399.717	85.5
399.941	74.5
400.165	85.5
400.389	75.5
400.613	74.5
400.837	77.5
401.062	88.5
401.286	101.5
401.51	93.5
401.734	92.5
401.958	101.5
402.182	100.5
402.406	130.5
402.63	115.5
402.854	84.5
403.078	77.5
403.302	80.5
403.526	90.5
403.75	92.5
403.974	78.5
404.198	88.5
404.422	83.5
404.645	76.5
404.869	95.5
405.093	96.5
405.317	82.5
405.541	100.5
405.765	97.5
405.988	66.5
406.212	139.5
406.436	159.5
406.66	128.5
406.883	86.5
407.107	83.5
407.331	101.5
407.555	79.5
407.778	90.5
408.002	84.5
408.226	90.5
408.449	98.5
408.673	82.5
408.896	93.5
409.12	95.5
409.344	78.5
409.567	95.5
409.791	75.5
410.014	92.5
410.238	85.5
410.461	82.5
410.685	98.5
410.908	105.5
411.132	95.5
411.355	87.5
411.578	97.5
411.802	75.5
412.025	86.5
412.249	86.5
412.472	74.5
412.695	93.5
412.919	89.5
413.142	99.5
413.365	86.5
413.589	85.5
413.812	72.5
414.035	86.5
414.258	77.5
414.482	77.5
414.705	87.5
414.928	99.5
415.151	81.5
415.374	91.5
415.597	89.5
415.821	84.5
416.044	75.5
416.267	75.5
416.49	91.5
416.713	88.5
416.936	86.5
417.159	92.5
417.382	73.5
417.605	94.5
417.828	93.5
418.051	98.5
418.274	87.5
418.497	78.5
418.72	82.5
418.943	92.5
419.166	81.5
419.389	77.5
419.611	74.5
419.834	93.5
420.057	85.5
420.28	92.5
420.503	104.5
420.726	84.5
420.948	87.5
421.171	85.5
421.394	83.5
421.617	86.5
421.839	81.5
422.062	88.5
422.285	79.5
422.507	93.5
422.73	77.5
422.953	89.5
423.175	82.5
423.398	96.5
423.621	95.5
423.843	70.5
424.066	76.5
424.288	91.5
424.511	85.5
424.733	94.5
424.956	95.5
425.178	71.5
425.401	88.5
425.623	82.5
425.846	88.5
426.068	90.5
426.291	86.5
426.513	101.5
426.735	93.5
426.958	79.5
427.18	78.5
427.402	107.5
427.625	135.5
427.847	98.5
428.069	103.5
428.292	88.5
428.514	87.5
428.736	86.5
428.958	90.5
429.181	77.5
429.403	78.5
429.625	79.5
429.847	91.5
430.069	86.5
430.292	84.5
430.514	77.5
430.736	80.5
430.958	81.5
431.18	70.5
431.402	86.5
431.624	95.5
431.846	83.5
432.068	71.5
432.29	92.5
432.512	86.5
432.734	90.5
432.956	76.5
433.178	91.5
433.4	104.5
433.622	76.5
433.844	85.5
434.066	88.5
434.287	84.5
434.509	94.5
434.731	76.5
434.953	91.5
435.175	71.5
435.397	79.5
435.618	82.5
435.84	81.5
436.062	94.5
436.284	103.5
436.505	100.5
436.727	92.5
436.949	90.5
437.17	100.5
437.392	99.5
437.614	92.5
437.835	109.5
438.057	102.5
438.278	99.5
438.5	94.5
438.721	110.5
438.943	100.5
439.165	72.5
439.386	81.5
439.608	88.5
439.829	98.5
440.05	103.5
440.272	118.5
440.493	86.5
440.715	93.5
440.936	77.5
441.158	84.5
441.379	74.5
441.6	82.5
441.822	104.5
442.043	92.5
442.264	84.5
442.486	99.5
442.707	73.5
442.928	95.5
443.149	107.5
443.371	103.5
443.592	91.5
443.813	93.5
444.034	91.5
444.255	85.5
444.476	79.5
444.698	91.5
444.919	76.5
445.14	143.5
445.361	109.5
445.582	103.5
445.803	111.5
446.024	111.5
446.245	109.5
446.466	99.5
446.687	86.5
446.908	69.5
447.129	78.5
447.35	74.5
447.571	84.5
447.792	99.5
448.013	87.5
448.234	90.5
448.455	90.5
448.675	93.5
448.896	101.5
449.117	91.5
449.338	92.5
449.559	105.5
449.779	110.5
450	85.5
450.221	78.5
450.442	90.5
450.662	85.5
450.883	96.5
451.104	104.5
451.324	97.5
451.545	85.5
451.766	86.5
451.986	84.5
452.207	82.5
452.428	83.5
452.648	81.5
452.869	98.5
453.089	108.5
453.31	112.5
453.53	99.5
453.751	76.5
453.971	85.5
454.192	101.5
454.412	83.5
454.633	91.5
454.853	87.5
455.073	80.5
455.294	87.5
455.514	96.5
455.734	86.5
455.955	75.5
456.175	74.5
456.395	96.5
456.616	94.5
456.836	78.5
457.056	86.5
457.276	71.5
457.497	87.5
457.717	82.5
457.937	75.5
458.157	80.5
458.377	96.5
458.598	93.5
458.818	117.5
459.038	121.5
459.258	101.5
459.478	85.5
459.698	75.5
459.918	76.5
460.138	73.5
460.358	79.5
460.578	79.5
460.798	96.5
461.018	76.5
461.238	82.5
461.458	79.5
461.678	63.5
461.898	84.5
462.118	82.5
462.338	77.5
462.558	96.5
462.777	82.5
462.997	86.5
463.217	73.5
463.437	71.5
463.657	71.5
463.876	88.5
464.096	88.5
464.316	81.5
464.536	85.5
464.755	87.5
464.975	103.5
465.195	124.5
465.414	124.5
465.634	96.5
465.854	81.5
466.073	73.5
466.293	81.5
466.512	83.5
466.732	96.5
466.951	84.5
467.171	91.5
467.391	92.5
467.61	92.5
467.829	83.5
468.049	85.5
468.268	85.5
468.488	82.5
468.707	95.5
468.927	66.5
469.146	76.5
469.365	84.5
469.585	94.5
469.804	95.5
470.023	89.5
470.243	89.5
470.462	87.5
470.681	109.5
470.901	82.5
471.12	88.5
471.339	79.5
471.558	87.5
471.777	65.5
471.997	86.5
472.216	101.5
472.435	107.5
472.654	84.5
472.873	86.5
473.092	86.5
473.311	88.5
473.53	83.5
473.749	77.5
473.968	86.5
474.187	100.5
474.406	88.5
474.625	84.5
474.844	85.5
475.063	81.5
475.282	94.5
475.501	88.5
475.72	82.5
475.939	77.5
476.158	93.5
476.377	86.5
476.596	89.5
476.814	97.5
477.033	88.5
477.252	85.5
477.471	88.5
477.69	78.5
477.908	70.5
478.127	90.5
478.346	92.5
478.564	90.5
478.783	74.5
479.002	73.5
479.22	84.5
479.439	87.5
479.658	83.5
479.876	87.5
480.095	92.5
480.313	87.5
480.532	79.5
480.751	83.5
480.969	107.5
481.188	163.5
481.406	135.5
481.624	85.5
481.843	85.5
482.061	82.5
482.28	75.5
482.498	77.5
482.717	78.5
482.935	91.5
483.153	74.5
483.372	85.5
483.59	88.5
483.808	87.5
484.027	91.5
484.245	84.5
484.463	72.5
484.681	95.5
484.9	85.5
485.118	93.5
485.336	92.5
485.554	108.5
485.772	110.5
485.99	104.5
486.209	98.5
486.427	90.5
486.645	93.5
486.863	86.5
487.081	93.5
487.299	97.5
487.517	86.5
487.735	85.5
487.953	84.5
488.171	78.5
488.389	78.5
488.607	99.5
488.825	96.5
489.043	114.5
489.261	97.5
489.479	100.5
489.696	87.5
489.914	77.5
490.132	79.5
490.35	79.5
490.568	90.5
490.786	91.5
491.003	92.5
491.221	81.5
491.439	96.5
491.657	88.5
491.874	75.5
492.092	86.5
492.31	89.5
492.527	84.5
492.745	85.5
492.963	89.5
493.18	85.5
493.398	100.5
493.615	92.5
493.833	107.5
494.05	87.5
494.268	84.5
494.485	88.5
494.703	98.5
494.92	70.5
495.138	84.5
495.355	95.5
495.573	84.5
495.79	78.5
496.008	101.5
496.225	86.5
496.442	74.5
496.66	77.5
496.877	87.5
497.094	92.5
497.312	92.5
497.529	94.5
497.746	87.5
497.963	86.5
498.181	72.5
498.398	76.5
498.615	109.5
498.832	103.5
499.049	82.5
499.267	84.5
499.484	85.5
499.701	84.5
499.918	79.5
500.135	83.5
500.352	76.5
500.569	87.5
500.786	74.5
501.003	83.5
501.22	74.5
501.437	93.5
501.654	75.5
501.871	92.5
502.088	93.5
502.305	82.5
502.522	75.5
502.739	97.5
502.956	88.5
503.172	81.5
503.389	92.5
503.606	100.5
503.823	100.5
504.04	99.5
504.256	82.5
504.473	76.5
504.69	72.5
504.907	78.5
505.123	83.5
505.34	77.5
505.557	76.5
505.773	73.5
505.99	83.5
506.207	84.5
506.423	95.5
506.64	86.5
506.856	101.5
507.073	86.5
507.289	88.5
507.506	91.5
507.722	98.5
507.939	104.5
508.155	78.5
508.372	87.5
508.588	91.5
508.805	89.5
509.021	77.5
509.238	80.5
509.454	91.5
509.67	96.5
509.887	113.5
510.103	110.5
510.319	187.5
510.536	581.5
510.752	1748.5
510.968	513.5
511.184	134.5
511.401	104.5
511.617	84.5
511.833	90.5
512.049	98.5
512.265	84.5
512.481	76.5
512.698	98.5
512.914	75.5
513.13	86.5
513.346	82.5
513.562	95.5
513.778	79.5
513.994	93.5
514.21	99.5
514.426	96.5
514.642	112.5
514.858	114.5
515.074	137.5
515.29	351.5
515.506	1015.5
515.721	410.5
515.937	126.5
516.153	90.5
516.369	98.5
516.585	93.5
516.801	81.5
517.016	93.5
517.232	98.5
517.448	90.5
517.664	92.5
517.879	99.5
518.095	87.5
518.311	94.5
518.527	88.5
518.742	101.5
518.958	79.5
519.173	99.5
519.389	92.5
519.605	104.5
519.82	97.5
520.036	85.5
520.251	96.5
520.467	100.5
520.682	108.5
520.898	106.5
521.113	106.5
521.329	126.5
521.544	161.5
521.76	430.5
521.975	1687.5
522.19	1050.5
522.406	247.5
522.621	113.5
522.836	92.5
523.052	93.5
523.267	85.5
523.482	83.5
523.698	99.5
523.913	114.5
524.128	100.5
524.343	93.5
524.559	94.5
524.774	82.5
524.989	94.5
525.204	89.5
525.419	91.5
525.634	84.5
525.849	92.5
526.064	82.5
526.28	92.5
526.495	91.5
526.71	99.5
526.925	97.5
527.14	72.5
527.355	88.5
527.57	89.5
527.785	88.5
527.999	76.5
528.214	80.5
528.429	78.5
528.644	76.5
528.859	93.5
529.074	79.5
529.289	103.5
529.503	141.5
529.718	95.5
529.933	84.5
530.148	80.5
530.363	90.5
530.577	94.5
530.792	81.5
531.007	88.5
531.221	96.5
531.436	85.5
531.651	90.5
531.865	90.5
532.08	81.5
532.295	82.5
532.509	95.5
532.724	82.5
532.938	95.5
533.153	84.5
533.367	84.5
533.582	80.5
533.796	86.5
534.011	79.5
534.225	85.5
534.44	83.5
534.654	84.5
534.868	78.5
535.083	101.5
535.297	90.5
535.511	89.5
535.726	110.5
535.94	108.5
536.154	79.5
536.369	92.5
536.583	77.5
536.797	93.5
537.011	95.5
537.225	94.5
