Data from Circ_2002_H10_HRD10591_00057.txt Node
Date: Wed Jan 03 10:41:09 EST 2024
User: Yrep
Spectrometer: HR+D1059
Trigger mode: 1
Integration Time (sec): 1.000000E-1
Scans to average: 1
Electric dark correction enabled: true
Nonlinearity correction enabled: false
Boxcar width: 0
XAxis mode: Wavelengths
Number of Pixels in Spectrum: 2048
>>>>>Begin Spectral Data<<<<<
223.165	-14.5
223.4	-14.5
223.635	-14.5
223.869	-1.5
224.104	-27.5
224.338	-28.5
224.573	-17.5
224.808	-21.5
225.042	-21.5
225.277	0.5
225.511	-1.5
225.746	9.5
225.98	16.5
226.215	18.5
226.449	17.5
226.683	17.5
226.918	24.5
227.152	29.5
227.387	43.5
227.621	41.5
227.856	43.5
228.09	38.5
228.324	44.5
228.559	74.5
228.793	49.5
229.027	55.5
229.262	66.5
229.496	75.5
229.73	75.5
229.964	65.5
230.199	71.5
230.433	68.5
230.667	76.5
230.901	87.5
231.136	75.5
231.37	81.5
231.604	78.5
231.838	76.5
232.072	79.5
232.306	89.5
232.541	77.5
232.775	84.5
233.009	75.5
233.243	75.5
233.477	83.5
233.711	95.5
233.945	90.5
234.179	69.5
234.413	86.5
234.647	70.5
234.881	81.5
235.115	70.5
235.349	81.5
235.583	84.5
235.817	73.5
236.051	65.5
236.285	71.5
236.519	80.5
236.753	75.5
236.987	84.5
237.221	93.5
237.455	89.5
237.689	75.5
237.922	85.5
238.156	80.5
238.39	82.5
238.624	71.5
238.858	79.5
239.091	72.5
239.325	68.5
239.559	70.5
239.793	77.5
240.027	67.5
240.26	72.5
240.494	70.5
240.728	73.5
240.961	92.5
241.195	86.5
241.429	79.5
241.662	90.5
241.896	62.5
242.13	70.5
242.363	76.5
242.597	88.5
242.83	75.5
243.064	72.5
243.298	76.5
243.531	79.5
243.765	79.5
243.998	83.5
244.232	60.5
244.465	75.5
244.699	90.5
244.932	87.5
245.166	84.5
245.399	77.5
245.633	74.5
245.866	82.5
246.099	86.5
246.333	77.5
246.566	89.5
246.8	74.5
247.033	81.5
247.266	81.5
247.5	82.5
247.733	81.5
247.966	78.5
248.2	76.5
248.433	76.5
248.666	72.5
248.899	83.5
249.133	75.5
249.366	76.5
249.599	76.5
249.832	86.5
250.066	97.5
250.299	86.5
250.532	88.5
250.765	82.5
250.998	94.5
251.231	96.5
251.465	84.5
251.698	78.5
251.931	91.5
252.164	78.5
252.397	86.5
252.63	69.5
252.863	59.5
253.096	90.5
253.329	74.5
253.562	83.5
253.795	94.5
254.028	74.5
254.261	66.5
254.494	77.5
254.727	78.5
254.96	94.5
255.193	74.5
255.426	81.5
255.659	82.5
255.892	91.5
256.124	89.5
256.357	68.5
256.59	87.5
256.823	76.5
257.056	76.5
257.289	89.5
257.521	83.5
257.754	83.5
257.987	80.5
258.22	82.5
258.452	59.5
258.685	79.5
258.918	79.5
259.151	78.5
259.383	103.5
259.616	71.5
259.849	80.5
260.081	76.5
260.314	83.5
260.547	82.5
260.779	62.5
261.012	73.5
261.244	85.5
261.477	74.5
261.71	90.5
261.942	102.5
262.175	104.5
262.407	84.5
262.64	83.5
262.872	74.5
263.105	83.5
263.337	78.5
263.57	79.5
263.802	89.5
264.035	84.5
264.267	87.5
264.499	80.5
264.732	81.5
264.964	69.5
265.197	73.5
265.429	84.5
265.661	79.5
265.894	83.5
266.126	88.5
266.358	82.5
266.591	83.5
266.823	78.5
267.055	80.5
267.287	95.5
267.52	79.5
267.752	95.5
267.984	88.5
268.216	78.5
268.448	88.5
268.681	86.5
268.913	66.5
269.145	80.5
269.377	91.5
269.609	87.5
269.841	89.5
270.073	86.5
270.306	74.5
270.538	83.5
270.77	79.5
271.002	86.5
271.234	96.5
271.466	89.5
271.698	87.5
271.93	80.5
272.162	91.5
272.394	83.5
272.626	79.5
272.858	79.5
273.09	91.5
273.322	78.5
273.553	93.5
273.785	94.5
274.017	90.5
274.249	77.5
274.481	103.5
274.713	98.5
274.945	87.5
275.176	73.5
275.408	75.5
275.64	80.5
275.872	97.5
276.104	86.5
276.335	88.5
276.567	98.5
276.799	92.5
277.031	97.5
277.262	79.5
277.494	73.5
277.726	107.5
277.957	93.5
278.189	73.5
278.421	82.5
278.652	85.5
278.884	81.5
279.115	79.5
279.347	89.5
279.579	92.5
279.81	95.5
280.042	98.5
280.273	80.5
280.505	70.5
280.736	90.5
280.968	93.5
281.199	69.5
281.431	86.5
281.662	91.5
281.894	89.5
282.125	101.5
282.356	101.5
282.588	119.5
282.819	106.5
283.051	86.5
283.282	102.5
283.513	81.5
283.745	87.5
283.976	82.5
284.207	82.5
284.439	79.5
284.67	78.5
284.901	88.5
285.132	91.5
285.364	82.5
285.595	76.5
285.826	91.5
286.057	82.5
286.288	84.5
286.52	81.5
286.751	72.5
286.982	89.5
287.213	91.5
287.444	81.5
287.675	82.5
287.906	103.5
288.138	83.5
288.369	104.5
288.6	92.5
288.831	78.5
289.062	86.5
289.293	91.5
289.524	77.5
289.755	88.5
289.986	104.5
290.217	91.5
290.448	91.5
290.679	90.5
290.91	84.5
291.141	100.5
291.371	95.5
291.602	92.5
291.833	90.5
292.064	97.5
292.295	83.5
292.526	102.5
292.757	79.5
292.987	84.5
293.218	82.5
293.449	87.5
293.68	96.5
293.91	91.5
294.141	104.5
294.372	87.5
294.603	84.5
294.833	94.5
295.064	76.5
295.295	89.5
295.525	82.5
295.756	91.5
295.987	112.5
296.217	120.5
296.448	122.5
296.679	73.5
296.909	87.5
297.14	78.5
297.37	82.5
297.601	76.5
297.831	85.5
298.062	82.5
298.292	92.5
298.523	90.5
298.753	85.5
298.984	98.5
299.214	95.5
299.445	104.5
299.675	100.5
299.905	94.5
300.136	92.5
300.366	86.5
300.597	105.5
300.827	83.5
301.057	97.5
301.288	96.5
301.518	92.5
301.748	83.5
301.979	98.5
302.209	87.5
302.439	83.5
302.669	94.5
302.9	94.5
303.13	96.5
303.36	88.5
303.59	95.5
303.82	105.5
304.051	98.5
304.281	91.5
304.511	96.5
304.741	67.5
304.971	92.5
305.201	96.5
305.431	98.5
305.661	84.5
305.891	82.5
306.121	84.5
306.352	78.5
306.582	88.5
306.812	94.5
307.042	87.5
307.272	90.5
307.502	101.5
307.731	102.5
307.961	100.5
308.191	85.5
308.421	89.5
308.651	87.5
308.881	89.5
309.111	88.5
309.341	98.5
309.571	102.5
309.8	103.5
310.03	103.5
310.26	84.5
310.49	95.5
310.72	101.5
310.949	118.5
311.179	101.5
311.409	110.5
311.639	97.5
311.868	100.5
312.098	97.5
312.328	89.5
312.557	94.5
312.787	94.5
313.017	94.5
313.246	98.5
313.476	91.5
313.706	90.5
313.935	96.5
314.165	95.5
314.394	85.5
314.624	102.5
314.853	99.5
315.083	82.5
315.312	96.5
315.542	88.5
315.771	79.5
316.001	83.5
316.23	98.5
316.46	82.5
316.689	100.5
316.919	100.5
317.148	91.5
317.377	84.5
317.607	92.5
317.836	93.5
318.065	102.5
318.295	86.5
318.524	91.5
318.753	92.5
318.983	97.5
319.212	93.5
319.441	110.5
319.67	100.5
319.9	91.5
320.129	96.5
320.358	93.5
320.587	94.5
320.816	90.5
321.046	87.5
321.275	96.5
321.504	90.5
321.733	101.5
321.962	86.5
322.191	98.5
322.42	98.5
322.649	115.5
322.878	110.5
323.108	114.5
323.337	101.5
323.566	115.5
323.795	124.5
324.024	192.5
324.253	339.5
324.482	690.5
324.71	1340.5
324.939	1774.5
325.168	679.5
325.397	210.5
325.626	147.5
325.855	127.5
326.084	119.5
326.313	126.5
326.542	148.5
326.77	202.5
326.999	394.5
327.228	789.5
327.457	1420.5
327.686	1110.5
327.914	300.5
328.143	183.5
328.372	127.5
328.6	123.5
328.829	115.5
329.058	111.5
329.287	123.5
329.515	107.5
329.744	110.5
329.972	107.5
330.201	113.5
330.43	117.5
330.658	113.5
330.887	129.5
331.115	99.5
331.344	101.5
331.572	102.5
331.801	101.5
332.03	99.5
332.258	84.5
332.486	97.5
332.715	95.5
332.943	102.5
333.172	78.5
333.4	82.5
333.629	112.5
333.857	104.5
334.085	103.5
334.314	113.5
334.542	117.5
334.771	110.5
334.999	99.5
335.227	97.5
335.455	84.5
335.684	98.5
335.912	94.5
336.14	101.5
336.369	101.5
336.597	95.5
336.825	93.5
337.053	96.5
337.281	97.5
337.51	92.5
337.738	100.5
337.966	91.5
338.194	103.5
338.422	91.5
338.65	85.5
338.878	87.5
339.106	94.5
339.334	90.5
339.562	77.5
339.79	91.5
340.018	91.5
340.246	79.5
340.474	108.5
340.702	101.5
340.93	95.5
341.158	95.5
341.386	97.5
341.614	97.5
341.842	92.5
342.07	96.5
342.298	100.5
342.526	81.5
342.754	88.5
342.981	98.5
343.209	87.5
343.437	87.5
343.665	92.5
343.893	84.5
344.12	95.5
344.348	99.5
344.576	80.5
344.804	84.5
345.031	90.5
345.259	89.5
345.487	98.5
345.714	91.5
345.942	103.5
346.17	87.5
346.397	102.5
346.625	97.5
346.853	87.5
347.08	82.5
347.308	88.5
347.535	105.5
347.763	102.5
347.99	88.5
348.218	108.5
348.445	102.5
348.673	95.5
348.9	102.5
349.128	101.5
349.355	95.5
349.583	92.5
349.81	86.5
350.037	90.5
350.265	97.5
350.492	93.5
350.72	90.5
350.947	95.5
351.174	105.5
351.402	99.5
351.629	100.5
351.856	98.5
352.083	87.5
352.311	94.5
352.538	101.5
352.765	108.5
352.992	111.5
353.22	107.5
353.447	90.5
353.674	109.5
353.901	96.5
354.128	100.5
354.355	96.5
354.583	104.5
354.81	92.5
355.037	107.5
355.264	94.5
355.491	96.5
355.718	96.5
355.945	90.5
356.172	86.5
356.399	87.5
356.626	100.5
356.853	109.5
357.08	97.5
357.307	101.5
357.534	102.5
357.761	97.5
357.988	84.5
358.215	82.5
358.441	111.5
358.668	90.5
358.895	82.5
359.122	87.5
359.349	90.5
359.576	83.5
359.802	81.5
360.029	100.5
360.256	108.5
360.483	102.5
360.709	94.5
360.936	89.5
361.163	88.5
361.39	93.5
361.616	96.5
361.843	66.5
362.07	85.5
362.296	90.5
362.523	92.5
362.749	97.5
362.976	89.5
363.203	92.5
363.429	92.5
363.656	92.5
363.882	80.5
364.109	86.5
364.335	102.5
364.562	88.5
364.788	96.5
365.015	94.5
365.241	103.5
365.468	102.5
365.694	101.5
365.92	97.5
366.147	76.5
366.373	85.5
366.599	75.5
366.826	96.5
367.052	87.5
367.278	75.5
367.505	88.5
367.731	82.5
367.957	98.5
368.184	94.5
368.41	92.5
368.636	102.5
368.862	116.5
369.089	90.5
369.315	87.5
369.541	95.5
369.767	83.5
369.993	81.5
370.219	88.5
370.445	87.5
370.672	81.5
370.898	95.5
371.124	90.5
371.35	91.5
371.576	91.5
371.802	95.5
372.028	99.5
372.254	79.5
372.48	83.5
372.706	86.5
372.932	94.5
373.158	80.5
373.384	84.5
373.61	88.5
373.835	91.5
374.061	86.5
374.287	84.5
374.513	95.5
374.739	81.5
374.965	86.5
375.191	96.5
375.416	82.5
375.642	93.5
375.868	84.5
376.094	86.5
376.319	83.5
376.545	77.5
376.771	92.5
376.997	84.5
377.222	91.5
377.448	81.5
377.674	81.5
377.899	107.5
378.125	95.5
378.35	105.5
378.576	101.5
378.802	95.5
379.027	89.5
379.253	95.5
379.478	82.5
379.704	86.5
379.929	90.5
380.155	87.5
380.38	88.5
380.606	96.5
380.831	90.5
381.057	87.5
381.282	94.5
381.507	89.5
381.733	75.5
381.958	90.5
382.184	102.5
382.409	97.5
382.634	100.5
382.86	109.5
383.085	85.5
383.31	98.5
383.535	88.5
383.761	110.5
383.986	95.5
384.211	96.5
384.436	95.5
384.662	96.5
384.887	116.5
385.112	101.5
385.337	97.5
385.562	100.5
385.787	89.5
386.013	107.5
386.238	104.5
386.463	111.5
386.688	111.5
386.913	97.5
387.138	91.5
387.363	101.5
387.588	103.5
387.813	103.5
388.038	110.5
388.263	93.5
388.488	115.5
388.713	102.5
388.938	91.5
389.163	92.5
389.387	105.5
389.612	95.5
389.837	119.5
390.062	97.5
390.287	88.5
390.512	100.5
390.736	96.5
390.961	77.5
391.186	90.5
391.411	95.5
391.636	90.5
391.86	85.5
392.085	83.5
392.31	65.5
392.534	100.5
392.759	90.5
392.984	78.5
393.208	95.5
393.433	90.5
393.658	88.5
393.882	91.5
394.107	66.5
394.331	90.5
394.556	72.5
394.78	103.5
395.005	90.5
395.229	82.5
395.454	78.5
395.678	81.5
395.903	87.5
396.127	95.5
396.352	85.5
396.576	88.5
396.801	84.5
397.025	76.5
397.249	95.5
397.474	98.5
397.698	101.5
397.922	83.5
398.147	85.5
398.371	82.5
398.595	95.5
398.82	91.5
399.044	82.5
399.268	86.5
399.492	91.5
399.717	79.5
399.941	82.5
400.165	95.5
400.389	85.5
400.613	80.5
400.837	72.5
401.062	94.5
401.286	90.5
401.51	92.5
401.734	99.5
401.958	92.5
402.182	112.5
402.406	148.5
402.63	113.5
402.854	88.5
403.078	79.5
403.302	99.5
403.526	93.5
403.75	78.5
403.974	93.5
404.198	90.5
404.422	81.5
404.645	96.5
404.869	95.5
405.093	85.5
405.317	105.5
405.541	92.5
405.765	107.5
405.988	114.5
406.212	140.5
406.436	181.5
406.66	123.5
406.883	112.5
407.107	93.5
407.331	91.5
407.555	99.5
407.778	87.5
408.002	100.5
408.226	78.5
408.449	94.5
408.673	99.5
408.896	85.5
409.12	84.5
409.344	91.5
409.567	77.5
409.791	85.5
410.014	92.5
410.238	91.5
410.461	92.5
410.685	80.5
410.908	103.5
411.132	106.5
411.355	91.5
411.578	99.5
411.802	95.5
412.025	72.5
412.249	81.5
412.472	86.5
412.695	95.5
412.919	86.5
413.142	86.5
413.365	87.5
413.589	74.5
413.812	74.5
414.035	97.5
414.258	95.5
414.482	80.5
414.705	80.5
414.928	75.5
415.151	94.5
415.374	98.5
415.597	94.5
415.821	78.5
416.044	91.5
416.267	86.5
416.49	79.5
416.713	76.5
416.936	83.5
417.159	88.5
417.382	82.5
417.605	84.5
417.828	94.5
418.051	95.5
418.274	93.5
418.497	78.5
418.72	75.5
418.943	81.5
419.166	92.5
419.389	88.5
419.611	74.5
419.834	82.5
420.057	90.5
420.28	85.5
420.503	96.5
420.726	83.5
420.948	95.5
421.171	94.5
421.394	93.5
421.617	85.5
421.839	72.5
422.062	85.5
422.285	80.5
422.507	90.5
422.73	93.5
422.953	91.5
423.175	85.5
423.398	87.5
423.621	84.5
423.843	86.5
424.066	80.5
424.288	86.5
424.511	81.5
424.733	95.5
424.956	82.5
425.178	96.5
425.401	90.5
425.623	87.5
425.846	97.5
426.068	79.5
426.291	102.5
426.513	84.5
426.735	90.5
426.958	84.5
427.18	101.5
427.402	119.5
427.625	138.5
427.847	123.5
428.069	109.5
428.292	89.5
428.514	88.5
428.736	74.5
428.958	78.5
429.181	88.5
429.403	82.5
429.625	71.5
429.847	87.5
430.069	87.5
430.292	91.5
430.514	88.5
430.736	81.5
430.958	85.5
431.18	88.5
431.402	97.5
431.624	92.5
431.846	84.5
432.068	91.5
432.29	82.5
432.512	91.5
432.734	87.5
432.956	87.5
433.178	78.5
433.4	87.5
433.622	101.5
433.844	90.5
434.066	84.5
434.287	83.5
434.509	92.5
434.731	88.5
434.953	85.5
435.175	80.5
435.397	96.5
435.618	92.5
435.84	83.5
436.062	108.5
436.284	105.5
436.505	101.5
436.727	101.5
436.949	87.5
437.17	93.5
437.392	83.5
437.614	94.5
437.835	83.5
438.057	97.5
438.278	104.5
438.5	91.5
438.721	100.5
438.943	104.5
439.165	86.5
439.386	79.5
439.608	93.5
439.829	105.5
440.05	108.5
440.272	112.5
440.493	97.5
440.715	82.5
440.936	86.5
441.158	93.5
441.379	94.5
441.6	87.5
441.822	80.5
442.043	85.5
442.264	107.5
442.486	93.5
442.707	94.5
442.928	88.5
443.149	111.5
443.371	105.5
443.592	97.5
443.813	96.5
444.034	106.5
444.255	84.5
444.476	86.5
444.698	81.5
444.919	102.5
445.14	124.5
445.361	105.5
445.582	103.5
445.803	117.5
446.024	122.5
446.245	105.5
446.466	98.5
446.687	94.5
446.908	92.5
447.129	91.5
447.35	96.5
447.571	94.5
447.792	88.5
448.013	88.5
448.234	102.5
448.455	94.5
448.675	94.5
448.896	114.5
449.117	101.5
449.338	98.5
449.559	117.5
449.779	111.5
450	96.5
450.221	84.5
450.442	79.5
450.662	94.5
450.883	111.5
451.104	98.5
451.324	89.5
451.545	87.5
451.766	100.5
451.986	90.5
452.207	91.5
452.428	91.5
452.648	90.5
452.869	91.5
453.089	108.5
453.31	110.5
453.53	95.5
453.751	97.5
453.971	95.5
454.192	106.5
454.412	90.5
454.633	92.5
454.853	90.5
455.073	90.5
455.294	81.5
455.514	94.5
455.734	89.5
455.955	87.5
456.175	84.5
456.395	80.5
456.616	85.5
456.836	75.5
457.056	82.5
457.276	85.5
457.497	94.5
457.717	98.5
457.937	88.5
458.157	87.5
458.377	86.5
458.598	105.5
458.818	127.5
459.038	138.5
459.258	89.5
459.478	85.5
459.698	94.5
459.918	76.5
460.138	75.5
460.358	104.5
460.578	81.5
460.798	81.5
461.018	92.5
461.238	76.5
461.458	76.5
461.678	94.5
461.898	82.5
462.118	66.5
462.338	85.5
462.558	86.5
462.777	79.5
462.997	74.5
463.217	95.5
463.437	88.5
463.657	78.5
463.876	88.5
464.096	89.5
464.316	94.5
464.536	77.5
464.755	100.5
464.975	100.5
465.195	145.5
465.414	128.5
465.634	90.5
465.854	77.5
466.073	93.5
466.293	87.5
466.512	78.5
466.732	88.5
466.951	89.5
467.171	81.5
467.391	96.5
467.61	91.5
467.829	94.5
468.049	105.5
468.268	103.5
468.488	86.5
468.707	70.5
468.927	95.5
469.146	87.5
469.365	80.5
469.585	85.5
469.804	91.5
470.023	97.5
470.243	109.5
470.462	95.5
470.681	107.5
470.901	92.5
471.12	82.5
471.339	85.5
471.558	76.5
471.777	80.5
471.997	84.5
472.216	110.5
472.435	138.5
472.654	91.5
472.873	88.5
473.092	103.5
473.311	85.5
473.53	91.5
473.749	85.5
473.968	103.5
474.187	113.5
474.406	78.5
474.625	87.5
474.844	82.5
475.063	91.5
475.282	90.5
475.501	96.5
475.72	80.5
475.939	85.5
476.158	80.5
476.377	83.5
476.596	90.5
476.814	80.5
477.033	80.5
477.252	90.5
477.471	89.5
477.69	92.5
477.908	86.5
478.127	100.5
478.346	87.5
478.564	88.5
478.783	90.5
479.002	100.5
479.22	89.5
479.439	93.5
479.658	90.5
479.876	95.5
480.095	82.5
480.313	66.5
480.532	90.5
480.751	97.5
480.969	99.5
481.188	182.5
481.406	152.5
481.624	89.5
481.843	101.5
482.061	76.5
482.28	79.5
482.498	75.5
482.717	92.5
482.935	88.5
483.153	90.5
483.372	95.5
483.59	85.5
483.808	94.5
484.027	70.5
484.245	87.5
484.463	102.5
484.681	104.5
484.9	77.5
485.118	93.5
485.336	92.5
485.554	104.5
485.772	87.5
485.99	86.5
486.209	119.5
486.427	92.5
486.645	103.5
486.863	117.5
487.081	102.5
487.299	106.5
487.517	91.5
487.735	101.5
487.953	96.5
488.171	91.5
488.389	108.5
488.607	107.5
488.825	91.5
489.043	90.5
489.261	93.5
489.479	89.5
489.696	82.5
489.914	80.5
490.132	97.5
490.35	94.5
490.568	91.5
490.786	98.5
491.003	95.5
491.221	78.5
491.439	85.5
491.657	86.5
491.874	90.5
492.092	98.5
492.31	95.5
492.527	84.5
492.745	81.5
492.963	95.5
493.18	83.5
493.398	100.5
493.615	98.5
493.833	79.5
494.05	76.5
494.268	91.5
494.485	89.5
494.703	79.5
494.92	81.5
495.138	94.5
495.355	78.5
495.573	91.5
495.79	90.5
496.008	101.5
496.225	83.5
496.442	88.5
496.66	97.5
496.877	84.5
497.094	91.5
497.312	100.5
497.529	79.5
497.746	81.5
497.963	87.5
498.181	95.5
498.398	95.5
498.615	104.5
498.832	107.5
499.049	93.5
499.267	79.5
499.484	88.5
499.701	94.5
499.918	83.5
500.135	93.5
500.352	87.5
500.569	82.5
500.786	80.5
501.003	98.5
501.22	85.5
501.437	94.5
501.654	87.5
501.871	97.5
502.088	91.5
502.305	82.5
502.522	95.5
502.739	96.5
502.956	97.5
503.172	100.5
503.389	84.5
503.606	105.5
503.823	90.5
504.04	91.5
504.256	97.5
504.473	84.5
504.69	90.5
504.907	92.5
505.123	91.5
505.34	93.5
505.557	91.5
505.773	83.5
505.99	89.5
506.207	84.5
506.423	78.5
506.64	92.5
506.856	88.5
507.073	84.5
507.289	78.5
507.506	90.5
507.722	106.5
507.939	95.5
508.155	87.5
508.372	92.5
508.588	91.5
508.805	90.5
509.021	78.5
509.238	104.5
509.454	98.5
509.67	100.5
509.887	102.5
510.103	122.5
510.319	185.5
510.536	580.5
510.752	1738.5
510.968	521.5
511.184	135.5
511.401	104.5
511.617	87.5
511.833	77.5
512.049	83.5
512.265	91.5
512.481	99.5
512.698	91.5
512.914	91.5
513.13	87.5
513.346	102.5
513.562	97.5
513.778	109.5
513.994	94.5
514.21	83.5
514.426	119.5
514.642	120.5
514.858	112.5
515.074	134.5
515.29	322.5
515.506	1047.5
515.721	406.5
515.937	124.5
516.153	104.5
516.369	92.5
516.585	103.5
516.801	93.5
517.016	90.5
517.232	81.5
517.448	91.5
517.664	92.5
517.879	81.5
518.095	99.5
518.311	87.5
518.527	89.5
518.742	98.5
518.958	86.5
519.173	102.5
519.389	86.5
519.605	90.5
519.82	96.5
520.036	91.5
520.251	112.5
520.467	90.5
520.682	84.5
520.898	104.5
521.113	107.5
521.329	123.5
521.544	180.5
521.76	398.5
521.975	1710.5
522.19	1070.5
522.406	260.5
522.621	118.5
522.836	103.5
523.052	86.5
523.267	100.5
523.482	98.5
523.698	95.5
523.913	120.5
524.128	89.5
524.343	90.5
524.559	92.5
524.774	86.5
524.989	98.5
525.204	103.5
525.419	94.5
525.634	91.5
525.849	94.5
526.064	97.5
526.28	94.5
526.495	87.5
526.71	88.5
526.925	84.5
527.14	80.5
527.355	91.5
527.57	72.5
527.785	99.5
527.999	79.5
528.214	87.5
528.429	92.5
528.644	75.5
528.859	94.5
529.074	80.5
529.289	117.5
529.503	149.5
529.718	113.5
529.933	85.5
530.148	92.5
530.363	99.5
530.577	82.5
530.792	92.5
531.007	84.5
531.221	89.5
531.436	87.5
531.651	91.5
531.865	91.5
532.08	100.5
532.295	96.5
532.509	96.5
532.724	95.5
532.938	94.5
533.153	91.5
533.367	100.5
533.582	95.5
533.796	109.5
534.011	92.5
534.225	99.5
534.44	94.5
534.654	95.5
534.868	99.5
535.083	91.5
535.297	100.5
535.511	97.5
535.726	94.5
535.94	100.5
