Data from Circ_2002_H10_HRD10591_00069.txt Node
Date: Wed Jan 03 10:41:11 EST 2024
User: Yrep
Spectrometer: HR+D1059
Trigger mode: 1
Integration Time (sec): 1.000000E-1
Scans to average: 1
Electric dark correction enabled: true
Nonlinearity correction enabled: false
Boxcar width: 0
XAxis mode: Wavelengths
Number of Pixels in Spectrum: 2048
>>>>>Begin Spectral Data<<<<<
223.165	-10.38
223.4	-10.38
223.635	-10.38
223.869	-15.38
224.104	-22.38
224.338	-10.38
224.573	-13.38
224.808	-21.38
225.042	-13.38
225.277	-7.38
225.511	-4.38
225.746	2.62
225.98	9.62
226.215	12.62
226.449	19.62
226.683	19.62
226.918	24.62
227.152	29.62
227.387	34.62
227.621	37.62
227.856	58.62
228.09	45.62
228.324	63.62
228.559	53.62
228.793	149.62
229.027	425.62
229.262	466.62
229.496	541.62
229.73	727.62
229.964	737.62
230.199	500.62
230.433	453.62
230.667	449.62
230.901	440.62
231.136	417.62
231.37	417.62
231.604	442.62
231.838	457.62
232.072	439.62
232.306	451.62
232.541	438.62
232.775	458.62
233.009	431.62
233.243	452.62
233.477	455.62
233.711	447.62
233.945	462.62
234.179	468.62
234.413	469.62
234.647	467.62
234.881	469.62
235.115	495.62
235.349	500.62
235.583	533.62
235.817	580.62
236.051	591.62
236.285	599.62
236.519	589.62
236.753	657.62
236.987	856.62
237.221	1279.62
237.455	1455.62
237.689	849.62
237.922	674.62
238.156	674.62
238.39	638.62
238.624	625.62
238.858	633.62
239.091	614.62
239.325	626.62
239.559	643.62
239.793	693.62
240.027	718.62
240.26	838.62
240.494	911.62
240.728	887.62
240.961	857.62
241.195	729.62
241.429	757.62
241.662	704.62
241.896	746.62
242.13	758.62
242.363	728.62
242.597	765.62
242.83	785.62
243.064	790.62
243.298	772.62
243.531	779.62
243.765	778.62
243.998	813.62
244.232	813.62
244.465	865.62
244.699	877.62
244.932	854.62
245.166	867.62
245.399	841.62
245.633	839.62
245.866	858.62
246.099	908.62
246.333	887.62
246.566	913.62
246.8	930.62
247.033	982.62
247.266	986.62
247.5	1046.62
247.733	1097.62
247.966	1098.62
248.2	1093.62
248.433	1080.62
248.666	1169.62
248.899	1288.62
249.133	1367.62
249.366	1354.62
249.599	1267.62
249.832	1184.62
250.066	1185.62
250.299	1272.62
250.532	1461.62
250.765	1559.62
250.998	1672.62
251.231	1570.62
251.465	1412.62
251.698	1353.62
251.931	1331.62
252.164	1290.62
252.397	1370.62
252.63	1378.62
252.863	1466.62
253.096	1585.62
253.329	1652.62
253.562	1534.62
253.795	1505.62
254.028	1476.62
254.261	1522.62
254.494	1755.62
254.727	2045.62
254.96	2143.62
255.193	1889.62
255.426	1704.62
255.659	1656.62
255.892	1782.62
256.124	1914.62
256.357	1841.62
256.59	1630.62
256.823	1581.62
257.056	1480.62
257.289	1472.62
257.521	1496.62
257.754	1443.62
257.987	1474.62
258.22	1462.62
258.452	1469.62
258.685	1489.62
258.918	1503.62
259.151	1542.62
259.383	1576.62
259.616	1610.62
259.849	1637.62
260.081	1812.62
260.314	1955.62
260.547	1910.62
260.779	1705.62
261.012	1657.62
261.244	1582.62
261.477	1584.62
261.71	1606.62
261.942	1640.62
262.175	1686.62
262.407	1599.62
262.64	1595.62
262.872	1563.62
263.105	1553.62
263.337	1547.62
263.57	1584.62
263.802	1581.62
264.035	1589.62
264.267	1628.62
264.499	1592.62
264.732	1617.62
264.964	1591.62
265.197	1612.62
265.429	1577.62
265.661	1651.62
265.894	1642.62
266.126	1663.62
266.358	1721.62
266.591	1733.62
266.823	1778.62
267.055	1773.62
267.287	1791.62
267.52	1752.62
267.752	1750.62
267.984	1778.62
268.216	1796.62
268.448	1850.62
268.681	1893.62
268.913	1985.62
269.145	2249.62
269.377	2236.62
269.609	2219.62
269.841	2127.62
270.073	2250.62
270.306	2535.62
270.538	2674.62
270.77	2514.62
271.002	2332.62
271.234	2317.62
271.466	2482.62
271.698	2590.62
271.93	2620.62
272.162	2616.62
272.394	2511.62
272.626	2402.62
272.858	2251.62
273.09	2211.62
273.322	2162.62
273.553	2122.62
273.785	2140.62
274.017	2148.62
274.249	2132.62
274.481	2157.62
274.713	2191.62
274.945	2181.62
275.176	2189.62
275.408	2177.62
275.64	2171.62
275.872	2227.62
276.104	2214.62
276.335	2211.62
276.567	2296.62
276.799	2442.62
277.031	2675.62
277.262	2790.62
277.494	2653.62
277.726	2514.62
277.957	2362.62
278.189	2313.62
278.421	2282.62
278.652	2269.62
278.884	2260.62
279.115	2242.62
279.347	2286.62
279.579	2282.62
279.81	2243.62
280.042	2309.62
280.273	2317.62
280.505	2320.62
280.736	2296.62
280.968	2376.62
281.199	2337.62
281.431	2417.62
281.662	2337.62
281.894	2335.62
282.125	2481.62
282.356	2611.62
282.588	2698.62
282.819	2591.62
283.051	2474.62
283.282	2438.62
283.513	2477.62
283.745	2554.62
283.976	2573.62
284.207	2530.62
284.439	2509.62
284.67	2496.62
284.901	2545.62
285.132	2536.62
285.364	2542.62
285.595	2544.62
285.826	2517.62
286.057	2573.62
286.288	2542.62
286.52	2539.62
286.751	2569.62
286.982	2593.62
287.213	2636.62
287.444	2627.62
287.675	2707.62
287.906	2776.62
288.138	2863.62
288.369	2771.62
288.6	2807.62
288.831	2787.62
289.062	2707.62
289.293	2741.62
289.524	2667.62
289.755	2698.62
289.986	2708.62
290.217	2662.62
290.448	2708.62
290.679	2694.62
290.91	2695.62
291.141	2759.62
291.371	2698.62
291.602	2742.62
291.833	2685.62
292.064	2669.62
292.295	2663.62
292.526	2749.62
292.757	2692.62
292.987	2738.62
293.218	2724.62
293.449	2736.62
293.68	2692.62
293.91	2805.62
294.141	2737.62
294.372	2706.62
294.603	2773.62
294.833	2773.62
295.064	2792.62
295.295	2782.62
295.525	2785.62
295.756	2873.62
295.987	2921.62
296.217	3111.62
296.448	3014.62
296.679	2839.62
296.909	2867.62
297.14	2883.62
297.37	2907.62
297.601	2941.62
297.831	2897.62
298.062	2947.62
298.292	2934.62
298.523	2995.62
298.753	3021.62
298.984	2949.62
299.214	2959.62
299.445	3013.62
299.675	2969.62
299.905	3084.62
300.136	3053.62
300.366	3096.62
300.597	3078.62
300.827	3153.62
301.057	3227.62
301.288	3309.62
301.518	3181.62
301.748	3252.62
301.979	3317.62
302.209	3293.62
302.439	3305.62
302.669	3218.62
302.9	3208.62
303.13	3163.62
303.36	3265.62
303.59	3247.62
303.82	3329.62
304.051	3301.62
304.281	3188.62
304.511	3182.62
304.741	3172.62
304.971	3173.62
305.201	3191.62
305.431	3167.62
305.661	3135.62
305.891	3201.62
306.121	3225.62
306.352	3168.62
306.582	3200.62
306.812	3142.62
307.042	3169.62
307.272	3179.62
307.502	3152.62
307.731	3184.62
307.961	3190.62
308.191	3130.62
308.421	3174.62
308.651	3200.62
308.881	3191.62
309.111	3241.62
309.341	3269.62
309.571	3326.62
309.8	3376.62
310.03	3464.62
310.26	3527.62
310.49	3455.62
310.72	3527.62
310.949	3601.62
311.179	3604.62
311.409	3504.62
311.639	3498.62
311.868	3585.62
312.098	3575.62
312.328	3619.62
312.557	3773.62
312.787	3829.62
313.017	3722.62
313.246	3619.62
313.476	3529.62
313.706	3677.62
313.935	3727.62
314.165	3834.62
314.394	3810.62
314.624	3730.62
314.853	3670.62
315.083	3641.62
315.312	3591.62
315.542	3630.62
315.771	3560.62
316.001	3566.62
316.23	3579.62
316.46	3622.62
316.689	3628.62
316.919	3647.62
317.148	3694.62
317.377	3681.62
317.607	3576.62
317.836	3563.62
318.065	3537.62
318.295	3539.62
318.524	3525.62
318.753	3499.62
318.983	3543.62
319.212	3587.62
319.441	3583.62
319.67	3646.62
319.9	3576.62
320.129	3594.62
320.358	3531.62
320.587	3611.62
320.816	3697.62
321.046	3775.62
321.275	3737.62
321.504	3687.62
321.733	3695.62
321.962	3797.62
322.191	3884.62
322.42	3938.62
322.649	4055.62
322.878	4093.62
323.108	4185.62
323.337	4439.62
323.566	4569.62
323.795	4809.62
324.024	5407.62
324.253	7059.62
324.482	10429.62
324.71	14873.62
324.939	15611.62
325.168	12270.62
325.397	6276.62
325.626	5073.62
325.855	4659.62
326.084	4611.62
326.313	4632.62
326.542	4755.62
326.77	5369.62
326.999	6863.62
327.228	9915.62
327.457	13994.62
327.686	13171.62
327.914	7110.62
328.143	5717.62
328.372	5563.62
328.6	5202.62
328.829	5139.62
329.058	5280.62
329.287	5270.62
329.515	4960.62
329.744	4883.62
329.972	5094.62
330.201	5411.62
330.43	5740.62
330.658	5654.62
330.887	5768.62
331.115	5286.62
331.344	4925.62
331.572	4790.62
331.801	4919.62
332.03	4918.62
332.258	4868.62
332.486	4922.62
332.715	4982.62
332.943	5129.62
333.172	5287.62
333.4	5451.62
333.629	5652.62
333.857	5831.62
334.085	5849.62
334.314	6222.62
334.542	6579.62
334.771	6385.62
334.999	5586.62
335.227	5330.62
335.455	5134.62
335.684	5002.62
335.912	4872.62
336.14	4906.62
336.369	4865.62
336.597	4941.62
336.825	4887.62
337.053	4688.62
337.281	4716.62
337.51	4682.62
337.738	4639.62
337.966	4598.62
338.194	4602.62
338.422	4528.62
338.65	4474.62
338.878	4409.62
339.106	4361.62
339.334	4345.62
339.562	4392.62
339.79	4241.62
340.018	4289.62
340.246	4267.62
340.474	4265.62
340.702	4345.62
340.93	4327.62
341.158	4320.62
341.386	4301.62
341.614	4270.62
341.842	4275.62
342.07	4209.62
342.298	4211.62
342.526	4173.62
342.754	4170.62
342.981	4241.62
343.209	4292.62
343.437	4483.62
343.665	4771.62
343.893	5006.62
344.12	5025.62
344.348	4813.62
344.576	4678.62
344.804	4624.62
345.031	4493.62
345.259	4433.62
345.487	4326.62
345.714	4243.62
345.942	4109.62
346.17	4097.62
346.397	4074.62
346.625	4112.62
346.853	4017.62
347.08	4071.62
347.308	4102.62
347.535	4138.62
347.763	4193.62
347.99	4091.62
348.218	4179.62
348.445	4196.62
348.673	4132.62
348.9	4072.62
349.128	3984.62
349.355	3967.62
349.583	3958.62
349.81	3967.62
350.037	3946.62
350.265	3917.62
350.492	3923.62
350.72	3989.62
350.947	3974.62
351.174	4070.62
351.402	4081.62
351.629	4072.62
351.856	4063.62
352.083	4177.62
352.311	4105.62
352.538	4112.62
352.765	4100.62
352.992	4032.62
353.22	4056.62
353.447	4017.62
353.674	3893.62
353.901	3878.62
354.128	3867.62
354.355	3838.62
354.583	3866.62
354.81	3899.62
355.037	3884.62
355.264	3828.62
355.491	3876.62
355.718	3816.62
355.945	3845.62
356.172	3873.62
356.399	3853.62
356.626	3868.62
356.853	3905.62
357.08	3861.62
357.307	3851.62
357.534	3873.62
357.761	3882.62
357.988	3898.62
358.215	3869.62
358.441	3897.62
358.668	3987.62
358.895	3917.62
359.122	3930.62
359.349	4084.62
359.576	4168.62
359.802	4327.62
360.029	4500.62
360.256	4477.62
360.483	4263.62
360.709	4166.62
360.936	4115.62
361.163	4087.62
361.39	4146.62
361.616	4174.62
361.843	4097.62
362.07	4085.62
362.296	4086.62
362.523	4088.62
362.749	4036.62
362.976	3979.62
363.203	3997.62
363.429	3909.62
363.656	3950.62
363.882	3993.62
364.109	3935.62
364.335	3908.62
364.562	3952.62
364.788	3945.62
365.015	3955.62
365.241	3918.62
365.468	3942.62
365.694	4013.62
365.92	3987.62
366.147	3937.62
366.373	3949.62
366.599	3902.62
366.826	3908.62
367.052	3887.62
367.278	3969.62
367.505	4012.62
367.731	3989.62
367.957	3973.62
368.184	4029.62
368.41	4059.62
368.636	4172.62
368.862	4156.62
369.089	4057.62
369.315	3962.62
369.541	4029.62
369.767	4036.62
369.993	3995.62
370.219	4129.62
370.445	4111.62
370.672	4165.62
370.898	4114.62
371.124	4175.62
371.35	4215.62
371.576	4197.62
371.802	4128.62
372.028	4171.62
372.254	4200.62
372.48	4281.62
372.706	4330.62
372.932	4379.62
373.158	4285.62
373.384	4256.62
373.61	4206.62
373.835	4249.62
374.061	4250.62
374.287	4373.62
374.513	4435.62
374.739	4505.62
374.965	4646.62
375.191	4601.62
375.416	4520.62
375.642	4406.62
375.868	4382.62
376.094	4329.62
376.319	4273.62
376.545	4252.62
376.771	4285.62
376.997	4221.62
377.222	4205.62
377.448	4245.62
377.674	4202.62
377.899	4187.62
378.125	4221.62
378.35	4204.62
378.576	4157.62
378.802	4191.62
379.027	4171.62
379.253	4238.62
379.478	4143.62
379.704	4123.62
379.929	4223.62
380.155	4248.62
380.38	4199.62
380.606	4216.62
380.831	4150.62
381.057	4270.62
381.282	4201.62
381.507	4249.62
381.733	4294.62
381.958	4289.62
382.184	4357.62
382.409	4428.62
382.634	4469.62
382.86	4453.62
383.085	4520.62
383.31	4581.62
383.535	4615.62
383.761	4640.62
383.986	4775.62
384.211	4854.62
384.436	4903.62
384.662	5010.62
384.887	5000.62
385.112	5038.62
385.337	5167.62
385.562	5069.62
385.787	5110.62
386.013	5162.62
386.238	5173.62
386.463	5161.62
386.688	5141.62
386.913	5003.62
387.138	5048.62
387.363	5035.62
387.588	4933.62
387.813	5005.62
388.038	5007.62
388.263	5081.62
388.488	5088.62
388.713	5053.62
388.938	5048.62
389.163	4992.62
389.387	5035.62
389.612	4921.62
389.837	4962.62
390.062	4952.62
390.287	4991.62
390.512	5042.62
390.736	5012.62
390.961	5131.62
391.186	5117.62
391.411	5325.62
391.636	5520.62
391.86	5606.62
392.085	5693.62
392.31	5569.62
392.534	5473.62
392.759	5326.62
392.984	5295.62
393.208	5191.62
393.433	5268.62
393.658	5239.62
393.882	5301.62
394.107	5228.62
394.331	5379.62
394.556	5302.62
394.78	5369.62
395.005	5403.62
395.229	5401.62
395.454	5635.62
395.678	5673.62
395.903	5664.62
396.127	5718.62
396.352	5483.62
396.576	5313.62
396.801	5313.62
397.025	5442.62
397.249	5541.62
397.474	5631.62
397.698	5685.62
397.922	5799.62
398.147	5841.62
398.371	6046.62
398.595	6221.62
398.82	6401.62
399.044	7025.62
399.268	7733.62
399.492	8781.62
399.717	9358.62
399.941	9165.62
400.165	8629.62
400.389	7869.62
400.613	7060.62
400.837	6607.62
401.062	6525.62
401.286	6366.62
401.51	6405.62
401.734	6341.62
401.958	6470.62
402.182	6687.62
402.406	6680.62
402.63	6757.62
402.854	6818.62
403.078	7002.62
403.302	7069.62
403.526	7223.62
403.75	7279.62
403.974	7243.62
404.198	7275.62
404.422	7438.62
404.645	7329.62
404.869	7399.62
405.093	7713.62
405.317	7931.62
405.541	7849.62
405.765	7250.62
405.988	7199.62
406.212	7217.62
406.436	7441.62
406.66	7573.62
406.883	7501.62
407.107	8166.62
407.331	8651.62
407.555	9184.62
407.778	8829.62
408.002	8153.62
408.226	7711.62
408.449	7567.62
408.673	7415.62
408.896	7572.62
409.12	7747.62
409.344	7353.62
409.567	6988.62
409.791	7066.62
410.014	6868.62
410.238	6871.62
410.461	6855.62
410.685	6873.62
410.908	6935.62
411.132	7225.62
411.355	7186.62
411.578	6858.62
411.802	6637.62
412.025	6778.62
412.249	6963.62
412.472	7101.62
412.695	7426.62
412.919	6870.62
413.142	6531.62
413.365	6496.62
413.589	6470.62
413.812	6227.62
414.035	6159.62
414.258	6383.62
414.482	6361.62
414.705	6325.62
414.928	6290.62
415.151	6289.62
415.374	6309.62
415.597	6240.62
415.821	6137.62
416.044	6113.62
416.267	6180.62
416.49	6053.62
416.713	6106.62
416.936	6201.62
417.159	6185.62
417.382	6246.62
417.605	6195.62
417.828	6367.62
418.051	6384.62
418.274	6360.62
418.497	6309.62
418.72	6375.62
418.943	6305.62
419.166	6727.62
419.389	7120.62
419.611	6979.62
419.834	6818.62
420.057	6752.62
420.28	6701.62
420.503	6611.62
420.726	6559.62
420.948	6614.62
421.171	6969.62
421.394	6893.62
421.617	6471.62
421.839	6412.62
422.062	6558.62
422.285	6607.62
422.507	7318.62
422.73	7769.62
422.953	7137.62
423.175	6761.62
423.398	6929.62
423.621	6879.62
423.843	7103.62
424.066	7002.62
424.288	7000.62
424.511	7077.62
424.733	7506.62
424.956	7983.62
425.178	7544.62
425.401	7662.62
425.623	7488.62
425.846	6592.62
426.068	6432.62
426.291	6386.62
426.513	6402.62
426.735	6516.62
426.958	6945.62
427.18	7703.62
427.402	8633.62
427.625	8888.62
427.847	7646.62
428.069	7023.62
428.292	6397.62
428.514	5998.62
428.736	5743.62
428.958	5849.62
429.181	5612.62
429.403	5674.62
429.625	5765.62
429.847	6135.62
430.069	6680.62
430.292	6171.62
430.514	5675.62
430.736	5694.62
430.958	5571.62
431.18	5551.62
431.402	5542.62
431.624	5483.62
431.846	5599.62
432.068	5584.62
432.29	5716.62
432.512	5634.62
432.734	5655.62
432.956	5506.62
433.178	5706.62
433.4	5733.62
433.622	5570.62
433.844	5660.62
434.066	5677.62
434.287	5720.62
434.509	5967.62
434.731	6199.62
434.953	6347.62
435.175	6432.62
435.397	6570.62
435.618	6483.62
435.84	6769.62
436.062	7533.62
436.284	7561.62
436.505	6395.62
436.727	6074.62
436.949	5886.62
437.17	5587.62
437.392	5673.62
437.614	5770.62
437.835	6166.62
438.057	7125.62
438.278	7767.62
438.5	7661.62
438.721	8414.62
438.943	7379.62
439.165	6215.62
439.386	6114.62
439.608	6190.62
439.829	6281.62
440.05	6520.62
440.272	6833.62
440.493	6279.62
440.715	6040.62
440.936	5907.62
441.158	5939.62
441.379	6142.62
441.6	6446.62
441.822	6619.62
442.043	7114.62
442.264	7892.62
442.486	7636.62
442.707	6758.62
442.928	6555.62
443.149	6725.62
443.371	6909.62
443.592	7478.62
443.813	8386.62
444.034	8408.62
444.255	7287.62
444.476	7144.62
444.698	7360.62
444.919	7402.62
445.14	7302.62
445.361	7090.62
445.582	7246.62
445.803	7794.62
446.024	8369.62
446.245	8051.62
446.466	7261.62
446.687	6205.62
446.908	5984.62
447.129	5683.62
447.35	5533.62
447.571	5576.62
447.792	5432.62
448.013	5530.62
448.234	5727.62
448.455	6341.62
448.675	7495.62
448.896	7921.62
449.117	6562.62
449.338	6799.62
449.559	7917.62
449.779	8085.62
450	6197.62
450.221	5576.62
450.442	5389.62
450.662	5302.62
450.883	5419.62
451.104	5528.62
451.324	5322.62
451.545	5126.62
451.766	5047.62
451.986	4940.62
452.207	4927.62
452.428	4913.62
452.648	4975.62
452.869	4930.62
453.089	5009.62
453.31	5112.62
453.53	4984.62
453.751	4894.62
453.971	4961.62
454.192	4992.62
454.412	4788.62
454.633	4799.62
454.853	4777.62
455.073	4790.62
455.294	5097.62
455.514	5673.62
455.734	5171.62
455.955	4691.62
456.175	4613.62
456.395	4569.62
456.616	4541.62
456.836	4600.62
457.056	4562.62
457.276	4481.62
457.497	4555.62
457.717	4624.62
457.937	4707.62
458.157	4785.62
458.377	4849.62
458.598	5169.62
458.818	5802.62
459.038	6627.62
459.258	6441.62
459.478	5812.62
459.698	5712.62
459.918	5773.62
460.138	5898.62
460.358	6074.62
460.578	6156.62
460.798	6254.62
461.018	6273.62
461.238	6148.62
461.458	6061.62
461.678	6015.62
461.898	6140.62
462.118	6178.62
462.338	6559.62
462.558	6731.62
462.777	7016.62
462.997	7624.62
463.217	7954.62
463.437	7711.62
463.657	7198.62
463.876	6978.62
464.096	7074.62
464.316	7010.62
464.536	6990.62
464.755	6850.62
464.975	6707.62
465.195	6881.62
465.414	6939.62
465.634	6054.62
465.854	5764.62
466.073	5543.62
466.293	5325.62
466.512	5197.62
466.732	5142.62
466.951	5177.62
467.171	5096.62
467.391	5172.62
467.61	5275.62
467.829	5183.62
468.049	5170.62
468.268	5141.62
468.488	4953.62
468.707	4861.62
468.927	4880.62
469.146	4936.62
469.365	4967.62
469.585	5058.62
469.804	5218.62
470.023	5349.62
470.243	5270.62
470.462	5422.62
470.681	5447.62
470.901	5397.62
471.12	5253.62
471.339	5138.62
471.558	5174.62
471.777	5121.62
471.997	5074.62
472.216	5209.62
472.435	5636.62
472.654	5281.62
472.873	5078.62
473.092	4971.62
473.311	4974.62
473.53	4972.62
473.749	5010.62
473.968	5575.62
474.187	6555.62
474.406	6089.62
474.625	5188.62
474.844	4993.62
475.063	4955.62
475.282	4974.62
475.501	5038.62
475.72	5070.62
475.939	4993.62
476.158	5114.62
476.377	5083.62
476.596	5065.62
476.814	5197.62
477.033	5249.62
477.252	5327.62
477.471	5349.62
477.69	5503.62
477.908	5631.62
478.127	5731.62
478.346	5895.62
478.564	5929.62
478.783	6046.62
479.002	6202.62
479.22	6113.62
479.439	6289.62
479.658	6305.62
479.876	6370.62
480.095	6656.62
480.313	7056.62
480.532	6961.62
480.751	6806.62
480.969	6957.62
481.188	7651.62
481.406	7536.62
481.624	6611.62
481.843	6220.62
482.061	6092.62
482.28	6034.62
482.498	5851.62
482.717	5798.62
482.935	5761.62
483.153	5744.62
483.372	5791.62
483.59	5782.62
483.808	5820.62
484.027	5850.62
484.245	5839.62
484.463	5847.62
484.681	5943.62
484.9	5921.62
485.118	5973.62
485.336	6035.62
485.554	6130.62
485.772	6106.62
485.99	6192.62
486.209	6211.62
486.427	6295.62
486.645	6311.62
486.863	6313.62
487.081	6316.62
487.299	6224.62
487.517	6294.62
487.735	6161.62
487.953	6194.62
