Data from Circ_2002_H10_HRD10591_00034.txt Node
Date: Wed Jan 03 10:41:05 EST 2024
User: Yrep
Spectrometer: HR+D1059
Trigger mode: 1
Integration Time (sec): 1.000000E-1
Scans to average: 1
Electric dark correction enabled: true
Nonlinearity correction enabled: false
Boxcar width: 0
XAxis mode: Wavelengths
Number of Pixels in Spectrum: 2048
>>>>>Begin Spectral Data<<<<<
223.165	-15.94
223.4	-15.94
223.635	-15.94
223.869	-16.94
224.104	-23.94
224.338	-15.94
224.573	-18.94
224.808	-16.94
225.042	2.06
225.277	-9.94
225.511	0.06
225.746	2.06
225.98	2.06
226.215	9.06
226.449	17.06
226.683	31.06
226.918	16.06
227.152	39.06
227.387	25.06
227.621	28.06
227.856	36.06
228.09	45.06
228.324	53.06
228.559	47.06
228.793	68.06
229.027	77.06
229.262	66.06
229.496	54.06
229.73	82.06
229.964	84.06
230.199	76.06
230.433	75.06
230.667	79.06
230.901	82.06
231.136	86.06
231.37	97.06
231.604	79.06
231.838	74.06
232.072	74.06
232.306	89.06
232.541	72.06
232.775	87.06
233.009	88.06
233.243	75.06
233.477	83.06
233.711	74.06
233.945	84.06
234.179	74.06
234.413	83.06
234.647	89.06
234.881	84.06
235.115	83.06
235.349	82.06
235.583	68.06
235.817	82.06
236.051	74.06
236.285	77.06
236.519	70.06
236.753	71.06
236.987	94.06
237.221	84.06
237.455	82.06
237.689	84.06
237.922	82.06
238.156	94.06
238.39	81.06
238.624	80.06
238.858	76.06
239.091	83.06
239.325	89.06
239.559	68.06
239.793	74.06
240.027	85.06
240.26	75.06
240.494	70.06
240.728	85.06
240.961	72.06
241.195	75.06
241.429	88.06
241.662	79.06
241.896	86.06
242.13	72.06
242.363	86.06
242.597	73.06
242.83	78.06
243.064	65.06
243.298	80.06
243.531	86.06
243.765	89.06
243.998	82.06
244.232	76.06
244.465	82.06
244.699	82.06
244.932	78.06
245.166	74.06
245.399	91.06
245.633	85.06
245.866	68.06
246.099	71.06
246.333	75.06
246.566	83.06
246.8	80.06
247.033	62.06
247.266	78.06
247.5	62.06
247.733	73.06
247.966	86.06
248.2	87.06
248.433	75.06
248.666	71.06
248.899	71.06
249.133	100.06
249.366	92.06
249.599	88.06
249.832	90.06
250.066	71.06
250.299	69.06
250.532	78.06
250.765	76.06
250.998	80.06
251.231	76.06
251.465	79.06
251.698	74.06
251.931	78.06
252.164	94.06
252.397	88.06
252.63	85.06
252.863	75.06
253.096	79.06
253.329	80.06
253.562	74.06
253.795	85.06
254.028	74.06
254.261	82.06
254.494	84.06
254.727	65.06
254.96	100.06
255.193	80.06
255.426	88.06
255.659	80.06
255.892	85.06
256.124	71.06
256.357	82.06
256.59	78.06
256.823	78.06
257.056	67.06
257.289	86.06
257.521	88.06
257.754	72.06
257.987	89.06
258.22	98.06
258.452	74.06
258.685	79.06
258.918	80.06
259.151	70.06
259.383	82.06
259.616	85.06
259.849	75.06
260.081	87.06
260.314	82.06
260.547	80.06
260.779	76.06
261.012	88.06
261.244	77.06
261.477	68.06
261.71	92.06
261.942	110.06
262.175	118.06
262.407	86.06
262.64	91.06
262.872	94.06
263.105	89.06
263.337	86.06
263.57	84.06
263.802	80.06
264.035	88.06
264.267	78.06
264.499	88.06
264.732	81.06
264.964	74.06
265.197	93.06
265.429	69.06
265.661	80.06
265.894	86.06
266.126	82.06
266.358	80.06
266.591	105.06
266.823	103.06
267.055	86.06
267.287	80.06
267.52	90.06
267.752	88.06
267.984	97.06
268.216	85.06
268.448	82.06
268.681	83.06
268.913	68.06
269.145	81.06
269.377	76.06
269.609	83.06
269.841	89.06
270.073	72.06
270.306	75.06
270.538	91.06
270.77	91.06
271.002	68.06
271.234	86.06
271.466	74.06
271.698	91.06
271.93	99.06
272.162	90.06
272.394	80.06
272.626	75.06
272.858	94.06
273.09	95.06
273.322	86.06
273.553	79.06
273.785	83.06
274.017	88.06
274.249	97.06
274.481	84.06
274.713	78.06
274.945	96.06
275.176	88.06
275.408	77.06
275.64	84.06
275.872	88.06
276.104	94.06
276.335	87.06
276.567	104.06
276.799	88.06
277.031	98.06
277.262	81.06
277.494	85.06
277.726	99.06
277.957	84.06
278.189	88.06
278.421	89.06
278.652	91.06
278.884	73.06
279.115	99.06
279.347	96.06
279.579	84.06
279.81	90.06
280.042	91.06
280.273	76.06
280.505	85.06
280.736	92.06
280.968	94.06
281.199	98.06
281.431	83.06
281.662	84.06
281.894	96.06
282.125	99.06
282.356	121.06
282.588	115.06
282.819	127.06
283.051	86.06
283.282	106.06
283.513	84.06
283.745	91.06
283.976	102.06
284.207	89.06
284.439	75.06
284.67	72.06
284.901	95.06
285.132	81.06
285.364	90.06
285.595	91.06
285.826	88.06
286.057	89.06
286.288	100.06
286.52	86.06
286.751	84.06
286.982	96.06
287.213	72.06
287.444	77.06
287.675	87.06
287.906	100.06
288.138	88.06
288.369	84.06
288.6	78.06
288.831	80.06
289.062	112.06
289.293	91.06
289.524	103.06
289.755	89.06
289.986	80.06
290.217	92.06
290.448	92.06
290.679	86.06
290.91	70.06
291.141	95.06
291.371	86.06
291.602	97.06
291.833	90.06
292.064	81.06
292.295	70.06
292.526	86.06
292.757	88.06
292.987	81.06
293.218	73.06
293.449	87.06
293.68	76.06
293.91	88.06
294.141	93.06
294.372	72.06
294.603	82.06
294.833	92.06
295.064	91.06
295.295	104.06
295.525	98.06
295.756	80.06
295.987	108.06
296.217	127.06
296.448	109.06
296.679	87.06
296.909	74.06
297.14	87.06
297.37	86.06
297.601	89.06
297.831	80.06
298.062	90.06
298.292	86.06
298.523	85.06
298.753	90.06
298.984	87.06
299.214	91.06
299.445	82.06
299.675	98.06
299.905	84.06
300.136	74.06
300.366	80.06
300.597	83.06
300.827	86.06
301.057	100.06
301.288	104.06
301.518	86.06
301.748	91.06
301.979	101.06
302.209	96.06
302.439	90.06
302.669	91.06
302.9	84.06
303.13	88.06
303.36	86.06
303.59	105.06
303.82	113.06
304.051	99.06
304.281	85.06
304.511	96.06
304.741	82.06
304.971	79.06
305.201	96.06
305.431	87.06
305.661	92.06
305.891	93.06
306.121	76.06
306.352	88.06
306.582	89.06
306.812	87.06
307.042	82.06
307.272	103.06
307.502	89.06
307.731	98.06
307.961	104.06
308.191	91.06
308.421	82.06
308.651	82.06
308.881	87.06
309.111	98.06
309.341	92.06
309.571	101.06
309.8	78.06
310.03	85.06
310.26	84.06
310.49	104.06
310.72	104.06
310.949	113.06
311.179	109.06
311.409	99.06
311.639	88.06
311.868	87.06
312.098	92.06
312.328	96.06
312.557	100.06
312.787	92.06
313.017	96.06
313.246	100.06
313.476	87.06
313.706	95.06
313.935	88.06
314.165	98.06
314.394	98.06
314.624	97.06
314.853	102.06
315.083	98.06
315.312	90.06
315.542	85.06
315.771	92.06
316.001	91.06
316.23	81.06
316.46	100.06
316.689	87.06
316.919	85.06
317.148	90.06
317.377	99.06
317.607	102.06
317.836	85.06
318.065	97.06
318.295	94.06
318.524	96.06
318.753	100.06
318.983	69.06
319.212	97.06
319.441	104.06
319.67	112.06
319.9	105.06
320.129	87.06
320.358	98.06
320.587	97.06
320.816	103.06
321.046	86.06
321.275	91.06
321.504	85.06
321.733	92.06
321.962	99.06
322.191	89.06
322.42	101.06
322.649	123.06
322.878	99.06
323.108	113.06
323.337	116.06
323.566	132.06
323.795	150.06
324.024	202.06
324.253	374.06
324.482	774.06
324.71	1621.06
324.939	2088.06
325.168	760.06
325.397	218.06
325.626	148.06
325.855	131.06
326.084	118.06
326.313	140.06
326.542	156.06
326.77	234.06
326.999	458.06
327.228	952.06
327.457	1675.06
327.686	1308.06
327.914	354.06
328.143	192.06
328.372	145.06
328.6	112.06
328.829	99.06
329.058	130.06
329.287	115.06
329.515	104.06
329.744	98.06
329.972	100.06
330.201	105.06
330.43	107.06
330.658	126.06
330.887	126.06
331.115	117.06
331.344	97.06
331.572	104.06
331.801	95.06
332.03	106.06
332.258	91.06
332.486	92.06
332.715	109.06
332.943	95.06
333.172	86.06
333.4	87.06
333.629	96.06
333.857	110.06
334.085	115.06
334.314	106.06
334.542	103.06
334.771	117.06
334.999	99.06
335.227	98.06
335.455	89.06
335.684	109.06
335.912	107.06
336.14	107.06
336.369	95.06
336.597	96.06
336.825	92.06
337.053	102.06
337.281	74.06
337.51	102.06
337.738	101.06
337.966	74.06
338.194	97.06
338.422	106.06
338.65	103.06
338.878	102.06
339.106	78.06
339.334	85.06
339.562	92.06
339.79	93.06
340.018	88.06
340.246	104.06
340.474	104.06
340.702	97.06
340.93	94.06
341.158	80.06
341.386	101.06
341.614	91.06
341.842	94.06
342.07	80.06
342.298	90.06
342.526	82.06
342.754	86.06
342.981	88.06
343.209	103.06
343.437	112.06
343.665	100.06
343.893	90.06
344.12	94.06
344.348	78.06
344.576	82.06
344.804	93.06
345.031	88.06
345.259	86.06
345.487	89.06
345.714	99.06
345.942	84.06
346.17	86.06
346.397	90.06
346.625	99.06
346.853	78.06
347.08	86.06
347.308	100.06
347.535	81.06
347.763	81.06
347.99	75.06
348.218	95.06
348.445	103.06
348.673	112.06
348.9	80.06
349.128	87.06
349.355	102.06
349.583	109.06
349.81	90.06
350.037	106.06
350.265	87.06
350.492	89.06
350.72	98.06
350.947	102.06
351.174	103.06
351.402	101.06
351.629	110.06
351.856	108.06
352.083	96.06
352.311	106.06
352.538	106.06
352.765	108.06
352.992	113.06
353.22	106.06
353.447	106.06
353.674	109.06
353.901	91.06
354.128	90.06
354.355	91.06
354.583	98.06
354.81	105.06
355.037	84.06
355.264	89.06
355.491	98.06
355.718	92.06
355.945	95.06
356.172	97.06
356.399	100.06
356.626	92.06
356.853	90.06
357.08	111.06
357.307	84.06
357.534	101.06
357.761	92.06
357.988	91.06
358.215	99.06
358.441	87.06
358.668	103.06
358.895	85.06
359.122	87.06
359.349	86.06
359.576	102.06
359.802	94.06
360.029	110.06
360.256	106.06
360.483	101.06
360.709	77.06
360.936	98.06
361.163	98.06
361.39	98.06
361.616	96.06
361.843	111.06
362.07	81.06
362.296	90.06
362.523	86.06
362.749	91.06
362.976	92.06
363.203	103.06
363.429	83.06
363.656	88.06
363.882	93.06
364.109	103.06
364.335	83.06
364.562	92.06
364.788	83.06
365.015	75.06
365.241	104.06
365.468	100.06
365.694	100.06
365.92	92.06
366.147	96.06
366.373	81.06
366.599	85.06
366.826	92.06
367.052	106.06
367.278	93.06
367.505	93.06
367.731	96.06
367.957	105.06
368.184	92.06
368.41	89.06
368.636	102.06
368.862	124.06
369.089	107.06
369.315	94.06
369.541	99.06
369.767	86.06
369.993	78.06
370.219	78.06
370.445	84.06
370.672	83.06
370.898	88.06
371.124	106.06
371.35	87.06
371.576	77.06
371.802	100.06
372.028	94.06
372.254	89.06
372.48	86.06
372.706	71.06
372.932	98.06
373.158	104.06
373.384	86.06
373.61	95.06
373.835	93.06
374.061	97.06
374.287	87.06
374.513	92.06
374.739	101.06
374.965	88.06
375.191	95.06
375.416	79.06
375.642	86.06
375.868	93.06
376.094	88.06
376.319	74.06
376.545	88.06
376.771	89.06
376.997	76.06
377.222	79.06
377.448	87.06
377.674	89.06
377.899	78.06
378.125	70.06
378.35	91.06
378.576	97.06
378.802	92.06
379.027	95.06
379.253	84.06
379.478	87.06
379.704	100.06
379.929	98.06
380.155	92.06
380.38	90.06
380.606	93.06
380.831	107.06
381.057	123.06
381.282	94.06
381.507	97.06
381.733	103.06
381.958	103.06
382.184	100.06
382.409	97.06
382.634	111.06
382.86	112.06
383.085	97.06
383.31	114.06
383.535	106.06
383.761	90.06
383.986	96.06
384.211	84.06
384.436	108.06
384.662	110.06
384.887	113.06
385.112	92.06
385.337	104.06
385.562	117.06
385.787	89.06
386.013	95.06
386.238	110.06
386.463	108.06
386.688	111.06
386.913	104.06
387.138	107.06
387.363	95.06
387.588	104.06
387.813	100.06
388.038	108.06
388.263	126.06
388.488	121.06
388.713	92.06
388.938	107.06
389.163	90.06
389.387	94.06
389.612	92.06
389.837	99.06
390.062	91.06
390.287	95.06
390.512	100.06
390.736	94.06
390.961	84.06
391.186	79.06
391.411	96.06
391.636	79.06
391.86	90.06
392.085	89.06
392.31	95.06
392.534	94.06
392.759	75.06
392.984	80.06
393.208	85.06
393.433	96.06
393.658	87.06
393.882	78.06
394.107	88.06
394.331	91.06
394.556	100.06
394.78	95.06
395.005	100.06
395.229	76.06
395.454	85.06
395.678	91.06
395.903	84.06
396.127	85.06
396.352	86.06
396.576	88.06
396.801	89.06
397.025	75.06
397.249	84.06
397.474	92.06
397.698	102.06
397.922	89.06
398.147	90.06
398.371	87.06
398.595	89.06
398.82	86.06
399.044	91.06
399.268	102.06
399.492	93.06
399.717	91.06
399.941	92.06
400.165	102.06
400.389	93.06
400.613	85.06
400.837	90.06
401.062	83.06
401.286	79.06
401.51	82.06
401.734	92.06
401.958	105.06
402.182	144.06
402.406	139.06
402.63	104.06
402.854	94.06
403.078	76.06
403.302	89.06
403.526	89.06
403.75	103.06
403.974	97.06
404.198	87.06
404.422	95.06
404.645	96.06
404.869	92.06
405.093	107.06
405.317	85.06
405.541	83.06
405.765	93.06
405.988	108.06
406.212	148.06
406.436	198.06
406.66	144.06
406.883	83.06
407.107	78.06
407.331	104.06
407.555	94.06
407.778	94.06
408.002	90.06
408.226	87.06
408.449	91.06
408.673	90.06
408.896	106.06
409.12	95.06
409.344	81.06
409.567	85.06
409.791	95.06
410.014	97.06
410.238	95.06
410.461	98.06
410.685	98.06
410.908	90.06
411.132	84.06
411.355	103.06
411.578	88.06
411.802	73.06
412.025	83.06
412.249	89.06
412.472	97.06
412.695	73.06
412.919	85.06
413.142	90.06
413.365	80.06
413.589	95.06
413.812	81.06
414.035	95.06
414.258	91.06
414.482	91.06
414.705	89.06
414.928	96.06
415.151	88.06
415.374	97.06
415.597	87.06
415.821	78.06
416.044	91.06
416.267	97.06
416.49	87.06
416.713	78.06
416.936	88.06
417.159	77.06
417.382	92.06
417.605	100.06
417.828	91.06
418.051	83.06
418.274	91.06
418.497	91.06
418.72	89.06
418.943	89.06
419.166	84.06
419.389	96.06
419.611	106.06
419.834	94.06
420.057	90.06
420.28	92.06
420.503	91.06
420.726	76.06
420.948	97.06
421.171	86.06
421.394	96.06
421.617	95.06
421.839	98.06
422.062	85.06
422.285	98.06
422.507	93.06
422.73	96.06
422.953	105.06
423.175	91.06
423.398	97.06
423.621	94.06
423.843	86.06
424.066	91.06
424.288	90.06
424.511	74.06
424.733	95.06
424.956	117.06
425.178	102.06
425.401	108.06
425.623	97.06
425.846	101.06
426.068	89.06
426.291	73.06
426.513	105.06
426.735	84.06
426.958	95.06
427.18	90.06
427.402	120.06
427.625	139.06
427.847	126.06
428.069	104.06
428.292	103.06
428.514	95.06
428.736	88.06
428.958	82.06
429.181	84.06
429.403	87.06
429.625	94.06
429.847	97.06
430.069	105.06
430.292	89.06
430.514	89.06
430.736	84.06
430.958	85.06
431.18	84.06
431.402	86.06
431.624	88.06
431.846	83.06
432.068	83.06
432.29	90.06
432.512	90.06
432.734	80.06
432.956	98.06
433.178	100.06
433.4	91.06
433.622	86.06
433.844	99.06
434.066	82.06
434.287	95.06
434.509	83.06
434.731	82.06
434.953	90.06
435.175	92.06
435.397	86.06
435.618	78.06
435.84	105.06
436.062	114.06
436.284	103.06
436.505	98.06
436.727	97.06
436.949	95.06
437.17	95.06
437.392	85.06
437.614	81.06
437.835	107.06
438.057	115.06
438.278	83.06
438.5	76.06
438.721	112.06
438.943	98.06
439.165	91.06
439.386	77.06
439.608	82.06
439.829	106.06
440.05	106.06
440.272	144.06
440.493	99.06
440.715	87.06
440.936	88.06
441.158	89.06
441.379	92.06
441.6	89.06
441.822	92.06
442.043	96.06
442.264	105.06
442.486	92.06
442.707	91.06
442.928	98.06
443.149	129.06
443.371	133.06
443.592	107.06
443.813	97.06
444.034	98.06
444.255	96.06
444.476	91.06
444.698	82.06
444.919	91.06
445.14	132.06
445.361	114.06
445.582	111.06
445.803	120.06
446.024	132.06
446.245	137.06
446.466	121.06
446.687	84.06
446.908	91.06
447.129	88.06
447.35	78.06
447.571	86.06
447.792	67.06
448.013	93.06
448.234	87.06
448.455	107.06
448.675	107.06
448.896	115.06
449.117	99.06
449.338	94.06
449.559	125.06
449.779	105.06
450	96.06
450.221	94.06
450.442	87.06
450.662	91.06
450.883	85.06
451.104	112.06
451.324	95.06
451.545	91.06
451.766	84.06
451.986	88.06
452.207	83.06
452.428	81.06
452.648	105.06
452.869	100.06
453.089	119.06
453.31	100.06
453.53	91.06
453.751	95.06
453.971	94.06
454.192	109.06
454.412	97.06
454.633	73.06
454.853	70.06
455.073	81.06
455.294	101.06
455.514	96.06
455.734	90.06
455.955	94.06
456.175	92.06
456.395	79.06
456.616	84.06
456.836	96.06
457.056	83.06
457.276	80.06
457.497	78.06
457.717	89.06
457.937	84.06
458.157	91.06
458.377	88.06
458.598	103.06
458.818	139.06
459.038	157.06
459.258	103.06
459.478	89.06
459.698	91.06
459.918	77.06
460.138	86.06
460.358	81.06
460.578	76.06
460.798	92.06
461.018	101.06
461.238	83.06
461.458	95.06
461.678	79.06
461.898	91.06
462.118	91.06
462.338	85.06
462.558	92.06
462.777	83.06
462.997	76.06
463.217	76.06
463.437	89.06
463.657	86.06
463.876	96.06
464.096	88.06
464.316	101.06
464.536	92.06
464.755	86.06
464.975	104.06
465.195	151.06
465.414	149.06
465.634	97.06
465.854	75.06
466.073	92.06
466.293	91.06
466.512	79.06
466.732	83.06
466.951	69.06
467.171	79.06
467.391	100.06
467.61	102.06
467.829	82.06
468.049	91.06
468.268	90.06
468.488	74.06
468.707	72.06
468.927	83.06
469.146	85.06
469.365	74.06
469.585	92.06
469.804	107.06
470.023	85.06
470.243	80.06
470.462	92.06
470.681	97.06
470.901	84.06
471.12	83.06
471.339	91.06
471.558	75.06
471.777	97.06
471.997	77.06
472.216	110.06
472.435	121.06
472.654	86.06
472.873	103.06
473.092	75.06
473.311	91.06
473.53	87.06
473.749	98.06
473.968	81.06
474.187	84.06
474.406	90.06
474.625	90.06
474.844	88.06
475.063	81.06
475.282	80.06
475.501	85.06
475.72	81.06
475.939	100.06
476.158	106.06
476.377	86.06
476.596	88.06
476.814	81.06
477.033	103.06
477.252	96.06
477.471	88.06
477.69	101.06
477.908	87.06
478.127	80.06
478.346	98.06
478.564	90.06
478.783	92.06
479.002	98.06
479.22	81.06
479.439	97.06
479.658	90.06
479.876	111.06
480.095	84.06
480.313	92.06
480.532	105.06
480.751	97.06
480.969	99.06
481.188	129.06
481.406	110.06
481.624	105.06
481.843	88.06
482.061	84.06
482.28	86.06
482.498	90.06
482.717	89.06
482.935	99.06
483.153	82.06
483.372	98.06
483.59	91.06
483.808	73.06
484.027	89.06
484.245	81.06
484.463	99.06
484.681	87.06
484.9	94.06
485.118	104.06
485.336	105.06
485.554	91.06
485.772	112.06
485.99	103.06
486.209	103.06
486.427	88.06
486.645	102.06
486.863	114.06
487.081	97.06
487.299	99.06
487.517	91.06
487.735	114.06
487.953	103.06
488.171	91.06
488.389	94.06
488.607	100.06
488.825	100.06
489.043	78.06
489.261	97.06
489.479	87.06
489.696	86.06
489.914	90.06
490.132	95.06
490.35	91.06
490.568	82.06
490.786	88.06
491.003	90.06
491.221	85.06
491.439	74.06
491.657	110.06
491.874	99.06
492.092	92.06
492.31	97.06
492.527	111.06
492.745	84.06
492.963	97.06
493.18	96.06
493.398	97.06
493.615	94.06
493.833	88.06
494.05	87.06
494.268	83.06
494.485	95.06
494.703	91.06
494.92	88.06
495.138	96.06
495.355	91.06
495.573	111.06
495.79	83.06
496.008	94.06
496.225	82.06
496.442	91.06
496.66	98.06
496.877	94.06
497.094	94.06
497.312	87.06
497.529	92.06
497.746	102.06
497.963	94.06
498.181	93.06
498.398	98.06
498.615	115.06
498.832	99.06
499.049	94.06
499.267	88.06
499.484	89.06
499.701	89.06
499.918	93.06
500.135	92.06
500.352	96.06
500.569	78.06
500.786	76.06
501.003	89.06
501.22	85.06
501.437	89.06
501.654	78.06
501.871	112.06
502.088	80.06
502.305	90.06
502.522	83.06
502.739	100.06
502.956	97.06
503.172	88.06
503.389	88.06
503.606	83.06
503.823	97.06
504.04	90.06
504.256	88.06
504.473	83.06
504.69	100.06
504.907	99.06
505.123	84.06
505.34	91.06
505.557	117.06
505.773	91.06
505.99	99.06
506.207	98.06
506.423	81.06
506.64	77.06
506.856	89.06
507.073	108.06
507.289	92.06
507.506	104.06
507.722	114.06
507.939	98.06
508.155	92.06
508.372	93.06
508.588	80.06
508.805	89.06
509.021	86.06
509.238	89.06
509.454	104.06
509.67	103.06
509.887	103.06
510.103	123.06
510.319	187.06
510.536	645.06
510.752	1984.06
510.968	564.06
511.184	148.06
511.401	111.06
511.617	99.06
511.833	101.06
512.049	88.06
512.265	98.06
512.481	87.06
512.698	98.06
512.914	105.06
513.13	86.06
513.346	92.06
513.562	87.06
513.778	96.06
513.994	89.06
514.21	91.06
514.426	116.06
514.642	134.06
514.858	121.06
515.074	140.06
515.29	388.06
515.506	1237.06
515.721	469.06
