Data from Circ_2002_H10_HRD10591_00033.txt Node
Date: Wed Jan 03 10:41:04 EST 2024
User: Yrep
Spectrometer: HR+D1059
Trigger mode: 1
Integration Time (sec): 1.000000E-1
Scans to average: 1
Electric dark correction enabled: true
Nonlinearity correction enabled: false
Boxcar width: 0
XAxis mode: Wavelengths
Number of Pixels in Spectrum: 2048
>>>>>Begin Spectral Data<<<<<
223.165	-22.19
223.4	-22.19
223.635	-22.19
223.869	-27.19
224.104	-21.19
224.338	-12.19
224.573	-13.19
224.808	-3.19
225.042	-8.19
225.277	-13.19
225.511	-14.19
225.746	-1.19
225.98	10.81
226.215	16.81
226.449	12.81
226.683	38.81
226.918	28.81
227.152	27.81
227.387	26.81
227.621	27.81
227.856	42.81
228.09	39.81
228.324	64.81
228.559	49.81
228.793	55.81
229.027	68.81
229.262	71.81
229.496	72.81
229.73	79.81
229.964	64.81
230.199	79.81
230.433	72.81
230.667	78.81
230.901	92.81
231.136	89.81
231.37	84.81
231.604	84.81
231.838	73.81
232.072	83.81
232.306	92.81
232.541	75.81
232.775	82.81
233.009	75.81
233.243	77.81
233.477	72.81
233.711	77.81
233.945	79.81
234.179	77.81
234.413	60.81
234.647	95.81
234.881	85.81
235.115	76.81
235.349	70.81
235.583	87.81
235.817	94.81
236.051	91.81
236.285	96.81
236.519	82.81
236.753	76.81
236.987	69.81
237.221	83.81
237.455	87.81
237.689	79.81
237.922	71.81
238.156	65.81
238.39	66.81
238.624	87.81
238.858	74.81
239.091	86.81
239.325	69.81
239.559	80.81
239.793	70.81
240.027	71.81
240.26	74.81
240.494	81.81
240.728	82.81
240.961	82.81
241.195	87.81
241.429	69.81
241.662	73.81
241.896	75.81
242.13	93.81
242.363	96.81
242.597	91.81
242.83	81.81
243.064	82.81
243.298	72.81
243.531	86.81
243.765	86.81
243.998	76.81
244.232	86.81
244.465	85.81
244.699	71.81
244.932	70.81
245.166	80.81
245.399	89.81
245.633	87.81
245.866	92.81
246.099	77.81
246.333	88.81
246.566	83.81
246.8	87.81
247.033	93.81
247.266	79.81
247.5	78.81
247.733	91.81
247.966	84.81
248.2	83.81
248.433	79.81
248.666	78.81
248.899	83.81
249.133	77.81
249.366	95.81
249.599	92.81
249.832	83.81
250.066	74.81
250.299	88.81
250.532	71.81
250.765	75.81
250.998	90.81
251.231	85.81
251.465	73.81
251.698	64.81
251.931	82.81
252.164	76.81
252.397	78.81
252.63	83.81
252.863	65.81
253.096	86.81
253.329	93.81
253.562	75.81
253.795	68.81
254.028	75.81
254.261	88.81
254.494	82.81
254.727	100.81
254.96	94.81
255.193	82.81
255.426	83.81
255.659	78.81
255.892	73.81
256.124	87.81
256.357	78.81
256.59	75.81
256.823	92.81
257.056	81.81
257.289	85.81
257.521	77.81
257.754	76.81
257.987	84.81
258.22	87.81
258.452	70.81
258.685	64.81
258.918	91.81
259.151	80.81
259.383	94.81
259.616	74.81
259.849	82.81
260.081	85.81
260.314	82.81
260.547	81.81
260.779	103.81
261.012	68.81
261.244	98.81
261.477	91.81
261.71	92.81
261.942	103.81
262.175	113.81
262.407	75.81
262.64	92.81
262.872	82.81
263.105	91.81
263.337	86.81
263.57	89.81
263.802	86.81
264.035	82.81
264.267	69.81
264.499	75.81
264.732	86.81
264.964	82.81
265.197	88.81
265.429	78.81
265.661	89.81
265.894	92.81
266.126	95.81
266.358	87.81
266.591	78.81
266.823	85.81
267.055	91.81
267.287	96.81
267.52	84.81
267.752	80.81
267.984	98.81
268.216	75.81
268.448	95.81
268.681	97.81
268.913	88.81
269.145	83.81
269.377	94.81
269.609	77.81
269.841	90.81
270.073	94.81
270.306	82.81
270.538	89.81
270.77	89.81
271.002	82.81
271.234	97.81
271.466	101.81
271.698	87.81
271.93	87.81
272.162	70.81
272.394	82.81
272.626	86.81
272.858	81.81
273.09	84.81
273.322	91.81
273.553	91.81
273.785	69.81
274.017	90.81
274.249	95.81
274.481	99.81
274.713	76.81
274.945	79.81
275.176	74.81
275.408	95.81
275.64	89.81
275.872	90.81
276.104	91.81
276.335	86.81
276.567	97.81
276.799	106.81
277.031	108.81
277.262	103.81
277.494	78.81
277.726	83.81
277.957	77.81
278.189	76.81
278.421	75.81
278.652	84.81
278.884	86.81
279.115	91.81
279.347	96.81
279.579	88.81
279.81	79.81
280.042	79.81
280.273	80.81
280.505	91.81
280.736	90.81
280.968	89.81
281.199	92.81
281.431	90.81
281.662	95.81
281.894	94.81
282.125	84.81
282.356	108.81
282.588	118.81
282.819	109.81
283.051	85.81
283.282	97.81
283.513	82.81
283.745	89.81
283.976	97.81
284.207	83.81
284.439	82.81
284.67	89.81
284.901	77.81
285.132	83.81
285.364	91.81
285.595	101.81
285.826	77.81
286.057	100.81
286.288	92.81
286.52	91.81
286.751	88.81
286.982	100.81
287.213	103.81
287.444	91.81
287.675	98.81
287.906	85.81
288.138	87.81
288.369	103.81
288.6	84.81
288.831	79.81
289.062	87.81
289.293	89.81
289.524	92.81
289.755	86.81
289.986	89.81
290.217	88.81
290.448	89.81
290.679	88.81
290.91	98.81
291.141	101.81
291.371	78.81
291.602	79.81
291.833	100.81
292.064	88.81
292.295	73.81
292.526	87.81
292.757	96.81
292.987	87.81
293.218	78.81
293.449	81.81
293.68	88.81
293.91	71.81
294.141	85.81
294.372	85.81
294.603	85.81
294.833	78.81
295.064	97.81
295.295	100.81
295.525	83.81
295.756	103.81
295.987	105.81
296.217	122.81
296.448	119.81
296.679	89.81
296.909	90.81
297.14	79.81
297.37	90.81
297.601	95.81
297.831	89.81
298.062	83.81
298.292	87.81
298.523	90.81
298.753	84.81
298.984	89.81
299.214	81.81
299.445	92.81
299.675	82.81
299.905	88.81
300.136	95.81
300.366	97.81
300.597	93.81
300.827	91.81
301.057	104.81
301.288	114.81
301.518	96.81
301.748	92.81
301.979	87.81
302.209	81.81
302.439	96.81
302.669	90.81
302.9	85.81
303.13	90.81
303.36	90.81
303.59	92.81
303.82	99.81
304.051	87.81
304.281	74.81
304.511	84.81
304.741	85.81
304.971	103.81
305.201	100.81
305.431	78.81
305.661	84.81
305.891	81.81
306.121	104.81
306.352	84.81
306.582	103.81
306.812	91.81
307.042	95.81
307.272	96.81
307.502	86.81
307.731	89.81
307.961	76.81
308.191	77.81
308.421	82.81
308.651	96.81
308.881	107.81
309.111	95.81
309.341	102.81
309.571	95.81
309.8	117.81
310.03	99.81
310.26	92.81
310.49	107.81
310.72	91.81
310.949	98.81
311.179	99.81
311.409	87.81
311.639	93.81
311.868	99.81
312.098	96.81
312.328	108.81
312.557	93.81
312.787	110.81
313.017	93.81
313.246	105.81
313.476	100.81
313.706	100.81
313.935	104.81
314.165	106.81
314.394	102.81
314.624	105.81
314.853	90.81
315.083	91.81
315.312	86.81
315.542	95.81
315.771	81.81
316.001	80.81
316.23	89.81
316.46	92.81
316.689	92.81
316.919	98.81
317.148	85.81
317.377	95.81
317.607	98.81
317.836	92.81
318.065	92.81
318.295	85.81
318.524	99.81
318.753	86.81
318.983	91.81
319.212	88.81
319.441	106.81
319.67	116.81
319.9	109.81
320.129	89.81
320.358	91.81
320.587	82.81
320.816	90.81
321.046	106.81
321.275	91.81
321.504	115.81
321.733	89.81
321.962	94.81
322.191	112.81
322.42	116.81
322.649	99.81
322.878	120.81
323.108	116.81
323.337	106.81
323.566	129.81
323.795	139.81
324.024	199.81
324.253	401.81
324.482	776.81
324.71	1612.81
324.939	2118.81
325.168	752.81
325.397	227.81
325.626	129.81
325.855	137.81
326.084	121.81
326.313	129.81
326.542	145.81
326.77	221.81
326.999	448.81
327.228	922.81
327.457	1680.81
327.686	1294.81
327.914	357.81
328.143	182.81
328.372	135.81
328.6	128.81
328.829	90.81
329.058	97.81
329.287	116.81
329.515	105.81
329.744	104.81
329.972	101.81
330.201	109.81
330.43	109.81
330.658	110.81
330.887	133.81
331.115	127.81
331.344	95.81
331.572	114.81
331.801	93.81
332.03	116.81
332.258	103.81
332.486	91.81
332.715	80.81
332.943	105.81
333.172	88.81
333.4	88.81
333.629	102.81
333.857	106.81
334.085	99.81
334.314	98.81
334.542	112.81
334.771	102.81
334.999	98.81
335.227	95.81
335.455	96.81
335.684	94.81
335.912	82.81
336.14	91.81
336.369	100.81
336.597	97.81
336.825	105.81
337.053	90.81
337.281	97.81
337.51	95.81
337.738	84.81
337.966	95.81
338.194	88.81
338.422	92.81
338.65	98.81
338.878	93.81
339.106	84.81
339.334	106.81
339.562	91.81
339.79	90.81
340.018	88.81
340.246	96.81
340.474	107.81
340.702	99.81
340.93	103.81
341.158	100.81
341.386	92.81
341.614	104.81
341.842	99.81
342.07	96.81
342.298	101.81
342.526	92.81
342.754	96.81
342.981	98.81
343.209	80.81
343.437	96.81
343.665	77.81
343.893	86.81
344.12	95.81
344.348	101.81
344.576	68.81
344.804	95.81
345.031	97.81
345.259	86.81
345.487	94.81
345.714	88.81
345.942	94.81
346.17	107.81
346.397	105.81
346.625	101.81
346.853	94.81
347.08	99.81
347.308	92.81
347.535	89.81
347.763	121.81
347.99	102.81
348.218	110.81
348.445	97.81
348.673	93.81
348.9	98.81
349.128	92.81
349.355	98.81
349.583	100.81
349.81	85.81
350.037	89.81
350.265	89.81
350.492	89.81
350.72	96.81
350.947	99.81
351.174	104.81
351.402	108.81
351.629	78.81
351.856	96.81
352.083	88.81
352.311	107.81
352.538	107.81
352.765	117.81
352.992	104.81
353.22	114.81
353.447	107.81
353.674	105.81
353.901	107.81
354.128	90.81
354.355	112.81
354.583	93.81
354.81	92.81
355.037	95.81
355.264	87.81
355.491	101.81
355.718	99.81
355.945	101.81
356.172	91.81
356.399	100.81
356.626	90.81
356.853	98.81
357.08	91.81
357.307	97.81
357.534	89.81
357.761	79.81
357.988	84.81
358.215	95.81
358.441	93.81
358.668	94.81
358.895	101.81
359.122	94.81
359.349	97.81
359.576	90.81
359.802	94.81
360.029	102.81
360.256	109.81
360.483	99.81
360.709	112.81
360.936	100.81
361.163	98.81
361.39	79.81
361.616	96.81
361.843	93.81
362.07	101.81
362.296	84.81
362.523	105.81
362.749	81.81
362.976	83.81
363.203	87.81
363.429	96.81
363.656	88.81
363.882	99.81
364.109	100.81
364.335	89.81
364.562	94.81
364.788	85.81
365.015	88.81
365.241	117.81
365.468	98.81
365.694	100.81
365.92	80.81
366.147	88.81
366.373	85.81
366.599	90.81
366.826	84.81
367.052	91.81
367.278	92.81
367.505	91.81
367.731	99.81
367.957	100.81
368.184	90.81
368.41	96.81
368.636	105.81
368.862	102.81
369.089	106.81
369.315	90.81
369.541	85.81
369.767	82.81
369.993	86.81
370.219	80.81
370.445	106.81
370.672	91.81
370.898	84.81
371.124	84.81
371.35	91.81
371.576	96.81
371.802	73.81
372.028	92.81
372.254	83.81
372.48	86.81
372.706	95.81
372.932	86.81
373.158	84.81
373.384	98.81
373.61	91.81
373.835	82.81
374.061	81.81
374.287	89.81
374.513	99.81
374.739	94.81
374.965	81.81
375.191	82.81
375.416	92.81
375.642	85.81
375.868	98.81
376.094	92.81
376.319	95.81
376.545	102.81
376.771	92.81
376.997	96.81
377.222	95.81
377.448	87.81
377.674	81.81
377.899	86.81
378.125	77.81
378.35	86.81
378.576	94.81
378.802	82.81
379.027	82.81
379.253	111.81
379.478	91.81
379.704	89.81
379.929	98.81
380.155	103.81
380.38	90.81
380.606	87.81
380.831	97.81
381.057	94.81
381.282	94.81
381.507	83.81
381.733	90.81
381.958	100.81
382.184	110.81
382.409	119.81
382.634	94.81
382.86	84.81
383.085	103.81
383.31	104.81
383.535	110.81
383.761	114.81
383.986	97.81
384.211	94.81
384.436	108.81
384.662	97.81
384.887	111.81
385.112	121.81
385.337	120.81
385.562	108.81
385.787	113.81
386.013	118.81
386.238	102.81
386.463	112.81
386.688	112.81
386.913	103.81
387.138	107.81
387.363	92.81
387.588	100.81
387.813	90.81
388.038	119.81
388.263	123.81
388.488	106.81
388.713	94.81
388.938	98.81
389.163	95.81
389.387	83.81
389.612	104.81
389.837	92.81
390.062	100.81
390.287	80.81
390.512	98.81
390.736	95.81
390.961	89.81
391.186	96.81
391.411	97.81
391.636	100.81
391.86	91.81
392.085	80.81
392.31	97.81
392.534	95.81
392.759	95.81
392.984	81.81
393.208	93.81
393.433	100.81
393.658	91.81
393.882	91.81
394.107	82.81
394.331	103.81
394.556	92.81
394.78	89.81
395.005	83.81
395.229	82.81
395.454	85.81
395.678	92.81
395.903	88.81
396.127	78.81
396.352	98.81
396.576	86.81
396.801	89.81
397.025	97.81
397.249	78.81
397.474	96.81
397.698	80.81
397.922	81.81
398.147	71.81
398.371	82.81
398.595	71.81
398.82	76.81
399.044	81.81
399.268	84.81
399.492	95.81
399.717	92.81
399.941	88.81
400.165	89.81
400.389	90.81
400.613	86.81
400.837	94.81
401.062	99.81
401.286	69.81
401.51	91.81
401.734	78.81
401.958	88.81
402.182	126.81
402.406	137.81
402.63	99.81
402.854	91.81
403.078	95.81
403.302	93.81
403.526	82.81
403.75	83.81
403.974	89.81
404.198	98.81
404.422	70.81
404.645	85.81
404.869	96.81
405.093	95.81
405.317	92.81
405.541	93.81
405.765	88.81
405.988	102.81
406.212	128.81
406.436	185.81
406.66	140.81
406.883	98.81
407.107	90.81
407.331	95.81
407.555	100.81
407.778	97.81
408.002	88.81
408.226	96.81
408.449	102.81
408.673	103.81
408.896	86.81
409.12	85.81
409.344	91.81
409.567	103.81
409.791	89.81
410.014	104.81
410.238	84.81
410.461	83.81
410.685	90.81
410.908	94.81
411.132	92.81
411.355	95.81
411.578	90.81
411.802	90.81
412.025	91.81
412.249	99.81
412.472	89.81
412.695	91.81
412.919	66.81
413.142	100.81
413.365	95.81
413.589	88.81
413.812	88.81
414.035	79.81
414.258	90.81
414.482	94.81
414.705	108.81
414.928	96.81
415.151	89.81
415.374	102.81
415.597	89.81
415.821	94.81
416.044	74.81
416.267	93.81
416.49	73.81
416.713	88.81
416.936	82.81
417.159	96.81
417.382	85.81
417.605	91.81
417.828	92.81
418.051	107.81
418.274	102.81
418.497	82.81
418.72	74.81
418.943	88.81
419.166	82.81
419.389	89.81
419.611	85.81
419.834	77.81
420.057	95.81
420.28	79.81
420.503	72.81
420.726	72.81
420.948	87.81
421.171	98.81
421.394	90.81
421.617	97.81
421.839	79.81
422.062	88.81
422.285	100.81
422.507	108.81
422.73	99.81
422.953	89.81
423.175	101.81
423.398	87.81
423.621	101.81
423.843	83.81
424.066	91.81
424.288	81.81
424.511	94.81
424.733	80.81
424.956	101.81
425.178	87.81
425.401	98.81
425.623	110.81
425.846	103.81
426.068	90.81
426.291	84.81
426.513	92.81
426.735	91.81
426.958	96.81
427.18	93.81
427.402	126.81
427.625	149.81
427.847	107.81
428.069	103.81
428.292	76.81
428.514	83.81
428.736	78.81
428.958	73.81
429.181	83.81
429.403	98.81
429.625	101.81
429.847	96.81
430.069	89.81
430.292	99.81
430.514	100.81
430.736	91.81
430.958	99.81
431.18	94.81
431.402	95.81
431.624	87.81
431.846	87.81
432.068	80.81
432.29	78.81
432.512	90.81
432.734	77.81
432.956	98.81
433.178	105.81
433.4	96.81
433.622	83.81
433.844	90.81
434.066	88.81
434.287	84.81
434.509	95.81
434.731	86.81
434.953	96.81
435.175	87.81
435.397	88.81
435.618	92.81
435.84	93.81
436.062	123.81
436.284	110.81
436.505	99.81
436.727	117.81
436.949	102.81
437.17	80.81
437.392	86.81
437.614	91.81
437.835	99.81
438.057	128.81
438.278	97.81
438.5	104.81
438.721	122.81
438.943	96.81
439.165	86.81
439.386	84.81
439.608	103.81
439.829	103.81
440.05	111.81
440.272	132.81
440.493	96.81
440.715	88.81
440.936	80.81
441.158	104.81
441.379	86.81
441.6	91.81
441.822	92.81
442.043	88.81
442.264	96.81
442.486	99.81
442.707	95.81
442.928	105.81
443.149	114.81
443.371	113.81
443.592	103.81
443.813	118.81
444.034	108.81
444.255	98.81
444.476	90.81
444.698	90.81
444.919	85.81
445.14	128.81
445.361	130.81
445.582	101.81
445.803	132.81
446.024	123.81
446.245	110.81
446.466	103.81
446.687	96.81
446.908	87.81
447.129	82.81
447.35	78.81
447.571	85.81
447.792	79.81
448.013	82.81
448.234	98.81
448.455	91.81
448.675	114.81
448.896	111.81
449.117	83.81
449.338	97.81
449.559	131.81
449.779	136.81
450	99.81
450.221	89.81
450.442	83.81
450.662	95.81
450.883	108.81
451.104	99.81
451.324	101.81
451.545	81.81
451.766	78.81
451.986	100.81
452.207	82.81
452.428	94.81
452.648	96.81
452.869	99.81
453.089	100.81
453.31	102.81
453.53	94.81
453.751	100.81
453.971	103.81
454.192	108.81
454.412	78.81
454.633	87.81
454.853	90.81
455.073	91.81
455.294	76.81
455.514	89.81
455.734	79.81
455.955	101.81
456.175	88.81
456.395	89.81
456.616	99.81
456.836	87.81
457.056	87.81
457.276	85.81
457.497	89.81
457.717	81.81
457.937	95.81
458.157	80.81
458.377	92.81
458.598	99.81
458.818	142.81
459.038	144.81
459.258	91.81
459.478	82.81
459.698	87.81
459.918	88.81
460.138	88.81
460.358	84.81
460.578	87.81
460.798	90.81
461.018	97.81
461.238	84.81
461.458	90.81
461.678	72.81
461.898	105.81
462.118	77.81
462.338	77.81
462.558	80.81
462.777	90.81
462.997	88.81
463.217	94.81
463.437	92.81
463.657	82.81
463.876	79.81
464.096	72.81
464.316	91.81
464.536	102.81
464.755	90.81
464.975	99.81
465.195	149.81
465.414	150.81
465.634	88.81
465.854	102.81
466.073	101.81
466.293	78.81
466.512	84.81
466.732	83.81
466.951	107.81
467.171	99.81
467.391	91.81
467.61	100.81
467.829	92.81
468.049	104.81
468.268	88.81
468.488	80.81
468.707	90.81
468.927	77.81
469.146	89.81
469.365	101.81
469.585	84.81
469.804	102.81
470.023	96.81
470.243	71.81
470.462	103.81
470.681	103.81
470.901	95.81
471.12	105.81
471.339	91.81
471.558	90.81
471.777	85.81
471.997	74.81
472.216	91.81
472.435	97.81
472.654	92.81
472.873	91.81
473.092	89.81
473.311	89.81
473.53	82.81
473.749	96.81
473.968	84.81
474.187	87.81
474.406	81.81
474.625	84.81
474.844	89.81
475.063	86.81
475.282	89.81
475.501	91.81
475.72	80.81
475.939	96.81
476.158	83.81
476.377	94.81
476.596	88.81
476.814	99.81
477.033	92.81
477.252	86.81
477.471	81.81
477.69	94.81
477.908	89.81
478.127	86.81
478.346	92.81
478.564	77.81
478.783	96.81
479.002	92.81
479.22	94.81
479.439	88.81
479.658	93.81
479.876	84.81
480.095	92.81
480.313	83.81
480.532	100.81
480.751	92.81
480.969	101.81
481.188	120.81
481.406	110.81
481.624	106.81
481.843	91.81
482.061	98.81
482.28	87.81
482.498	83.81
482.717	86.81
482.935	79.81
483.153	96.81
483.372	85.81
483.59	86.81
483.808	105.81
484.027	106.81
484.245	99.81
484.463	91.81
484.681	107.81
484.9	77.81
485.118	84.81
485.336	91.81
485.554	90.81
485.772	110.81
485.99	102.81
486.209	122.81
486.427	108.81
486.645	96.81
486.863	104.81
487.081	101.81
487.299	111.81
487.517	110.81
487.735	89.81
487.953	92.81
488.171	99.81
488.389	89.81
488.607	97.81
488.825	86.81
489.043	100.81
489.261	94.81
489.479	97.81
489.696	91.81
489.914	99.81
490.132	97.81
490.35	104.81
490.568	82.81
490.786	84.81
491.003	87.81
491.221	99.81
491.439	82.81
491.657	96.81
491.874	103.81
492.092	103.81
492.31	88.81
492.527	88.81
492.745	80.81
492.963	94.81
493.18	83.81
493.398	91.81
493.615	107.81
493.833	96.81
494.05	95.81
494.268	98.81
494.485	80.81
494.703	91.81
494.92	95.81
495.138	68.81
495.355	104.81
495.573	101.81
495.79	74.81
496.008	85.81
496.225	84.81
496.442	96.81
496.66	105.81
496.877	100.81
497.094	100.81
497.312	85.81
497.529	88.81
497.746	97.81
497.963	90.81
498.181	85.81
498.398	93.81
498.615	105.81
498.832	84.81
499.049	88.81
499.267	91.81
499.484	98.81
499.701	99.81
499.918	98.81
500.135	90.81
500.352	91.81
500.569	88.81
500.786	89.81
501.003	91.81
501.22	88.81
501.437	93.81
501.654	94.81
501.871	91.81
502.088	114.81
502.305	105.81
502.522	89.81
502.739	104.81
502.956	98.81
503.172	85.81
503.389	91.81
503.606	100.81
503.823	82.81
504.04	87.81
504.256	92.81
504.473	96.81
504.69	97.81
504.907	90.81
505.123	89.81
505.34	90.81
505.557	92.81
505.773	89.81
505.99	84.81
506.207	97.81
506.423	95.81
506.64	98.81
506.856	99.81
507.073	90.81
507.289	83.81
507.506	90.81
507.722	106.81
507.939	107.81
508.155	99.81
508.372	76.81
508.588	92.81
508.805	100.81
509.021	81.81
509.238	91.81
509.454	103.81
509.67	95.81
509.887	110.81
510.103	118.81
510.319	198.81
510.536	619.81
510.752	1968.81
510.968	569.81
511.184	141.81
511.401	96.81
511.617	85.81
511.833	95.81
512.049	106.81
512.265	101.81
512.481	104.81
512.698	90.81
512.914	87.81
513.13	89.81
513.346	109.81
513.562	113.81
513.778	79.81
513.994	98.81
514.21	100.81
514.426	123.81
514.642	125.81
514.858	113.81
515.074	151.81
515.29	387.81
515.506	1226.81
515.721	454.81
