Data from Circ_2002_H10_HRD10591_00037.txt Node
Date: Wed Jan 03 10:41:05 EST 2024
User: Yrep
Spectrometer: HR+D1059
Trigger mode: 1
Integration Time (sec): 1.000000E-1
Scans to average: 1
Electric dark correction enabled: true
Nonlinearity correction enabled: false
Boxcar width: 0
XAxis mode: Wavelengths
Number of Pixels in Spectrum: 2048
>>>>>Begin Spectral Data<<<<<
223.165	-24.38
223.4	-24.38
223.635	-24.38
223.869	-0.38
224.104	-9.38
224.338	-10.38
224.573	-13.38
224.808	-18.38
225.042	-8.38
225.277	-5.38
225.511	-5.38
225.746	-0.38
225.98	4.62
226.215	14.62
226.449	15.62
226.683	20.62
226.918	22.62
227.152	17.62
227.387	27.62
227.621	31.62
227.856	24.62
228.09	39.62
228.324	32.62
228.559	54.62
228.793	64.62
229.027	59.62
229.262	55.62
229.496	58.62
229.73	67.62
229.964	75.62
230.199	68.62
230.433	81.62
230.667	75.62
230.901	83.62
231.136	76.62
231.37	73.62
231.604	69.62
231.838	76.62
232.072	68.62
232.306	88.62
232.541	84.62
232.775	80.62
233.009	79.62
233.243	76.62
233.477	71.62
233.711	77.62
233.945	61.62
234.179	85.62
234.413	77.62
234.647	70.62
234.881	69.62
235.115	73.62
235.349	77.62
235.583	67.62
235.817	78.62
236.051	84.62
236.285	76.62
236.519	75.62
236.753	76.62
236.987	71.62
237.221	83.62
237.455	82.62
237.689	77.62
237.922	70.62
238.156	71.62
238.39	69.62
238.624	76.62
238.858	68.62
239.091	81.62
239.325	73.62
239.559	77.62
239.793	90.62
240.027	70.62
240.26	66.62
240.494	70.62
240.728	67.62
240.961	58.62
241.195	65.62
241.429	78.62
241.662	64.62
241.896	75.62
242.13	67.62
242.363	71.62
242.597	72.62
242.83	65.62
243.064	82.62
243.298	74.62
243.531	66.62
243.765	91.62
243.998	69.62
244.232	67.62
244.465	87.62
244.699	75.62
244.932	76.62
245.166	78.62
245.399	64.62
245.633	59.62
245.866	82.62
246.099	68.62
246.333	73.62
246.566	73.62
246.8	69.62
247.033	77.62
247.266	75.62
247.5	47.62
247.733	70.62
247.966	76.62
248.2	72.62
248.433	71.62
248.666	54.62
248.899	72.62
249.133	92.62
249.366	93.62
249.599	100.62
249.832	80.62
250.066	83.62
250.299	85.62
250.532	59.62
250.765	65.62
250.998	70.62
251.231	78.62
251.465	71.62
251.698	74.62
251.931	84.62
252.164	75.62
252.397	96.62
252.63	78.62
252.863	92.62
253.096	68.62
253.329	83.62
253.562	87.62
253.795	82.62
254.028	78.62
254.261	79.62
254.494	66.62
254.727	74.62
254.96	77.62
255.193	83.62
255.426	75.62
255.659	68.62
255.892	74.62
256.124	60.62
256.357	65.62
256.59	77.62
256.823	79.62
257.056	80.62
257.289	91.62
257.521	86.62
257.754	83.62
257.987	70.62
258.22	93.62
258.452	84.62
258.685	69.62
258.918	75.62
259.151	85.62
259.383	94.62
259.616	74.62
259.849	92.62
260.081	75.62
260.314	82.62
260.547	86.62
260.779	86.62
261.012	79.62
261.244	76.62
261.477	87.62
261.71	78.62
261.942	106.62
262.175	114.62
262.407	76.62
262.64	69.62
262.872	75.62
263.105	85.62
263.337	90.62
263.57	80.62
263.802	87.62
264.035	89.62
264.267	83.62
264.499	85.62
264.732	70.62
264.964	68.62
265.197	77.62
265.429	79.62
265.661	76.62
265.894	79.62
266.126	78.62
266.358	66.62
266.591	77.62
266.823	86.62
267.055	85.62
267.287	78.62
267.52	82.62
267.752	86.62
267.984	76.62
268.216	73.62
268.448	77.62
268.681	86.62
268.913	78.62
269.145	77.62
269.377	70.62
269.609	78.62
269.841	85.62
270.073	94.62
270.306	74.62
270.538	92.62
270.77	90.62
271.002	74.62
271.234	84.62
271.466	96.62
271.698	82.62
271.93	83.62
272.162	94.62
272.394	82.62
272.626	67.62
272.858	81.62
273.09	80.62
273.322	65.62
273.553	88.62
273.785	86.62
274.017	80.62
274.249	89.62
274.481	76.62
274.713	85.62
274.945	81.62
275.176	85.62
275.408	77.62
275.64	66.62
275.872	79.62
276.104	78.62
276.335	86.62
276.567	88.62
276.799	94.62
277.031	80.62
277.262	80.62
277.494	90.62
277.726	86.62
277.957	86.62
278.189	66.62
278.421	63.62
278.652	82.62
278.884	82.62
279.115	77.62
279.347	85.62
279.579	87.62
279.81	93.62
280.042	87.62
280.273	83.62
280.505	83.62
280.736	76.62
280.968	86.62
281.199	84.62
281.431	81.62
281.662	84.62
281.894	85.62
282.125	79.62
282.356	99.62
282.588	116.62
282.819	87.62
283.051	90.62
283.282	81.62
283.513	94.62
283.745	77.62
283.976	68.62
284.207	82.62
284.439	86.62
284.67	87.62
284.901	94.62
285.132	65.62
285.364	69.62
285.595	87.62
285.826	78.62
286.057	83.62
286.288	82.62
286.52	84.62
286.751	70.62
286.982	82.62
287.213	79.62
287.444	94.62
287.675	86.62
287.906	81.62
288.138	76.62
288.369	92.62
288.6	99.62
288.831	71.62
289.062	70.62
289.293	94.62
289.524	64.62
289.755	69.62
289.986	82.62
290.217	84.62
290.448	78.62
290.679	90.62
290.91	87.62
291.141	75.62
291.371	78.62
291.602	82.62
291.833	75.62
292.064	71.62
292.295	86.62
292.526	75.62
292.757	81.62
292.987	91.62
293.218	78.62
293.449	89.62
293.68	92.62
293.91	87.62
294.141	74.62
294.372	91.62
294.603	73.62
294.833	81.62
295.064	90.62
295.295	105.62
295.525	92.62
295.756	86.62
295.987	93.62
296.217	113.62
296.448	112.62
296.679	85.62
296.909	83.62
297.14	76.62
297.37	85.62
297.601	81.62
297.831	80.62
298.062	83.62
298.292	99.62
298.523	83.62
298.753	73.62
298.984	77.62
299.214	74.62
299.445	81.62
299.675	84.62
299.905	82.62
300.136	77.62
300.366	75.62
300.597	84.62
300.827	81.62
301.057	75.62
301.288	106.62
301.518	77.62
301.748	80.62
301.979	83.62
302.209	84.62
302.439	83.62
302.669	81.62
302.9	77.62
303.13	89.62
303.36	93.62
303.59	93.62
303.82	79.62
304.051	73.62
304.281	85.62
304.511	80.62
304.741	79.62
304.971	76.62
305.201	93.62
305.431	77.62
305.661	75.62
305.891	86.62
306.121	93.62
306.352	85.62
306.582	79.62
306.812	76.62
307.042	79.62
307.272	78.62
307.502	85.62
307.731	78.62
307.961	74.62
308.191	87.62
308.421	76.62
308.651	80.62
308.881	73.62
309.111	67.62
309.341	92.62
309.571	83.62
309.8	79.62
310.03	92.62
310.26	80.62
310.49	92.62
310.72	87.62
310.949	94.62
311.179	71.62
311.409	92.62
311.639	90.62
311.868	91.62
312.098	95.62
312.328	87.62
312.557	93.62
312.787	85.62
313.017	86.62
313.246	81.62
313.476	85.62
313.706	97.62
313.935	99.62
314.165	77.62
314.394	87.62
314.624	69.62
314.853	102.62
315.083	83.62
315.312	84.62
315.542	78.62
315.771	79.62
316.001	95.62
316.23	74.62
316.46	81.62
316.689	79.62
316.919	81.62
317.148	77.62
317.377	89.62
317.607	92.62
317.836	86.62
318.065	79.62
318.295	100.62
318.524	86.62
318.753	91.62
318.983	74.62
319.212	85.62
319.441	106.62
319.67	101.62
319.9	90.62
320.129	97.62
320.358	92.62
320.587	82.62
320.816	96.62
321.046	83.62
321.275	96.62
321.504	102.62
321.733	83.62
321.962	98.62
322.191	88.62
322.42	95.62
322.649	100.62
322.878	93.62
323.108	118.62
323.337	116.62
323.566	121.62
323.795	137.62
324.024	183.62
324.253	336.62
324.482	689.62
324.71	1442.62
324.939	1834.62
325.168	667.62
325.397	215.62
325.626	130.62
325.855	104.62
326.084	111.62
326.313	115.62
326.542	151.62
326.77	204.62
326.999	372.62
327.228	822.62
327.457	1419.62
327.686	1169.62
327.914	327.62
328.143	158.62
328.372	116.62
328.6	114.62
328.829	102.62
329.058	94.62
329.287	98.62
329.515	91.62
329.744	84.62
329.972	102.62
330.201	104.62
330.43	105.62
330.658	96.62
330.887	121.62
331.115	111.62
331.344	95.62
331.572	95.62
331.801	81.62
332.03	84.62
332.258	96.62
332.486	101.62
332.715	81.62
332.943	91.62
333.172	82.62
333.4	84.62
333.629	90.62
333.857	96.62
334.085	98.62
334.314	79.62
334.542	98.62
334.771	99.62
334.999	91.62
335.227	80.62
335.455	84.62
335.684	90.62
335.912	90.62
336.14	96.62
336.369	95.62
336.597	95.62
336.825	101.62
337.053	70.62
337.281	81.62
337.51	90.62
337.738	89.62
337.966	78.62
338.194	78.62
338.422	95.62
338.65	82.62
338.878	87.62
339.106	76.62
339.334	84.62
339.562	72.62
339.79	82.62
340.018	94.62
340.246	82.62
340.474	85.62
340.702	73.62
340.93	90.62
341.158	90.62
341.386	71.62
341.614	79.62
341.842	93.62
342.07	95.62
342.298	82.62
342.526	78.62
342.754	85.62
342.981	74.62
343.209	81.62
343.437	96.62
343.665	96.62
343.893	98.62
344.12	83.62
344.348	83.62
344.576	85.62
344.804	72.62
345.031	91.62
345.259	75.62
345.487	90.62
345.714	81.62
345.942	81.62
346.17	89.62
346.397	80.62
346.625	78.62
346.853	93.62
347.08	99.62
347.308	95.62
347.535	86.62
347.763	96.62
347.99	89.62
348.218	97.62
348.445	97.62
348.673	97.62
348.9	102.62
349.128	84.62
349.355	87.62
349.583	86.62
349.81	101.62
350.037	92.62
350.265	89.62
350.492	97.62
350.72	91.62
350.947	94.62
351.174	103.62
351.402	99.62
351.629	101.62
351.856	99.62
352.083	95.62
352.311	101.62
352.538	97.62
352.765	100.62
352.992	87.62
353.22	93.62
353.447	91.62
353.674	94.62
353.901	94.62
354.128	94.62
354.355	78.62
354.583	96.62
354.81	84.62
355.037	94.62
355.264	89.62
355.491	85.62
355.718	94.62
355.945	88.62
356.172	70.62
356.399	84.62
356.626	89.62
356.853	86.62
357.08	95.62
357.307	89.62
357.534	81.62
357.761	92.62
357.988	86.62
358.215	79.62
358.441	79.62
358.668	98.62
358.895	74.62
359.122	89.62
359.349	80.62
359.576	83.62
359.802	101.62
360.029	87.62
360.256	105.62
360.483	94.62
360.709	84.62
360.936	81.62
361.163	91.62
361.39	89.62
361.616	87.62
361.843	77.62
362.07	80.62
362.296	78.62
362.523	72.62
362.749	82.62
362.976	72.62
363.203	92.62
363.429	70.62
363.656	81.62
363.882	81.62
364.109	87.62
364.335	84.62
364.562	90.62
364.788	79.62
365.015	87.62
365.241	85.62
365.468	101.62
365.694	92.62
365.92	100.62
366.147	106.62
366.373	75.62
366.599	73.62
366.826	90.62
367.052	91.62
367.278	80.62
367.505	90.62
367.731	95.62
367.957	88.62
368.184	82.62
368.41	97.62
368.636	99.62
368.862	101.62
369.089	84.62
369.315	88.62
369.541	93.62
369.767	94.62
369.993	83.62
370.219	76.62
370.445	68.62
370.672	93.62
370.898	75.62
371.124	81.62
371.35	82.62
371.576	87.62
371.802	79.62
372.028	72.62
372.254	79.62
372.48	89.62
372.706	75.62
372.932	85.62
373.158	69.62
373.384	69.62
373.61	70.62
373.835	78.62
374.061	78.62
374.287	74.62
374.513	80.62
374.739	82.62
374.965	78.62
375.191	91.62
375.416	96.62
375.642	89.62
375.868	82.62
376.094	82.62
376.319	72.62
376.545	89.62
376.771	96.62
376.997	81.62
377.222	102.62
377.448	87.62
377.674	95.62
377.899	78.62
378.125	79.62
378.35	78.62
378.576	77.62
378.802	82.62
379.027	77.62
379.253	68.62
379.478	76.62
379.704	99.62
379.929	80.62
380.155	93.62
380.38	93.62
380.606	87.62
380.831	106.62
381.057	105.62
381.282	82.62
381.507	89.62
381.733	93.62
381.958	98.62
382.184	90.62
382.409	85.62
382.634	100.62
382.86	103.62
383.085	103.62
383.31	97.62
383.535	77.62
383.761	94.62
383.986	89.62
384.211	83.62
384.436	94.62
384.662	85.62
384.887	91.62
385.112	100.62
385.337	88.62
385.562	100.62
385.787	103.62
386.013	100.62
386.238	99.62
386.463	104.62
386.688	92.62
386.913	111.62
387.138	106.62
387.363	109.62
387.588	92.62
387.813	81.62
388.038	92.62
388.263	102.62
388.488	115.62
388.713	89.62
388.938	83.62
389.163	93.62
389.387	88.62
389.612	103.62
389.837	96.62
390.062	95.62
390.287	95.62
390.512	98.62
390.736	92.62
390.961	87.62
391.186	92.62
391.411	92.62
391.636	96.62
391.86	73.62
392.085	94.62
392.31	87.62
392.534	60.62
392.759	83.62
392.984	85.62
393.208	85.62
393.433	83.62
393.658	82.62
393.882	91.62
394.107	66.62
394.331	70.62
394.556	83.62
394.78	67.62
395.005	92.62
395.229	77.62
395.454	85.62
395.678	99.62
395.903	83.62
396.127	71.62
396.352	74.62
396.576	65.62
396.801	87.62
397.025	70.62
397.249	76.62
397.474	88.62
397.698	81.62
397.922	70.62
398.147	77.62
398.371	87.62
398.595	85.62
398.82	90.62
399.044	69.62
399.268	74.62
399.492	86.62
399.717	85.62
399.941	94.62
400.165	85.62
400.389	71.62
400.613	91.62
400.837	78.62
401.062	78.62
401.286	91.62
401.51	76.62
401.734	82.62
401.958	82.62
402.182	113.62
402.406	146.62
402.63	98.62
402.854	78.62
403.078	93.62
403.302	78.62
403.526	71.62
403.75	89.62
403.974	86.62
404.198	72.62
404.422	80.62
404.645	82.62
404.869	89.62
405.093	91.62
405.317	91.62
405.541	89.62
405.765	73.62
405.988	91.62
406.212	147.62
406.436	194.62
406.66	100.62
406.883	80.62
407.107	88.62
407.331	78.62
407.555	93.62
407.778	94.62
408.002	73.62
408.226	71.62
408.449	92.62
408.673	95.62
408.896	93.62
409.12	86.62
409.344	89.62
409.567	90.62
409.791	93.62
410.014	103.62
410.238	85.62
410.461	82.62
410.685	93.62
410.908	90.62
411.132	94.62
411.355	93.62
411.578	89.62
411.802	78.62
412.025	79.62
412.249	85.62
412.472	77.62
412.695	68.62
412.919	86.62
413.142	86.62
413.365	77.62
413.589	77.62
413.812	88.62
414.035	90.62
414.258	92.62
414.482	88.62
414.705	91.62
414.928	84.62
415.151	78.62
415.374	87.62
415.597	78.62
415.821	76.62
416.044	84.62
416.267	85.62
416.49	69.62
416.713	87.62
416.936	97.62
417.159	69.62
417.382	90.62
417.605	64.62
417.828	89.62
418.051	81.62
418.274	93.62
418.497	86.62
418.72	76.62
418.943	84.62
419.166	89.62
419.389	87.62
419.611	87.62
419.834	82.62
420.057	91.62
420.28	87.62
420.503	90.62
420.726	75.62
420.948	89.62
421.171	91.62
421.394	82.62
421.617	92.62
421.839	91.62
422.062	87.62
422.285	99.62
422.507	101.62
422.73	75.62
422.953	89.62
423.175	92.62
423.398	80.62
423.621	94.62
423.843	79.62
424.066	82.62
424.288	89.62
424.511	75.62
424.733	85.62
424.956	95.62
425.178	76.62
425.401	86.62
425.623	100.62
425.846	91.62
426.068	87.62
426.291	105.62
426.513	82.62
426.735	76.62
426.958	83.62
427.18	87.62
427.402	116.62
427.625	143.62
427.847	114.62
428.069	95.62
428.292	85.62
428.514	84.62
428.736	82.62
428.958	87.62
429.181	86.62
429.403	70.62
429.625	79.62
429.847	90.62
430.069	96.62
430.292	89.62
430.514	87.62
430.736	77.62
430.958	83.62
431.18	73.62
431.402	71.62
431.624	96.62
431.846	81.62
432.068	79.62
432.29	82.62
432.512	77.62
432.734	91.62
432.956	101.62
433.178	86.62
433.4	103.62
433.622	86.62
433.844	76.62
434.066	87.62
434.287	87.62
434.509	94.62
434.731	73.62
434.953	87.62
435.175	90.62
435.397	70.62
435.618	75.62
435.84	86.62
436.062	99.62
436.284	100.62
436.505	84.62
436.727	99.62
436.949	85.62
437.17	84.62
437.392	92.62
437.614	84.62
437.835	81.62
438.057	103.62
438.278	93.62
438.5	95.62
438.721	105.62
438.943	85.62
439.165	62.62
439.386	83.62
439.608	82.62
439.829	68.62
440.05	116.62
440.272	101.62
440.493	83.62
440.715	82.62
440.936	91.62
441.158	82.62
441.379	79.62
441.6	75.62
441.822	97.62
442.043	97.62
442.264	90.62
442.486	73.62
442.707	82.62
442.928	95.62
443.149	110.62
443.371	92.62
443.592	88.62
443.813	89.62
444.034	108.62
444.255	91.62
444.476	89.62
444.698	85.62
444.919	87.62
445.14	122.62
445.361	114.62
445.582	98.62
445.803	114.62
446.024	125.62
446.245	116.62
446.466	89.62
446.687	92.62
446.908	76.62
447.129	94.62
447.35	78.62
447.571	83.62
447.792	77.62
448.013	97.62
448.234	97.62
448.455	99.62
448.675	106.62
448.896	100.62
449.117	96.62
449.338	99.62
449.559	107.62
449.779	112.62
450	80.62
450.221	87.62
450.442	87.62
450.662	95.62
450.883	86.62
451.104	91.62
451.324	92.62
451.545	93.62
451.766	75.62
451.986	72.62
452.207	77.62
452.428	97.62
452.648	89.62
452.869	94.62
453.089	115.62
453.31	88.62
453.53	95.62
453.751	83.62
453.971	90.62
454.192	79.62
454.412	82.62
454.633	97.62
454.853	75.62
455.073	86.62
455.294	75.62
455.514	84.62
455.734	76.62
455.955	93.62
456.175	86.62
456.395	78.62
456.616	87.62
456.836	90.62
457.056	87.62
457.276	70.62
457.497	80.62
457.717	68.62
457.937	78.62
458.157	74.62
458.377	83.62
458.598	97.62
458.818	121.62
459.038	130.62
459.258	106.62
459.478	97.62
459.698	85.62
459.918	79.62
460.138	91.62
460.358	88.62
460.578	88.62
460.798	89.62
461.018	90.62
461.238	72.62
461.458	79.62
461.678	81.62
461.898	85.62
462.118	85.62
462.338	85.62
462.558	84.62
462.777	84.62
462.997	79.62
463.217	75.62
463.437	74.62
463.657	88.62
463.876	83.62
464.096	72.62
464.316	100.62
464.536	81.62
464.755	85.62
464.975	95.62
465.195	129.62
465.414	123.62
465.634	79.62
465.854	82.62
466.073	70.62
466.293	83.62
466.512	75.62
466.732	83.62
466.951	92.62
467.171	95.62
467.391	85.62
467.61	91.62
467.829	96.62
468.049	72.62
468.268	86.62
468.488	82.62
468.707	78.62
468.927	83.62
469.146	73.62
469.365	78.62
469.585	67.62
469.804	82.62
470.023	84.62
470.243	83.62
470.462	87.62
470.681	87.62
470.901	80.62
471.12	84.62
471.339	86.62
471.558	78.62
471.777	101.62
471.997	93.62
472.216	85.62
472.435	111.62
472.654	70.62
472.873	80.62
473.092	82.62
473.311	75.62
473.53	82.62
473.749	93.62
473.968	91.62
474.187	85.62
474.406	87.62
474.625	77.62
474.844	110.62
475.063	81.62
475.282	87.62
475.501	94.62
475.72	76.62
475.939	84.62
476.158	74.62
476.377	91.62
476.596	77.62
476.814	84.62
477.033	79.62
477.252	75.62
477.471	86.62
477.69	92.62
477.908	89.62
478.127	99.62
478.346	85.62
478.564	81.62
478.783	95.62
479.002	83.62
479.22	81.62
479.439	98.62
479.658	85.62
479.876	80.62
480.095	71.62
480.313	85.62
480.532	81.62
480.751	92.62
480.969	104.62
481.188	118.62
481.406	118.62
481.624	87.62
481.843	96.62
482.061	70.62
482.28	70.62
482.498	88.62
482.717	85.62
482.935	80.62
483.153	88.62
483.372	90.62
483.59	84.62
483.808	75.62
484.027	82.62
484.245	92.62
484.463	79.62
484.681	83.62
484.9	81.62
485.118	94.62
485.336	96.62
485.554	87.62
485.772	89.62
485.99	91.62
486.209	87.62
486.427	93.62
486.645	104.62
486.863	90.62
487.081	101.62
487.299	100.62
487.517	85.62
487.735	84.62
487.953	75.62
488.171	91.62
488.389	91.62
488.607	94.62
488.825	93.62
489.043	95.62
489.261	77.62
489.479	69.62
489.696	86.62
489.914	82.62
490.132	74.62
490.35	85.62
490.568	82.62
490.786	87.62
491.003	83.62
491.221	95.62
491.439	98.62
491.657	85.62
491.874	83.62
492.092	87.62
492.31	84.62
492.527	90.62
492.745	94.62
492.963	95.62
493.18	80.62
493.398	97.62
493.615	90.62
493.833	99.62
494.05	99.62
494.268	84.62
494.485	83.62
494.703	84.62
494.92	79.62
495.138	91.62
495.355	91.62
495.573	92.62
495.79	84.62
496.008	81.62
496.225	83.62
496.442	76.62
496.66	80.62
496.877	88.62
497.094	100.62
497.312	83.62
497.529	89.62
497.746	78.62
497.963	83.62
498.181	86.62
498.398	87.62
498.615	92.62
498.832	103.62
499.049	81.62
499.267	72.62
499.484	79.62
499.701	97.62
499.918	73.62
500.135	90.62
500.352	74.62
500.569	92.62
500.786	101.62
501.003	98.62
501.22	94.62
501.437	77.62
501.654	92.62
501.871	109.62
502.088	83.62
502.305	82.62
502.522	97.62
502.739	73.62
502.956	88.62
503.172	90.62
503.389	83.62
503.606	100.62
503.823	98.62
504.04	100.62
504.256	99.62
504.473	95.62
504.69	83.62
504.907	85.62
505.123	86.62
505.34	82.62
505.557	86.62
505.773	91.62
505.99	87.62
506.207	75.62
506.423	83.62
506.64	81.62
506.856	77.62
507.073	79.62
507.289	89.62
507.506	93.62
507.722	101.62
507.939	102.62
508.155	93.62
508.372	88.62
508.588	96.62
508.805	87.62
509.021	78.62
509.238	94.62
509.454	95.62
509.67	88.62
509.887	116.62
510.103	123.62
510.319	159.62
510.536	527.62
510.752	1634.62
510.968	466.62
511.184	140.62
511.401	105.62
511.617	98.62
511.833	101.62
512.049	89.62
512.265	86.62
512.481	83.62
512.698	90.62
512.914	89.62
513.13	72.62
513.346	90.62
513.562	93.62
513.778	90.62
513.994	106.62
514.21	85.62
514.426	98.62
514.642	121.62
514.858	107.62
515.074	137.62
515.29	320.62
515.506	1005.62
515.721	400.62
515.937	125.62
516.153	91.62
516.369	89.62
516.585	79.62
516.801	100.62
517.016	96.62
517.232	83.62
517.448	80.62
517.664	83.62
517.879	105.62
518.095	97.62
