Data from Circ_2002_H10_HRD10591_00100.txt Node
Date: Wed Jan 03 10:41:18 EST 2024
User: Yrep
Spectrometer: HR+D1059
Trigger mode: 1
Integration Time (sec): 1.000000E-1
Scans to average: 1
Electric dark correction enabled: true
Nonlinearity correction enabled: false
Boxcar width: 0
XAxis mode: Wavelengths
Number of Pixels in Spectrum: 2048
>>>>>Begin Spectral Data<<<<<
223.165	-5.25
223.4	-5.25
223.635	-5.25
223.869	-16.25
224.104	-3.25
224.338	-8.25
224.573	-23.25
224.808	-12.25
225.042	-15.25
225.277	-6.25
225.511	-12.25
225.746	2.75
225.98	4.75
226.215	2.75
226.449	12.75
226.683	27.75
226.918	23.75
227.152	27.75
227.387	31.75
227.621	35.75
227.856	39.75
228.09	36.75
228.324	58.75
228.559	58.75
228.793	48.75
229.027	55.75
229.262	58.75
229.496	67.75
229.73	97.75
229.964	83.75
230.199	71.75
230.433	74.75
230.667	89.75
230.901	75.75
231.136	79.75
231.37	80.75
231.604	84.75
231.838	80.75
232.072	87.75
232.306	76.75
232.541	76.75
232.775	71.75
233.009	84.75
233.243	71.75
233.477	81.75
233.711	87.75
233.945	83.75
234.179	90.75
234.413	86.75
234.647	69.75
234.881	78.75
235.115	72.75
235.349	69.75
235.583	82.75
235.817	73.75
236.051	75.75
236.285	97.75
236.519	78.75
236.753	80.75
236.987	80.75
237.221	100.75
237.455	82.75
237.689	88.75
237.922	66.75
238.156	70.75
238.39	67.75
238.624	67.75
238.858	72.75
239.091	69.75
239.325	88.75
239.559	58.75
239.793	85.75
240.027	84.75
240.26	63.75
240.494	75.75
240.728	83.75
240.961	73.75
241.195	70.75
241.429	84.75
241.662	72.75
241.896	81.75
242.13	75.75
242.363	74.75
242.597	65.75
242.83	68.75
243.064	63.75
243.298	84.75
243.531	87.75
243.765	75.75
243.998	70.75
244.232	89.75
244.465	77.75
244.699	84.75
244.932	75.75
245.166	82.75
245.399	68.75
245.633	65.75
245.866	95.75
246.099	84.75
246.333	91.75
246.566	80.75
246.8	83.75
247.033	74.75
247.266	82.75
247.5	80.75
247.733	74.75
247.966	86.75
248.2	89.75
248.433	72.75
248.666	83.75
248.899	74.75
249.133	75.75
249.366	100.75
249.599	82.75
249.832	79.75
250.066	84.75
250.299	96.75
250.532	83.75
250.765	73.75
250.998	74.75
251.231	79.75
251.465	76.75
251.698	80.75
251.931	64.75
252.164	71.75
252.397	66.75
252.63	66.75
252.863	80.75
253.096	82.75
253.329	85.75
253.562	88.75
253.795	90.75
254.028	89.75
254.261	81.75
254.494	78.75
254.727	74.75
254.96	82.75
255.193	73.75
255.426	80.75
255.659	90.75
255.892	76.75
256.124	66.75
256.357	82.75
256.59	82.75
256.823	66.75
257.056	75.75
257.289	92.75
257.521	86.75
257.754	78.75
257.987	90.75
258.22	91.75
258.452	84.75
258.685	92.75
258.918	70.75
259.151	83.75
259.383	75.75
259.616	81.75
259.849	91.75
260.081	79.75
260.314	73.75
260.547	84.75
260.779	71.75
261.012	99.75
261.244	84.75
261.477	90.75
261.71	84.75
261.942	115.75
262.175	118.75
262.407	89.75
262.64	96.75
262.872	83.75
263.105	84.75
263.337	84.75
263.57	75.75
263.802	88.75
264.035	74.75
264.267	85.75
264.499	92.75
264.732	93.75
264.964	89.75
265.197	86.75
265.429	79.75
265.661	81.75
265.894	97.75
266.126	78.75
266.358	91.75
266.591	86.75
266.823	82.75
267.055	81.75
267.287	79.75
267.52	91.75
267.752	97.75
267.984	90.75
268.216	75.75
268.448	102.75
268.681	88.75
268.913	79.75
269.145	77.75
269.377	87.75
269.609	75.75
269.841	88.75
270.073	92.75
270.306	91.75
270.538	80.75
270.77	77.75
271.002	78.75
271.234	84.75
271.466	79.75
271.698	75.75
271.93	100.75
272.162	68.75
272.394	76.75
272.626	81.75
272.858	87.75
273.09	82.75
273.322	87.75
273.553	91.75
273.785	94.75
274.017	105.75
274.249	80.75
274.481	82.75
274.713	80.75
274.945	69.75
275.176	87.75
275.408	91.75
275.64	93.75
275.872	86.75
276.104	88.75
276.335	99.75
276.567	85.75
276.799	92.75
277.031	95.75
277.262	78.75
277.494	81.75
277.726	76.75
277.957	75.75
278.189	70.75
278.421	83.75
278.652	79.75
278.884	86.75
279.115	88.75
279.347	72.75
279.579	97.75
279.81	98.75
280.042	100.75
280.273	68.75
280.505	91.75
280.736	86.75
280.968	86.75
281.199	89.75
281.431	80.75
281.662	86.75
281.894	107.75
282.125	88.75
282.356	123.75
282.588	131.75
282.819	103.75
283.051	92.75
283.282	98.75
283.513	91.75
283.745	77.75
283.976	85.75
284.207	77.75
284.439	79.75
284.67	83.75
284.901	76.75
285.132	79.75
285.364	88.75
285.595	86.75
285.826	88.75
286.057	93.75
286.288	97.75
286.52	72.75
286.751	70.75
286.982	80.75
287.213	72.75
287.444	88.75
287.675	86.75
287.906	92.75
288.138	87.75
288.369	104.75
288.6	81.75
288.831	75.75
289.062	89.75
289.293	87.75
289.524	78.75
289.755	80.75
289.986	84.75
290.217	94.75
290.448	89.75
290.679	88.75
290.91	78.75
291.141	91.75
291.371	91.75
291.602	80.75
291.833	97.75
292.064	89.75
292.295	83.75
292.526	92.75
292.757	87.75
292.987	92.75
293.218	82.75
293.449	91.75
293.68	92.75
293.91	105.75
294.141	86.75
294.372	97.75
294.603	88.75
294.833	88.75
295.064	81.75
295.295	84.75
295.525	90.75
295.756	106.75
295.987	115.75
296.217	141.75
296.448	101.75
296.679	92.75
296.909	85.75
297.14	69.75
297.37	96.75
297.601	102.75
297.831	82.75
298.062	95.75
298.292	93.75
298.523	88.75
298.753	94.75
298.984	82.75
299.214	73.75
299.445	93.75
299.675	108.75
299.905	92.75
300.136	96.75
300.366	92.75
300.597	90.75
300.827	97.75
301.057	90.75
301.288	92.75
301.518	99.75
301.748	85.75
301.979	115.75
302.209	88.75
302.439	90.75
302.669	79.75
302.9	84.75
303.13	88.75
303.36	86.75
303.59	97.75
303.82	105.75
304.051	91.75
304.281	94.75
304.511	91.75
304.741	95.75
304.971	86.75
305.201	99.75
305.431	86.75
305.661	107.75
305.891	91.75
306.121	114.75
306.352	99.75
306.582	110.75
306.812	92.75
307.042	89.75
307.272	90.75
307.502	103.75
307.731	90.75
307.961	104.75
308.191	88.75
308.421	82.75
308.651	99.75
308.881	90.75
309.111	91.75
309.341	85.75
309.571	101.75
309.8	93.75
310.03	101.75
310.26	94.75
310.49	98.75
310.72	97.75
310.949	111.75
311.179	85.75
311.409	93.75
311.639	82.75
311.868	88.75
312.098	106.75
312.328	108.75
312.557	112.75
312.787	106.75
313.017	100.75
313.246	98.75
313.476	98.75
313.706	92.75
313.935	91.75
314.165	81.75
314.394	101.75
314.624	87.75
314.853	86.75
315.083	98.75
315.312	105.75
315.542	87.75
315.771	88.75
316.001	85.75
316.23	79.75
316.46	93.75
316.689	78.75
316.919	103.75
317.148	90.75
317.377	100.75
317.607	86.75
317.836	97.75
318.065	96.75
318.295	99.75
318.524	104.75
318.753	88.75
318.983	94.75
319.212	107.75
319.441	111.75
319.67	96.75
319.9	106.75
320.129	99.75
320.358	83.75
320.587	87.75
320.816	101.75
321.046	107.75
321.275	89.75
321.504	93.75
321.733	93.75
321.962	85.75
322.191	106.75
322.42	102.75
322.649	97.75
322.878	111.75
323.108	106.75
323.337	115.75
323.566	129.75
323.795	160.75
324.024	225.75
324.253	431.75
324.482	934.75
324.71	1976.75
324.939	2538.75
325.168	883.75
325.397	258.75
325.626	153.75
325.855	136.75
326.084	137.75
326.313	132.75
326.542	144.75
326.77	245.75
326.999	483.75
327.228	1090.75
327.457	1960.75
327.686	1590.75
327.914	409.75
328.143	218.75
328.372	191.75
328.6	128.75
328.829	124.75
329.058	122.75
329.287	131.75
329.515	124.75
329.744	118.75
329.972	129.75
330.201	147.75
330.43	205.75
330.658	136.75
330.887	140.75
331.115	119.75
331.344	101.75
331.572	99.75
331.801	96.75
332.03	105.75
332.258	101.75
332.486	84.75
332.715	93.75
332.943	99.75
333.172	110.75
333.4	98.75
333.629	95.75
333.857	111.75
334.085	148.75
334.314	161.75
334.542	207.75
334.771	213.75
334.999	116.75
335.227	108.75
335.455	98.75
335.684	80.75
335.912	104.75
336.14	96.75
336.369	92.75
336.597	99.75
336.825	100.75
337.053	83.75
337.281	97.75
337.51	90.75
337.738	88.75
337.966	81.75
338.194	90.75
338.422	82.75
338.65	89.75
338.878	99.75
339.106	86.75
339.334	79.75
339.562	95.75
339.79	96.75
340.018	83.75
340.246	95.75
340.474	91.75
340.702	83.75
340.93	82.75
341.158	88.75
341.386	106.75
341.614	89.75
341.842	94.75
342.07	88.75
342.298	96.75
342.526	88.75
342.754	85.75
342.981	78.75
343.209	95.75
343.437	96.75
343.665	88.75
343.893	94.75
344.12	90.75
344.348	87.75
344.576	82.75
344.804	91.75
345.031	96.75
345.259	88.75
345.487	81.75
345.714	93.75
345.942	89.75
346.17	88.75
346.397	83.75
346.625	103.75
346.853	98.75
347.08	84.75
347.308	98.75
347.535	90.75
347.763	84.75
347.99	118.75
348.218	104.75
348.445	91.75
348.673	90.75
348.9	88.75
349.128	83.75
349.355	91.75
349.583	84.75
349.81	96.75
350.037	99.75
350.265	102.75
350.492	94.75
350.72	102.75
350.947	99.75
351.174	105.75
351.402	96.75
351.629	95.75
351.856	95.75
352.083	106.75
352.311	111.75
352.538	127.75
352.765	110.75
352.992	112.75
353.22	107.75
353.447	94.75
353.674	84.75
353.901	103.75
354.128	85.75
354.355	91.75
354.583	96.75
354.81	98.75
355.037	84.75
355.264	96.75
355.491	87.75
355.718	95.75
355.945	97.75
356.172	110.75
356.399	106.75
356.626	85.75
356.853	93.75
357.08	91.75
357.307	94.75
357.534	115.75
357.761	90.75
357.988	97.75
358.215	98.75
358.441	87.75
358.668	84.75
358.895	93.75
359.122	82.75
359.349	95.75
359.576	98.75
359.802	112.75
360.029	104.75
360.256	110.75
360.483	96.75
360.709	80.75
360.936	94.75
361.163	98.75
361.39	89.75
361.616	79.75
361.843	94.75
362.07	85.75
362.296	97.75
362.523	95.75
362.749	82.75
362.976	104.75
363.203	95.75
363.429	107.75
363.656	74.75
363.882	90.75
364.109	86.75
364.335	93.75
364.562	86.75
364.788	87.75
365.015	75.75
365.241	89.75
365.468	98.75
365.694	94.75
365.92	91.75
366.147	90.75
366.373	94.75
366.599	93.75
366.826	88.75
367.052	86.75
367.278	96.75
367.505	90.75
367.731	99.75
367.957	86.75
368.184	97.75
368.41	99.75
368.636	107.75
368.862	119.75
369.089	100.75
369.315	88.75
369.541	92.75
369.767	97.75
369.993	83.75
370.219	88.75
370.445	90.75
370.672	95.75
370.898	78.75
371.124	99.75
371.35	87.75
371.576	97.75
371.802	80.75
372.028	86.75
372.254	91.75
372.48	91.75
372.706	88.75
372.932	90.75
373.158	90.75
373.384	78.75
373.61	95.75
373.835	91.75
374.061	98.75
374.287	89.75
374.513	76.75
374.739	85.75
374.965	93.75
375.191	87.75
375.416	83.75
375.642	98.75
375.868	89.75
376.094	103.75
376.319	90.75
376.545	84.75
376.771	89.75
376.997	83.75
377.222	85.75
377.448	86.75
377.674	90.75
377.899	80.75
378.125	88.75
378.35	96.75
378.576	88.75
378.802	89.75
379.027	93.75
379.253	88.75
379.478	104.75
379.704	97.75
379.929	94.75
380.155	83.75
380.38	94.75
380.606	101.75
380.831	88.75
381.057	99.75
381.282	95.75
381.507	90.75
381.733	107.75
381.958	87.75
382.184	90.75
382.409	104.75
382.634	99.75
382.86	96.75
383.085	105.75
383.31	101.75
383.535	88.75
383.761	91.75
383.986	100.75
384.211	90.75
384.436	88.75
384.662	108.75
384.887	97.75
385.112	93.75
385.337	107.75
385.562	92.75
385.787	85.75
386.013	91.75
386.238	92.75
386.463	90.75
386.688	95.75
386.913	85.75
387.138	102.75
387.363	104.75
387.588	95.75
387.813	95.75
388.038	105.75
388.263	99.75
388.488	89.75
388.713	92.75
388.938	97.75
389.163	96.75
389.387	92.75
389.612	98.75
389.837	86.75
390.062	71.75
390.287	82.75
390.512	92.75
390.736	100.75
390.961	102.75
391.186	103.75
391.411	106.75
391.636	84.75
391.86	70.75
392.085	90.75
392.31	87.75
392.534	75.75
392.759	84.75
392.984	77.75
393.208	93.75
393.433	95.75
393.658	91.75
393.882	92.75
394.107	100.75
394.331	98.75
394.556	75.75
394.78	94.75
395.005	80.75
395.229	79.75
395.454	86.75
395.678	80.75
395.903	64.75
396.127	79.75
396.352	91.75
396.576	86.75
396.801	82.75
397.025	86.75
397.249	86.75
397.474	83.75
397.698	93.75
397.922	84.75
398.147	102.75
398.371	80.75
398.595	75.75
398.82	77.75
399.044	76.75
399.268	86.75
399.492	85.75
399.717	85.75
399.941	78.75
400.165	86.75
400.389	88.75
400.613	82.75
400.837	74.75
401.062	99.75
401.286	70.75
401.51	94.75
401.734	101.75
401.958	97.75
402.182	121.75
402.406	162.75
402.63	118.75
402.854	99.75
403.078	90.75
403.302	85.75
403.526	85.75
403.75	91.75
403.974	78.75
404.198	94.75
404.422	88.75
404.645	98.75
404.869	75.75
405.093	89.75
405.317	102.75
405.541	92.75
405.765	101.75
405.988	126.75
406.212	174.75
406.436	208.75
406.66	154.75
406.883	107.75
407.107	94.75
407.331	84.75
407.555	96.75
407.778	104.75
408.002	82.75
408.226	88.75
408.449	83.75
408.673	103.75
408.896	97.75
409.12	105.75
409.344	86.75
409.567	86.75
409.791	89.75
410.014	94.75
410.238	87.75
410.461	82.75
410.685	88.75
410.908	94.75
411.132	100.75
411.355	109.75
411.578	79.75
411.802	87.75
412.025	100.75
412.249	94.75
412.472	95.75
412.695	106.75
412.919	85.75
413.142	85.75
413.365	84.75
413.589	95.75
413.812	90.75
414.035	98.75
414.258	93.75
414.482	92.75
414.705	94.75
414.928	86.75
415.151	74.75
415.374	90.75
415.597	77.75
415.821	84.75
416.044	85.75
416.267	101.75
416.49	87.75
416.713	80.75
416.936	92.75
417.159	85.75
417.382	93.75
417.605	76.75
417.828	90.75
418.051	107.75
418.274	98.75
418.497	90.75
418.72	79.75
418.943	79.75
419.166	82.75
419.389	87.75
419.611	75.75
419.834	77.75
420.057	92.75
420.28	87.75
420.503	73.75
420.726	86.75
420.948	98.75
421.171	86.75
421.394	107.75
421.617	88.75
421.839	91.75
422.062	87.75
422.285	104.75
422.507	104.75
422.73	105.75
422.953	75.75
423.175	82.75
423.398	77.75
423.621	93.75
423.843	97.75
424.066	94.75
424.288	97.75
424.511	83.75
424.733	93.75
424.956	109.75
425.178	85.75
425.401	104.75
425.623	92.75
425.846	89.75
426.068	104.75
426.291	99.75
426.513	91.75
426.735	83.75
426.958	95.75
427.18	98.75
427.402	131.75
427.625	173.75
427.847	143.75
428.069	121.75
428.292	110.75
428.514	88.75
428.736	84.75
428.958	83.75
429.181	84.75
429.403	97.75
429.625	82.75
429.847	82.75
430.069	102.75
430.292	90.75
430.514	81.75
430.736	90.75
430.958	96.75
431.18	82.75
431.402	79.75
431.624	94.75
431.846	90.75
432.068	76.75
432.29	94.75
432.512	78.75
432.734	90.75
432.956	86.75
433.178	94.75
433.4	95.75
433.622	89.75
433.844	101.75
434.066	94.75
434.287	89.75
434.509	89.75
434.731	87.75
434.953	91.75
435.175	90.75
435.397	91.75
435.618	85.75
435.84	123.75
436.062	126.75
436.284	111.75
436.505	102.75
436.727	102.75
436.949	100.75
437.17	91.75
437.392	70.75
437.614	84.75
437.835	110.75
438.057	110.75
438.278	109.75
438.5	87.75
438.721	123.75
438.943	106.75
439.165	90.75
439.386	92.75
439.608	97.75
439.829	102.75
440.05	119.75
440.272	155.75
440.493	92.75
440.715	64.75
440.936	98.75
441.158	98.75
441.379	64.75
441.6	85.75
441.822	99.75
442.043	105.75
442.264	103.75
442.486	111.75
442.707	103.75
442.928	98.75
443.149	117.75
443.371	126.75
443.592	120.75
443.813	114.75
444.034	122.75
444.255	87.75
444.476	99.75
444.698	89.75
444.919	72.75
445.14	144.75
445.361	122.75
445.582	109.75
445.803	127.75
446.024	123.75
446.245	130.75
446.466	104.75
446.687	82.75
446.908	88.75
447.129	86.75
447.35	85.75
447.571	78.75
447.792	98.75
448.013	98.75
448.234	105.75
448.455	82.75
448.675	126.75
448.896	118.75
449.117	98.75
449.338	93.75
449.559	131.75
449.779	129.75
450	76.75
450.221	78.75
450.442	87.75
450.662	84.75
450.883	112.75
451.104	138.75
451.324	97.75
451.545	101.75
451.766	82.75
451.986	86.75
452.207	89.75
452.428	92.75
452.648	87.75
452.869	86.75
453.089	116.75
453.31	109.75
453.53	100.75
453.751	80.75
453.971	104.75
454.192	114.75
454.412	89.75
454.633	95.75
454.853	91.75
455.073	92.75
455.294	104.75
455.514	91.75
455.734	83.75
455.955	85.75
456.175	78.75
456.395	95.75
456.616	86.75
456.836	78.75
457.056	83.75
457.276	86.75
457.497	88.75
457.717	92.75
457.937	72.75
458.157	99.75
458.377	87.75
458.598	106.75
458.818	134.75
459.038	167.75
459.258	109.75
459.478	84.75
459.698	78.75
459.918	90.75
460.138	76.75
460.358	78.75
460.578	91.75
460.798	87.75
461.018	91.75
461.238	83.75
461.458	85.75
461.678	92.75
461.898	71.75
462.118	79.75
462.338	84.75
462.558	67.75
462.777	73.75
462.997	108.75
463.217	80.75
463.437	86.75
463.657	73.75
463.876	67.75
464.096	82.75
464.316	90.75
464.536	96.75
464.755	95.75
464.975	108.75
465.195	150.75
465.414	158.75
465.634	105.75
465.854	103.75
466.073	95.75
466.293	89.75
466.512	83.75
466.732	88.75
466.951	79.75
467.171	87.75
467.391	92.75
467.61	107.75
467.829	97.75
468.049	120.75
468.268	146.75
468.488	96.75
468.707	90.75
468.927	103.75
469.146	91.75
469.365	83.75
469.585	75.75
469.804	97.75
470.023	96.75
470.243	94.75
470.462	90.75
470.681	110.75
470.901	84.75
471.12	91.75
471.339	96.75
471.558	78.75
471.777	93.75
471.997	98.75
472.216	172.75
472.435	272.75
472.654	142.75
472.873	97.75
473.092	70.75
473.311	95.75
473.53	80.75
473.749	90.75
473.968	103.75
474.187	107.75
474.406	106.75
474.625	86.75
474.844	93.75
475.063	87.75
475.282	87.75
475.501	86.75
475.72	88.75
475.939	88.75
476.158	100.75
476.377	78.75
476.596	88.75
476.814	83.75
477.033	95.75
477.252	84.75
477.471	92.75
477.69	97.75
477.908	92.75
478.127	98.75
478.346	80.75
478.564	90.75
478.783	94.75
479.002	101.75
479.22	94.75
479.439	111.75
479.658	102.75
479.876	96.75
480.095	89.75
480.313	91.75
480.532	99.75
480.751	102.75
480.969	158.75
481.188	436.75
481.406	291.75
481.624	128.75
481.843	92.75
482.061	96.75
482.28	80.75
482.498	71.75
482.717	99.75
482.935	69.75
483.153	85.75
483.372	104.75
483.59	84.75
483.808	71.75
484.027	80.75
484.245	87.75
484.463	87.75
484.681	98.75
484.9	84.75
485.118	105.75
485.336	94.75
485.554	106.75
485.772	87.75
485.99	111.75
486.209	99.75
486.427	109.75
486.645	111.75
486.863	106.75
487.081	96.75
487.299	105.75
487.517	79.75
487.735	95.75
487.953	85.75
488.171	98.75
488.389	93.75
488.607	94.75
488.825	83.75
489.043	85.75
489.261	91.75
489.479	91.75
489.696	84.75
489.914	86.75
490.132	84.75
490.35	75.75
490.568	89.75
490.786	97.75
491.003	81.75
491.221	103.75
491.439	90.75
491.657	93.75
491.874	96.75
492.092	82.75
492.31	96.75
492.527	90.75
492.745	82.75
492.963	97.75
493.18	88.75
493.398	92.75
493.615	90.75
493.833	75.75
494.05	87.75
494.268	87.75
494.485	86.75
494.703	76.75
494.92	90.75
495.138	83.75
495.355	79.75
495.573	81.75
495.79	74.75
496.008	97.75
496.225	95.75
496.442	88.75
496.66	96.75
496.877	94.75
497.094	89.75
497.312	88.75
497.529	95.75
497.746	81.75
497.963	101.75
498.181	86.75
498.398	92.75
498.615	94.75
498.832	110.75
499.049	86.75
499.267	93.75
499.484	90.75
499.701	81.75
499.918	87.75
500.135	79.75
500.352	104.75
500.569	79.75
500.786	95.75
501.003	80.75
501.22	92.75
501.437	99.75
501.654	89.75
501.871	110.75
502.088	89.75
502.305	94.75
502.522	89.75
502.739	89.75
502.956	98.75
503.172	99.75
503.389	94.75
503.606	107.75
503.823	86.75
504.04	79.75
504.256	95.75
504.473	86.75
504.69	94.75
504.907	97.75
505.123	88.75
505.34	102.75
505.557	84.75
505.773	88.75
505.99	89.75
506.207	91.75
506.423	93.75
506.64	82.75
506.856	101.75
507.073	104.75
507.289	93.75
507.506	89.75
507.722	107.75
507.939	111.75
508.155	94.75
508.372	96.75
508.588	84.75
508.805	107.75
509.021	95.75
509.238	94.75
509.454	91.75
509.67	102.75
509.887	108.75
510.103	128.75
510.319	206.75
510.536	689.75
510.752	2270.75
510.968	625.75
511.184	151.75
511.401	102.75
511.617	101.75
511.833	99.75
512.049	82.75
512.265	95.75
512.481	103.75
512.698	95.75
512.914	90.75
513.13	77.75
513.346	87.75
513.562	101.75
513.778	98.75
513.994	100.75
514.21	95.75
514.426	106.75
514.642	131.75
514.858	123.75
515.074	172.75
515.29	425.75
515.506	1459.75
515.721	537.75
515.937	162.75
