Data from Circ_2002_H10_HRD10591_00030.txt Node
Date: Wed Jan 03 10:41:04 EST 2024
User: Yrep
Spectrometer: HR+D1059
Trigger mode: 1
Integration Time (sec): 1.000000E-1
Scans to average: 1
Electric dark correction enabled: true
Nonlinearity correction enabled: false
Boxcar width: 0
XAxis mode: Wavelengths
Number of Pixels in Spectrum: 2048
>>>>>Begin Spectral Data<<<<<
223.165	-23.75
223.4	-23.75
223.635	-23.75
223.869	-27.75
224.104	-18.75
224.338	-16.75
224.573	-22.75
224.808	-8.75
225.042	0.25
225.277	5.25
225.511	4.25
225.746	1.25
225.98	6.25
226.215	9.25
226.449	13.25
226.683	21.25
226.918	25.25
227.152	32.25
227.387	51.25
227.621	39.25
227.856	35.25
228.09	46.25
228.324	35.25
228.559	36.25
228.793	51.25
229.027	57.25
229.262	55.25
229.496	75.25
229.73	87.25
229.964	81.25
230.199	69.25
230.433	64.25
230.667	69.25
230.901	69.25
231.136	80.25
231.37	97.25
231.604	72.25
231.838	84.25
232.072	71.25
232.306	79.25
232.541	80.25
232.775	92.25
233.009	72.25
233.243	83.25
233.477	66.25
233.711	93.25
233.945	75.25
234.179	85.25
234.413	82.25
234.647	95.25
234.881	93.25
235.115	80.25
235.349	78.25
235.583	72.25
235.817	81.25
236.051	84.25
236.285	83.25
236.519	72.25
236.753	81.25
236.987	80.25
237.221	75.25
237.455	83.25
237.689	79.25
237.922	71.25
238.156	73.25
238.39	73.25
238.624	66.25
238.858	64.25
239.091	88.25
239.325	76.25
239.559	79.25
239.793	80.25
240.027	96.25
240.26	92.25
240.494	67.25
240.728	89.25
240.961	74.25
241.195	72.25
241.429	73.25
241.662	76.25
241.896	67.25
242.13	63.25
242.363	72.25
242.597	70.25
242.83	87.25
243.064	82.25
243.298	89.25
243.531	65.25
243.765	60.25
243.998	86.25
244.232	75.25
244.465	94.25
244.699	75.25
244.932	73.25
245.166	87.25
245.399	82.25
245.633	87.25
245.866	83.25
246.099	74.25
246.333	88.25
246.566	75.25
246.8	81.25
247.033	72.25
247.266	82.25
247.5	84.25
247.733	84.25
247.966	75.25
248.2	73.25
248.433	74.25
248.666	75.25
248.899	82.25
249.133	83.25
249.366	89.25
249.599	84.25
249.832	76.25
250.066	78.25
250.299	82.25
250.532	72.25
250.765	75.25
250.998	67.25
251.231	96.25
251.465	71.25
251.698	66.25
251.931	73.25
252.164	85.25
252.397	60.25
252.63	86.25
252.863	75.25
253.096	63.25
253.329	79.25
253.562	84.25
253.795	68.25
254.028	72.25
254.261	69.25
254.494	76.25
254.727	76.25
254.96	76.25
255.193	86.25
255.426	77.25
255.659	66.25
255.892	65.25
256.124	75.25
256.357	75.25
256.59	85.25
256.823	73.25
257.056	82.25
257.289	75.25
257.521	86.25
257.754	79.25
257.987	76.25
258.22	81.25
258.452	84.25
258.685	83.25
258.918	86.25
259.151	84.25
259.383	77.25
259.616	61.25
259.849	73.25
260.081	88.25
260.314	75.25
260.547	91.25
260.779	84.25
261.012	78.25
261.244	72.25
261.477	84.25
261.71	92.25
261.942	102.25
262.175	99.25
262.407	76.25
262.64	73.25
262.872	77.25
263.105	82.25
263.337	72.25
263.57	75.25
263.802	77.25
264.035	91.25
264.267	88.25
264.499	84.25
264.732	88.25
264.964	80.25
265.197	86.25
265.429	80.25
265.661	77.25
265.894	86.25
266.126	69.25
266.358	69.25
266.591	79.25
266.823	84.25
267.055	72.25
267.287	77.25
267.52	77.25
267.752	86.25
267.984	87.25
268.216	72.25
268.448	81.25
268.681	88.25
268.913	88.25
269.145	89.25
269.377	93.25
269.609	86.25
269.841	89.25
270.073	76.25
270.306	91.25
270.538	84.25
270.77	74.25
271.002	94.25
271.234	80.25
271.466	77.25
271.698	88.25
271.93	79.25
272.162	87.25
272.394	89.25
272.626	78.25
272.858	81.25
273.09	85.25
273.322	91.25
273.553	77.25
273.785	85.25
274.017	90.25
274.249	76.25
274.481	78.25
274.713	80.25
274.945	100.25
275.176	74.25
275.408	96.25
275.64	83.25
275.872	89.25
276.104	88.25
276.335	83.25
276.567	95.25
276.799	93.25
277.031	108.25
277.262	89.25
277.494	90.25
277.726	81.25
277.957	90.25
278.189	81.25
278.421	87.25
278.652	76.25
278.884	86.25
279.115	77.25
279.347	80.25
279.579	89.25
279.81	85.25
280.042	77.25
280.273	86.25
280.505	83.25
280.736	73.25
280.968	81.25
281.199	81.25
281.431	79.25
281.662	85.25
281.894	78.25
282.125	78.25
282.356	108.25
282.588	118.25
282.819	96.25
283.051	91.25
283.282	96.25
283.513	79.25
283.745	72.25
283.976	83.25
284.207	84.25
284.439	83.25
284.67	84.25
284.901	83.25
285.132	85.25
285.364	91.25
285.595	93.25
285.826	89.25
286.057	85.25
286.288	95.25
286.52	81.25
286.751	78.25
286.982	81.25
287.213	76.25
287.444	85.25
287.675	85.25
287.906	74.25
288.138	89.25
288.369	82.25
288.6	88.25
288.831	87.25
289.062	82.25
289.293	69.25
289.524	76.25
289.755	87.25
289.986	87.25
290.217	79.25
290.448	84.25
290.679	85.25
290.91	85.25
291.141	79.25
291.371	72.25
291.602	84.25
291.833	86.25
292.064	89.25
292.295	85.25
292.526	89.25
292.757	78.25
292.987	75.25
293.218	85.25
293.449	95.25
293.68	76.25
293.91	84.25
294.141	89.25
294.372	86.25
294.603	91.25
294.833	81.25
295.064	85.25
295.295	82.25
295.525	83.25
295.756	89.25
295.987	105.25
296.217	123.25
296.448	108.25
296.679	91.25
296.909	69.25
297.14	75.25
297.37	81.25
297.601	78.25
297.831	87.25
298.062	81.25
298.292	87.25
298.523	73.25
298.753	85.25
298.984	94.25
299.214	93.25
299.445	92.25
299.675	84.25
299.905	86.25
300.136	95.25
300.366	68.25
300.597	83.25
300.827	90.25
301.057	85.25
301.288	88.25
301.518	91.25
301.748	86.25
301.979	94.25
302.209	80.25
302.439	71.25
302.669	80.25
302.9	88.25
303.13	102.25
303.36	94.25
303.59	97.25
303.82	94.25
304.051	87.25
304.281	91.25
304.511	85.25
304.741	86.25
304.971	81.25
305.201	88.25
305.431	80.25
305.661	100.25
305.891	84.25
306.121	83.25
306.352	102.25
306.582	97.25
306.812	96.25
307.042	92.25
307.272	88.25
307.502	79.25
307.731	104.25
307.961	86.25
308.191	91.25
308.421	86.25
308.651	80.25
308.881	96.25
309.111	82.25
309.341	101.25
309.571	96.25
309.8	88.25
310.03	90.25
310.26	84.25
310.49	82.25
310.72	91.25
310.949	101.25
311.179	89.25
311.409	90.25
311.639	82.25
311.868	96.25
312.098	81.25
312.328	103.25
312.557	95.25
312.787	88.25
313.017	105.25
313.246	98.25
313.476	93.25
313.706	77.25
313.935	95.25
314.165	92.25
314.394	89.25
314.624	99.25
314.853	88.25
315.083	74.25
315.312	90.25
315.542	87.25
315.771	83.25
316.001	71.25
316.23	85.25
316.46	88.25
316.689	91.25
316.919	82.25
317.148	83.25
317.377	95.25
317.607	95.25
317.836	81.25
318.065	65.25
318.295	91.25
318.524	91.25
318.753	82.25
318.983	83.25
319.212	81.25
319.441	102.25
319.67	98.25
319.9	84.25
320.129	90.25
320.358	85.25
320.587	91.25
320.816	97.25
321.046	84.25
321.275	85.25
321.504	94.25
321.733	84.25
321.962	92.25
322.191	97.25
322.42	89.25
322.649	90.25
322.878	100.25
323.108	101.25
323.337	116.25
323.566	117.25
323.795	142.25
324.024	201.25
324.253	376.25
324.482	783.25
324.71	1620.25
324.939	2091.25
325.168	748.25
325.397	237.25
325.626	159.25
325.855	126.25
326.084	119.25
326.313	128.25
326.542	142.25
326.77	220.25
326.999	427.25
327.228	912.25
327.457	1694.25
327.686	1351.25
327.914	342.25
328.143	177.25
328.372	151.25
328.6	114.25
328.829	113.25
329.058	103.25
329.287	116.25
329.515	108.25
329.744	103.25
329.972	93.25
330.201	92.25
330.43	114.25
330.658	105.25
330.887	135.25
331.115	99.25
331.344	97.25
331.572	91.25
331.801	85.25
332.03	81.25
332.258	94.25
332.486	100.25
332.715	77.25
332.943	90.25
333.172	96.25
333.4	88.25
333.629	95.25
333.857	102.25
334.085	98.25
334.314	96.25
334.542	92.25
334.771	99.25
334.999	100.25
335.227	84.25
335.455	82.25
335.684	86.25
335.912	81.25
336.14	100.25
336.369	101.25
336.597	102.25
336.825	101.25
337.053	95.25
337.281	87.25
337.51	86.25
337.738	85.25
337.966	66.25
338.194	85.25
338.422	88.25
338.65	92.25
338.878	94.25
339.106	84.25
339.334	86.25
339.562	93.25
339.79	73.25
340.018	81.25
340.246	90.25
340.474	92.25
340.702	88.25
340.93	90.25
341.158	93.25
341.386	88.25
341.614	109.25
341.842	92.25
342.07	78.25
342.298	85.25
342.526	90.25
342.754	89.25
342.981	91.25
343.209	95.25
343.437	97.25
343.665	90.25
343.893	88.25
344.12	81.25
344.348	98.25
344.576	82.25
344.804	82.25
345.031	90.25
345.259	83.25
345.487	93.25
345.714	95.25
345.942	72.25
346.17	93.25
346.397	102.25
346.625	89.25
346.853	79.25
347.08	83.25
347.308	86.25
347.535	99.25
347.763	99.25
347.99	107.25
348.218	106.25
348.445	112.25
348.673	87.25
348.9	78.25
349.128	91.25
349.355	91.25
349.583	86.25
349.81	96.25
350.037	92.25
350.265	92.25
350.492	99.25
350.72	114.25
350.947	110.25
351.174	96.25
351.402	91.25
351.629	88.25
351.856	101.25
352.083	93.25
352.311	105.25
352.538	105.25
352.765	100.25
352.992	110.25
353.22	109.25
353.447	96.25
353.674	92.25
353.901	89.25
354.128	94.25
354.355	84.25
354.583	96.25
354.81	89.25
355.037	80.25
355.264	86.25
355.491	92.25
355.718	104.25
355.945	99.25
356.172	94.25
356.399	84.25
356.626	81.25
356.853	84.25
357.08	93.25
357.307	85.25
357.534	96.25
357.761	88.25
357.988	96.25
358.215	98.25
358.441	83.25
358.668	88.25
358.895	88.25
359.122	89.25
359.349	83.25
359.576	87.25
359.802	89.25
360.029	103.25
360.256	101.25
360.483	83.25
360.709	78.25
360.936	85.25
361.163	87.25
361.39	92.25
361.616	79.25
361.843	83.25
362.07	95.25
362.296	88.25
362.523	86.25
362.749	75.25
362.976	104.25
363.203	81.25
363.429	86.25
363.656	87.25
363.882	95.25
364.109	94.25
364.335	90.25
364.562	86.25
364.788	82.25
365.015	88.25
365.241	105.25
365.468	99.25
365.694	103.25
365.92	87.25
366.147	67.25
366.373	81.25
366.599	98.25
366.826	77.25
367.052	94.25
367.278	92.25
367.505	105.25
367.731	94.25
367.957	79.25
368.184	82.25
368.41	96.25
368.636	105.25
368.862	111.25
369.089	96.25
369.315	89.25
369.541	78.25
369.767	69.25
369.993	89.25
370.219	92.25
370.445	85.25
370.672	92.25
370.898	79.25
371.124	84.25
371.35	83.25
371.576	89.25
371.802	91.25
372.028	86.25
372.254	83.25
372.48	83.25
372.706	84.25
372.932	79.25
373.158	78.25
373.384	99.25
373.61	89.25
373.835	90.25
374.061	79.25
374.287	79.25
374.513	94.25
374.739	87.25
374.965	83.25
375.191	81.25
375.416	86.25
375.642	88.25
375.868	84.25
376.094	90.25
376.319	96.25
376.545	94.25
376.771	88.25
376.997	71.25
377.222	95.25
377.448	79.25
377.674	82.25
377.899	78.25
378.125	97.25
378.35	83.25
378.576	82.25
378.802	94.25
379.027	86.25
379.253	94.25
379.478	102.25
379.704	93.25
379.929	101.25
380.155	83.25
380.38	94.25
380.606	96.25
380.831	101.25
381.057	99.25
381.282	89.25
381.507	89.25
381.733	103.25
381.958	86.25
382.184	96.25
382.409	98.25
382.634	96.25
382.86	99.25
383.085	94.25
383.31	91.25
383.535	98.25
383.761	89.25
383.986	97.25
384.211	87.25
384.436	91.25
384.662	94.25
384.887	94.25
385.112	104.25
385.337	110.25
385.562	108.25
385.787	103.25
386.013	109.25
386.238	125.25
386.463	98.25
386.688	103.25
386.913	113.25
387.138	99.25
387.363	102.25
387.588	92.25
387.813	93.25
388.038	100.25
388.263	125.25
388.488	107.25
388.713	107.25
388.938	89.25
389.163	94.25
389.387	88.25
389.612	91.25
389.837	73.25
390.062	87.25
390.287	81.25
390.512	64.25
390.736	78.25
390.961	84.25
391.186	101.25
391.411	91.25
391.636	94.25
391.86	104.25
392.085	77.25
392.31	78.25
392.534	77.25
392.759	94.25
392.984	81.25
393.208	85.25
393.433	94.25
393.658	95.25
393.882	81.25
394.107	99.25
394.331	76.25
394.556	99.25
394.78	91.25
395.005	80.25
395.229	85.25
395.454	83.25
395.678	80.25
395.903	91.25
396.127	87.25
396.352	85.25
396.576	82.25
396.801	77.25
397.025	83.25
397.249	85.25
397.474	79.25
397.698	77.25
397.922	101.25
398.147	86.25
398.371	91.25
398.595	88.25
398.82	99.25
399.044	88.25
399.268	77.25
399.492	89.25
399.717	93.25
399.941	85.25
400.165	72.25
400.389	92.25
400.613	96.25
400.837	88.25
401.062	78.25
401.286	91.25
401.51	78.25
401.734	81.25
401.958	94.25
402.182	108.25
402.406	149.25
402.63	95.25
402.854	79.25
403.078	103.25
403.302	88.25
403.526	88.25
403.75	91.25
403.974	79.25
404.198	82.25
404.422	97.25
404.645	91.25
404.869	92.25
405.093	87.25
405.317	89.25
405.541	94.25
405.765	97.25
405.988	103.25
406.212	153.25
406.436	201.25
406.66	118.25
406.883	87.25
407.107	89.25
407.331	95.25
407.555	97.25
407.778	102.25
408.002	87.25
408.226	82.25
408.449	80.25
408.673	86.25
408.896	92.25
409.12	94.25
409.344	82.25
409.567	88.25
409.791	83.25
410.014	92.25
410.238	90.25
410.461	94.25
410.685	90.25
410.908	93.25
411.132	97.25
411.355	97.25
411.578	86.25
411.802	87.25
412.025	91.25
412.249	78.25
412.472	87.25
412.695	93.25
412.919	100.25
413.142	81.25
413.365	78.25
413.589	87.25
413.812	84.25
414.035	100.25
414.258	93.25
414.482	77.25
414.705	92.25
414.928	88.25
415.151	88.25
415.374	91.25
415.597	93.25
415.821	95.25
416.044	79.25
416.267	88.25
416.49	75.25
416.713	84.25
416.936	87.25
417.159	95.25
417.382	84.25
417.605	88.25
417.828	93.25
418.051	100.25
418.274	102.25
418.497	82.25
418.72	89.25
418.943	77.25
419.166	86.25
419.389	73.25
419.611	78.25
419.834	89.25
420.057	81.25
420.28	75.25
420.503	85.25
420.726	89.25
420.948	84.25
421.171	89.25
421.394	87.25
421.617	73.25
421.839	75.25
422.062	92.25
422.285	89.25
422.507	92.25
422.73	99.25
422.953	92.25
423.175	94.25
423.398	91.25
423.621	95.25
423.843	76.25
424.066	87.25
424.288	84.25
424.511	86.25
424.733	88.25
424.956	103.25
425.178	113.25
425.401	93.25
425.623	91.25
425.846	71.25
426.068	84.25
426.291	85.25
426.513	72.25
426.735	107.25
426.958	81.25
427.18	82.25
427.402	126.25
427.625	149.25
427.847	123.25
428.069	114.25
428.292	81.25
428.514	88.25
428.736	79.25
428.958	77.25
429.181	96.25
429.403	72.25
429.625	92.25
429.847	78.25
430.069	87.25
430.292	89.25
430.514	64.25
430.736	85.25
430.958	81.25
431.18	78.25
431.402	89.25
431.624	71.25
431.846	85.25
432.068	86.25
432.29	100.25
432.512	84.25
432.734	86.25
432.956	95.25
433.178	101.25
433.4	94.25
433.622	81.25
433.844	95.25
434.066	94.25
434.287	86.25
434.509	91.25
434.731	87.25
434.953	93.25
435.175	73.25
435.397	80.25
435.618	100.25
435.84	89.25
436.062	125.25
436.284	114.25
436.505	89.25
436.727	104.25
436.949	78.25
437.17	98.25
437.392	80.25
437.614	81.25
437.835	89.25
438.057	110.25
438.278	101.25
438.5	95.25
438.721	114.25
438.943	99.25
439.165	87.25
439.386	80.25
439.608	88.25
439.829	94.25
440.05	114.25
440.272	120.25
440.493	97.25
440.715	77.25
440.936	83.25
441.158	106.25
441.379	84.25
441.6	84.25
441.822	92.25
442.043	91.25
442.264	97.25
442.486	88.25
442.707	80.25
442.928	84.25
443.149	107.25
443.371	109.25
443.592	98.25
443.813	107.25
444.034	109.25
444.255	97.25
444.476	83.25
444.698	82.25
444.919	97.25
445.14	132.25
445.361	116.25
445.582	104.25
445.803	114.25
446.024	127.25
446.245	119.25
446.466	93.25
446.687	91.25
446.908	101.25
447.129	86.25
447.35	92.25
447.571	91.25
447.792	81.25
448.013	97.25
448.234	96.25
448.455	89.25
448.675	96.25
448.896	106.25
449.117	104.25
449.338	98.25
449.559	104.25
449.779	120.25
450	80.25
450.221	84.25
450.442	91.25
450.662	97.25
450.883	95.25
451.104	95.25
451.324	86.25
451.545	88.25
451.766	91.25
451.986	84.25
452.207	105.25
452.428	93.25
452.648	91.25
452.869	106.25
453.089	100.25
453.31	115.25
453.53	100.25
453.751	75.25
453.971	86.25
454.192	89.25
454.412	91.25
454.633	76.25
454.853	97.25
455.073	76.25
455.294	86.25
455.514	90.25
455.734	87.25
455.955	87.25
456.175	94.25
456.395	87.25
456.616	85.25
456.836	80.25
457.056	80.25
457.276	73.25
457.497	77.25
457.717	74.25
457.937	73.25
458.157	86.25
458.377	88.25
458.598	93.25
458.818	113.25
459.038	132.25
459.258	107.25
459.478	83.25
459.698	83.25
459.918	84.25
460.138	73.25
460.358	85.25
460.578	82.25
460.798	92.25
461.018	92.25
461.238	89.25
461.458	89.25
461.678	85.25
461.898	104.25
462.118	81.25
462.338	71.25
462.558	83.25
462.777	74.25
462.997	69.25
463.217	63.25
463.437	81.25
463.657	82.25
463.876	89.25
464.096	84.25
464.316	82.25
464.536	89.25
464.755	104.25
464.975	106.25
465.195	145.25
465.414	147.25
465.634	97.25
465.854	91.25
466.073	91.25
466.293	74.25
466.512	76.25
466.732	68.25
466.951	84.25
467.171	93.25
467.391	89.25
467.61	114.25
467.829	85.25
468.049	88.25
468.268	92.25
468.488	72.25
468.707	78.25
468.927	100.25
469.146	71.25
469.365	88.25
469.585	80.25
469.804	83.25
470.023	87.25
470.243	83.25
470.462	97.25
470.681	99.25
470.901	84.25
471.12	82.25
471.339	92.25
471.558	71.25
471.777	91.25
471.997	94.25
472.216	92.25
472.435	85.25
472.654	103.25
472.873	84.25
473.092	80.25
473.311	80.25
473.53	83.25
473.749	94.25
473.968	85.25
474.187	91.25
474.406	78.25
474.625	91.25
474.844	85.25
475.063	86.25
475.282	86.25
475.501	70.25
475.72	83.25
475.939	83.25
476.158	87.25
476.377	92.25
476.596	87.25
476.814	76.25
477.033	87.25
477.252	97.25
477.471	78.25
477.69	92.25
477.908	82.25
478.127	91.25
478.346	77.25
478.564	93.25
478.783	90.25
479.002	89.25
479.22	84.25
479.439	89.25
479.658	85.25
479.876	91.25
480.095	94.25
480.313	96.25
480.532	93.25
480.751	110.25
480.969	98.25
481.188	126.25
481.406	98.25
481.624	89.25
481.843	100.25
482.061	84.25
482.28	90.25
482.498	83.25
482.717	95.25
482.935	80.25
483.153	89.25
483.372	82.25
483.59	79.25
483.808	85.25
484.027	80.25
484.245	76.25
484.463	88.25
484.681	86.25
484.9	90.25
485.118	83.25
485.336	81.25
485.554	92.25
485.772	118.25
485.99	91.25
486.209	112.25
486.427	103.25
486.645	101.25
486.863	104.25
487.081	88.25
487.299	90.25
487.517	97.25
487.735	82.25
487.953	97.25
488.171	81.25
488.389	83.25
488.607	86.25
488.825	73.25
489.043	91.25
489.261	94.25
489.479	79.25
489.696	89.25
489.914	89.25
490.132	79.25
490.35	84.25
490.568	84.25
490.786	100.25
491.003	78.25
491.221	62.25
491.439	82.25
491.657	95.25
491.874	78.25
492.092	78.25
492.31	103.25
492.527	94.25
492.745	95.25
492.963	90.25
493.18	80.25
493.398	94.25
493.615	91.25
493.833	102.25
494.05	91.25
494.268	92.25
494.485	77.25
494.703	76.25
494.92	68.25
495.138	89.25
495.355	93.25
495.573	111.25
495.79	97.25
496.008	99.25
496.225	92.25
496.442	73.25
496.66	93.25
496.877	78.25
497.094	69.25
497.312	92.25
497.529	81.25
497.746	92.25
497.963	84.25
498.181	93.25
498.398	101.25
498.615	94.25
498.832	76.25
499.049	86.25
499.267	81.25
499.484	77.25
499.701	79.25
499.918	86.25
500.135	82.25
500.352	68.25
500.569	92.25
500.786	93.25
501.003	90.25
501.22	86.25
501.437	77.25
501.654	72.25
501.871	88.25
502.088	84.25
502.305	76.25
502.522	96.25
502.739	80.25
502.956	91.25
503.172	92.25
503.389	93.25
503.606	86.25
503.823	96.25
504.04	109.25
504.256	93.25
504.473	95.25
504.69	95.25
504.907	81.25
505.123	72.25
505.34	91.25
505.557	92.25
505.773	89.25
505.99	88.25
506.207	78.25
506.423	72.25
506.64	75.25
506.856	83.25
507.073	86.25
507.289	85.25
507.506	91.25
507.722	91.25
507.939	101.25
508.155	89.25
508.372	87.25
508.588	96.25
508.805	84.25
509.021	83.25
509.238	98.25
509.454	97.25
509.67	93.25
509.887	113.25
510.103	118.25
510.319	205.25
510.536	623.25
510.752	1925.25
510.968	581.25
511.184	147.25
511.401	111.25
511.617	97.25
511.833	102.25
512.049	85.25
512.265	97.25
512.481	89.25
512.698	91.25
512.914	99.25
513.13	92.25
513.346	85.25
513.562	85.25
513.778	97.25
513.994	83.25
514.21	89.25
514.426	93.25
514.642	110.25
514.858	102.25
515.074	156.25
515.29	384.25
515.506	1173.25
515.721	465.25
515.937	134.25
516.153	97.25
516.369	93.25
516.585	102.25
516.801	95.25
517.016	92.25
517.232	84.25
517.448	99.25
