Data from Circ_2002_H10_HRD10591_00098.txt Node
Date: Wed Jan 03 10:41:17 EST 2024
User: Yrep
Spectrometer: HR+D1059
Trigger mode: 1
Integration Time (sec): 1.000000E-1
Scans to average: 1
Electric dark correction enabled: true
Nonlinearity correction enabled: false
Boxcar width: 0
XAxis mode: Wavelengths
Number of Pixels in Spectrum: 2048
>>>>>Begin Spectral Data<<<<<
223.165	-11.88
223.4	-11.88
223.635	-11.88
223.869	-29.88
224.104	-26.88
224.338	-26.88
224.573	-13.88
224.808	-16.88
225.042	3.12
225.277	-0.88
225.511	5.12
225.746	8.12
225.98	8.12
226.215	7.12
226.449	11.12
226.683	29.12
226.918	21.12
227.152	34.12
227.387	19.12
227.621	43.12
227.856	46.12
228.09	54.12
228.324	44.12
228.559	64.12
228.793	51.12
229.027	65.12
229.262	49.12
229.496	72.12
229.73	74.12
229.964	74.12
230.199	77.12
230.433	68.12
230.667	93.12
230.901	92.12
231.136	84.12
231.37	71.12
231.604	67.12
231.838	88.12
232.072	85.12
232.306	81.12
232.541	87.12
232.775	86.12
233.009	84.12
233.243	78.12
233.477	75.12
233.711	80.12
233.945	83.12
234.179	84.12
234.413	77.12
234.647	68.12
234.881	98.12
235.115	76.12
235.349	84.12
235.583	71.12
235.817	81.12
236.051	80.12
236.285	75.12
236.519	71.12
236.753	62.12
236.987	86.12
237.221	79.12
237.455	72.12
237.689	74.12
237.922	69.12
238.156	79.12
238.39	74.12
238.624	70.12
238.858	74.12
239.091	68.12
239.325	58.12
239.559	75.12
239.793	63.12
240.027	61.12
240.26	83.12
240.494	89.12
240.728	70.12
240.961	79.12
241.195	80.12
241.429	83.12
241.662	84.12
241.896	79.12
242.13	86.12
242.363	72.12
242.597	87.12
242.83	66.12
243.064	73.12
243.298	65.12
243.531	67.12
243.765	68.12
243.998	77.12
244.232	90.12
244.465	80.12
244.699	87.12
244.932	80.12
245.166	83.12
245.399	78.12
245.633	85.12
245.866	87.12
246.099	75.12
246.333	86.12
246.566	71.12
246.8	77.12
247.033	79.12
247.266	75.12
247.5	81.12
247.733	82.12
247.966	69.12
248.2	72.12
248.433	83.12
248.666	71.12
248.899	82.12
249.133	81.12
249.366	84.12
249.599	84.12
249.832	58.12
250.066	85.12
250.299	87.12
250.532	86.12
250.765	81.12
250.998	82.12
251.231	82.12
251.465	86.12
251.698	87.12
251.931	79.12
252.164	84.12
252.397	79.12
252.63	85.12
252.863	79.12
253.096	87.12
253.329	88.12
253.562	75.12
253.795	83.12
254.028	97.12
254.261	80.12
254.494	86.12
254.727	80.12
254.96	84.12
255.193	76.12
255.426	82.12
255.659	86.12
255.892	86.12
256.124	89.12
256.357	85.12
256.59	79.12
256.823	93.12
257.056	93.12
257.289	72.12
257.521	71.12
257.754	67.12
257.987	79.12
258.22	89.12
258.452	83.12
258.685	73.12
258.918	99.12
259.151	83.12
259.383	68.12
259.616	73.12
259.849	76.12
260.081	90.12
260.314	86.12
260.547	100.12
260.779	91.12
261.012	87.12
261.244	72.12
261.477	90.12
261.71	77.12
261.942	99.12
262.175	121.12
262.407	85.12
262.64	91.12
262.872	86.12
263.105	87.12
263.337	87.12
263.57	80.12
263.802	82.12
264.035	71.12
264.267	98.12
264.499	90.12
264.732	97.12
264.964	79.12
265.197	82.12
265.429	96.12
265.661	94.12
265.894	78.12
266.126	95.12
266.358	88.12
266.591	89.12
266.823	81.12
267.055	79.12
267.287	77.12
267.52	87.12
267.752	72.12
267.984	83.12
268.216	70.12
268.448	84.12
268.681	98.12
268.913	88.12
269.145	66.12
269.377	81.12
269.609	85.12
269.841	87.12
270.073	85.12
270.306	90.12
270.538	89.12
270.77	80.12
271.002	94.12
271.234	85.12
271.466	93.12
271.698	90.12
271.93	74.12
272.162	96.12
272.394	82.12
272.626	82.12
272.858	90.12
273.09	82.12
273.322	86.12
273.553	83.12
273.785	69.12
274.017	84.12
274.249	95.12
274.481	85.12
274.713	75.12
274.945	83.12
275.176	101.12
275.408	72.12
275.64	80.12
275.872	81.12
276.104	85.12
276.335	84.12
276.567	106.12
276.799	92.12
277.031	92.12
277.262	73.12
277.494	88.12
277.726	73.12
277.957	87.12
278.189	79.12
278.421	83.12
278.652	96.12
278.884	89.12
279.115	95.12
279.347	79.12
279.579	92.12
279.81	85.12
280.042	101.12
280.273	101.12
280.505	103.12
280.736	77.12
280.968	96.12
281.199	79.12
281.431	79.12
281.662	90.12
281.894	107.12
282.125	103.12
282.356	108.12
282.588	136.12
282.819	125.12
283.051	90.12
283.282	81.12
283.513	94.12
283.745	93.12
283.976	75.12
284.207	88.12
284.439	82.12
284.67	86.12
284.901	77.12
285.132	92.12
285.364	87.12
285.595	83.12
285.826	95.12
286.057	96.12
286.288	87.12
286.52	90.12
286.751	92.12
286.982	90.12
287.213	78.12
287.444	89.12
287.675	89.12
287.906	86.12
288.138	83.12
288.369	95.12
288.6	95.12
288.831	86.12
289.062	91.12
289.293	84.12
289.524	92.12
289.755	71.12
289.986	91.12
290.217	88.12
290.448	77.12
290.679	95.12
290.91	75.12
291.141	85.12
291.371	90.12
291.602	81.12
291.833	67.12
292.064	96.12
292.295	99.12
292.526	97.12
292.757	88.12
292.987	81.12
293.218	88.12
293.449	97.12
293.68	89.12
293.91	86.12
294.141	111.12
294.372	89.12
294.603	94.12
294.833	95.12
295.064	91.12
295.295	89.12
295.525	92.12
295.756	97.12
295.987	113.12
296.217	133.12
296.448	111.12
296.679	101.12
296.909	103.12
297.14	106.12
297.37	91.12
297.601	80.12
297.831	86.12
298.062	85.12
298.292	86.12
298.523	93.12
298.753	101.12
298.984	97.12
299.214	85.12
299.445	89.12
299.675	81.12
299.905	82.12
300.136	104.12
300.366	83.12
300.597	91.12
300.827	102.12
301.057	105.12
301.288	99.12
301.518	97.12
301.748	75.12
301.979	106.12
302.209	89.12
302.439	98.12
302.669	91.12
302.9	93.12
303.13	83.12
303.36	97.12
303.59	104.12
303.82	100.12
304.051	94.12
304.281	87.12
304.511	77.12
304.741	83.12
304.971	87.12
305.201	78.12
305.431	88.12
305.661	92.12
305.891	91.12
306.121	76.12
306.352	92.12
306.582	105.12
306.812	92.12
307.042	92.12
307.272	93.12
307.502	111.12
307.731	99.12
307.961	92.12
308.191	96.12
308.421	87.12
308.651	86.12
308.881	95.12
309.111	95.12
309.341	87.12
309.571	86.12
309.8	93.12
310.03	93.12
310.26	101.12
310.49	81.12
310.72	92.12
310.949	97.12
311.179	92.12
311.409	92.12
311.639	97.12
311.868	86.12
312.098	101.12
312.328	104.12
312.557	97.12
312.787	107.12
313.017	95.12
313.246	81.12
313.476	90.12
313.706	86.12
313.935	88.12
314.165	93.12
314.394	97.12
314.624	86.12
314.853	96.12
315.083	107.12
315.312	91.12
315.542	81.12
315.771	83.12
316.001	91.12
316.23	96.12
316.46	79.12
316.689	104.12
316.919	94.12
317.148	87.12
317.377	85.12
317.607	88.12
317.836	94.12
318.065	80.12
318.295	94.12
318.524	99.12
318.753	91.12
318.983	96.12
319.212	104.12
319.441	102.12
319.67	99.12
319.9	90.12
320.129	82.12
320.358	95.12
320.587	92.12
320.816	88.12
321.046	90.12
321.275	93.12
321.504	93.12
321.733	91.12
321.962	98.12
322.191	101.12
322.42	108.12
322.649	101.12
322.878	109.12
323.108	124.12
323.337	114.12
323.566	130.12
323.795	148.12
324.024	202.12
324.253	387.12
324.482	760.12
324.71	1555.12
324.939	2031.12
325.168	764.12
325.397	239.12
325.626	132.12
325.855	122.12
326.084	124.12
326.313	124.12
326.542	144.12
326.77	229.12
326.999	453.12
327.228	907.12
327.457	1663.12
327.686	1339.12
327.914	362.12
328.143	191.12
328.372	147.12
328.6	130.12
328.829	123.12
329.058	118.12
329.287	118.12
329.515	112.12
329.744	111.12
329.972	122.12
330.201	130.12
330.43	160.12
330.658	145.12
330.887	122.12
331.115	105.12
331.344	103.12
331.572	93.12
331.801	99.12
332.03	107.12
332.258	93.12
332.486	87.12
332.715	91.12
332.943	99.12
333.172	98.12
333.4	106.12
333.629	101.12
333.857	115.12
334.085	116.12
334.314	137.12
334.542	176.12
334.771	178.12
334.999	116.12
335.227	99.12
335.455	97.12
335.684	89.12
335.912	92.12
336.14	96.12
336.369	105.12
336.597	87.12
336.825	95.12
337.053	102.12
337.281	93.12
337.51	83.12
337.738	86.12
337.966	83.12
338.194	89.12
338.422	95.12
338.65	89.12
338.878	101.12
339.106	100.12
339.334	88.12
339.562	84.12
339.79	94.12
340.018	99.12
340.246	99.12
340.474	85.12
340.702	96.12
340.93	92.12
341.158	87.12
341.386	92.12
341.614	95.12
341.842	90.12
342.07	84.12
342.298	90.12
342.526	100.12
342.754	92.12
342.981	99.12
343.209	88.12
343.437	112.12
343.665	89.12
343.893	98.12
344.12	95.12
344.348	92.12
344.576	94.12
344.804	97.12
345.031	89.12
345.259	97.12
345.487	97.12
345.714	94.12
345.942	103.12
346.17	99.12
346.397	98.12
346.625	92.12
346.853	93.12
347.08	93.12
347.308	89.12
347.535	100.12
347.763	103.12
347.99	97.12
348.218	118.12
348.445	79.12
348.673	117.12
348.9	91.12
349.128	96.12
349.355	86.12
349.583	84.12
349.81	87.12
350.037	95.12
350.265	102.12
350.492	97.12
350.72	92.12
350.947	86.12
351.174	113.12
351.402	110.12
351.629	114.12
351.856	90.12
352.083	96.12
352.311	98.12
352.538	106.12
352.765	107.12
352.992	117.12
353.22	112.12
353.447	100.12
353.674	87.12
353.901	88.12
354.128	103.12
354.355	90.12
354.583	94.12
354.81	102.12
355.037	108.12
355.264	112.12
355.491	88.12
355.718	102.12
355.945	93.12
356.172	99.12
356.399	98.12
356.626	90.12
356.853	82.12
357.08	101.12
357.307	103.12
357.534	101.12
357.761	88.12
357.988	88.12
358.215	105.12
358.441	91.12
358.668	93.12
358.895	91.12
359.122	97.12
359.349	84.12
359.576	85.12
359.802	103.12
360.029	89.12
360.256	103.12
360.483	93.12
360.709	93.12
360.936	93.12
361.163	104.12
361.39	92.12
361.616	88.12
361.843	80.12
362.07	119.12
362.296	103.12
362.523	89.12
362.749	103.12
362.976	97.12
363.203	59.12
363.429	85.12
363.656	94.12
363.882	81.12
364.109	91.12
364.335	108.12
364.562	98.12
364.788	95.12
365.015	98.12
365.241	90.12
365.468	110.12
365.694	103.12
365.92	87.12
366.147	96.12
366.373	87.12
366.599	98.12
366.826	77.12
367.052	72.12
367.278	85.12
367.505	91.12
367.731	98.12
367.957	93.12
368.184	95.12
368.41	92.12
368.636	101.12
368.862	111.12
369.089	100.12
369.315	91.12
369.541	87.12
369.767	86.12
369.993	89.12
370.219	90.12
370.445	91.12
370.672	93.12
370.898	86.12
371.124	90.12
371.35	94.12
371.576	84.12
371.802	82.12
372.028	96.12
372.254	97.12
372.48	91.12
372.706	103.12
372.932	84.12
373.158	87.12
373.384	92.12
373.61	99.12
373.835	80.12
374.061	98.12
374.287	97.12
374.513	75.12
374.739	92.12
374.965	98.12
375.191	88.12
375.416	99.12
375.642	90.12
375.868	99.12
376.094	70.12
376.319	106.12
376.545	100.12
376.771	84.12
376.997	85.12
377.222	89.12
377.448	85.12
377.674	92.12
377.899	91.12
378.125	88.12
378.35	95.12
378.576	81.12
378.802	87.12
379.027	95.12
379.253	87.12
379.478	77.12
379.704	84.12
379.929	85.12
380.155	93.12
380.38	93.12
380.606	100.12
380.831	89.12
381.057	97.12
381.282	87.12
381.507	98.12
381.733	108.12
381.958	95.12
382.184	84.12
382.409	97.12
382.634	97.12
382.86	92.12
383.085	101.12
383.31	103.12
383.535	101.12
383.761	97.12
383.986	100.12
384.211	84.12
384.436	96.12
384.662	95.12
384.887	111.12
385.112	92.12
385.337	113.12
385.562	97.12
385.787	109.12
386.013	112.12
386.238	114.12
386.463	111.12
386.688	112.12
386.913	99.12
387.138	116.12
387.363	91.12
387.588	100.12
387.813	96.12
388.038	90.12
388.263	103.12
388.488	111.12
388.713	93.12
388.938	97.12
389.163	106.12
389.387	97.12
389.612	103.12
389.837	93.12
390.062	103.12
390.287	101.12
390.512	101.12
390.736	78.12
390.961	92.12
391.186	85.12
391.411	89.12
391.636	84.12
391.86	87.12
392.085	93.12
392.31	86.12
392.534	90.12
392.759	88.12
392.984	86.12
393.208	76.12
393.433	92.12
393.658	97.12
393.882	90.12
394.107	78.12
394.331	84.12
394.556	94.12
394.78	92.12
395.005	88.12
395.229	91.12
395.454	84.12
395.678	92.12
395.903	97.12
396.127	91.12
396.352	84.12
396.576	90.12
396.801	84.12
397.025	87.12
397.249	91.12
397.474	92.12
397.698	89.12
397.922	93.12
398.147	90.12
398.371	85.12
398.595	84.12
398.82	88.12
399.044	91.12
399.268	83.12
399.492	91.12
399.717	81.12
399.941	90.12
400.165	91.12
400.389	72.12
400.613	90.12
400.837	93.12
401.062	86.12
401.286	75.12
401.51	84.12
401.734	90.12
401.958	105.12
402.182	115.12
402.406	128.12
402.63	121.12
402.854	93.12
403.078	89.12
403.302	75.12
403.526	90.12
403.75	102.12
403.974	99.12
404.198	98.12
404.422	82.12
404.645	80.12
404.869	69.12
405.093	92.12
405.317	98.12
405.541	108.12
405.765	101.12
405.988	102.12
406.212	149.12
406.436	187.12
406.66	120.12
406.883	90.12
407.107	88.12
407.331	84.12
407.555	105.12
407.778	88.12
408.002	83.12
408.226	79.12
408.449	86.12
408.673	75.12
408.896	76.12
409.12	92.12
409.344	77.12
409.567	95.12
409.791	101.12
410.014	88.12
410.238	92.12
410.461	86.12
410.685	92.12
410.908	99.12
411.132	99.12
411.355	106.12
411.578	77.12
411.802	85.12
412.025	77.12
412.249	97.12
412.472	97.12
412.695	111.12
412.919	92.12
413.142	87.12
413.365	98.12
413.589	86.12
413.812	84.12
414.035	75.12
414.258	95.12
414.482	87.12
414.705	93.12
414.928	97.12
415.151	93.12
415.374	82.12
415.597	102.12
415.821	89.12
416.044	87.12
416.267	91.12
416.49	92.12
416.713	85.12
416.936	101.12
417.159	91.12
417.382	78.12
417.605	85.12
417.828	100.12
418.051	93.12
418.274	91.12
418.497	85.12
418.72	83.12
418.943	99.12
419.166	85.12
419.389	75.12
419.611	80.12
419.834	86.12
420.057	90.12
420.28	86.12
420.503	79.12
420.726	96.12
420.948	93.12
421.171	91.12
421.394	86.12
421.617	74.12
421.839	93.12
422.062	81.12
422.285	87.12
422.507	98.12
422.73	94.12
422.953	86.12
423.175	99.12
423.398	90.12
423.621	90.12
423.843	79.12
424.066	96.12
424.288	75.12
424.511	85.12
424.733	103.12
424.956	107.12
425.178	97.12
425.401	91.12
425.623	104.12
425.846	85.12
426.068	97.12
426.291	92.12
426.513	81.12
426.735	94.12
426.958	93.12
427.18	101.12
427.402	136.12
427.625	148.12
427.847	111.12
428.069	118.12
428.292	89.12
428.514	88.12
428.736	82.12
428.958	88.12
429.181	82.12
429.403	79.12
429.625	82.12
429.847	93.12
430.069	103.12
430.292	101.12
430.514	82.12
430.736	91.12
430.958	85.12
431.18	73.12
431.402	92.12
431.624	83.12
431.846	78.12
432.068	84.12
432.29	95.12
432.512	88.12
432.734	94.12
432.956	93.12
433.178	82.12
433.4	96.12
433.622	85.12
433.844	95.12
434.066	97.12
434.287	82.12
434.509	85.12
434.731	98.12
434.953	86.12
435.175	95.12
435.397	95.12
435.618	101.12
435.84	102.12
436.062	118.12
436.284	113.12
436.505	115.12
436.727	103.12
436.949	94.12
437.17	89.12
437.392	89.12
437.614	110.12
437.835	102.12
438.057	116.12
438.278	103.12
438.5	95.12
438.721	115.12
438.943	113.12
439.165	94.12
439.386	86.12
439.608	83.12
439.829	106.12
440.05	109.12
440.272	135.12
440.493	101.12
440.715	82.12
440.936	96.12
441.158	84.12
441.379	100.12
441.6	90.12
441.822	87.12
442.043	95.12
442.264	81.12
442.486	88.12
442.707	106.12
442.928	103.12
443.149	112.12
443.371	131.12
443.592	106.12
443.813	115.12
444.034	100.12
444.255	82.12
444.476	82.12
444.698	87.12
444.919	83.12
445.14	128.12
445.361	132.12
445.582	98.12
445.803	125.12
446.024	130.12
446.245	133.12
446.466	95.12
446.687	86.12
446.908	98.12
447.129	83.12
447.35	73.12
447.571	83.12
447.792	99.12
448.013	84.12
448.234	96.12
448.455	99.12
448.675	108.12
448.896	129.12
449.117	102.12
449.338	113.12
449.559	126.12
449.779	128.12
450	91.12
450.221	85.12
450.442	87.12
450.662	89.12
450.883	97.12
451.104	97.12
451.324	91.12
451.545	87.12
451.766	92.12
451.986	93.12
452.207	103.12
452.428	101.12
452.648	94.12
452.869	112.12
453.089	117.12
453.31	111.12
453.53	77.12
453.751	87.12
453.971	87.12
454.192	100.12
454.412	84.12
454.633	87.12
454.853	91.12
455.073	82.12
455.294	91.12
455.514	92.12
455.734	97.12
455.955	92.12
456.175	77.12
456.395	86.12
456.616	86.12
456.836	79.12
457.056	91.12
457.276	87.12
457.497	95.12
457.717	80.12
457.937	108.12
458.157	80.12
458.377	97.12
458.598	104.12
458.818	129.12
459.038	147.12
459.258	117.12
459.478	90.12
459.698	91.12
459.918	98.12
460.138	73.12
460.358	77.12
460.578	77.12
460.798	73.12
461.018	96.12
461.238	89.12
461.458	74.12
461.678	79.12
461.898	88.12
462.118	92.12
462.338	89.12
462.558	96.12
462.777	84.12
462.997	90.12
463.217	83.12
463.437	85.12
463.657	79.12
463.876	84.12
464.096	75.12
464.316	85.12
464.536	91.12
464.755	95.12
464.975	102.12
465.195	148.12
465.414	165.12
465.634	88.12
465.854	95.12
466.073	94.12
466.293	79.12
466.512	87.12
466.732	79.12
466.951	93.12
467.171	83.12
467.391	93.12
467.61	88.12
467.829	96.12
468.049	110.12
468.268	114.12
468.488	87.12
468.707	96.12
468.927	85.12
469.146	75.12
469.365	93.12
469.585	93.12
469.804	87.12
470.023	100.12
470.243	92.12
470.462	87.12
470.681	114.12
470.901	87.12
471.12	85.12
471.339	90.12
471.558	96.12
471.777	95.12
471.997	100.12
472.216	151.12
472.435	208.12
472.654	127.12
472.873	94.12
473.092	87.12
473.311	91.12
473.53	79.12
473.749	99.12
473.968	96.12
474.187	97.12
474.406	93.12
474.625	81.12
474.844	76.12
475.063	83.12
475.282	86.12
475.501	97.12
475.72	97.12
475.939	82.12
476.158	87.12
476.377	71.12
476.596	89.12
476.814	95.12
477.033	84.12
477.252	94.12
477.471	81.12
477.69	101.12
477.908	97.12
478.127	82.12
478.346	93.12
478.564	83.12
478.783	92.12
479.002	92.12
479.22	85.12
479.439	80.12
479.658	107.12
479.876	84.12
480.095	83.12
480.313	98.12
480.532	96.12
480.751	83.12
480.969	138.12
481.188	341.12
481.406	225.12
481.624	110.12
481.843	90.12
482.061	100.12
482.28	95.12
482.498	93.12
482.717	92.12
482.935	64.12
483.153	87.12
483.372	90.12
483.59	82.12
483.808	90.12
484.027	92.12
484.245	89.12
484.463	102.12
484.681	87.12
484.9	98.12
485.118	78.12
485.336	91.12
485.554	89.12
485.772	109.12
485.99	95.12
486.209	89.12
486.427	100.12
486.645	111.12
486.863	93.12
487.081	103.12
487.299	90.12
487.517	96.12
487.735	90.12
487.953	95.12
488.171	87.12
488.389	105.12
488.607	93.12
488.825	85.12
489.043	91.12
489.261	97.12
489.479	83.12
489.696	89.12
489.914	87.12
490.132	90.12
490.35	90.12
490.568	81.12
490.786	86.12
491.003	87.12
491.221	89.12
491.439	88.12
491.657	88.12
491.874	94.12
492.092	92.12
492.31	81.12
492.527	82.12
492.745	85.12
492.963	100.12
493.18	96.12
493.398	89.12
493.615	89.12
493.833	93.12
494.05	84.12
494.268	91.12
494.485	90.12
494.703	91.12
494.92	89.12
495.138	90.12
495.355	88.12
495.573	76.12
495.79	92.12
496.008	88.12
496.225	90.12
496.442	92.12
496.66	84.12
496.877	92.12
497.094	101.12
497.312	111.12
497.529	78.12
497.746	98.12
497.963	92.12
498.181	81.12
498.398	101.12
498.615	107.12
498.832	99.12
499.049	79.12
499.267	83.12
499.484	81.12
499.701	85.12
499.918	90.12
500.135	84.12
500.352	73.12
500.569	90.12
500.786	81.12
501.003	90.12
501.22	96.12
501.437	82.12
501.654	84.12
501.871	106.12
502.088	97.12
502.305	98.12
502.522	101.12
502.739	96.12
502.956	95.12
503.172	81.12
503.389	102.12
503.606	110.12
503.823	101.12
504.04	83.12
504.256	100.12
504.473	92.12
504.69	88.12
504.907	89.12
505.123	97.12
505.34	99.12
505.557	83.12
505.773	98.12
505.99	87.12
506.207	95.12
506.423	100.12
506.64	86.12
506.856	79.12
507.073	69.12
507.289	100.12
507.506	87.12
507.722	103.12
507.939	107.12
508.155	90.12
508.372	101.12
508.588	93.12
508.805	101.12
509.021	104.12
509.238	97.12
509.454	89.12
509.67	103.12
509.887	104.12
510.103	116.12
510.319	185.12
510.536	616.12
510.752	1933.12
510.968	556.12
511.184	148.12
511.401	101.12
511.617	91.12
511.833	104.12
512.049	91.12
512.265	84.12
512.481	82.12
512.698	97.12
512.914	101.12
513.13	92.12
513.346	84.12
513.562	95.12
513.778	114.12
513.994	85.12
514.21	91.12
514.426	96.12
514.642	120.12
514.858	109.12
515.074	163.12
515.29	375.12
515.506	1191.12
515.721	452.12
515.937	127.12
