Data from Circ_2002_H10_HRD10591_00073.txt Node
Date: Wed Jan 03 10:41:12 EST 2024
User: Yrep
Spectrometer: HR+D1059
Trigger mode: 1
Integration Time (sec): 1.000000E-1
Scans to average: 1
Electric dark correction enabled: true
Nonlinearity correction enabled: false
Boxcar width: 0
XAxis mode: Wavelengths
Number of Pixels in Spectrum: 2048
>>>>>Begin Spectral Data<<<<<
223.165	-24.56
223.4	-24.56
223.635	-24.56
223.869	-18.56
224.104	-18.56
224.338	-8.56
224.573	-4.56
224.808	-10.56
225.042	-5.56
225.277	-8.56
225.511	-3.56
225.746	-7.56
225.98	15.44
226.215	5.44
226.449	7.44
226.683	21.44
226.918	31.44
227.152	29.44
227.387	35.44
227.621	34.44
227.856	44.44
228.09	52.44
228.324	50.44
228.559	66.44
228.793	55.44
229.027	64.44
229.262	69.44
229.496	75.44
229.73	81.44
229.964	84.44
230.199	85.44
230.433	68.44
230.667	83.44
230.901	80.44
231.136	73.44
231.37	82.44
231.604	72.44
231.838	82.44
232.072	80.44
232.306	92.44
232.541	66.44
232.775	77.44
233.009	93.44
233.243	96.44
233.477	91.44
233.711	69.44
233.945	84.44
234.179	94.44
234.413	91.44
234.647	95.44
234.881	76.44
235.115	75.44
235.349	82.44
235.583	83.44
235.817	69.44
236.051	80.44
236.285	76.44
236.519	78.44
236.753	83.44
236.987	81.44
237.221	77.44
237.455	82.44
237.689	78.44
237.922	86.44
238.156	63.44
238.39	71.44
238.624	76.44
238.858	76.44
239.091	73.44
239.325	79.44
239.559	91.44
239.793	77.44
240.027	91.44
240.26	81.44
240.494	76.44
240.728	70.44
240.961	66.44
241.195	77.44
241.429	79.44
241.662	74.44
241.896	73.44
242.13	76.44
242.363	59.44
242.597	79.44
242.83	82.44
243.064	79.44
243.298	85.44
243.531	86.44
243.765	84.44
243.998	87.44
244.232	85.44
244.465	78.44
244.699	78.44
244.932	80.44
245.166	77.44
245.399	78.44
245.633	73.44
245.866	76.44
246.099	70.44
246.333	84.44
246.566	75.44
246.8	74.44
247.033	70.44
247.266	81.44
247.5	91.44
247.733	88.44
247.966	82.44
248.2	80.44
248.433	80.44
248.666	78.44
248.899	89.44
249.133	80.44
249.366	98.44
249.599	90.44
249.832	80.44
250.066	71.44
250.299	72.44
250.532	89.44
250.765	71.44
250.998	92.44
251.231	85.44
251.465	84.44
251.698	77.44
251.931	88.44
252.164	82.44
252.397	86.44
252.63	77.44
252.863	79.44
253.096	85.44
253.329	85.44
253.562	88.44
253.795	90.44
254.028	73.44
254.261	71.44
254.494	80.44
254.727	82.44
254.96	91.44
255.193	73.44
255.426	95.44
255.659	79.44
255.892	85.44
256.124	81.44
256.357	90.44
256.59	82.44
256.823	87.44
257.056	98.44
257.289	80.44
257.521	80.44
257.754	90.44
257.987	86.44
258.22	91.44
258.452	87.44
258.685	85.44
258.918	67.44
259.151	78.44
259.383	90.44
259.616	82.44
259.849	99.44
260.081	89.44
260.314	81.44
260.547	92.44
260.779	95.44
261.012	69.44
261.244	90.44
261.477	91.44
261.71	96.44
261.942	98.44
262.175	108.44
262.407	70.44
262.64	81.44
262.872	99.44
263.105	85.44
263.337	81.44
263.57	86.44
263.802	83.44
264.035	77.44
264.267	84.44
264.499	93.44
264.732	80.44
264.964	92.44
265.197	87.44
265.429	82.44
265.661	100.44
265.894	67.44
266.126	79.44
266.358	84.44
266.591	81.44
266.823	88.44
267.055	98.44
267.287	67.44
267.52	87.44
267.752	72.44
267.984	88.44
268.216	104.44
268.448	86.44
268.681	85.44
268.913	88.44
269.145	101.44
269.377	92.44
269.609	97.44
269.841	98.44
270.073	99.44
270.306	89.44
270.538	85.44
270.77	86.44
271.002	93.44
271.234	90.44
271.466	91.44
271.698	81.44
271.93	97.44
272.162	90.44
272.394	72.44
272.626	74.44
272.858	94.44
273.09	101.44
273.322	94.44
273.553	75.44
273.785	87.44
274.017	95.44
274.249	84.44
274.481	86.44
274.713	82.44
274.945	94.44
275.176	82.44
275.408	81.44
275.64	83.44
275.872	91.44
276.104	85.44
276.335	83.44
276.567	87.44
276.799	101.44
277.031	100.44
277.262	91.44
277.494	77.44
277.726	77.44
277.957	89.44
278.189	91.44
278.421	85.44
278.652	91.44
278.884	89.44
279.115	105.44
279.347	88.44
279.579	93.44
279.81	99.44
280.042	101.44
280.273	89.44
280.505	91.44
280.736	87.44
280.968	91.44
281.199	83.44
281.431	95.44
281.662	81.44
281.894	95.44
282.125	87.44
282.356	104.44
282.588	121.44
282.819	97.44
283.051	89.44
283.282	91.44
283.513	79.44
283.745	92.44
283.976	81.44
284.207	99.44
284.439	82.44
284.67	86.44
284.901	79.44
285.132	91.44
285.364	79.44
285.595	86.44
285.826	95.44
286.057	91.44
286.288	95.44
286.52	91.44
286.751	91.44
286.982	70.44
287.213	86.44
287.444	87.44
287.675	79.44
287.906	94.44
288.138	84.44
288.369	91.44
288.6	89.44
288.831	79.44
289.062	82.44
289.293	94.44
289.524	94.44
289.755	87.44
289.986	89.44
290.217	104.44
290.448	98.44
290.679	104.44
290.91	93.44
291.141	92.44
291.371	91.44
291.602	93.44
291.833	90.44
292.064	106.44
292.295	93.44
292.526	91.44
292.757	90.44
292.987	109.44
293.218	97.44
293.449	97.44
293.68	93.44
293.91	103.44
294.141	81.44
294.372	94.44
294.603	85.44
294.833	75.44
295.064	99.44
295.295	92.44
295.525	99.44
295.756	99.44
295.987	108.44
296.217	131.44
296.448	121.44
296.679	87.44
296.909	97.44
297.14	83.44
297.37	92.44
297.601	82.44
297.831	92.44
298.062	102.44
298.292	97.44
298.523	90.44
298.753	74.44
298.984	88.44
299.214	101.44
299.445	94.44
299.675	94.44
299.905	95.44
300.136	86.44
300.366	90.44
300.597	96.44
300.827	87.44
301.057	107.44
301.288	95.44
301.518	99.44
301.748	86.44
301.979	99.44
302.209	93.44
302.439	92.44
302.669	91.44
302.9	71.44
303.13	107.44
303.36	93.44
303.59	108.44
303.82	88.44
304.051	98.44
304.281	99.44
304.511	114.44
304.741	100.44
304.971	98.44
305.201	93.44
305.431	79.44
305.661	107.44
305.891	105.44
306.121	98.44
306.352	96.44
306.582	109.44
306.812	98.44
307.042	96.44
307.272	102.44
307.502	103.44
307.731	96.44
307.961	104.44
308.191	82.44
308.421	82.44
308.651	95.44
308.881	102.44
309.111	101.44
309.341	102.44
309.571	95.44
309.8	102.44
310.03	92.44
310.26	105.44
310.49	96.44
310.72	93.44
310.949	104.44
311.179	105.44
311.409	96.44
311.639	96.44
311.868	104.44
312.098	87.44
312.328	91.44
312.557	95.44
312.787	105.44
313.017	95.44
313.246	84.44
313.476	92.44
313.706	93.44
313.935	94.44
314.165	92.44
314.394	98.44
314.624	91.44
314.853	98.44
315.083	104.44
315.312	102.44
315.542	91.44
315.771	83.44
316.001	88.44
316.23	81.44
316.46	94.44
316.689	85.44
316.919	93.44
317.148	97.44
317.377	103.44
317.607	93.44
317.836	105.44
318.065	108.44
318.295	89.44
318.524	76.44
318.753	91.44
318.983	100.44
319.212	117.44
319.441	110.44
319.67	101.44
319.9	91.44
320.129	81.44
320.358	95.44
320.587	95.44
320.816	102.44
321.046	93.44
321.275	88.44
321.504	85.44
321.733	91.44
321.962	97.44
322.191	99.44
322.42	102.44
322.649	118.44
322.878	90.44
323.108	98.44
323.337	122.44
323.566	129.44
323.795	149.44
324.024	197.44
324.253	333.44
324.482	715.44
324.71	1425.44
324.939	1901.44
325.168	699.44
325.397	242.44
325.626	141.44
325.855	120.44
326.084	126.44
326.313	122.44
326.542	133.44
326.77	204.44
326.999	420.44
327.228	826.44
327.457	1508.44
327.686	1182.44
327.914	316.44
328.143	200.44
328.372	139.44
328.6	117.44
328.829	129.44
329.058	135.44
329.287	105.44
329.515	100.44
329.744	111.44
329.972	105.44
330.201	130.44
330.43	126.44
330.658	128.44
330.887	133.44
331.115	111.44
331.344	105.44
331.572	95.44
331.801	95.44
332.03	100.44
332.258	99.44
332.486	94.44
332.715	94.44
332.943	108.44
333.172	111.44
333.4	105.44
333.629	103.44
333.857	109.44
334.085	112.44
334.314	118.44
334.542	155.44
334.771	139.44
334.999	103.44
335.227	103.44
335.455	119.44
335.684	106.44
335.912	94.44
336.14	102.44
336.369	103.44
336.597	113.44
336.825	93.44
337.053	84.44
337.281	98.44
337.51	100.44
337.738	85.44
337.966	86.44
338.194	104.44
338.422	110.44
338.65	94.44
338.878	89.44
339.106	94.44
339.334	83.44
339.562	103.44
339.79	90.44
340.018	86.44
340.246	99.44
340.474	94.44
340.702	91.44
340.93	101.44
341.158	97.44
341.386	92.44
341.614	106.44
341.842	105.44
342.07	95.44
342.298	100.44
342.526	93.44
342.754	96.44
342.981	105.44
343.209	92.44
343.437	107.44
343.665	103.44
343.893	104.44
344.12	102.44
344.348	92.44
344.576	100.44
344.804	93.44
345.031	92.44
345.259	109.44
345.487	96.44
345.714	94.44
345.942	101.44
346.17	85.44
346.397	88.44
346.625	103.44
346.853	102.44
347.08	98.44
347.308	104.44
347.535	105.44
347.763	108.44
347.99	107.44
348.218	89.44
348.445	94.44
348.673	103.44
348.9	93.44
349.128	96.44
349.355	101.44
349.583	99.44
349.81	117.44
350.037	92.44
350.265	104.44
350.492	78.44
350.72	107.44
350.947	99.44
351.174	104.44
351.402	114.44
351.629	95.44
351.856	103.44
352.083	89.44
352.311	105.44
352.538	107.44
352.765	104.44
352.992	126.44
353.22	107.44
353.447	102.44
353.674	113.44
353.901	108.44
354.128	95.44
354.355	107.44
354.583	105.44
354.81	104.44
355.037	95.44
355.264	103.44
355.491	98.44
355.718	83.44
355.945	94.44
356.172	92.44
356.399	87.44
356.626	89.44
356.853	100.44
357.08	103.44
357.307	105.44
357.534	98.44
357.761	93.44
357.988	95.44
358.215	110.44
358.441	80.44
358.668	89.44
358.895	89.44
359.122	88.44
359.349	101.44
359.576	92.44
359.802	99.44
360.029	102.44
360.256	99.44
360.483	97.44
360.709	101.44
360.936	106.44
361.163	94.44
361.39	98.44
361.616	116.44
361.843	101.44
362.07	89.44
362.296	83.44
362.523	113.44
362.749	89.44
362.976	96.44
363.203	108.44
363.429	92.44
363.656	97.44
363.882	91.44
364.109	84.44
364.335	99.44
364.562	82.44
364.788	100.44
365.015	94.44
365.241	99.44
365.468	106.44
365.694	74.44
365.92	108.44
366.147	88.44
366.373	100.44
366.599	97.44
366.826	96.44
367.052	93.44
367.278	87.44
367.505	97.44
367.731	101.44
367.957	107.44
368.184	102.44
368.41	91.44
368.636	109.44
368.862	110.44
369.089	113.44
369.315	95.44
369.541	82.44
369.767	87.44
369.993	98.44
370.219	78.44
370.445	101.44
370.672	90.44
370.898	94.44
371.124	87.44
371.35	87.44
371.576	78.44
371.802	83.44
372.028	88.44
372.254	103.44
372.48	97.44
372.706	90.44
372.932	100.44
373.158	96.44
373.384	91.44
373.61	95.44
373.835	89.44
374.061	95.44
374.287	95.44
374.513	95.44
374.739	84.44
374.965	84.44
375.191	87.44
375.416	92.44
375.642	87.44
375.868	106.44
376.094	99.44
376.319	94.44
376.545	72.44
376.771	97.44
376.997	91.44
377.222	91.44
377.448	88.44
377.674	89.44
377.899	95.44
378.125	99.44
378.35	111.44
378.576	88.44
378.802	91.44
379.027	97.44
379.253	106.44
379.478	75.44
379.704	88.44
379.929	81.44
380.155	104.44
380.38	104.44
380.606	85.44
380.831	92.44
381.057	110.44
381.282	77.44
381.507	97.44
381.733	107.44
381.958	94.44
382.184	95.44
382.409	94.44
382.634	114.44
382.86	102.44
383.085	102.44
383.31	114.44
383.535	107.44
383.761	97.44
383.986	91.44
384.211	101.44
384.436	109.44
384.662	108.44
384.887	112.44
385.112	123.44
385.337	109.44
385.562	102.44
385.787	111.44
386.013	108.44
386.238	111.44
386.463	112.44
386.688	116.44
386.913	104.44
387.138	111.44
387.363	98.44
387.588	101.44
387.813	99.44
388.038	102.44
388.263	108.44
388.488	116.44
388.713	100.44
388.938	94.44
389.163	97.44
389.387	89.44
389.612	107.44
389.837	110.44
390.062	95.44
390.287	112.44
390.512	105.44
390.736	99.44
390.961	94.44
391.186	89.44
391.411	106.44
391.636	108.44
391.86	83.44
392.085	90.44
392.31	84.44
392.534	90.44
392.759	98.44
392.984	85.44
393.208	84.44
393.433	73.44
393.658	89.44
393.882	71.44
394.107	89.44
394.331	89.44
394.556	90.44
394.78	97.44
395.005	81.44
395.229	87.44
395.454	93.44
395.678	90.44
395.903	93.44
396.127	78.44
396.352	100.44
396.576	100.44
396.801	102.44
397.025	92.44
397.249	100.44
397.474	97.44
397.698	84.44
397.922	84.44
398.147	73.44
398.371	79.44
398.595	86.44
398.82	89.44
399.044	78.44
399.268	87.44
399.492	86.44
399.717	85.44
399.941	90.44
400.165	94.44
400.389	86.44
400.613	99.44
400.837	86.44
401.062	95.44
401.286	89.44
401.51	105.44
401.734	92.44
401.958	101.44
402.182	126.44
402.406	137.44
402.63	110.44
402.854	78.44
403.078	95.44
403.302	94.44
403.526	100.44
403.75	93.44
403.974	92.44
404.198	84.44
404.422	100.44
404.645	93.44
404.869	94.44
405.093	101.44
405.317	109.44
405.541	107.44
405.765	95.44
405.988	106.44
406.212	162.44
406.436	185.44
406.66	109.44
406.883	93.44
407.107	87.44
407.331	108.44
407.555	119.44
407.778	93.44
408.002	94.44
408.226	87.44
408.449	98.44
408.673	99.44
408.896	94.44
409.12	96.44
409.344	104.44
409.567	89.44
409.791	86.44
410.014	94.44
410.238	99.44
410.461	90.44
410.685	94.44
410.908	112.44
411.132	93.44
411.355	92.44
411.578	91.44
411.802	92.44
412.025	88.44
412.249	83.44
412.472	87.44
412.695	82.44
412.919	93.44
413.142	90.44
413.365	95.44
413.589	79.44
413.812	94.44
414.035	82.44
414.258	89.44
414.482	76.44
414.705	102.44
414.928	91.44
415.151	94.44
415.374	98.44
415.597	83.44
415.821	74.44
416.044	90.44
416.267	117.44
416.49	85.44
416.713	83.44
416.936	91.44
417.159	101.44
417.382	96.44
417.605	91.44
417.828	85.44
418.051	95.44
418.274	96.44
418.497	86.44
418.72	93.44
418.943	90.44
419.166	94.44
419.389	94.44
419.611	99.44
419.834	85.44
420.057	100.44
420.28	99.44
420.503	95.44
420.726	77.44
420.948	88.44
421.171	78.44
421.394	91.44
421.617	90.44
421.839	84.44
422.062	84.44
422.285	92.44
422.507	98.44
422.73	116.44
422.953	87.44
423.175	79.44
423.398	91.44
423.621	95.44
423.843	99.44
424.066	81.44
424.288	75.44
424.511	105.44
424.733	82.44
424.956	114.44
425.178	91.44
425.401	108.44
425.623	102.44
425.846	84.44
426.068	82.44
426.291	90.44
426.513	103.44
426.735	85.44
426.958	105.44
427.18	106.44
427.402	122.44
427.625	150.44
427.847	120.44
428.069	99.44
428.292	102.44
428.514	76.44
428.736	79.44
428.958	87.44
429.181	88.44
429.403	104.44
429.625	93.44
429.847	104.44
430.069	84.44
430.292	87.44
430.514	68.44
430.736	76.44
430.958	96.44
431.18	85.44
431.402	94.44
431.624	90.44
431.846	94.44
432.068	81.44
432.29	89.44
432.512	79.44
432.734	90.44
432.956	87.44
433.178	101.44
433.4	101.44
433.622	80.44
433.844	92.44
434.066	89.44
434.287	108.44
434.509	86.44
434.731	81.44
434.953	94.44
435.175	99.44
435.397	92.44
435.618	79.44
435.84	100.44
436.062	99.44
436.284	109.44
436.505	109.44
436.727	91.44
436.949	83.44
437.17	92.44
437.392	77.44
437.614	86.44
437.835	112.44
438.057	115.44
438.278	101.44
438.5	111.44
438.721	117.44
438.943	84.44
439.165	92.44
439.386	86.44
439.608	85.44
439.829	89.44
440.05	131.44
440.272	117.44
440.493	106.44
440.715	90.44
440.936	85.44
441.158	92.44
441.379	91.44
441.6	85.44
441.822	83.44
442.043	95.44
442.264	100.44
442.486	103.44
442.707	83.44
442.928	95.44
443.149	116.44
443.371	99.44
443.592	107.44
443.813	98.44
444.034	102.44
444.255	105.44
444.476	89.44
444.698	91.44
444.919	95.44
445.14	146.44
445.361	129.44
445.582	100.44
445.803	129.44
446.024	121.44
446.245	117.44
446.466	108.44
446.687	89.44
446.908	97.44
447.129	93.44
447.35	84.44
447.571	75.44
447.792	83.44
448.013	109.44
448.234	98.44
448.455	90.44
448.675	109.44
448.896	118.44
449.117	92.44
449.338	92.44
449.559	122.44
449.779	137.44
450	97.44
450.221	72.44
450.442	94.44
450.662	93.44
450.883	103.44
451.104	95.44
451.324	88.44
451.545	92.44
451.766	86.44
451.986	88.44
452.207	111.44
452.428	86.44
452.648	105.44
452.869	97.44
453.089	102.44
453.31	122.44
453.53	89.44
453.751	85.44
453.971	95.44
454.192	106.44
454.412	89.44
454.633	80.44
454.853	93.44
455.073	90.44
455.294	77.44
455.514	98.44
455.734	88.44
455.955	92.44
456.175	93.44
456.395	90.44
456.616	103.44
456.836	94.44
457.056	86.44
457.276	101.44
457.497	86.44
457.717	86.44
457.937	91.44
458.157	98.44
458.377	90.44
458.598	97.44
458.818	131.44
459.038	140.44
459.258	107.44
459.478	103.44
459.698	75.44
459.918	97.44
460.138	92.44
460.358	81.44
460.578	99.44
460.798	97.44
461.018	85.44
461.238	91.44
461.458	99.44
461.678	95.44
461.898	99.44
462.118	97.44
462.338	83.44
462.558	90.44
462.777	87.44
462.997	98.44
463.217	79.44
463.437	79.44
463.657	89.44
463.876	93.44
464.096	79.44
464.316	99.44
464.536	90.44
464.755	94.44
464.975	103.44
465.195	137.44
465.414	119.44
465.634	91.44
465.854	79.44
466.073	90.44
466.293	87.44
466.512	73.44
466.732	79.44
466.951	84.44
467.171	95.44
467.391	89.44
467.61	99.44
467.829	105.44
468.049	108.44
468.268	102.44
468.488	85.44
468.707	91.44
468.927	82.44
469.146	78.44
469.365	97.44
469.585	94.44
469.804	88.44
470.023	103.44
470.243	93.44
470.462	99.44
470.681	99.44
470.901	83.44
471.12	95.44
471.339	93.44
471.558	93.44
471.777	93.44
471.997	92.44
472.216	125.44
472.435	166.44
472.654	107.44
472.873	97.44
473.092	95.44
473.311	87.44
473.53	78.44
473.749	82.44
473.968	85.44
474.187	107.44
474.406	92.44
474.625	81.44
474.844	89.44
475.063	91.44
475.282	94.44
475.501	103.44
475.72	88.44
475.939	90.44
476.158	98.44
476.377	90.44
476.596	78.44
476.814	110.44
477.033	89.44
477.252	93.44
477.471	94.44
477.69	95.44
477.908	76.44
478.127	101.44
478.346	74.44
478.564	84.44
478.783	91.44
479.002	90.44
479.22	92.44
479.439	99.44
479.658	103.44
479.876	99.44
480.095	99.44
480.313	102.44
480.532	98.44
480.751	104.44
480.969	135.44
481.188	244.44
481.406	172.44
481.624	105.44
481.843	83.44
482.061	96.44
482.28	91.44
482.498	84.44
482.717	76.44
482.935	89.44
483.153	95.44
483.372	86.44
483.59	95.44
483.808	88.44
484.027	102.44
484.245	98.44
484.463	82.44
484.681	83.44
484.9	100.44
485.118	95.44
485.336	86.44
485.554	102.44
485.772	107.44
485.99	105.44
486.209	110.44
486.427	110.44
486.645	104.44
486.863	114.44
487.081	92.44
487.299	99.44
487.517	91.44
487.735	104.44
487.953	77.44
488.171	100.44
488.389	100.44
488.607	87.44
488.825	90.44
489.043	101.44
489.261	86.44
489.479	80.44
489.696	95.44
489.914	91.44
490.132	98.44
490.35	89.44
490.568	98.44
490.786	104.44
491.003	82.44
491.221	95.44
491.439	88.44
491.657	101.44
491.874	89.44
492.092	94.44
492.31	100.44
492.527	83.44
492.745	91.44
492.963	95.44
493.18	91.44
493.398	92.44
493.615	86.44
493.833	88.44
494.05	86.44
494.268	89.44
494.485	92.44
494.703	90.44
494.92	87.44
495.138	79.44
495.355	85.44
495.573	100.44
495.79	91.44
496.008	89.44
496.225	104.44
496.442	97.44
496.66	92.44
496.877	84.44
497.094	96.44
497.312	109.44
497.529	90.44
497.746	93.44
497.963	103.44
498.181	100.44
498.398	99.44
498.615	106.44
498.832	98.44
499.049	93.44
499.267	90.44
499.484	106.44
499.701	107.44
499.918	99.44
500.135	97.44
500.352	100.44
500.569	100.44
500.786	88.44
501.003	91.44
501.22	98.44
501.437	79.44
501.654	94.44
501.871	105.44
502.088	92.44
502.305	93.44
502.522	94.44
502.739	87.44
502.956	93.44
503.172	101.44
503.389	109.44
503.606	106.44
503.823	93.44
504.04	89.44
504.256	90.44
504.473	94.44
504.69	93.44
504.907	112.44
505.123	95.44
505.34	104.44
505.557	95.44
505.773	90.44
505.99	85.44
506.207	85.44
506.423	85.44
506.64	89.44
506.856	77.44
507.073	94.44
507.289	100.44
507.506	110.44
507.722	117.44
507.939	101.44
508.155	103.44
508.372	83.44
508.588	92.44
508.805	100.44
509.021	93.44
509.238	107.44
509.454	108.44
509.67	91.44
509.887	97.44
510.103	123.44
510.319	181.44
510.536	566.44
510.752	1736.44
510.968	507.44
511.184	130.44
511.401	108.44
511.617	103.44
511.833	85.44
512.049	90.44
512.265	96.44
512.481	83.44
512.698	93.44
512.914	86.44
513.13	95.44
513.346	86.44
513.562	92.44
513.778	91.44
513.994	90.44
514.21	95.44
514.426	102.44
514.642	114.44
514.858	106.44
