Data from Circ_2002_H10_HRD10591_00004.txt Node
Date: Wed Jan 03 10:40:59 EST 2024
User: Yrep
Spectrometer: HR+D1059
Trigger mode: 1
Integration Time (sec): 1.000000E-1
Scans to average: 1
Electric dark correction enabled: true
Nonlinearity correction enabled: false
Boxcar width: 0
XAxis mode: Wavelengths
Number of Pixels in Spectrum: 2048
>>>>>Begin Spectral Data<<<<<
223.165	-22.69
223.4	-22.69
223.635	-22.69
223.869	-18.69
224.104	-22.69
224.338	-4.69
224.573	7.31
224.808	-10.69
225.042	-5.69
225.277	-11.69
225.511	-10.69
225.746	-0.69
225.98	4.31
226.215	17.31
226.449	14.31
226.683	22.31
226.918	13.31
227.152	29.31
227.387	21.31
227.621	36.31
227.856	39.31
228.09	38.31
228.324	24.31
228.559	49.31
228.793	54.31
229.027	54.31
229.262	70.31
229.496	70.31
229.73	89.31
229.964	72.31
230.199	83.31
230.433	76.31
230.667	79.31
230.901	66.31
231.136	77.31
231.37	81.31
231.604	71.31
231.838	79.31
232.072	87.31
232.306	79.31
232.541	88.31
232.775	72.31
233.009	68.31
233.243	80.31
233.477	69.31
233.711	75.31
233.945	69.31
234.179	75.31
234.413	81.31
234.647	85.31
234.881	79.31
235.115	72.31
235.349	62.31
235.583	79.31
235.817	69.31
236.051	79.31
236.285	98.31
236.519	61.31
236.753	79.31
236.987	69.31
237.221	74.31
237.455	71.31
237.689	72.31
237.922	78.31
238.156	83.31
238.39	90.31
238.624	66.31
238.858	80.31
239.091	74.31
239.325	66.31
239.559	70.31
239.793	66.31
240.027	86.31
240.26	85.31
240.494	79.31
240.728	76.31
240.961	76.31
241.195	73.31
241.429	80.31
241.662	71.31
241.896	62.31
242.13	74.31
242.363	80.31
242.597	64.31
242.83	70.31
243.064	75.31
243.298	80.31
243.531	72.31
243.765	55.31
243.998	67.31
244.232	61.31
244.465	78.31
244.699	77.31
244.932	79.31
245.166	88.31
245.399	68.31
245.633	85.31
245.866	94.31
246.099	71.31
246.333	92.31
246.566	63.31
246.8	86.31
247.033	79.31
247.266	63.31
247.5	71.31
247.733	66.31
247.966	75.31
248.2	85.31
248.433	84.31
248.666	82.31
248.899	74.31
249.133	84.31
249.366	92.31
249.599	78.31
249.832	78.31
250.066	69.31
250.299	81.31
250.532	75.31
250.765	67.31
250.998	71.31
251.231	76.31
251.465	83.31
251.698	77.31
251.931	64.31
252.164	73.31
252.397	67.31
252.63	83.31
252.863	85.31
253.096	87.31
253.329	79.31
253.562	68.31
253.795	75.31
254.028	80.31
254.261	73.31
254.494	86.31
254.727	68.31
254.96	64.31
255.193	71.31
255.426	81.31
255.659	65.31
255.892	73.31
256.124	87.31
256.357	71.31
256.59	92.31
256.823	88.31
257.056	85.31
257.289	73.31
257.521	76.31
257.754	67.31
257.987	76.31
258.22	80.31
258.452	80.31
258.685	80.31
258.918	68.31
259.151	83.31
259.383	85.31
259.616	70.31
259.849	77.31
260.081	88.31
260.314	75.31
260.547	85.31
260.779	83.31
261.012	82.31
261.244	83.31
261.477	95.31
261.71	102.31
261.942	114.31
262.175	91.31
262.407	88.31
262.64	91.31
262.872	65.31
263.105	75.31
263.337	84.31
263.57	75.31
263.802	64.31
264.035	92.31
264.267	70.31
264.499	69.31
264.732	77.31
264.964	87.31
265.197	77.31
265.429	73.31
265.661	79.31
265.894	92.31
266.126	70.31
266.358	83.31
266.591	80.31
266.823	70.31
267.055	83.31
267.287	89.31
267.52	76.31
267.752	85.31
267.984	66.31
268.216	77.31
268.448	87.31
268.681	88.31
268.913	100.31
269.145	83.31
269.377	85.31
269.609	76.31
269.841	72.31
270.073	73.31
270.306	75.31
270.538	94.31
270.77	83.31
271.002	80.31
271.234	98.31
271.466	77.31
271.698	85.31
271.93	79.31
272.162	81.31
272.394	83.31
272.626	78.31
272.858	69.31
273.09	84.31
273.322	76.31
273.553	76.31
273.785	81.31
274.017	79.31
274.249	76.31
274.481	74.31
274.713	92.31
274.945	83.31
275.176	85.31
275.408	81.31
275.64	70.31
275.872	81.31
276.104	83.31
276.335	68.31
276.567	86.31
276.799	93.31
277.031	91.31
277.262	81.31
277.494	101.31
277.726	85.31
277.957	70.31
278.189	77.31
278.421	85.31
278.652	81.31
278.884	84.31
279.115	68.31
279.347	87.31
279.579	74.31
279.81	77.31
280.042	77.31
280.273	90.31
280.505	86.31
280.736	85.31
280.968	84.31
281.199	72.31
281.431	79.31
281.662	88.31
281.894	89.31
282.125	92.31
282.356	103.31
282.588	107.31
282.819	100.31
283.051	101.31
283.282	77.31
283.513	87.31
283.745	79.31
283.976	71.31
284.207	67.31
284.439	70.31
284.67	78.31
284.901	86.31
285.132	87.31
285.364	83.31
285.595	86.31
285.826	87.31
286.057	84.31
286.288	83.31
286.52	80.31
286.751	90.31
286.982	85.31
287.213	85.31
287.444	103.31
287.675	79.31
287.906	86.31
288.138	79.31
288.369	82.31
288.6	78.31
288.831	80.31
289.062	83.31
289.293	84.31
289.524	76.31
289.755	89.31
289.986	89.31
290.217	85.31
290.448	79.31
290.679	91.31
290.91	77.31
291.141	80.31
291.371	92.31
291.602	79.31
291.833	80.31
292.064	84.31
292.295	89.31
292.526	79.31
292.757	80.31
292.987	88.31
293.218	84.31
293.449	79.31
293.68	86.31
293.91	94.31
294.141	83.31
294.372	91.31
294.603	85.31
294.833	91.31
295.064	72.31
295.295	84.31
295.525	89.31
295.756	88.31
295.987	90.31
296.217	100.31
296.448	87.31
296.679	61.31
296.909	90.31
297.14	94.31
297.37	92.31
297.601	77.31
297.831	75.31
298.062	90.31
298.292	89.31
298.523	79.31
298.753	92.31
298.984	85.31
299.214	84.31
299.445	75.31
299.675	92.31
299.905	84.31
300.136	87.31
300.366	73.31
300.597	91.31
300.827	91.31
301.057	98.31
301.288	100.31
301.518	82.31
301.748	89.31
301.979	81.31
302.209	73.31
302.439	83.31
302.669	93.31
302.9	81.31
303.13	80.31
303.36	88.31
303.59	95.31
303.82	99.31
304.051	79.31
304.281	79.31
304.511	90.31
304.741	101.31
304.971	87.31
305.201	102.31
305.431	86.31
305.661	99.31
305.891	84.31
306.121	96.31
306.352	87.31
306.582	87.31
306.812	91.31
307.042	100.31
307.272	89.31
307.502	96.31
307.731	82.31
307.961	84.31
308.191	84.31
308.421	92.31
308.651	89.31
308.881	96.31
309.111	86.31
309.341	94.31
309.571	100.31
309.8	93.31
310.03	96.31
310.26	83.31
310.49	85.31
310.72	85.31
310.949	82.31
311.179	90.31
311.409	89.31
311.639	86.31
311.868	84.31
312.098	81.31
312.328	83.31
312.557	91.31
312.787	88.31
313.017	86.31
313.246	88.31
313.476	87.31
313.706	93.31
313.935	99.31
314.165	86.31
314.394	95.31
314.624	88.31
314.853	88.31
315.083	83.31
315.312	72.31
315.542	82.31
315.771	99.31
316.001	74.31
316.23	74.31
316.46	102.31
316.689	93.31
316.919	87.31
317.148	87.31
317.377	88.31
317.607	89.31
317.836	102.31
318.065	95.31
318.295	82.31
318.524	88.31
318.753	90.31
318.983	83.31
319.212	97.31
319.441	103.31
319.67	97.31
319.9	78.31
320.129	81.31
320.358	94.31
320.587	84.31
320.816	83.31
321.046	91.31
321.275	83.31
321.504	88.31
321.733	92.31
321.962	93.31
322.191	92.31
322.42	98.31
322.649	96.31
322.878	103.31
323.108	115.31
323.337	114.31
323.566	121.31
323.795	130.31
324.024	177.31
324.253	288.31
324.482	599.31
324.71	1217.31
324.939	1552.31
325.168	587.31
325.397	198.31
325.626	127.31
325.855	88.31
326.084	109.31
326.313	101.31
326.542	124.31
326.77	181.31
326.999	372.31
327.228	699.31
327.457	1247.31
327.686	1020.31
327.914	274.31
328.143	142.31
328.372	118.31
328.6	113.31
328.829	101.31
329.058	113.31
329.287	109.31
329.515	94.31
329.744	81.31
329.972	91.31
330.201	96.31
330.43	99.31
330.658	106.31
330.887	102.31
331.115	98.31
331.344	80.31
331.572	91.31
331.801	91.31
332.03	88.31
332.258	92.31
332.486	80.31
332.715	93.31
332.943	79.31
333.172	78.31
333.4	88.31
333.629	100.31
333.857	94.31
334.085	99.31
334.314	86.31
334.542	87.31
334.771	85.31
334.999	102.31
335.227	87.31
335.455	74.31
335.684	92.31
335.912	91.31
336.14	86.31
336.369	82.31
336.597	96.31
336.825	79.31
337.053	99.31
337.281	72.31
337.51	97.31
337.738	78.31
337.966	86.31
338.194	84.31
338.422	92.31
338.65	94.31
338.878	96.31
339.106	78.31
339.334	90.31
339.562	85.31
339.79	72.31
340.018	72.31
340.246	85.31
340.474	87.31
340.702	80.31
340.93	90.31
341.158	68.31
341.386	89.31
341.614	77.31
341.842	84.31
342.07	75.31
342.298	83.31
342.526	91.31
342.754	75.31
342.981	83.31
343.209	81.31
343.437	86.31
343.665	82.31
343.893	90.31
344.12	104.31
344.348	84.31
344.576	91.31
344.804	79.31
345.031	93.31
345.259	86.31
345.487	79.31
345.714	96.31
345.942	91.31
346.17	83.31
346.397	91.31
346.625	78.31
346.853	85.31
347.08	89.31
347.308	111.31
347.535	95.31
347.763	107.31
347.99	98.31
348.218	86.31
348.445	94.31
348.673	96.31
348.9	87.31
349.128	86.31
349.355	87.31
349.583	90.31
349.81	88.31
350.037	89.31
350.265	95.31
350.492	88.31
350.72	88.31
350.947	85.31
351.174	106.31
351.402	94.31
351.629	98.31
351.856	92.31
352.083	100.31
352.311	103.31
352.538	86.31
352.765	97.31
352.992	90.31
353.22	108.31
353.447	94.31
353.674	86.31
353.901	100.31
354.128	100.31
354.355	97.31
354.583	99.31
354.81	93.31
355.037	85.31
355.264	94.31
355.491	96.31
355.718	86.31
355.945	78.31
356.172	88.31
356.399	92.31
356.626	94.31
356.853	90.31
357.08	94.31
357.307	92.31
357.534	88.31
357.761	89.31
357.988	96.31
358.215	90.31
358.441	94.31
358.668	89.31
358.895	92.31
359.122	84.31
359.349	86.31
359.576	94.31
359.802	97.31
360.029	103.31
360.256	103.31
360.483	91.31
360.709	79.31
360.936	81.31
361.163	89.31
361.39	85.31
361.616	87.31
361.843	81.31
362.07	92.31
362.296	70.31
362.523	84.31
362.749	89.31
362.976	92.31
363.203	103.31
363.429	90.31
363.656	78.31
363.882	86.31
364.109	86.31
364.335	104.31
364.562	75.31
364.788	94.31
365.015	80.31
365.241	86.31
365.468	98.31
365.694	104.31
365.92	77.31
366.147	71.31
366.373	77.31
366.599	103.31
366.826	89.31
367.052	77.31
367.278	89.31
367.505	99.31
367.731	71.31
367.957	86.31
368.184	86.31
368.41	96.31
368.636	108.31
368.862	116.31
369.089	102.31
369.315	97.31
369.541	83.31
369.767	74.31
369.993	81.31
370.219	87.31
370.445	84.31
370.672	78.31
370.898	107.31
371.124	82.31
371.35	103.31
371.576	90.31
371.802	71.31
372.028	85.31
372.254	80.31
372.48	91.31
372.706	76.31
372.932	86.31
373.158	81.31
373.384	72.31
373.61	77.31
373.835	89.31
374.061	84.31
374.287	91.31
374.513	97.31
374.739	88.31
374.965	83.31
375.191	83.31
375.416	92.31
375.642	85.31
375.868	77.31
376.094	91.31
376.319	82.31
376.545	78.31
376.771	85.31
376.997	88.31
377.222	78.31
377.448	97.31
377.674	93.31
377.899	94.31
378.125	101.31
378.35	110.31
378.576	83.31
378.802	96.31
379.027	101.31
379.253	103.31
379.478	105.31
379.704	98.31
379.929	97.31
380.155	96.31
380.38	109.31
380.606	98.31
380.831	92.31
381.057	125.31
381.282	100.31
381.507	99.31
381.733	99.31
381.958	105.31
382.184	97.31
382.409	116.31
382.634	109.31
382.86	105.31
383.085	116.31
383.31	112.31
383.535	105.31
383.761	110.31
383.986	112.31
384.211	94.31
384.436	111.31
384.662	118.31
384.887	115.31
385.112	131.31
385.337	130.31
385.562	143.31
385.787	143.31
386.013	138.31
386.238	141.31
386.463	129.31
386.688	111.31
386.913	112.31
387.138	120.31
387.363	126.31
387.588	116.31
387.813	119.31
388.038	129.31
388.263	137.31
388.488	139.31
388.713	104.31
388.938	97.31
389.163	88.31
389.387	88.31
389.612	87.31
389.837	101.31
390.062	94.31
390.287	76.31
390.512	78.31
390.736	96.31
390.961	98.31
391.186	89.31
391.411	82.31
391.636	81.31
391.86	87.31
392.085	85.31
392.31	79.31
392.534	84.31
392.759	78.31
392.984	80.31
393.208	96.31
393.433	104.31
393.658	94.31
393.882	93.31
394.107	91.31
394.331	88.31
394.556	79.31
394.78	89.31
395.005	98.31
395.229	76.31
395.454	94.31
395.678	86.31
395.903	84.31
396.127	75.31
396.352	83.31
396.576	75.31
396.801	95.31
397.025	101.31
397.249	91.31
397.474	95.31
397.698	84.31
397.922	85.31
398.147	93.31
398.371	82.31
398.595	83.31
398.82	81.31
399.044	74.31
399.268	82.31
399.492	85.31
399.717	87.31
399.941	70.31
400.165	89.31
400.389	90.31
400.613	80.31
400.837	82.31
401.062	83.31
401.286	81.31
401.51	73.31
401.734	88.31
401.958	92.31
402.182	109.31
402.406	114.31
402.63	89.31
402.854	73.31
403.078	85.31
403.302	88.31
403.526	84.31
403.75	77.31
403.974	95.31
404.198	74.31
404.422	85.31
404.645	76.31
404.869	71.31
405.093	85.31
405.317	97.31
405.541	99.31
405.765	84.31
405.988	90.31
406.212	115.31
406.436	151.31
406.66	105.31
406.883	97.31
407.107	84.31
407.331	82.31
407.555	95.31
407.778	90.31
408.002	77.31
408.226	71.31
408.449	87.31
408.673	81.31
408.896	84.31
409.12	84.31
409.344	84.31
409.567	87.31
409.791	89.31
410.014	85.31
410.238	86.31
410.461	97.31
410.685	87.31
410.908	95.31
411.132	98.31
411.355	108.31
411.578	81.31
411.802	93.31
412.025	94.31
412.249	88.31
412.472	88.31
412.695	72.31
412.919	94.31
413.142	80.31
413.365	87.31
413.589	80.31
413.812	75.31
414.035	93.31
414.258	91.31
414.482	85.31
414.705	89.31
414.928	99.31
415.151	95.31
415.374	85.31
415.597	85.31
415.821	81.31
416.044	77.31
416.267	84.31
416.49	87.31
416.713	103.31
416.936	83.31
417.159	86.31
417.382	88.31
417.605	77.31
417.828	91.31
418.051	84.31
418.274	91.31
418.497	89.31
418.72	76.31
418.943	93.31
419.166	72.31
419.389	95.31
419.611	106.31
419.834	84.31
420.057	83.31
420.28	81.31
420.503	80.31
420.726	76.31
420.948	87.31
421.171	87.31
421.394	75.31
421.617	86.31
421.839	83.31
422.062	79.31
422.285	93.31
422.507	91.31
422.73	103.31
422.953	95.31
423.175	89.31
423.398	89.31
423.621	83.31
423.843	86.31
424.066	67.31
424.288	81.31
424.511	84.31
424.733	93.31
424.956	83.31
425.178	71.31
425.401	97.31
425.623	96.31
425.846	87.31
426.068	77.31
426.291	103.31
426.513	81.31
426.735	69.31
426.958	89.31
427.18	94.31
427.402	109.31
427.625	125.31
427.847	93.31
428.069	110.31
428.292	94.31
428.514	80.31
428.736	85.31
428.958	83.31
429.181	84.31
429.403	87.31
429.625	88.31
429.847	93.31
430.069	74.31
430.292	99.31
430.514	85.31
430.736	87.31
430.958	92.31
431.18	82.31
431.402	71.31
431.624	76.31
431.846	75.31
432.068	85.31
432.29	91.31
432.512	99.31
432.734	94.31
432.956	85.31
433.178	75.31
433.4	76.31
433.622	85.31
433.844	82.31
434.066	91.31
434.287	88.31
434.509	80.31
434.731	79.31
434.953	92.31
435.175	87.31
435.397	95.31
435.618	83.31
435.84	97.31
436.062	92.31
436.284	97.31
436.505	93.31
436.727	96.31
436.949	92.31
437.17	79.31
437.392	65.31
437.614	85.31
437.835	78.31
438.057	100.31
438.278	110.31
438.5	88.31
438.721	94.31
438.943	90.31
439.165	68.31
439.386	87.31
439.608	84.31
439.829	89.31
440.05	104.31
440.272	121.31
440.493	91.31
440.715	88.31
440.936	89.31
441.158	80.31
441.379	81.31
441.6	85.31
441.822	99.31
442.043	71.31
442.264	89.31
442.486	97.31
442.707	91.31
442.928	77.31
443.149	97.31
443.371	97.31
443.592	89.31
443.813	93.31
444.034	85.31
444.255	81.31
444.476	81.31
444.698	80.31
444.919	84.31
445.14	129.31
445.361	106.31
445.582	89.31
445.803	107.31
446.024	104.31
446.245	111.31
446.466	103.31
446.687	84.31
446.908	75.31
447.129	71.31
447.35	85.31
447.571	97.31
447.792	84.31
448.013	92.31
448.234	100.31
448.455	85.31
448.675	107.31
448.896	107.31
449.117	101.31
449.338	93.31
449.559	105.31
449.779	110.31
450	92.31
450.221	93.31
450.442	92.31
450.662	89.31
450.883	86.31
451.104	85.31
451.324	88.31
451.545	87.31
451.766	87.31
451.986	76.31
452.207	82.31
452.428	80.31
452.648	86.31
452.869	80.31
453.089	99.31
453.31	96.31
453.53	84.31
453.751	83.31
453.971	102.31
454.192	88.31
454.412	77.31
454.633	77.31
454.853	87.31
455.073	75.31
455.294	77.31
455.514	97.31
455.734	87.31
455.955	83.31
456.175	90.31
456.395	89.31
456.616	79.31
456.836	96.31
457.056	84.31
457.276	87.31
457.497	73.31
457.717	82.31
457.937	91.31
458.157	98.31
458.377	72.31
458.598	91.31
458.818	105.31
459.038	114.31
459.258	103.31
459.478	81.31
459.698	92.31
459.918	83.31
460.138	102.31
460.358	80.31
460.578	89.31
460.798	94.31
461.018	80.31
461.238	77.31
461.458	78.31
461.678	81.31
461.898	71.31
462.118	75.31
462.338	84.31
462.558	83.31
462.777	84.31
462.997	86.31
463.217	84.31
463.437	77.31
463.657	86.31
463.876	89.31
464.096	98.31
464.316	81.31
464.536	83.31
464.755	79.31
464.975	105.31
465.195	112.31
465.414	116.31
465.634	89.31
465.854	87.31
466.073	94.31
466.293	68.31
466.512	67.31
466.732	85.31
466.951	84.31
467.171	89.31
467.391	109.31
467.61	83.31
467.829	85.31
468.049	94.31
468.268	74.31
468.488	85.31
468.707	78.31
468.927	88.31
469.146	89.31
469.365	84.31
469.585	74.31
469.804	77.31
470.023	85.31
470.243	74.31
470.462	88.31
470.681	87.31
470.901	86.31
471.12	81.31
471.339	99.31
471.558	87.31
471.777	81.31
471.997	71.31
472.216	71.31
472.435	83.31
472.654	91.31
472.873	76.31
473.092	71.31
473.311	88.31
473.53	82.31
473.749	55.31
473.968	88.31
474.187	91.31
474.406	86.31
474.625	83.31
474.844	87.31
475.063	85.31
475.282	73.31
475.501	74.31
475.72	85.31
475.939	94.31
476.158	72.31
476.377	89.31
476.596	82.31
476.814	89.31
477.033	92.31
477.252	83.31
477.471	87.31
477.69	84.31
477.908	87.31
478.127	75.31
478.346	88.31
478.564	92.31
478.783	88.31
479.002	84.31
479.22	85.31
479.439	87.31
479.658	80.31
479.876	92.31
480.095	101.31
480.313	81.31
480.532	85.31
480.751	85.31
480.969	80.31
481.188	86.31
481.406	93.31
481.624	78.31
481.843	89.31
482.061	92.31
482.28	86.31
482.498	85.31
482.717	89.31
482.935	94.31
483.153	92.31
483.372	88.31
483.59	79.31
483.808	90.31
484.027	91.31
484.245	81.31
484.463	90.31
484.681	87.31
484.9	86.31
485.118	107.31
485.336	98.31
485.554	91.31
485.772	101.31
485.99	99.31
486.209	109.31
486.427	106.31
486.645	108.31
486.863	106.31
487.081	98.31
487.299	106.31
487.517	79.31
487.735	82.31
487.953	101.31
488.171	94.31
488.389	96.31
488.607	94.31
488.825	96.31
489.043	86.31
489.261	84.31
489.479	75.31
489.696	92.31
489.914	95.31
490.132	77.31
490.35	86.31
490.568	89.31
490.786	84.31
491.003	80.31
491.221	82.31
491.439	87.31
491.657	103.31
491.874	93.31
492.092	98.31
492.31	95.31
492.527	81.31
492.745	86.31
492.963	79.31
493.18	93.31
493.398	106.31
493.615	96.31
493.833	93.31
494.05	76.31
494.268	88.31
494.485	83.31
494.703	84.31
494.92	90.31
495.138	87.31
495.355	87.31
495.573	85.31
495.79	96.31
496.008	92.31
496.225	82.31
496.442	83.31
496.66	99.31
496.877	79.31
497.094	95.31
497.312	84.31
497.529	76.31
497.746	76.31
497.963	84.31
498.181	81.31
498.398	94.31
498.615	93.31
498.832	101.31
499.049	88.31
499.267	86.31
499.484	78.31
499.701	86.31
499.918	79.31
500.135	69.31
500.352	80.31
500.569	83.31
500.786	89.31
501.003	85.31
501.22	93.31
501.437	82.31
501.654	94.31
501.871	97.31
502.088	82.31
502.305	89.31
502.522	76.31
502.739	96.31
502.956	82.31
503.172	81.31
503.389	89.31
503.606	97.31
503.823	83.31
504.04	95.31
504.256	80.31
504.473	87.31
504.69	87.31
504.907	70.31
505.123	92.31
505.34	83.31
505.557	93.31
505.773	94.31
505.99	84.31
506.207	97.31
506.423	82.31
506.64	76.31
506.856	99.31
507.073	88.31
507.289	84.31
507.506	95.31
507.722	91.31
507.939	101.31
508.155	94.31
508.372	89.31
508.588	83.31
508.805	84.31
509.021	82.31
509.238	98.31
509.454	87.31
509.67	83.31
509.887	99.31
510.103	108.31
510.319	154.31
510.536	427.31
510.752	1260.31
510.968	389.31
511.184	126.31
511.401	78.31
511.617	86.31
511.833	88.31
512.049	85.31
512.265	91.31
512.481	79.31
512.698	87.31
512.914	80.31
513.13	94.31
513.346	72.31
513.562	82.31
513.778	103.31
513.994	112.31
514.21	84.31
514.426	88.31
514.642	113.31
514.858	101.31
515.074	131.31
515.29	247.31
515.506	791.31
515.721	315.31
515.937	113.31
516.153	98.31
516.369	103.31
516.585	84.31
516.801	89.31
517.016	99.31
517.232	88.31
517.448	95.31
517.664	81.31
