Data from Circ_2002_H10_HRD10591_00082.txt Node
Date: Wed Jan 03 10:41:14 EST 2024
User: Yrep
Spectrometer: HR+D1059
Trigger mode: 1
Integration Time (sec): 1.000000E-1
Scans to average: 1
Electric dark correction enabled: true
Nonlinearity correction enabled: false
Boxcar width: 0
XAxis mode: Wavelengths
Number of Pixels in Spectrum: 2048
>>>>>Begin Spectral Data<<<<<
223.165	-16.06
223.4	-16.06
223.635	-16.06
223.869	-20.06
224.104	-24.06
224.338	-5.06
224.573	-4.06
224.808	-4.06
225.042	6.94
225.277	-12.06
225.511	0.94
225.746	1.94
225.98	1.94
226.215	11.94
226.449	14.94
226.683	8.94
226.918	12.94
227.152	24.94
227.387	35.94
227.621	35.94
227.856	28.94
228.09	44.94
228.324	52.94
228.559	53.94
228.793	62.94
229.027	57.94
229.262	88.94
229.496	73.94
229.73	55.94
229.964	71.94
230.199	57.94
230.433	78.94
230.667	81.94
230.901	74.94
231.136	81.94
231.37	84.94
231.604	90.94
231.838	82.94
232.072	89.94
232.306	71.94
232.541	74.94
232.775	74.94
233.009	79.94
233.243	88.94
233.477	80.94
233.711	91.94
233.945	81.94
234.179	76.94
234.413	71.94
234.647	84.94
234.881	66.94
235.115	95.94
235.349	78.94
235.583	77.94
235.817	87.94
236.051	63.94
236.285	79.94
236.519	86.94
236.753	75.94
236.987	86.94
237.221	64.94
237.455	94.94
237.689	63.94
237.922	82.94
238.156	82.94
238.39	74.94
238.624	81.94
238.858	76.94
239.091	82.94
239.325	86.94
239.559	71.94
239.793	80.94
240.027	71.94
240.26	78.94
240.494	80.94
240.728	87.94
240.961	58.94
241.195	98.94
241.429	77.94
241.662	76.94
241.896	77.94
242.13	67.94
242.363	78.94
242.597	70.94
242.83	80.94
243.064	91.94
243.298	82.94
243.531	66.94
243.765	75.94
243.998	81.94
244.232	75.94
244.465	85.94
244.699	76.94
244.932	70.94
245.166	76.94
245.399	66.94
245.633	84.94
245.866	86.94
246.099	71.94
246.333	70.94
246.566	79.94
246.8	85.94
247.033	87.94
247.266	72.94
247.5	79.94
247.733	74.94
247.966	76.94
248.2	75.94
248.433	74.94
248.666	82.94
248.899	82.94
249.133	82.94
249.366	97.94
249.599	81.94
249.832	79.94
250.066	65.94
250.299	81.94
250.532	87.94
250.765	78.94
250.998	74.94
251.231	54.94
251.465	84.94
251.698	73.94
251.931	85.94
252.164	100.94
252.397	75.94
252.63	74.94
252.863	76.94
253.096	77.94
253.329	64.94
253.562	76.94
253.795	83.94
254.028	57.94
254.261	74.94
254.494	74.94
254.727	65.94
254.96	79.94
255.193	73.94
255.426	86.94
255.659	81.94
255.892	95.94
256.124	82.94
256.357	77.94
256.59	98.94
256.823	81.94
257.056	89.94
257.289	81.94
257.521	75.94
257.754	89.94
257.987	76.94
258.22	69.94
258.452	86.94
258.685	89.94
258.918	77.94
259.151	68.94
259.383	79.94
259.616	80.94
259.849	87.94
260.081	77.94
260.314	87.94
260.547	78.94
260.779	94.94
261.012	96.94
261.244	91.94
261.477	82.94
261.71	84.94
261.942	107.94
262.175	96.94
262.407	82.94
262.64	87.94
262.872	84.94
263.105	86.94
263.337	75.94
263.57	95.94
263.802	75.94
264.035	81.94
264.267	74.94
264.499	76.94
264.732	92.94
264.964	99.94
265.197	90.94
265.429	80.94
265.661	79.94
265.894	82.94
266.126	81.94
266.358	79.94
266.591	83.94
266.823	81.94
267.055	89.94
267.287	93.94
267.52	87.94
267.752	83.94
267.984	98.94
268.216	72.94
268.448	86.94
268.681	74.94
268.913	93.94
269.145	77.94
269.377	86.94
269.609	74.94
269.841	95.94
270.073	94.94
270.306	81.94
270.538	82.94
270.77	89.94
271.002	91.94
271.234	71.94
271.466	80.94
271.698	75.94
271.93	79.94
272.162	88.94
272.394	83.94
272.626	87.94
272.858	83.94
273.09	83.94
273.322	84.94
273.553	82.94
273.785	80.94
274.017	80.94
274.249	83.94
274.481	57.94
274.713	86.94
274.945	84.94
275.176	90.94
275.408	78.94
275.64	88.94
275.872	100.94
276.104	85.94
276.335	96.94
276.567	100.94
276.799	90.94
277.031	96.94
277.262	86.94
277.494	89.94
277.726	92.94
277.957	73.94
278.189	88.94
278.421	84.94
278.652	96.94
278.884	99.94
279.115	97.94
279.347	92.94
279.579	86.94
279.81	95.94
280.042	100.94
280.273	89.94
280.505	96.94
280.736	98.94
280.968	97.94
281.199	80.94
281.431	92.94
281.662	84.94
281.894	95.94
282.125	101.94
282.356	98.94
282.588	124.94
282.819	111.94
283.051	82.94
283.282	95.94
283.513	88.94
283.745	84.94
283.976	85.94
284.207	79.94
284.439	90.94
284.67	88.94
284.901	86.94
285.132	91.94
285.364	89.94
285.595	86.94
285.826	81.94
286.057	70.94
286.288	79.94
286.52	84.94
286.751	94.94
286.982	70.94
287.213	95.94
287.444	104.94
287.675	94.94
287.906	91.94
288.138	66.94
288.369	89.94
288.6	69.94
288.831	98.94
289.062	87.94
289.293	78.94
289.524	80.94
289.755	93.94
289.986	90.94
290.217	88.94
290.448	79.94
290.679	69.94
290.91	80.94
291.141	98.94
291.371	97.94
291.602	87.94
291.833	88.94
292.064	93.94
292.295	91.94
292.526	83.94
292.757	78.94
292.987	86.94
293.218	97.94
293.449	106.94
293.68	81.94
293.91	86.94
294.141	100.94
294.372	82.94
294.603	73.94
294.833	90.94
295.064	88.94
295.295	78.94
295.525	86.94
295.756	101.94
295.987	96.94
296.217	110.94
296.448	116.94
296.679	95.94
296.909	87.94
297.14	89.94
297.37	98.94
297.601	92.94
297.831	86.94
298.062	103.94
298.292	84.94
298.523	88.94
298.753	89.94
298.984	92.94
299.214	95.94
299.445	84.94
299.675	96.94
299.905	105.94
300.136	87.94
300.366	84.94
300.597	89.94
300.827	80.94
301.057	96.94
301.288	96.94
301.518	89.94
301.748	94.94
301.979	86.94
302.209	83.94
302.439	94.94
302.669	101.94
302.9	94.94
303.13	84.94
303.36	90.94
303.59	83.94
303.82	105.94
304.051	86.94
304.281	91.94
304.511	83.94
304.741	94.94
304.971	83.94
305.201	99.94
305.431	96.94
305.661	93.94
305.891	98.94
306.121	98.94
306.352	96.94
306.582	79.94
306.812	86.94
307.042	80.94
307.272	96.94
307.502	99.94
307.731	82.94
307.961	88.94
308.191	82.94
308.421	81.94
308.651	92.94
308.881	93.94
309.111	89.94
309.341	103.94
309.571	95.94
309.8	107.94
310.03	102.94
310.26	92.94
310.49	91.94
310.72	96.94
310.949	81.94
311.179	98.94
311.409	96.94
311.639	88.94
311.868	101.94
312.098	89.94
312.328	92.94
312.557	100.94
312.787	111.94
313.017	95.94
313.246	84.94
313.476	89.94
313.706	93.94
313.935	101.94
314.165	99.94
314.394	82.94
314.624	106.94
314.853	83.94
315.083	105.94
315.312	102.94
315.542	102.94
315.771	95.94
316.001	91.94
316.23	83.94
316.46	97.94
316.689	77.94
316.919	95.94
317.148	94.94
317.377	97.94
317.607	96.94
317.836	82.94
318.065	91.94
318.295	90.94
318.524	83.94
318.753	91.94
318.983	89.94
319.212	85.94
319.441	92.94
319.67	95.94
319.9	81.94
320.129	99.94
320.358	95.94
320.587	92.94
320.816	96.94
321.046	107.94
321.275	105.94
321.504	99.94
321.733	107.94
321.962	90.94
322.191	97.94
322.42	101.94
322.649	107.94
322.878	97.94
323.108	102.94
323.337	123.94
323.566	120.94
323.795	139.94
324.024	189.94
324.253	336.94
324.482	730.94
324.71	1461.94
324.939	1911.94
325.168	716.94
325.397	221.94
325.626	138.94
325.855	121.94
326.084	101.94
326.313	129.94
326.542	153.94
326.77	194.94
326.999	410.94
327.228	852.94
327.457	1540.94
327.686	1229.94
327.914	338.94
328.143	175.94
328.372	145.94
328.6	117.94
328.829	103.94
329.058	118.94
329.287	113.94
329.515	107.94
329.744	111.94
329.972	104.94
330.201	107.94
330.43	145.94
330.658	131.94
330.887	131.94
331.115	124.94
331.344	107.94
331.572	90.94
331.801	101.94
332.03	99.94
332.258	97.94
332.486	92.94
332.715	87.94
332.943	91.94
333.172	92.94
333.4	82.94
333.629	99.94
333.857	101.94
334.085	107.94
334.314	123.94
334.542	142.94
334.771	142.94
334.999	113.94
335.227	99.94
335.455	83.94
335.684	96.94
335.912	106.94
336.14	98.94
336.369	92.94
336.597	112.94
336.825	96.94
337.053	92.94
337.281	100.94
337.51	91.94
337.738	92.94
337.966	89.94
338.194	93.94
338.422	94.94
338.65	94.94
338.878	84.94
339.106	101.94
339.334	96.94
339.562	91.94
339.79	87.94
340.018	92.94
340.246	88.94
340.474	90.94
340.702	81.94
340.93	83.94
341.158	82.94
341.386	83.94
341.614	92.94
341.842	98.94
342.07	85.94
342.298	95.94
342.526	94.94
342.754	91.94
342.981	82.94
343.209	92.94
343.437	99.94
343.665	97.94
343.893	78.94
344.12	74.94
344.348	86.94
344.576	96.94
344.804	87.94
345.031	91.94
345.259	102.94
345.487	85.94
345.714	99.94
345.942	102.94
346.17	86.94
346.397	99.94
346.625	87.94
346.853	84.94
347.08	82.94
347.308	100.94
347.535	98.94
347.763	102.94
347.99	92.94
348.218	77.94
348.445	75.94
348.673	98.94
348.9	108.94
349.128	83.94
349.355	85.94
349.583	74.94
349.81	87.94
350.037	102.94
350.265	81.94
350.492	84.94
350.72	76.94
350.947	101.94
351.174	114.94
351.402	108.94
351.629	107.94
351.856	106.94
352.083	98.94
352.311	87.94
352.538	101.94
352.765	106.94
352.992	98.94
353.22	103.94
353.447	106.94
353.674	94.94
353.901	78.94
354.128	114.94
354.355	93.94
354.583	102.94
354.81	93.94
355.037	111.94
355.264	85.94
355.491	101.94
355.718	83.94
355.945	87.94
356.172	98.94
356.399	92.94
356.626	104.94
356.853	90.94
357.08	98.94
357.307	89.94
357.534	98.94
357.761	92.94
357.988	94.94
358.215	95.94
358.441	91.94
358.668	96.94
358.895	93.94
359.122	92.94
359.349	79.94
359.576	89.94
359.802	98.94
360.029	103.94
360.256	114.94
360.483	101.94
360.709	84.94
360.936	102.94
361.163	99.94
361.39	95.94
361.616	88.94
361.843	100.94
362.07	98.94
362.296	83.94
362.523	85.94
362.749	84.94
362.976	74.94
363.203	94.94
363.429	83.94
363.656	76.94
363.882	69.94
364.109	79.94
364.335	84.94
364.562	90.94
364.788	68.94
365.015	96.94
365.241	82.94
365.468	109.94
365.694	97.94
365.92	111.94
366.147	100.94
366.373	85.94
366.599	84.94
366.826	90.94
367.052	87.94
367.278	103.94
367.505	92.94
367.731	66.94
367.957	96.94
368.184	75.94
368.41	90.94
368.636	108.94
368.862	123.94
369.089	102.94
369.315	101.94
369.541	95.94
369.767	91.94
369.993	95.94
370.219	94.94
370.445	100.94
370.672	74.94
370.898	90.94
371.124	82.94
371.35	81.94
371.576	76.94
371.802	91.94
372.028	79.94
372.254	87.94
372.48	75.94
372.706	89.94
372.932	80.94
373.158	92.94
373.384	91.94
373.61	98.94
373.835	99.94
374.061	88.94
374.287	89.94
374.513	85.94
374.739	104.94
374.965	100.94
375.191	89.94
375.416	83.94
375.642	90.94
375.868	87.94
376.094	86.94
376.319	86.94
376.545	88.94
376.771	91.94
376.997	100.94
377.222	91.94
377.448	94.94
377.674	88.94
377.899	84.94
378.125	83.94
378.35	86.94
378.576	93.94
378.802	91.94
379.027	84.94
379.253	92.94
379.478	105.94
379.704	95.94
379.929	87.94
380.155	86.94
380.38	100.94
380.606	83.94
380.831	85.94
381.057	98.94
381.282	100.94
381.507	87.94
381.733	90.94
381.958	82.94
382.184	95.94
382.409	88.94
382.634	94.94
382.86	97.94
383.085	96.94
383.31	101.94
383.535	98.94
383.761	107.94
383.986	101.94
384.211	91.94
384.436	88.94
384.662	86.94
384.887	89.94
385.112	92.94
385.337	95.94
385.562	104.94
385.787	94.94
386.013	103.94
386.238	105.94
386.463	99.94
386.688	110.94
386.913	102.94
387.138	108.94
387.363	99.94
387.588	79.94
387.813	108.94
388.038	121.94
388.263	96.94
388.488	120.94
388.713	97.94
388.938	89.94
389.163	84.94
389.387	87.94
389.612	102.94
389.837	101.94
390.062	88.94
390.287	89.94
390.512	87.94
390.736	98.94
390.961	85.94
391.186	86.94
391.411	98.94
391.636	94.94
391.86	88.94
392.085	97.94
392.31	81.94
392.534	87.94
392.759	86.94
392.984	90.94
393.208	92.94
393.433	86.94
393.658	87.94
393.882	87.94
394.107	86.94
394.331	81.94
394.556	86.94
394.78	79.94
395.005	81.94
395.229	91.94
395.454	82.94
395.678	89.94
395.903	91.94
396.127	84.94
396.352	103.94
396.576	90.94
396.801	81.94
397.025	84.94
397.249	94.94
397.474	86.94
397.698	92.94
397.922	84.94
398.147	85.94
398.371	77.94
398.595	87.94
398.82	102.94
399.044	76.94
399.268	74.94
399.492	76.94
399.717	92.94
399.941	83.94
400.165	94.94
400.389	82.94
400.613	69.94
400.837	78.94
401.062	101.94
401.286	75.94
401.51	82.94
401.734	87.94
401.958	82.94
402.182	106.94
402.406	124.94
402.63	105.94
402.854	96.94
403.078	97.94
403.302	79.94
403.526	90.94
403.75	87.94
403.974	102.94
404.198	93.94
404.422	87.94
404.645	87.94
404.869	98.94
405.093	96.94
405.317	94.94
405.541	94.94
405.765	95.94
405.988	100.94
406.212	137.94
406.436	186.94
406.66	122.94
406.883	83.94
407.107	92.94
407.331	91.94
407.555	91.94
407.778	85.94
408.002	94.94
408.226	94.94
408.449	85.94
408.673	89.94
408.896	93.94
409.12	90.94
409.344	95.94
409.567	85.94
409.791	83.94
410.014	88.94
410.238	98.94
410.461	87.94
410.685	90.94
410.908	103.94
411.132	92.94
411.355	99.94
411.578	86.94
411.802	83.94
412.025	88.94
412.249	88.94
412.472	87.94
412.695	99.94
412.919	93.94
413.142	84.94
413.365	88.94
413.589	94.94
413.812	96.94
414.035	105.94
414.258	84.94
414.482	95.94
414.705	96.94
414.928	82.94
415.151	98.94
415.374	105.94
415.597	89.94
415.821	89.94
416.044	79.94
416.267	91.94
416.49	79.94
416.713	94.94
416.936	90.94
417.159	81.94
417.382	90.94
417.605	86.94
417.828	104.94
418.051	86.94
418.274	97.94
418.497	87.94
418.72	81.94
418.943	99.94
419.166	81.94
419.389	91.94
419.611	98.94
419.834	92.94
420.057	96.94
420.28	92.94
420.503	91.94
420.726	86.94
420.948	87.94
421.171	88.94
421.394	87.94
421.617	101.94
421.839	89.94
422.062	85.94
422.285	92.94
422.507	94.94
422.73	95.94
422.953	96.94
423.175	84.94
423.398	80.94
423.621	87.94
423.843	79.94
424.066	95.94
424.288	91.94
424.511	100.94
424.733	83.94
424.956	102.94
425.178	86.94
425.401	83.94
425.623	89.94
425.846	91.94
426.068	106.94
426.291	94.94
426.513	89.94
426.735	86.94
426.958	74.94
427.18	105.94
427.402	140.94
427.625	153.94
427.847	140.94
428.069	111.94
428.292	78.94
428.514	79.94
428.736	78.94
428.958	92.94
429.181	82.94
429.403	75.94
429.625	84.94
429.847	86.94
430.069	86.94
430.292	107.94
430.514	92.94
430.736	86.94
430.958	94.94
431.18	94.94
431.402	80.94
431.624	78.94
431.846	91.94
432.068	88.94
432.29	101.94
432.512	102.94
432.734	84.94
432.956	94.94
433.178	103.94
433.4	100.94
433.622	86.94
433.844	86.94
434.066	89.94
434.287	90.94
434.509	98.94
434.731	75.94
434.953	89.94
435.175	94.94
435.397	88.94
435.618	87.94
435.84	103.94
436.062	116.94
436.284	105.94
436.505	94.94
436.727	98.94
436.949	90.94
437.17	82.94
437.392	79.94
437.614	76.94
437.835	103.94
438.057	109.94
438.278	90.94
438.5	88.94
438.721	108.94
438.943	95.94
439.165	85.94
439.386	84.94
439.608	90.94
439.829	96.94
440.05	112.94
440.272	120.94
440.493	99.94
440.715	84.94
440.936	80.94
441.158	76.94
441.379	81.94
441.6	66.94
441.822	101.94
442.043	92.94
442.264	87.94
442.486	89.94
442.707	96.94
442.928	98.94
443.149	118.94
443.371	123.94
443.592	106.94
443.813	114.94
444.034	115.94
444.255	84.94
444.476	83.94
444.698	85.94
444.919	91.94
445.14	129.94
445.361	122.94
445.582	109.94
445.803	117.94
446.024	115.94
446.245	118.94
446.466	100.94
446.687	83.94
446.908	73.94
447.129	69.94
447.35	98.94
447.571	88.94
447.792	98.94
448.013	97.94
448.234	87.94
448.455	92.94
448.675	100.94
448.896	110.94
449.117	89.94
449.338	86.94
449.559	114.94
449.779	112.94
450	89.94
450.221	94.94
450.442	96.94
450.662	90.94
450.883	98.94
451.104	103.94
451.324	88.94
451.545	82.94
451.766	81.94
451.986	86.94
452.207	89.94
452.428	98.94
452.648	103.94
452.869	97.94
453.089	103.94
453.31	105.94
453.53	91.94
453.751	100.94
453.971	98.94
454.192	100.94
454.412	94.94
454.633	87.94
454.853	102.94
455.073	85.94
455.294	90.94
455.514	87.94
455.734	83.94
455.955	81.94
456.175	87.94
456.395	80.94
456.616	67.94
456.836	80.94
457.056	70.94
457.276	77.94
457.497	89.94
457.717	81.94
457.937	78.94
458.157	80.94
458.377	95.94
458.598	90.94
458.818	134.94
459.038	130.94
459.258	93.94
459.478	88.94
459.698	91.94
459.918	78.94
460.138	97.94
460.358	81.94
460.578	77.94
460.798	89.94
461.018	90.94
461.238	90.94
461.458	101.94
461.678	94.94
461.898	76.94
462.118	85.94
462.338	87.94
462.558	83.94
462.777	85.94
462.997	88.94
463.217	96.94
463.437	92.94
463.657	87.94
463.876	92.94
464.096	83.94
464.316	100.94
464.536	89.94
464.755	84.94
464.975	102.94
465.195	142.94
465.414	136.94
465.634	90.94
465.854	75.94
466.073	93.94
466.293	92.94
466.512	73.94
466.732	76.94
466.951	89.94
467.171	82.94
467.391	96.94
467.61	97.94
467.829	100.94
468.049	114.94
468.268	114.94
468.488	72.94
468.707	90.94
468.927	82.94
469.146	86.94
469.365	89.94
469.585	88.94
469.804	80.94
470.023	87.94
470.243	89.94
470.462	93.94
470.681	107.94
470.901	84.94
471.12	78.94
471.339	82.94
471.558	89.94
471.777	68.94
471.997	98.94
472.216	135.94
472.435	155.94
472.654	108.94
472.873	90.94
473.092	98.94
473.311	97.94
473.53	86.94
473.749	95.94
473.968	105.94
474.187	95.94
474.406	86.94
474.625	83.94
474.844	94.94
475.063	84.94
475.282	82.94
475.501	96.94
475.72	88.94
475.939	85.94
476.158	86.94
476.377	86.94
476.596	76.94
476.814	82.94
477.033	88.94
477.252	87.94
477.471	89.94
477.69	78.94
477.908	78.94
478.127	87.94
478.346	83.94
478.564	86.94
478.783	100.94
479.002	94.94
479.22	86.94
479.439	83.94
479.658	100.94
479.876	99.94
480.095	87.94
480.313	89.94
480.532	95.94
480.751	97.94
480.969	113.94
481.188	256.94
481.406	193.94
481.624	90.94
481.843	88.94
482.061	86.94
482.28	81.94
482.498	96.94
482.717	96.94
482.935	98.94
483.153	88.94
483.372	92.94
483.59	89.94
483.808	78.94
484.027	96.94
484.245	83.94
484.463	98.94
484.681	96.94
484.9	84.94
485.118	103.94
485.336	92.94
485.554	107.94
485.772	91.94
485.99	88.94
486.209	113.94
486.427	96.94
486.645	105.94
486.863	106.94
487.081	86.94
487.299	88.94
487.517	103.94
487.735	89.94
487.953	103.94
488.171	91.94
488.389	80.94
488.607	73.94
488.825	107.94
489.043	96.94
489.261	91.94
489.479	99.94
489.696	95.94
489.914	95.94
490.132	82.94
490.35	91.94
490.568	80.94
490.786	89.94
491.003	89.94
491.221	87.94
491.439	99.94
491.657	102.94
491.874	96.94
492.092	83.94
492.31	78.94
492.527	65.94
492.745	76.94
492.963	83.94
493.18	95.94
493.398	92.94
493.615	93.94
493.833	89.94
494.05	86.94
494.268	95.94
494.485	87.94
494.703	74.94
494.92	91.94
495.138	89.94
495.355	88.94
495.573	96.94
495.79	77.94
496.008	92.94
496.225	75.94
496.442	92.94
496.66	95.94
496.877	96.94
497.094	87.94
497.312	91.94
497.529	86.94
497.746	92.94
497.963	77.94
498.181	85.94
498.398	84.94
498.615	114.94
498.832	100.94
499.049	84.94
499.267	90.94
499.484	93.94
499.701	92.94
499.918	89.94
500.135	81.94
500.352	92.94
500.569	82.94
500.786	91.94
501.003	86.94
501.22	75.94
501.437	91.94
501.654	94.94
501.871	100.94
502.088	83.94
502.305	100.94
502.522	89.94
502.739	89.94
502.956	102.94
503.172	86.94
503.389	91.94
503.606	101.94
503.823	101.94
504.04	94.94
504.256	96.94
504.473	83.94
504.69	92.94
504.907	84.94
505.123	83.94
505.34	84.94
505.557	87.94
505.773	90.94
505.99	85.94
506.207	86.94
506.423	85.94
506.64	85.94
506.856	90.94
507.073	90.94
507.289	85.94
507.506	90.94
507.722	92.94
507.939	97.94
508.155	91.94
508.372	103.94
508.588	82.94
508.805	83.94
509.021	93.94
509.238	88.94
509.454	98.94
509.67	99.94
509.887	106.94
510.103	112.94
510.319	162.94
510.536	582.94
510.752	1753.94
510.968	493.94
511.184	137.94
511.401	103.94
511.617	99.94
511.833	105.94
512.049	84.94
512.265	83.94
512.481	95.94
512.698	80.94
512.914	81.94
513.13	94.94
513.346	97.94
513.562	90.94
513.778	94.94
513.994	96.94
514.21	97.94
514.426	110.94
514.642	114.94
514.858	103.94
515.074	128.94
515.29	308.94
515.506	1005.94
515.721	394.94
515.937	121.94
516.153	103.94
516.369	89.94
516.585	83.94
