Data from Circ_2002_H10_HRD10591_00012.txt Node
Date: Wed Jan 03 10:41:00 EST 2024
User: Yrep
Spectrometer: HR+D1059
Trigger mode: 1
Integration Time (sec): 1.000000E-1
Scans to average: 1
Electric dark correction enabled: true
Nonlinearity correction enabled: false
Boxcar width: 0
XAxis mode: Wavelengths
Number of Pixels in Spectrum: 2048
>>>>>Begin Spectral Data<<<<<
223.165	-14.62
223.4	-14.62
223.635	-14.62
223.869	-28.62
224.104	-21.62
224.338	-15.62
224.573	-27.62
224.808	-13.62
225.042	-8.62
225.277	3.38
225.511	8.38
225.746	13.38
225.98	15.38
226.215	9.38
226.449	17.38
226.683	16.38
226.918	19.38
227.152	27.38
227.387	49.38
227.621	41.38
227.856	45.38
228.09	42.38
228.324	49.38
228.559	44.38
228.793	51.38
229.027	63.38
229.262	60.38
229.496	72.38
229.73	89.38
229.964	81.38
230.199	77.38
230.433	78.38
230.667	72.38
230.901	92.38
231.136	86.38
231.37	67.38
231.604	81.38
231.838	82.38
232.072	76.38
232.306	77.38
232.541	83.38
232.775	67.38
233.009	86.38
233.243	84.38
233.477	83.38
233.711	80.38
233.945	92.38
234.179	95.38
234.413	83.38
234.647	80.38
234.881	79.38
235.115	92.38
235.349	75.38
235.583	71.38
235.817	80.38
236.051	95.38
236.285	72.38
236.519	73.38
236.753	80.38
236.987	76.38
237.221	78.38
237.455	67.38
237.689	89.38
237.922	75.38
238.156	76.38
238.39	86.38
238.624	79.38
238.858	69.38
239.091	86.38
239.325	70.38
239.559	93.38
239.793	85.38
240.027	69.38
240.26	82.38
240.494	83.38
240.728	65.38
240.961	72.38
241.195	79.38
241.429	76.38
241.662	76.38
241.896	74.38
242.13	84.38
242.363	68.38
242.597	75.38
242.83	72.38
243.064	76.38
243.298	83.38
243.531	65.38
243.765	77.38
243.998	63.38
244.232	64.38
244.465	82.38
244.699	83.38
244.932	86.38
245.166	90.38
245.399	89.38
245.633	78.38
245.866	79.38
246.099	80.38
246.333	72.38
246.566	74.38
246.8	83.38
247.033	75.38
247.266	76.38
247.5	78.38
247.733	82.38
247.966	83.38
248.2	83.38
248.433	69.38
248.666	77.38
248.899	90.38
249.133	75.38
249.366	89.38
249.599	86.38
249.832	83.38
250.066	90.38
250.299	77.38
250.532	69.38
250.765	67.38
250.998	84.38
251.231	72.38
251.465	88.38
251.698	68.38
251.931	76.38
252.164	76.38
252.397	78.38
252.63	90.38
252.863	80.38
253.096	79.38
253.329	77.38
253.562	80.38
253.795	88.38
254.028	85.38
254.261	81.38
254.494	85.38
254.727	91.38
254.96	92.38
255.193	85.38
255.426	80.38
255.659	81.38
255.892	78.38
256.124	77.38
256.357	84.38
256.59	89.38
256.823	87.38
257.056	71.38
257.289	76.38
257.521	79.38
257.754	72.38
257.987	72.38
258.22	99.38
258.452	79.38
258.685	96.38
258.918	80.38
259.151	85.38
259.383	90.38
259.616	84.38
259.849	75.38
260.081	96.38
260.314	96.38
260.547	70.38
260.779	82.38
261.012	76.38
261.244	79.38
261.477	92.38
261.71	85.38
261.942	102.38
262.175	97.38
262.407	84.38
262.64	86.38
262.872	84.38
263.105	91.38
263.337	95.38
263.57	78.38
263.802	76.38
264.035	82.38
264.267	82.38
264.499	75.38
264.732	77.38
264.964	82.38
265.197	80.38
265.429	92.38
265.661	63.38
265.894	93.38
266.126	91.38
266.358	80.38
266.591	89.38
266.823	68.38
267.055	79.38
267.287	80.38
267.52	86.38
267.752	88.38
267.984	93.38
268.216	87.38
268.448	85.38
268.681	86.38
268.913	92.38
269.145	90.38
269.377	85.38
269.609	82.38
269.841	92.38
270.073	92.38
270.306	79.38
270.538	80.38
270.77	86.38
271.002	83.38
271.234	101.38
271.466	103.38
271.698	84.38
271.93	84.38
272.162	73.38
272.394	87.38
272.626	84.38
272.858	71.38
273.09	89.38
273.322	81.38
273.553	84.38
273.785	89.38
274.017	92.38
274.249	89.38
274.481	94.38
274.713	86.38
274.945	67.38
275.176	72.38
275.408	87.38
275.64	91.38
275.872	92.38
276.104	91.38
276.335	97.38
276.567	111.38
276.799	94.38
277.031	89.38
277.262	87.38
277.494	72.38
277.726	82.38
277.957	81.38
278.189	82.38
278.421	75.38
278.652	98.38
278.884	83.38
279.115	85.38
279.347	92.38
279.579	86.38
279.81	89.38
280.042	92.38
280.273	84.38
280.505	81.38
280.736	82.38
280.968	76.38
281.199	89.38
281.431	75.38
281.662	82.38
281.894	91.38
282.125	93.38
282.356	106.38
282.588	137.38
282.819	102.38
283.051	97.38
283.282	93.38
283.513	90.38
283.745	94.38
283.976	81.38
284.207	91.38
284.439	84.38
284.67	90.38
284.901	93.38
285.132	85.38
285.364	91.38
285.595	92.38
285.826	90.38
286.057	79.38
286.288	83.38
286.52	75.38
286.751	81.38
286.982	84.38
287.213	87.38
287.444	86.38
287.675	75.38
287.906	79.38
288.138	86.38
288.369	87.38
288.6	98.38
288.831	81.38
289.062	87.38
289.293	81.38
289.524	86.38
289.755	89.38
289.986	88.38
290.217	88.38
290.448	72.38
290.679	88.38
290.91	96.38
291.141	88.38
291.371	71.38
291.602	76.38
291.833	88.38
292.064	78.38
292.295	88.38
292.526	83.38
292.757	90.38
292.987	98.38
293.218	88.38
293.449	81.38
293.68	85.38
293.91	89.38
294.141	86.38
294.372	95.38
294.603	82.38
294.833	88.38
295.064	84.38
295.295	99.38
295.525	87.38
295.756	93.38
295.987	106.38
296.217	123.38
296.448	103.38
296.679	87.38
296.909	86.38
297.14	99.38
297.37	93.38
297.601	83.38
297.831	97.38
298.062	88.38
298.292	102.38
298.523	97.38
298.753	84.38
298.984	61.38
299.214	75.38
299.445	83.38
299.675	84.38
299.905	100.38
300.136	109.38
300.366	78.38
300.597	87.38
300.827	89.38
301.057	83.38
301.288	98.38
301.518	88.38
301.748	81.38
301.979	92.38
302.209	95.38
302.439	88.38
302.669	88.38
302.9	85.38
303.13	91.38
303.36	92.38
303.59	104.38
303.82	99.38
304.051	97.38
304.281	82.38
304.511	87.38
304.741	97.38
304.971	75.38
305.201	83.38
305.431	83.38
305.661	77.38
305.891	83.38
306.121	85.38
306.352	97.38
306.582	98.38
306.812	105.38
307.042	101.38
307.272	88.38
307.502	90.38
307.731	88.38
307.961	92.38
308.191	88.38
308.421	92.38
308.651	95.38
308.881	83.38
309.111	94.38
309.341	89.38
309.571	96.38
309.8	93.38
310.03	92.38
310.26	96.38
310.49	90.38
310.72	101.38
310.949	89.38
311.179	98.38
311.409	95.38
311.639	86.38
311.868	93.38
312.098	98.38
312.328	90.38
312.557	84.38
312.787	95.38
313.017	87.38
313.246	79.38
313.476	75.38
313.706	99.38
313.935	97.38
314.165	79.38
314.394	94.38
314.624	90.38
314.853	89.38
315.083	93.38
315.312	89.38
315.542	97.38
315.771	88.38
316.001	96.38
316.23	98.38
316.46	94.38
316.689	104.38
316.919	104.38
317.148	102.38
317.377	104.38
317.607	99.38
317.836	76.38
318.065	101.38
318.295	87.38
318.524	80.38
318.753	85.38
318.983	91.38
319.212	94.38
319.441	88.38
319.67	101.38
319.9	91.38
320.129	95.38
320.358	93.38
320.587	96.38
320.816	102.38
321.046	92.38
321.275	97.38
321.504	87.38
321.733	87.38
321.962	85.38
322.191	97.38
322.42	90.38
322.649	96.38
322.878	118.38
323.108	107.38
323.337	111.38
323.566	125.38
323.795	109.38
324.024	157.38
324.253	296.38
324.482	643.38
324.71	1284.38
324.939	1667.38
325.168	633.38
325.397	210.38
325.626	134.38
325.855	104.38
326.084	106.38
326.313	126.38
326.542	150.38
326.77	197.38
326.999	390.38
327.228	778.38
327.457	1378.38
327.686	1087.38
327.914	300.38
328.143	175.38
328.372	122.38
328.6	115.38
328.829	102.38
329.058	107.38
329.287	111.38
329.515	90.38
329.744	92.38
329.972	100.38
330.201	97.38
330.43	102.38
330.658	97.38
330.887	114.38
331.115	100.38
331.344	101.38
331.572	96.38
331.801	96.38
332.03	110.38
332.258	89.38
332.486	85.38
332.715	101.38
332.943	105.38
333.172	97.38
333.4	101.38
333.629	93.38
333.857	110.38
334.085	96.38
334.314	100.38
334.542	109.38
334.771	104.38
334.999	92.38
335.227	108.38
335.455	87.38
335.684	96.38
335.912	89.38
336.14	99.38
336.369	87.38
336.597	85.38
336.825	99.38
337.053	102.38
337.281	83.38
337.51	90.38
337.738	90.38
337.966	94.38
338.194	90.38
338.422	86.38
338.65	90.38
338.878	97.38
339.106	78.38
339.334	94.38
339.562	85.38
339.79	76.38
340.018	82.38
340.246	98.38
340.474	92.38
340.702	93.38
340.93	95.38
341.158	91.38
341.386	96.38
341.614	95.38
341.842	91.38
342.07	102.38
342.298	79.38
342.526	97.38
342.754	92.38
342.981	91.38
343.209	79.38
343.437	103.38
343.665	91.38
343.893	87.38
344.12	83.38
344.348	81.38
344.576	95.38
344.804	84.38
345.031	95.38
345.259	99.38
345.487	83.38
345.714	83.38
345.942	81.38
346.17	91.38
346.397	89.38
346.625	95.38
346.853	85.38
347.08	89.38
347.308	89.38
347.535	100.38
347.763	100.38
347.99	98.38
348.218	105.38
348.445	95.38
348.673	89.38
348.9	99.38
349.128	89.38
349.355	97.38
349.583	95.38
349.81	91.38
350.037	99.38
350.265	92.38
350.492	91.38
350.72	79.38
350.947	106.38
351.174	95.38
351.402	103.38
351.629	93.38
351.856	101.38
352.083	90.38
352.311	102.38
352.538	107.38
352.765	108.38
352.992	109.38
353.22	104.38
353.447	85.38
353.674	91.38
353.901	103.38
354.128	102.38
354.355	87.38
354.583	89.38
354.81	107.38
355.037	98.38
355.264	104.38
355.491	84.38
355.718	101.38
355.945	97.38
356.172	107.38
356.399	102.38
356.626	92.38
356.853	99.38
357.08	104.38
357.307	100.38
357.534	96.38
357.761	89.38
357.988	98.38
358.215	106.38
358.441	105.38
358.668	93.38
358.895	99.38
359.122	76.38
359.349	96.38
359.576	95.38
359.802	105.38
360.029	105.38
360.256	99.38
360.483	80.38
360.709	90.38
360.936	87.38
361.163	88.38
361.39	81.38
361.616	73.38
361.843	76.38
362.07	97.38
362.296	100.38
362.523	90.38
362.749	87.38
362.976	90.38
363.203	111.38
363.429	104.38
363.656	88.38
363.882	92.38
364.109	83.38
364.335	90.38
364.562	77.38
364.788	103.38
365.015	96.38
365.241	92.38
365.468	100.38
365.694	108.38
365.92	99.38
366.147	80.38
366.373	86.38
366.599	101.38
366.826	89.38
367.052	85.38
367.278	100.38
367.505	81.38
367.731	90.38
367.957	93.38
368.184	92.38
368.41	98.38
368.636	104.38
368.862	113.38
369.089	90.38
369.315	84.38
369.541	91.38
369.767	89.38
369.993	84.38
370.219	100.38
370.445	100.38
370.672	102.38
370.898	79.38
371.124	105.38
371.35	78.38
371.576	81.38
371.802	96.38
372.028	89.38
372.254	77.38
372.48	81.38
372.706	84.38
372.932	90.38
373.158	103.38
373.384	96.38
373.61	91.38
373.835	88.38
374.061	86.38
374.287	79.38
374.513	90.38
374.739	80.38
374.965	81.38
375.191	73.38
375.416	85.38
375.642	80.38
375.868	88.38
376.094	93.38
376.319	90.38
376.545	107.38
376.771	97.38
376.997	102.38
377.222	89.38
377.448	89.38
377.674	92.38
377.899	93.38
378.125	94.38
378.35	105.38
378.576	105.38
378.802	83.38
379.027	86.38
379.253	106.38
379.478	101.38
379.704	103.38
379.929	86.38
380.155	98.38
380.38	100.38
380.606	101.38
380.831	102.38
381.057	118.38
381.282	91.38
381.507	107.38
381.733	104.38
381.958	97.38
382.184	94.38
382.409	115.38
382.634	107.38
382.86	99.38
383.085	109.38
383.31	120.38
383.535	113.38
383.761	109.38
383.986	90.38
384.211	96.38
384.436	109.38
384.662	103.38
384.887	113.38
385.112	109.38
385.337	113.38
385.562	110.38
385.787	124.38
386.013	131.38
386.238	132.38
386.463	117.38
386.688	119.38
386.913	123.38
387.138	129.38
387.363	108.38
387.588	113.38
387.813	107.38
388.038	119.38
388.263	123.38
388.488	120.38
388.713	105.38
388.938	116.38
389.163	86.38
389.387	90.38
389.612	87.38
389.837	84.38
390.062	79.38
390.287	81.38
390.512	81.38
390.736	99.38
390.961	91.38
391.186	97.38
391.411	93.38
391.636	84.38
391.86	92.38
392.085	81.38
392.31	73.38
392.534	100.38
392.759	90.38
392.984	94.38
393.208	108.38
393.433	111.38
393.658	91.38
393.882	90.38
394.107	91.38
394.331	80.38
394.556	88.38
394.78	96.38
395.005	81.38
395.229	81.38
395.454	82.38
395.678	94.38
395.903	95.38
396.127	75.38
396.352	99.38
396.576	89.38
396.801	108.38
397.025	106.38
397.249	68.38
397.474	80.38
397.698	75.38
397.922	93.38
398.147	81.38
398.371	92.38
398.595	100.38
398.82	92.38
399.044	87.38
399.268	97.38
399.492	82.38
399.717	91.38
399.941	108.38
400.165	100.38
400.389	89.38
400.613	94.38
400.837	96.38
401.062	94.38
401.286	86.38
401.51	103.38
401.734	78.38
401.958	99.38
402.182	105.38
402.406	134.38
402.63	97.38
402.854	80.38
403.078	98.38
403.302	79.38
403.526	87.38
403.75	88.38
403.974	92.38
404.198	92.38
404.422	96.38
404.645	89.38
404.869	82.38
405.093	93.38
405.317	84.38
405.541	92.38
405.765	79.38
405.988	108.38
406.212	133.38
406.436	162.38
406.66	110.38
406.883	92.38
407.107	95.38
407.331	73.38
407.555	95.38
407.778	81.38
408.002	74.38
408.226	90.38
408.449	80.38
408.673	76.38
408.896	93.38
409.12	98.38
409.344	93.38
409.567	90.38
409.791	82.38
410.014	106.38
410.238	90.38
410.461	90.38
410.685	104.38
410.908	103.38
411.132	108.38
411.355	85.38
411.578	92.38
411.802	92.38
412.025	92.38
412.249	89.38
412.472	83.38
412.695	100.38
412.919	103.38
413.142	88.38
413.365	90.38
413.589	103.38
413.812	94.38
414.035	99.38
414.258	95.38
414.482	89.38
414.705	78.38
414.928	80.38
415.151	83.38
415.374	92.38
415.597	83.38
415.821	98.38
416.044	104.38
416.267	91.38
416.49	84.38
416.713	92.38
416.936	81.38
417.159	92.38
417.382	90.38
417.605	96.38
417.828	86.38
418.051	100.38
418.274	95.38
418.497	102.38
418.72	103.38
418.943	88.38
419.166	86.38
419.389	91.38
419.611	95.38
419.834	91.38
420.057	92.38
420.28	84.38
420.503	92.38
420.726	100.38
420.948	72.38
421.171	92.38
421.394	100.38
421.617	90.38
421.839	88.38
422.062	81.38
422.285	90.38
422.507	105.38
422.73	106.38
422.953	105.38
423.175	101.38
423.398	92.38
423.621	107.38
423.843	83.38
424.066	97.38
424.288	82.38
424.511	79.38
424.733	103.38
424.956	107.38
425.178	101.38
425.401	93.38
425.623	87.38
425.846	103.38
426.068	79.38
426.291	86.38
426.513	98.38
426.735	88.38
426.958	87.38
427.18	100.38
427.402	112.38
427.625	115.38
427.847	107.38
428.069	102.38
428.292	91.38
428.514	86.38
428.736	90.38
428.958	93.38
429.181	79.38
429.403	95.38
429.625	100.38
429.847	94.38
430.069	100.38
430.292	89.38
430.514	97.38
430.736	72.38
430.958	93.38
431.18	78.38
431.402	84.38
431.624	93.38
431.846	90.38
432.068	86.38
432.29	86.38
432.512	88.38
432.734	102.38
432.956	85.38
433.178	109.38
433.4	99.38
433.622	99.38
433.844	85.38
434.066	95.38
434.287	95.38
434.509	103.38
434.731	91.38
434.953	96.38
435.175	99.38
435.397	100.38
435.618	88.38
435.84	103.38
436.062	106.38
436.284	112.38
436.505	118.38
436.727	96.38
436.949	89.38
437.17	85.38
437.392	95.38
437.614	92.38
437.835	86.38
438.057	93.38
438.278	123.38
438.5	93.38
438.721	113.38
438.943	105.38
439.165	106.38
439.386	90.38
439.608	90.38
439.829	107.38
440.05	117.38
440.272	123.38
440.493	94.38
440.715	89.38
440.936	88.38
441.158	91.38
441.379	103.38
441.6	100.38
441.822	83.38
442.043	79.38
442.264	94.38
442.486	97.38
442.707	91.38
442.928	93.38
443.149	113.38
443.371	111.38
443.592	92.38
443.813	116.38
444.034	78.38
444.255	85.38
444.476	83.38
444.698	94.38
444.919	91.38
445.14	143.38
445.361	122.38
445.582	109.38
445.803	113.38
446.024	107.38
446.245	118.38
446.466	94.38
446.687	101.38
446.908	78.38
447.129	101.38
447.35	96.38
447.571	88.38
447.792	92.38
448.013	93.38
448.234	98.38
448.455	94.38
448.675	101.38
448.896	96.38
449.117	100.38
449.338	91.38
449.559	124.38
449.779	112.38
450	91.38
450.221	86.38
450.442	89.38
450.662	92.38
450.883	95.38
451.104	110.38
451.324	99.38
451.545	89.38
451.766	94.38
451.986	76.38
452.207	96.38
452.428	88.38
452.648	89.38
452.869	101.38
453.089	99.38
453.31	109.38
453.53	95.38
453.751	97.38
453.971	99.38
454.192	102.38
454.412	96.38
454.633	71.38
454.853	72.38
455.073	76.38
455.294	99.38
455.514	94.38
455.734	90.38
455.955	92.38
456.175	97.38
456.395	88.38
456.616	89.38
456.836	85.38
457.056	81.38
457.276	85.38
457.497	66.38
457.717	90.38
457.937	73.38
458.157	103.38
458.377	103.38
458.598	100.38
458.818	116.38
459.038	135.38
459.258	124.38
459.478	72.38
459.698	87.38
459.918	99.38
460.138	81.38
460.358	77.38
460.578	90.38
460.798	86.38
461.018	91.38
461.238	88.38
461.458	100.38
461.678	90.38
461.898	92.38
462.118	91.38
462.338	92.38
462.558	72.38
462.777	84.38
462.997	89.38
463.217	84.38
463.437	98.38
463.657	88.38
463.876	90.38
464.096	99.38
464.316	93.38
464.536	106.38
464.755	100.38
464.975	97.38
465.195	136.38
465.414	130.38
465.634	86.38
465.854	83.38
466.073	103.38
466.293	102.38
466.512	90.38
466.732	86.38
466.951	79.38
467.171	88.38
467.391	91.38
467.61	104.38
467.829	81.38
468.049	85.38
468.268	93.38
468.488	87.38
468.707	86.38
468.927	94.38
469.146	96.38
469.365	84.38
469.585	91.38
469.804	93.38
470.023	93.38
470.243	86.38
470.462	97.38
470.681	95.38
470.901	83.38
471.12	88.38
471.339	99.38
471.558	105.38
471.777	104.38
471.997	93.38
472.216	88.38
472.435	97.38
472.654	84.38
472.873	72.38
473.092	91.38
473.311	92.38
473.53	93.38
473.749	75.38
473.968	96.38
474.187	111.38
474.406	88.38
474.625	79.38
474.844	74.38
475.063	76.38
475.282	85.38
475.501	91.38
475.72	75.38
475.939	88.38
476.158	73.38
476.377	93.38
476.596	83.38
476.814	78.38
477.033	86.38
477.252	86.38
477.471	83.38
477.69	88.38
477.908	99.38
478.127	82.38
478.346	84.38
478.564	93.38
478.783	90.38
479.002	100.38
479.22	91.38
479.439	106.38
479.658	91.38
479.876	88.38
480.095	88.38
480.313	93.38
480.532	92.38
480.751	87.38
480.969	98.38
481.188	86.38
481.406	104.38
481.624	100.38
481.843	89.38
482.061	89.38
482.28	91.38
482.498	84.38
482.717	88.38
482.935	90.38
483.153	78.38
483.372	90.38
483.59	95.38
483.808	86.38
484.027	95.38
484.245	88.38
484.463	96.38
484.681	98.38
484.9	108.38
485.118	107.38
485.336	96.38
485.554	100.38
485.772	99.38
485.99	120.38
486.209	115.38
486.427	117.38
486.645	103.38
486.863	92.38
487.081	99.38
487.299	98.38
487.517	99.38
487.735	97.38
487.953	88.38
488.171	97.38
488.389	85.38
488.607	105.38
488.825	105.38
489.043	76.38
489.261	96.38
489.479	92.38
489.696	85.38
489.914	92.38
490.132	95.38
490.35	79.38
490.568	103.38
490.786	92.38
491.003	91.38
491.221	87.38
491.439	96.38
491.657	98.38
491.874	96.38
492.092	80.38
492.31	93.38
492.527	82.38
492.745	102.38
492.963	90.38
493.18	85.38
493.398	92.38
493.615	102.38
493.833	87.38
494.05	89.38
494.268	116.38
494.485	92.38
494.703	80.38
494.92	81.38
495.138	95.38
495.355	93.38
495.573	111.38
495.79	89.38
496.008	83.38
496.225	88.38
496.442	82.38
496.66	99.38
496.877	94.38
497.094	100.38
497.312	89.38
497.529	82.38
497.746	93.38
497.963	90.38
498.181	88.38
498.398	93.38
498.615	97.38
498.832	101.38
499.049	89.38
499.267	95.38
499.484	105.38
499.701	89.38
499.918	103.38
500.135	91.38
500.352	81.38
500.569	89.38
500.786	101.38
501.003	98.38
501.22	90.38
501.437	89.38
501.654	79.38
501.871	91.38
502.088	90.38
502.305	89.38
502.522	97.38
502.739	80.38
502.956	81.38
503.172	82.38
503.389	94.38
503.606	98.38
503.823	86.38
504.04	95.38
504.256	97.38
504.473	92.38
504.69	100.38
504.907	81.38
505.123	97.38
505.34	83.38
505.557	87.38
505.773	93.38
505.99	103.38
506.207	98.38
506.423	104.38
506.64	105.38
506.856	84.38
507.073	87.38
507.289	86.38
507.506	84.38
507.722	93.38
507.939	107.38
508.155	77.38
508.372	99.38
508.588	83.38
508.805	84.38
509.021	84.38
509.238	101.38
509.454	77.38
509.67	84.38
509.887	118.38
510.103	112.38
510.319	170.38
510.536	508.38
510.752	1485.38
510.968	436.38
511.184	124.38
511.401	103.38
511.617	111.38
511.833	99.38
512.049	97.38
512.265	91.38
512.481	101.38
512.698	93.38
512.914	103.38
513.13	79.38
513.346	104.38
513.562	89.38
513.778	91.38
513.994	91.38
514.21	109.38
514.426	113.38
514.642	120.38
514.858	113.38
515.074	134.38
515.29	295.38
515.506	887.38
515.721	346.38
515.937	130.38
