Data from Circ_2002_H10_HRD10591_00064.txt Node
Date: Wed Jan 03 10:41:11 EST 2024
User: Yrep
Spectrometer: HR+D1059
Trigger mode: 1
Integration Time (sec): 1.000000E-1
Scans to average: 1
Electric dark correction enabled: true
Nonlinearity correction enabled: false
Boxcar width: 0
XAxis mode: Wavelengths
Number of Pixels in Spectrum: 2048
>>>>>Begin Spectral Data<<<<<
223.165	-7.88
223.4	-7.88
223.635	-7.88
223.869	-6.88
224.104	-13.88
224.338	-6.88
224.573	-19.88
224.808	-3.88
225.042	-18.88
225.277	-18.88
225.511	-9.88
225.746	6.12
225.98	12.12
226.215	11.12
226.449	6.12
226.683	17.12
226.918	24.12
227.152	30.12
227.387	35.12
227.621	48.12
227.856	48.12
228.09	54.12
228.324	45.12
228.559	65.12
228.793	43.12
229.027	57.12
229.262	69.12
229.496	67.12
229.73	90.12
229.964	71.12
230.199	66.12
230.433	80.12
230.667	80.12
230.901	80.12
231.136	72.12
231.37	86.12
231.604	64.12
231.838	61.12
232.072	67.12
232.306	68.12
232.541	83.12
232.775	84.12
233.009	79.12
233.243	70.12
233.477	92.12
233.711	74.12
233.945	82.12
234.179	73.12
234.413	87.12
234.647	87.12
234.881	86.12
235.115	80.12
235.349	83.12
235.583	72.12
235.817	69.12
236.051	75.12
236.285	77.12
236.519	76.12
236.753	77.12
236.987	73.12
237.221	77.12
237.455	79.12
237.689	76.12
237.922	66.12
238.156	79.12
238.39	72.12
238.624	75.12
238.858	82.12
239.091	76.12
239.325	76.12
239.559	76.12
239.793	75.12
240.027	89.12
240.26	90.12
240.494	73.12
240.728	80.12
240.961	81.12
241.195	76.12
241.429	79.12
241.662	74.12
241.896	86.12
242.13	82.12
242.363	75.12
242.597	77.12
242.83	74.12
243.064	75.12
243.298	72.12
243.531	69.12
243.765	75.12
243.998	74.12
244.232	92.12
244.465	79.12
244.699	73.12
244.932	74.12
245.166	71.12
245.399	71.12
245.633	74.12
245.866	70.12
246.099	92.12
246.333	75.12
246.566	73.12
246.8	77.12
247.033	69.12
247.266	79.12
247.5	88.12
247.733	69.12
247.966	74.12
248.2	92.12
248.433	80.12
248.666	96.12
248.899	77.12
249.133	92.12
249.366	86.12
249.599	91.12
249.832	97.12
250.066	90.12
250.299	66.12
250.532	81.12
250.765	83.12
250.998	90.12
251.231	67.12
251.465	65.12
251.698	68.12
251.931	71.12
252.164	75.12
252.397	80.12
252.63	79.12
252.863	71.12
253.096	68.12
253.329	76.12
253.562	81.12
253.795	81.12
254.028	91.12
254.261	77.12
254.494	68.12
254.727	74.12
254.96	85.12
255.193	79.12
255.426	84.12
255.659	81.12
255.892	85.12
256.124	76.12
256.357	67.12
256.59	92.12
256.823	90.12
257.056	83.12
257.289	80.12
257.521	80.12
257.754	92.12
257.987	83.12
258.22	76.12
258.452	88.12
258.685	86.12
258.918	85.12
259.151	84.12
259.383	93.12
259.616	83.12
259.849	92.12
260.081	70.12
260.314	80.12
260.547	88.12
260.779	90.12
261.012	96.12
261.244	81.12
261.477	88.12
261.71	83.12
261.942	97.12
262.175	106.12
262.407	79.12
262.64	90.12
262.872	86.12
263.105	87.12
263.337	79.12
263.57	88.12
263.802	100.12
264.035	85.12
264.267	87.12
264.499	77.12
264.732	90.12
264.964	89.12
265.197	103.12
265.429	90.12
265.661	84.12
265.894	82.12
266.126	81.12
266.358	77.12
266.591	85.12
266.823	98.12
267.055	78.12
267.287	79.12
267.52	83.12
267.752	80.12
267.984	89.12
268.216	75.12
268.448	86.12
268.681	82.12
268.913	84.12
269.145	75.12
269.377	84.12
269.609	83.12
269.841	74.12
270.073	72.12
270.306	80.12
270.538	87.12
270.77	85.12
271.002	96.12
271.234	71.12
271.466	90.12
271.698	80.12
271.93	87.12
272.162	89.12
272.394	85.12
272.626	79.12
272.858	88.12
273.09	92.12
273.322	90.12
273.553	84.12
273.785	93.12
274.017	82.12
274.249	98.12
274.481	89.12
274.713	83.12
274.945	82.12
275.176	95.12
275.408	83.12
275.64	83.12
275.872	88.12
276.104	77.12
276.335	91.12
276.567	93.12
276.799	97.12
277.031	87.12
277.262	85.12
277.494	86.12
277.726	88.12
277.957	91.12
278.189	87.12
278.421	97.12
278.652	85.12
278.884	77.12
279.115	69.12
279.347	87.12
279.579	82.12
279.81	85.12
280.042	91.12
280.273	103.12
280.505	88.12
280.736	68.12
280.968	77.12
281.199	102.12
281.431	85.12
281.662	93.12
281.894	88.12
282.125	93.12
282.356	108.12
282.588	133.12
282.819	97.12
283.051	86.12
283.282	68.12
283.513	79.12
283.745	88.12
283.976	86.12
284.207	100.12
284.439	72.12
284.67	81.12
284.901	73.12
285.132	86.12
285.364	80.12
285.595	85.12
285.826	82.12
286.057	86.12
286.288	76.12
286.52	98.12
286.751	93.12
286.982	84.12
287.213	90.12
287.444	91.12
287.675	94.12
287.906	95.12
288.138	103.12
288.369	93.12
288.6	82.12
288.831	87.12
289.062	76.12
289.293	71.12
289.524	99.12
289.755	87.12
289.986	72.12
290.217	84.12
290.448	92.12
290.679	84.12
290.91	80.12
291.141	90.12
291.371	77.12
291.602	96.12
291.833	83.12
292.064	94.12
292.295	79.12
292.526	90.12
292.757	81.12
292.987	87.12
293.218	86.12
293.449	82.12
293.68	87.12
293.91	90.12
294.141	67.12
294.372	83.12
294.603	78.12
294.833	87.12
295.064	80.12
295.295	80.12
295.525	91.12
295.756	96.12
295.987	122.12
296.217	125.12
296.448	114.12
296.679	82.12
296.909	83.12
297.14	102.12
297.37	82.12
297.601	90.12
297.831	88.12
298.062	85.12
298.292	84.12
298.523	95.12
298.753	96.12
298.984	92.12
299.214	99.12
299.445	90.12
299.675	98.12
299.905	82.12
300.136	85.12
300.366	90.12
300.597	85.12
300.827	83.12
301.057	92.12
301.288	101.12
301.518	85.12
301.748	82.12
301.979	100.12
302.209	69.12
302.439	98.12
302.669	92.12
302.9	75.12
303.13	80.12
303.36	93.12
303.59	98.12
303.82	95.12
304.051	93.12
304.281	97.12
304.511	84.12
304.741	102.12
304.971	81.12
305.201	91.12
305.431	90.12
305.661	85.12
305.891	97.12
306.121	101.12
306.352	94.12
306.582	100.12
306.812	95.12
307.042	96.12
307.272	94.12
307.502	91.12
307.731	98.12
307.961	77.12
308.191	90.12
308.421	97.12
308.651	84.12
308.881	85.12
309.111	92.12
309.341	92.12
309.571	91.12
309.8	92.12
310.03	100.12
310.26	92.12
310.49	89.12
310.72	99.12
310.949	103.12
311.179	93.12
311.409	88.12
311.639	91.12
311.868	92.12
312.098	99.12
312.328	95.12
312.557	98.12
312.787	91.12
313.017	102.12
313.246	83.12
313.476	93.12
313.706	92.12
313.935	108.12
314.165	89.12
314.394	105.12
314.624	93.12
314.853	88.12
315.083	93.12
315.312	91.12
315.542	97.12
315.771	89.12
316.001	93.12
316.23	92.12
316.46	92.12
316.689	86.12
316.919	94.12
317.148	92.12
317.377	84.12
317.607	82.12
317.836	107.12
318.065	83.12
318.295	88.12
318.524	82.12
318.753	91.12
318.983	95.12
319.212	98.12
319.441	94.12
319.67	99.12
319.9	98.12
320.129	89.12
320.358	96.12
320.587	94.12
320.816	89.12
321.046	85.12
321.275	96.12
321.504	95.12
321.733	81.12
321.962	97.12
322.191	99.12
322.42	93.12
322.649	101.12
322.878	94.12
323.108	98.12
323.337	125.12
323.566	128.12
323.795	147.12
324.024	181.12
324.253	328.12
324.482	709.12
324.71	1405.12
324.939	1846.12
325.168	706.12
325.397	215.12
325.626	135.12
325.855	125.12
326.084	112.12
326.313	122.12
326.542	138.12
326.77	208.12
326.999	417.12
327.228	790.12
327.457	1514.12
327.686	1200.12
327.914	320.12
328.143	177.12
328.372	136.12
328.6	114.12
328.829	105.12
329.058	117.12
329.287	124.12
329.515	99.12
329.744	102.12
329.972	112.12
330.201	118.12
330.43	135.12
330.658	117.12
330.887	124.12
331.115	101.12
331.344	106.12
331.572	110.12
331.801	91.12
332.03	94.12
332.258	91.12
332.486	83.12
332.715	100.12
332.943	89.12
333.172	87.12
333.4	99.12
333.629	106.12
333.857	117.12
334.085	114.12
334.314	110.12
334.542	123.12
334.771	135.12
334.999	90.12
335.227	93.12
335.455	89.12
335.684	98.12
335.912	111.12
336.14	99.12
336.369	90.12
336.597	96.12
336.825	95.12
337.053	102.12
337.281	86.12
337.51	98.12
337.738	93.12
337.966	87.12
338.194	94.12
338.422	85.12
338.65	92.12
338.878	97.12
339.106	82.12
339.334	83.12
339.562	96.12
339.79	84.12
340.018	92.12
340.246	109.12
340.474	81.12
340.702	89.12
340.93	89.12
341.158	91.12
341.386	100.12
341.614	97.12
341.842	77.12
342.07	92.12
342.298	93.12
342.526	88.12
342.754	86.12
342.981	91.12
343.209	101.12
343.437	100.12
343.665	100.12
343.893	94.12
344.12	99.12
344.348	90.12
344.576	89.12
344.804	91.12
345.031	96.12
345.259	90.12
345.487	98.12
345.714	99.12
345.942	90.12
346.17	84.12
346.397	102.12
346.625	81.12
346.853	92.12
347.08	112.12
347.308	101.12
347.535	92.12
347.763	91.12
347.99	113.12
348.218	96.12
348.445	105.12
348.673	106.12
348.9	88.12
349.128	88.12
349.355	93.12
349.583	92.12
349.81	109.12
350.037	89.12
350.265	84.12
350.492	83.12
350.72	91.12
350.947	100.12
351.174	111.12
351.402	98.12
351.629	94.12
351.856	114.12
352.083	93.12
352.311	110.12
352.538	89.12
352.765	96.12
352.992	104.12
353.22	106.12
353.447	102.12
353.674	92.12
353.901	93.12
354.128	86.12
354.355	84.12
354.583	88.12
354.81	101.12
355.037	86.12
355.264	77.12
355.491	92.12
355.718	93.12
355.945	104.12
356.172	96.12
356.399	90.12
356.626	101.12
356.853	98.12
357.08	88.12
357.307	97.12
357.534	106.12
357.761	90.12
357.988	93.12
358.215	89.12
358.441	80.12
358.668	90.12
358.895	83.12
359.122	81.12
359.349	101.12
359.576	76.12
359.802	93.12
360.029	108.12
360.256	105.12
360.483	89.12
360.709	91.12
360.936	88.12
361.163	91.12
361.39	90.12
361.616	88.12
361.843	78.12
362.07	89.12
362.296	96.12
362.523	85.12
362.749	94.12
362.976	96.12
363.203	88.12
363.429	97.12
363.656	94.12
363.882	93.12
364.109	77.12
364.335	102.12
364.562	91.12
364.788	104.12
365.015	99.12
365.241	90.12
365.468	103.12
365.694	100.12
365.92	87.12
366.147	103.12
366.373	103.12
366.599	90.12
366.826	87.12
367.052	93.12
367.278	89.12
367.505	84.12
367.731	88.12
367.957	99.12
368.184	95.12
368.41	99.12
368.636	97.12
368.862	112.12
369.089	88.12
369.315	105.12
369.541	100.12
369.767	87.12
369.993	82.12
370.219	84.12
370.445	85.12
370.672	95.12
370.898	87.12
371.124	93.12
371.35	87.12
371.576	94.12
371.802	96.12
372.028	84.12
372.254	89.12
372.48	97.12
372.706	78.12
372.932	94.12
373.158	97.12
373.384	100.12
373.61	91.12
373.835	89.12
374.061	95.12
374.287	100.12
374.513	92.12
374.739	95.12
374.965	72.12
375.191	85.12
375.416	97.12
375.642	87.12
375.868	87.12
376.094	92.12
376.319	104.12
376.545	89.12
376.771	86.12
376.997	75.12
377.222	86.12
377.448	82.12
377.674	104.12
377.899	85.12
378.125	85.12
378.35	101.12
378.576	79.12
378.802	82.12
379.027	93.12
379.253	94.12
379.478	84.12
379.704	99.12
379.929	93.12
380.155	89.12
380.38	89.12
380.606	96.12
380.831	92.12
381.057	91.12
381.282	87.12
381.507	82.12
381.733	86.12
381.958	106.12
382.184	105.12
382.409	90.12
382.634	89.12
382.86	95.12
383.085	103.12
383.31	93.12
383.535	94.12
383.761	90.12
383.986	100.12
384.211	86.12
384.436	105.12
384.662	99.12
384.887	104.12
385.112	113.12
385.337	103.12
385.562	96.12
385.787	103.12
386.013	113.12
386.238	102.12
386.463	108.12
386.688	96.12
386.913	102.12
387.138	113.12
387.363	92.12
387.588	98.12
387.813	103.12
388.038	93.12
388.263	115.12
388.488	107.12
388.713	114.12
388.938	96.12
389.163	105.12
389.387	109.12
389.612	91.12
389.837	96.12
390.062	99.12
390.287	92.12
390.512	77.12
390.736	74.12
390.961	97.12
391.186	95.12
391.411	93.12
391.636	81.12
391.86	76.12
392.085	88.12
392.31	71.12
392.534	87.12
392.759	95.12
392.984	104.12
393.208	83.12
393.433	100.12
393.658	77.12
393.882	89.12
394.107	113.12
394.331	87.12
394.556	85.12
394.78	72.12
395.005	95.12
395.229	101.12
395.454	98.12
395.678	92.12
395.903	80.12
396.127	80.12
396.352	90.12
396.576	79.12
396.801	96.12
397.025	77.12
397.249	75.12
397.474	75.12
397.698	80.12
397.922	80.12
398.147	84.12
398.371	91.12
398.595	99.12
398.82	93.12
399.044	86.12
399.268	82.12
399.492	75.12
399.717	97.12
399.941	88.12
400.165	87.12
400.389	109.12
400.613	85.12
400.837	83.12
401.062	86.12
401.286	73.12
401.51	87.12
401.734	85.12
401.958	107.12
402.182	109.12
402.406	145.12
402.63	105.12
402.854	103.12
403.078	91.12
403.302	93.12
403.526	82.12
403.75	81.12
403.974	104.12
404.198	91.12
404.422	93.12
404.645	96.12
404.869	89.12
405.093	89.12
405.317	85.12
405.541	108.12
405.765	104.12
405.988	119.12
406.212	149.12
406.436	174.12
406.66	124.12
406.883	91.12
407.107	74.12
407.331	86.12
407.555	92.12
407.778	95.12
408.002	99.12
408.226	88.12
408.449	104.12
408.673	88.12
408.896	97.12
409.12	97.12
409.344	100.12
409.567	93.12
409.791	93.12
410.014	92.12
410.238	95.12
410.461	97.12
410.685	88.12
410.908	91.12
411.132	106.12
411.355	94.12
411.578	88.12
411.802	88.12
412.025	69.12
412.249	79.12
412.472	89.12
412.695	95.12
412.919	80.12
413.142	76.12
413.365	91.12
413.589	93.12
413.812	87.12
414.035	73.12
414.258	89.12
414.482	99.12
414.705	88.12
414.928	80.12
415.151	85.12
415.374	101.12
415.597	89.12
415.821	78.12
416.044	86.12
416.267	96.12
416.49	102.12
416.713	97.12
416.936	87.12
417.159	92.12
417.382	90.12
417.605	82.12
417.828	97.12
418.051	91.12
418.274	84.12
418.497	93.12
418.72	86.12
418.943	99.12
419.166	98.12
419.389	99.12
419.611	98.12
419.834	90.12
420.057	93.12
420.28	84.12
420.503	99.12
420.726	80.12
420.948	78.12
421.171	90.12
421.394	72.12
421.617	78.12
421.839	83.12
422.062	79.12
422.285	90.12
422.507	95.12
422.73	95.12
422.953	95.12
423.175	82.12
423.398	98.12
423.621	84.12
423.843	87.12
424.066	85.12
424.288	78.12
424.511	84.12
424.733	85.12
424.956	102.12
425.178	103.12
425.401	96.12
425.623	103.12
425.846	93.12
426.068	88.12
426.291	107.12
426.513	89.12
426.735	95.12
426.958	93.12
427.18	91.12
427.402	122.12
427.625	124.12
427.847	128.12
428.069	103.12
428.292	86.12
428.514	83.12
428.736	76.12
428.958	91.12
429.181	79.12
429.403	90.12
429.625	87.12
429.847	79.12
430.069	81.12
430.292	95.12
430.514	86.12
430.736	83.12
430.958	104.12
431.18	79.12
431.402	96.12
431.624	88.12
431.846	81.12
432.068	93.12
432.29	89.12
432.512	86.12
432.734	99.12
432.956	77.12
433.178	99.12
433.4	99.12
433.622	83.12
433.844	92.12
434.066	97.12
434.287	92.12
434.509	87.12
434.731	91.12
434.953	96.12
435.175	87.12
435.397	88.12
435.618	91.12
435.84	84.12
436.062	115.12
436.284	119.12
436.505	108.12
436.727	93.12
436.949	96.12
437.17	87.12
437.392	84.12
437.614	87.12
437.835	100.12
438.057	102.12
438.278	99.12
438.5	85.12
438.721	109.12
438.943	92.12
439.165	104.12
439.386	83.12
439.608	90.12
439.829	96.12
440.05	113.12
440.272	129.12
440.493	105.12
440.715	89.12
440.936	88.12
441.158	92.12
441.379	92.12
441.6	96.12
441.822	88.12
442.043	93.12
442.264	83.12
442.486	81.12
442.707	96.12
442.928	82.12
443.149	128.12
443.371	118.12
443.592	102.12
443.813	106.12
444.034	96.12
444.255	94.12
444.476	74.12
444.698	103.12
444.919	106.12
445.14	131.12
445.361	122.12
445.582	118.12
445.803	118.12
446.024	125.12
446.245	125.12
446.466	106.12
446.687	89.12
446.908	81.12
447.129	94.12
447.35	79.12
447.571	74.12
447.792	69.12
448.013	88.12
448.234	97.12
448.455	90.12
448.675	106.12
448.896	113.12
449.117	113.12
449.338	106.12
449.559	117.12
449.779	123.12
450	100.12
450.221	81.12
450.442	77.12
450.662	90.12
450.883	112.12
451.104	105.12
451.324	92.12
451.545	85.12
451.766	85.12
451.986	91.12
452.207	78.12
452.428	100.12
452.648	91.12
452.869	115.12
453.089	104.12
453.31	99.12
453.53	100.12
453.751	89.12
453.971	100.12
454.192	103.12
454.412	92.12
454.633	93.12
454.853	76.12
455.073	91.12
455.294	79.12
455.514	86.12
455.734	87.12
455.955	95.12
456.175	103.12
456.395	88.12
456.616	87.12
456.836	99.12
457.056	83.12
457.276	79.12
457.497	81.12
457.717	84.12
457.937	75.12
458.157	78.12
458.377	79.12
458.598	112.12
458.818	131.12
459.038	126.12
459.258	104.12
459.478	85.12
459.698	86.12
459.918	103.12
460.138	79.12
460.358	80.12
460.578	95.12
460.798	95.12
461.018	84.12
461.238	73.12
461.458	90.12
461.678	87.12
461.898	94.12
462.118	77.12
462.338	95.12
462.558	89.12
462.777	81.12
462.997	86.12
463.217	83.12
463.437	92.12
463.657	89.12
463.876	91.12
464.096	82.12
464.316	101.12
464.536	89.12
464.755	99.12
464.975	93.12
465.195	146.12
465.414	116.12
465.634	95.12
465.854	82.12
466.073	85.12
466.293	81.12
466.512	84.12
466.732	108.12
466.951	84.12
467.171	96.12
467.391	100.12
467.61	101.12
467.829	101.12
468.049	101.12
468.268	108.12
468.488	93.12
468.707	88.12
468.927	78.12
469.146	83.12
469.365	91.12
469.585	85.12
469.804	115.12
470.023	105.12
470.243	81.12
470.462	103.12
470.681	99.12
470.901	76.12
471.12	76.12
471.339	94.12
471.558	95.12
471.777	81.12
471.997	100.12
472.216	115.12
472.435	141.12
472.654	90.12
472.873	91.12
473.092	91.12
473.311	85.12
473.53	90.12
473.749	89.12
473.968	96.12
474.187	102.12
474.406	85.12
474.625	85.12
474.844	84.12
475.063	87.12
475.282	83.12
475.501	84.12
475.72	95.12
475.939	81.12
476.158	90.12
476.377	101.12
476.596	99.12
476.814	84.12
477.033	90.12
477.252	95.12
477.471	83.12
477.69	75.12
477.908	85.12
478.127	84.12
478.346	88.12
478.564	95.12
478.783	88.12
479.002	99.12
479.22	87.12
479.439	105.12
479.658	93.12
479.876	77.12
480.095	82.12
480.313	85.12
480.532	82.12
480.751	99.12
480.969	117.12
481.188	180.12
481.406	161.12
481.624	111.12
481.843	95.12
482.061	84.12
482.28	97.12
482.498	84.12
482.717	76.12
482.935	90.12
483.153	97.12
483.372	99.12
483.59	108.12
483.808	84.12
484.027	82.12
484.245	83.12
484.463	82.12
484.681	82.12
484.9	79.12
485.118	106.12
485.336	89.12
485.554	98.12
485.772	99.12
485.99	90.12
486.209	97.12
486.427	107.12
486.645	102.12
486.863	107.12
487.081	99.12
487.299	91.12
487.517	109.12
487.735	90.12
487.953	80.12
488.171	86.12
488.389	101.12
488.607	96.12
488.825	92.12
489.043	101.12
489.261	107.12
489.479	79.12
489.696	85.12
489.914	83.12
490.132	76.12
490.35	87.12
490.568	90.12
490.786	83.12
491.003	87.12
491.221	87.12
491.439	101.12
491.657	91.12
491.874	98.12
492.092	104.12
492.31	103.12
492.527	99.12
492.745	96.12
492.963	107.12
493.18	84.12
493.398	97.12
493.615	108.12
493.833	91.12
494.05	96.12
494.268	97.12
494.485	71.12
494.703	91.12
494.92	80.12
495.138	90.12
495.355	93.12
495.573	87.12
495.79	86.12
496.008	93.12
496.225	92.12
496.442	90.12
496.66	97.12
496.877	83.12
497.094	84.12
497.312	85.12
497.529	84.12
497.746	89.12
497.963	84.12
498.181	95.12
498.398	91.12
498.615	98.12
498.832	93.12
499.049	91.12
499.267	88.12
499.484	84.12
499.701	101.12
499.918	83.12
500.135	88.12
500.352	67.12
500.569	88.12
500.786	93.12
501.003	87.12
501.22	102.12
501.437	97.12
501.654	91.12
501.871	100.12
502.088	108.12
502.305	95.12
502.522	103.12
502.739	90.12
502.956	86.12
503.172	99.12
503.389	97.12
503.606	88.12
503.823	86.12
504.04	81.12
504.256	92.12
504.473	86.12
504.69	93.12
504.907	97.12
505.123	89.12
505.34	89.12
505.557	96.12
505.773	100.12
505.99	88.12
506.207	82.12
506.423	84.12
506.64	101.12
506.856	91.12
507.073	84.12
507.289	98.12
507.506	88.12
507.722	86.12
507.939	91.12
508.155	89.12
508.372	87.12
508.588	85.12
508.805	111.12
509.021	90.12
509.238	106.12
509.454	103.12
509.67	105.12
509.887	96.12
510.103	118.12
510.319	184.12
510.536	587.12
510.752	1725.12
510.968	512.12
511.184	124.12
511.401	113.12
511.617	93.12
511.833	98.12
512.049	97.12
512.265	85.12
512.481	98.12
512.698	90.12
512.914	91.12
513.13	88.12
513.346	85.12
513.562	96.12
513.778	94.12
513.994	87.12
514.21	87.12
514.426	92.12
514.642	105.12
514.858	102.12
515.074	154.12
515.29	311.12
515.506	995.12
515.721	389.12
515.937	128.12
516.153	96.12
516.369	82.12
