Data from Circ_2002_H10_HRD10591_00046.txt Node
Date: Wed Jan 03 10:41:07 EST 2024
User: Yrep
Spectrometer: HR+D1059
Trigger mode: 1
Integration Time (sec): 1.000000E-1
Scans to average: 1
Electric dark correction enabled: true
Nonlinearity correction enabled: false
Boxcar width: 0
XAxis mode: Wavelengths
Number of Pixels in Spectrum: 2048
>>>>>Begin Spectral Data<<<<<
223.165	-11.62
223.4	-11.62
223.635	-11.62
223.869	-13.62
224.104	-27.62
224.338	-5.62
224.573	-15.62
224.808	-10.62
225.042	-1.62
225.277	-8.62
225.511	4.38
225.746	6.38
225.98	3.38
226.215	9.38
226.449	14.38
226.683	2.38
226.918	25.38
227.152	29.38
227.387	32.38
227.621	42.38
227.856	54.38
228.09	36.38
228.324	36.38
228.559	47.38
228.793	58.38
229.027	67.38
229.262	67.38
229.496	88.38
229.73	87.38
229.964	72.38
230.199	81.38
230.433	75.38
230.667	73.38
230.901	75.38
231.136	76.38
231.37	74.38
231.604	82.38
231.838	79.38
232.072	80.38
232.306	78.38
232.541	82.38
232.775	88.38
233.009	95.38
233.243	81.38
233.477	72.38
233.711	67.38
233.945	75.38
234.179	73.38
234.413	74.38
234.647	77.38
234.881	79.38
235.115	67.38
235.349	67.38
235.583	90.38
235.817	81.38
236.051	87.38
236.285	73.38
236.519	73.38
236.753	63.38
236.987	81.38
237.221	84.38
237.455	74.38
237.689	71.38
237.922	75.38
238.156	69.38
238.39	70.38
238.624	72.38
238.858	86.38
239.091	75.38
239.325	77.38
239.559	71.38
239.793	70.38
240.027	87.38
240.26	71.38
240.494	83.38
240.728	58.38
240.961	85.38
241.195	97.38
241.429	88.38
241.662	82.38
241.896	90.38
242.13	85.38
242.363	69.38
242.597	59.38
242.83	61.38
243.064	86.38
243.298	80.38
243.531	91.38
243.765	79.38
243.998	80.38
244.232	69.38
244.465	86.38
244.699	78.38
244.932	84.38
245.166	84.38
245.399	73.38
245.633	73.38
245.866	88.38
246.099	74.38
246.333	74.38
246.566	72.38
246.8	63.38
247.033	74.38
247.266	73.38
247.5	61.38
247.733	78.38
247.966	79.38
248.2	83.38
248.433	84.38
248.666	81.38
248.899	75.38
249.133	77.38
249.366	90.38
249.599	88.38
249.832	76.38
250.066	89.38
250.299	73.38
250.532	89.38
250.765	88.38
250.998	89.38
251.231	67.38
251.465	73.38
251.698	66.38
251.931	66.38
252.164	88.38
252.397	94.38
252.63	69.38
252.863	71.38
253.096	58.38
253.329	81.38
253.562	81.38
253.795	81.38
254.028	89.38
254.261	79.38
254.494	94.38
254.727	86.38
254.96	93.38
255.193	86.38
255.426	67.38
255.659	80.38
255.892	78.38
256.124	74.38
256.357	82.38
256.59	79.38
256.823	65.38
257.056	81.38
257.289	84.38
257.521	82.38
257.754	85.38
257.987	65.38
258.22	74.38
258.452	92.38
258.685	69.38
258.918	74.38
259.151	80.38
259.383	93.38
259.616	78.38
259.849	85.38
260.081	88.38
260.314	82.38
260.547	74.38
260.779	68.38
261.012	77.38
261.244	72.38
261.477	82.38
261.71	87.38
261.942	87.38
262.175	115.38
262.407	91.38
262.64	77.38
262.872	86.38
263.105	72.38
263.337	77.38
263.57	92.38
263.802	80.38
264.035	82.38
264.267	86.38
264.499	96.38
264.732	83.38
264.964	99.38
265.197	86.38
265.429	70.38
265.661	77.38
265.894	85.38
266.126	80.38
266.358	84.38
266.591	88.38
266.823	87.38
267.055	81.38
267.287	78.38
267.52	80.38
267.752	88.38
267.984	84.38
268.216	84.38
268.448	89.38
268.681	87.38
268.913	76.38
269.145	82.38
269.377	99.38
269.609	86.38
269.841	82.38
270.073	92.38
270.306	96.38
270.538	81.38
270.77	66.38
271.002	79.38
271.234	85.38
271.466	85.38
271.698	82.38
271.93	75.38
272.162	73.38
272.394	93.38
272.626	91.38
272.858	81.38
273.09	74.38
273.322	81.38
273.553	75.38
273.785	73.38
274.017	70.38
274.249	86.38
274.481	98.38
274.713	76.38
274.945	89.38
275.176	90.38
275.408	76.38
275.64	95.38
275.872	87.38
276.104	87.38
276.335	84.38
276.567	114.38
276.799	86.38
277.031	80.38
277.262	80.38
277.494	96.38
277.726	84.38
277.957	86.38
278.189	69.38
278.421	75.38
278.652	81.38
278.884	95.38
279.115	79.38
279.347	83.38
279.579	91.38
279.81	99.38
280.042	99.38
280.273	86.38
280.505	78.38
280.736	75.38
280.968	80.38
281.199	82.38
281.431	84.38
281.662	81.38
281.894	94.38
282.125	90.38
282.356	97.38
282.588	118.38
282.819	102.38
283.051	90.38
283.282	86.38
283.513	89.38
283.745	91.38
283.976	101.38
284.207	94.38
284.439	85.38
284.67	85.38
284.901	72.38
285.132	89.38
285.364	80.38
285.595	97.38
285.826	78.38
286.057	75.38
286.288	84.38
286.52	91.38
286.751	92.38
286.982	90.38
287.213	93.38
287.444	85.38
287.675	74.38
287.906	84.38
288.138	81.38
288.369	77.38
288.6	97.38
288.831	82.38
289.062	85.38
289.293	85.38
289.524	83.38
289.755	93.38
289.986	91.38
290.217	95.38
290.448	98.38
290.679	87.38
290.91	90.38
291.141	81.38
291.371	80.38
291.602	81.38
291.833	71.38
292.064	74.38
292.295	97.38
292.526	73.38
292.757	75.38
292.987	91.38
293.218	71.38
293.449	87.38
293.68	105.38
293.91	77.38
294.141	85.38
294.372	90.38
294.603	74.38
294.833	69.38
295.064	82.38
295.295	80.38
295.525	81.38
295.756	97.38
295.987	106.38
296.217	121.38
296.448	106.38
296.679	91.38
296.909	91.38
297.14	78.38
297.37	95.38
297.601	97.38
297.831	95.38
298.062	94.38
298.292	96.38
298.523	102.38
298.753	88.38
298.984	80.38
299.214	84.38
299.445	90.38
299.675	102.38
299.905	88.38
300.136	87.38
300.366	106.38
300.597	79.38
300.827	90.38
301.057	88.38
301.288	97.38
301.518	100.38
301.748	84.38
301.979	106.38
302.209	96.38
302.439	88.38
302.669	86.38
302.9	89.38
303.13	80.38
303.36	89.38
303.59	103.38
303.82	101.38
304.051	105.38
304.281	93.38
304.511	94.38
304.741	88.38
304.971	91.38
305.201	88.38
305.431	113.38
305.661	93.38
305.891	96.38
306.121	71.38
306.352	89.38
306.582	105.38
306.812	83.38
307.042	76.38
307.272	86.38
307.502	101.38
307.731	104.38
307.961	86.38
308.191	80.38
308.421	88.38
308.651	91.38
308.881	98.38
309.111	90.38
309.341	87.38
309.571	90.38
309.8	93.38
310.03	100.38
310.26	106.38
310.49	96.38
310.72	94.38
310.949	90.38
311.179	80.38
311.409	89.38
311.639	89.38
311.868	86.38
312.098	83.38
312.328	91.38
312.557	96.38
312.787	104.38
313.017	106.38
313.246	94.38
313.476	86.38
313.706	91.38
313.935	95.38
314.165	87.38
314.394	94.38
314.624	103.38
314.853	90.38
315.083	87.38
315.312	95.38
315.542	95.38
315.771	98.38
316.001	98.38
316.23	91.38
316.46	89.38
316.689	77.38
316.919	84.38
317.148	104.38
317.377	89.38
317.607	90.38
317.836	88.38
318.065	90.38
318.295	96.38
318.524	99.38
318.753	92.38
318.983	80.38
319.212	97.38
319.441	97.38
319.67	89.38
319.9	92.38
320.129	78.38
320.358	81.38
320.587	85.38
320.816	89.38
321.046	85.38
321.275	80.38
321.504	107.38
321.733	91.38
321.962	84.38
322.191	90.38
322.42	103.38
322.649	103.38
322.878	107.38
323.108	99.38
323.337	103.38
323.566	120.38
323.795	134.38
324.024	182.38
324.253	337.38
324.482	698.38
324.71	1430.38
324.939	1857.38
325.168	697.38
325.397	226.38
325.626	132.38
325.855	124.38
326.084	116.38
326.313	119.38
326.542	131.38
326.77	203.38
326.999	419.38
327.228	807.38
327.457	1461.38
327.686	1153.38
327.914	321.38
328.143	167.38
328.372	141.38
328.6	115.38
328.829	114.38
329.058	102.38
329.287	108.38
329.515	108.38
329.744	94.38
329.972	104.38
330.201	112.38
330.43	116.38
330.658	113.38
330.887	112.38
331.115	105.38
331.344	113.38
331.572	98.38
331.801	97.38
332.03	104.38
332.258	98.38
332.486	91.38
332.715	86.38
332.943	90.38
333.172	96.38
333.4	104.38
333.629	91.38
333.857	105.38
334.085	99.38
334.314	112.38
334.542	105.38
334.771	102.38
334.999	93.38
335.227	92.38
335.455	104.38
335.684	99.38
335.912	86.38
336.14	100.38
336.369	101.38
336.597	96.38
336.825	92.38
337.053	70.38
337.281	92.38
337.51	94.38
337.738	90.38
337.966	84.38
338.194	99.38
338.422	89.38
338.65	93.38
338.878	84.38
339.106	86.38
339.334	91.38
339.562	86.38
339.79	95.38
340.018	91.38
340.246	83.38
340.474	85.38
340.702	93.38
340.93	87.38
341.158	79.38
341.386	94.38
341.614	91.38
341.842	86.38
342.07	98.38
342.298	77.38
342.526	100.38
342.754	82.38
342.981	84.38
343.209	90.38
343.437	100.38
343.665	61.38
343.893	83.38
344.12	87.38
344.348	84.38
344.576	87.38
344.804	95.38
345.031	93.38
345.259	97.38
345.487	88.38
345.714	97.38
345.942	90.38
346.17	83.38
346.397	91.38
346.625	86.38
346.853	82.38
347.08	82.38
347.308	85.38
347.535	93.38
347.763	98.38
347.99	95.38
348.218	96.38
348.445	106.38
348.673	90.38
348.9	105.38
349.128	99.38
349.355	90.38
349.583	94.38
349.81	99.38
350.037	97.38
350.265	92.38
350.492	114.38
350.72	83.38
350.947	95.38
351.174	100.38
351.402	100.38
351.629	96.38
351.856	103.38
352.083	99.38
352.311	95.38
352.538	104.38
352.765	100.38
352.992	91.38
353.22	116.38
353.447	100.38
353.674	96.38
353.901	95.38
354.128	93.38
354.355	85.38
354.583	75.38
354.81	112.38
355.037	95.38
355.264	87.38
355.491	75.38
355.718	85.38
355.945	96.38
356.172	93.38
356.399	95.38
356.626	89.38
356.853	86.38
357.08	94.38
357.307	97.38
357.534	93.38
357.761	92.38
357.988	104.38
358.215	102.38
358.441	98.38
358.668	98.38
358.895	78.38
359.122	82.38
359.349	99.38
359.576	105.38
359.802	88.38
360.029	110.38
360.256	85.38
360.483	83.38
360.709	78.38
360.936	70.38
361.163	81.38
361.39	87.38
361.616	98.38
361.843	92.38
362.07	83.38
362.296	80.38
362.523	81.38
362.749	94.38
362.976	96.38
363.203	93.38
363.429	73.38
363.656	78.38
363.882	99.38
364.109	86.38
364.335	83.38
364.562	91.38
364.788	90.38
365.015	104.38
365.241	98.38
365.468	95.38
365.694	93.38
365.92	96.38
366.147	92.38
366.373	77.38
366.599	90.38
366.826	89.38
367.052	98.38
367.278	82.38
367.505	87.38
367.731	84.38
367.957	87.38
368.184	81.38
368.41	80.38
368.636	100.38
368.862	107.38
369.089	100.38
369.315	87.38
369.541	97.38
369.767	85.38
369.993	72.38
370.219	91.38
370.445	78.38
370.672	86.38
370.898	86.38
371.124	87.38
371.35	87.38
371.576	89.38
371.802	79.38
372.028	85.38
372.254	83.38
372.48	88.38
372.706	93.38
372.932	87.38
373.158	85.38
373.384	82.38
373.61	75.38
373.835	82.38
374.061	86.38
374.287	82.38
374.513	78.38
374.739	85.38
374.965	87.38
375.191	81.38
375.416	87.38
375.642	79.38
375.868	89.38
376.094	87.38
376.319	82.38
376.545	81.38
376.771	89.38
376.997	87.38
377.222	96.38
377.448	112.38
377.674	92.38
377.899	90.38
378.125	85.38
378.35	90.38
378.576	85.38
378.802	85.38
379.027	83.38
379.253	81.38
379.478	91.38
379.704	91.38
379.929	85.38
380.155	91.38
380.38	90.38
380.606	88.38
380.831	98.38
381.057	94.38
381.282	97.38
381.507	114.38
381.733	92.38
381.958	95.38
382.184	92.38
382.409	102.38
382.634	96.38
382.86	90.38
383.085	95.38
383.31	97.38
383.535	105.38
383.761	96.38
383.986	102.38
384.211	87.38
384.436	91.38
384.662	95.38
384.887	99.38
385.112	88.38
385.337	100.38
385.562	101.38
385.787	95.38
386.013	107.38
386.238	122.38
386.463	99.38
386.688	109.38
386.913	99.38
387.138	103.38
387.363	109.38
387.588	103.38
387.813	114.38
388.038	101.38
388.263	98.38
388.488	102.38
388.713	106.38
388.938	90.38
389.163	104.38
389.387	86.38
389.612	95.38
389.837	83.38
390.062	88.38
390.287	96.38
390.512	84.38
390.736	94.38
390.961	101.38
391.186	90.38
391.411	83.38
391.636	82.38
391.86	80.38
392.085	89.38
392.31	102.38
392.534	85.38
392.759	86.38
392.984	80.38
393.208	83.38
393.433	103.38
393.658	91.38
393.882	82.38
394.107	86.38
394.331	77.38
394.556	80.38
394.78	83.38
395.005	94.38
395.229	96.38
395.454	94.38
395.678	81.38
395.903	83.38
396.127	91.38
396.352	81.38
396.576	62.38
396.801	83.38
397.025	77.38
397.249	79.38
397.474	86.38
397.698	74.38
397.922	88.38
398.147	78.38
398.371	95.38
398.595	74.38
398.82	94.38
399.044	84.38
399.268	89.38
399.492	82.38
399.717	85.38
399.941	81.38
400.165	83.38
400.389	85.38
400.613	95.38
400.837	87.38
401.062	98.38
401.286	80.38
401.51	81.38
401.734	83.38
401.958	83.38
402.182	106.38
402.406	143.38
402.63	108.38
402.854	101.38
403.078	78.38
403.302	87.38
403.526	74.38
403.75	80.38
403.974	88.38
404.198	98.38
404.422	83.38
404.645	109.38
404.869	94.38
405.093	96.38
405.317	93.38
405.541	104.38
405.765	91.38
405.988	120.38
406.212	149.38
406.436	188.38
406.66	139.38
406.883	101.38
407.107	97.38
407.331	88.38
407.555	91.38
407.778	98.38
408.002	77.38
408.226	90.38
408.449	80.38
408.673	85.38
408.896	89.38
409.12	94.38
409.344	93.38
409.567	78.38
409.791	81.38
410.014	100.38
410.238	92.38
410.461	86.38
410.685	86.38
410.908	100.38
411.132	99.38
411.355	94.38
411.578	76.38
411.802	91.38
412.025	92.38
412.249	87.38
412.472	94.38
412.695	92.38
412.919	95.38
413.142	82.38
413.365	82.38
413.589	83.38
413.812	90.38
414.035	89.38
414.258	90.38
414.482	96.38
414.705	81.38
414.928	97.38
415.151	97.38
415.374	80.38
415.597	92.38
415.821	87.38
416.044	91.38
416.267	77.38
416.49	76.38
416.713	92.38
416.936	106.38
417.159	90.38
417.382	89.38
417.605	74.38
417.828	84.38
418.051	80.38
418.274	85.38
418.497	90.38
418.72	79.38
418.943	84.38
419.166	94.38
419.389	87.38
419.611	100.38
419.834	97.38
420.057	84.38
420.28	86.38
420.503	82.38
420.726	69.38
420.948	86.38
421.171	86.38
421.394	91.38
421.617	86.38
421.839	86.38
422.062	98.38
422.285	94.38
422.507	105.38
422.73	85.38
422.953	79.38
423.175	93.38
423.398	87.38
423.621	94.38
423.843	85.38
424.066	90.38
424.288	73.38
424.511	82.38
424.733	78.38
424.956	107.38
425.178	74.38
425.401	101.38
425.623	92.38
425.846	93.38
426.068	82.38
426.291	82.38
426.513	104.38
426.735	80.38
426.958	90.38
427.18	101.38
427.402	122.38
427.625	156.38
427.847	114.38
428.069	86.38
428.292	98.38
428.514	81.38
428.736	89.38
428.958	79.38
429.181	90.38
429.403	70.38
429.625	91.38
429.847	90.38
430.069	97.38
430.292	89.38
430.514	88.38
430.736	77.38
430.958	80.38
431.18	85.38
431.402	96.38
431.624	89.38
431.846	90.38
432.068	81.38
432.29	78.38
432.512	78.38
432.734	97.38
432.956	88.38
433.178	98.38
433.4	97.38
433.622	93.38
433.844	85.38
434.066	101.38
434.287	99.38
434.509	98.38
434.731	80.38
434.953	77.38
435.175	90.38
435.397	104.38
435.618	74.38
435.84	97.38
436.062	106.38
436.284	99.38
436.505	98.38
436.727	94.38
436.949	105.38
437.17	89.38
437.392	88.38
437.614	84.38
437.835	101.38
438.057	105.38
438.278	89.38
438.5	105.38
438.721	108.38
438.943	103.38
439.165	89.38
439.386	92.38
439.608	88.38
439.829	84.38
440.05	118.38
440.272	121.38
440.493	91.38
440.715	94.38
440.936	74.38
441.158	88.38
441.379	87.38
441.6	80.38
441.822	82.38
442.043	88.38
442.264	97.38
442.486	94.38
442.707	97.38
442.928	91.38
443.149	107.38
443.371	115.38
443.592	106.38
443.813	112.38
444.034	113.38
444.255	89.38
444.476	81.38
444.698	92.38
444.919	87.38
445.14	147.38
445.361	125.38
445.582	97.38
445.803	129.38
446.024	115.38
446.245	111.38
446.466	112.38
446.687	94.38
446.908	83.38
447.129	81.38
447.35	88.38
447.571	77.38
447.792	84.38
448.013	88.38
448.234	99.38
448.455	86.38
448.675	114.38
448.896	115.38
449.117	95.38
449.338	108.38
449.559	113.38
449.779	105.38
450	102.38
450.221	75.38
450.442	94.38
450.662	93.38
450.883	87.38
451.104	96.38
451.324	83.38
451.545	88.38
451.766	82.38
451.986	81.38
452.207	105.38
452.428	94.38
452.648	100.38
452.869	118.38
453.089	101.38
453.31	101.38
453.53	89.38
453.751	91.38
453.971	100.38
454.192	102.38
454.412	80.38
454.633	93.38
454.853	81.38
455.073	86.38
455.294	68.38
455.514	87.38
455.734	90.38
455.955	94.38
456.175	82.38
456.395	81.38
456.616	74.38
456.836	81.38
457.056	94.38
457.276	83.38
457.497	75.38
457.717	95.38
457.937	82.38
458.157	79.38
458.377	83.38
458.598	99.38
458.818	134.38
459.038	118.38
459.258	100.38
459.478	81.38
459.698	88.38
459.918	90.38
460.138	86.38
460.358	91.38
460.578	86.38
460.798	85.38
461.018	94.38
461.238	95.38
461.458	104.38
461.678	81.38
461.898	81.38
462.118	88.38
462.338	86.38
462.558	78.38
462.777	82.38
462.997	97.38
463.217	79.38
463.437	87.38
463.657	85.38
463.876	81.38
464.096	91.38
464.316	97.38
464.536	77.38
464.755	85.38
464.975	93.38
465.195	141.38
465.414	132.38
465.634	93.38
465.854	91.38
466.073	102.38
466.293	85.38
466.512	94.38
466.732	82.38
466.951	66.38
467.171	78.38
467.391	90.38
467.61	89.38
467.829	106.38
468.049	88.38
468.268	88.38
468.488	84.38
468.707	73.38
468.927	90.38
469.146	91.38
469.365	85.38
469.585	95.38
469.804	77.38
470.023	81.38
470.243	100.38
470.462	101.38
470.681	96.38
470.901	87.38
471.12	94.38
471.339	95.38
471.558	81.38
471.777	84.38
471.997	95.38
472.216	98.38
472.435	111.38
472.654	89.38
472.873	90.38
473.092	93.38
473.311	99.38
473.53	88.38
473.749	91.38
473.968	103.38
474.187	88.38
474.406	95.38
474.625	90.38
474.844	89.38
475.063	75.38
475.282	87.38
475.501	85.38
475.72	84.38
475.939	82.38
476.158	83.38
476.377	74.38
476.596	87.38
476.814	90.38
477.033	94.38
477.252	89.38
477.471	95.38
477.69	97.38
477.908	89.38
478.127	85.38
478.346	89.38
478.564	79.38
478.783	98.38
479.002	89.38
479.22	73.38
479.439	93.38
479.658	95.38
479.876	83.38
480.095	89.38
480.313	97.38
480.532	87.38
480.751	83.38
480.969	111.38
481.188	153.38
481.406	114.38
481.624	88.38
481.843	104.38
482.061	78.38
482.28	88.38
482.498	72.38
482.717	91.38
482.935	97.38
483.153	83.38
483.372	85.38
483.59	90.38
483.808	88.38
484.027	84.38
484.245	82.38
484.463	88.38
484.681	86.38
484.9	100.38
485.118	97.38
485.336	95.38
485.554	95.38
485.772	104.38
485.99	103.38
486.209	103.38
486.427	98.38
486.645	105.38
486.863	89.38
487.081	99.38
487.299	95.38
487.517	81.38
487.735	86.38
487.953	86.38
488.171	85.38
488.389	78.38
488.607	102.38
488.825	101.38
489.043	95.38
489.261	80.38
489.479	81.38
489.696	98.38
489.914	78.38
490.132	100.38
490.35	90.38
490.568	88.38
490.786	93.38
491.003	85.38
491.221	80.38
491.439	79.38
491.657	89.38
491.874	98.38
492.092	95.38
492.31	80.38
492.527	89.38
492.745	97.38
492.963	90.38
493.18	89.38
493.398	95.38
493.615	101.38
493.833	95.38
494.05	92.38
494.268	79.38
494.485	105.38
494.703	86.38
494.92	93.38
495.138	86.38
495.355	77.38
495.573	83.38
495.79	92.38
496.008	92.38
496.225	87.38
496.442	84.38
496.66	88.38
496.877	77.38
497.094	85.38
497.312	72.38
497.529	84.38
497.746	90.38
497.963	79.38
498.181	75.38
498.398	92.38
498.615	88.38
498.832	87.38
499.049	92.38
499.267	107.38
499.484	81.38
499.701	80.38
499.918	90.38
500.135	101.38
500.352	95.38
500.569	97.38
500.786	89.38
501.003	103.38
501.22	70.38
501.437	94.38
501.654	73.38
501.871	94.38
502.088	92.38
502.305	90.38
502.522	97.38
502.739	90.38
502.956	85.38
503.172	79.38
503.389	77.38
503.606	96.38
503.823	76.38
504.04	85.38
504.256	90.38
504.473	89.38
504.69	79.38
504.907	88.38
505.123	85.38
505.34	92.38
505.557	91.38
505.773	103.38
505.99	83.38
506.207	94.38
506.423	82.38
506.64	86.38
506.856	87.38
507.073	75.38
507.289	101.38
507.506	89.38
507.722	111.38
507.939	110.38
508.155	86.38
508.372	90.38
508.588	106.38
508.805	104.38
509.021	85.38
509.238	112.38
509.454	87.38
509.67	107.38
509.887	89.38
510.103	113.38
510.319	195.38
510.536	599.38
510.752	1828.38
510.968	543.38
511.184	124.38
511.401	102.38
511.617	106.38
511.833	84.38
512.049	103.38
512.265	93.38
512.481	91.38
512.698	81.38
512.914	84.38
513.13	93.38
513.346	104.38
513.562	88.38
513.778	91.38
513.994	81.38
514.21	110.38
514.426	99.38
514.642	119.38
514.858	125.38
515.074	157.38
515.29	357.38
515.506	1130.38
515.721	427.38
515.937	143.38
516.153	103.38
516.369	93.38
516.585	90.38
516.801	85.38
