Data from Circ_2002_H10_HRD10591_00026.txt Node
Date: Wed Jan 03 10:41:03 EST 2024
User: Yrep
Spectrometer: HR+D1059
Trigger mode: 1
Integration Time (sec): 1.000000E-1
Scans to average: 1
Electric dark correction enabled: true
Nonlinearity correction enabled: false
Boxcar width: 0
XAxis mode: Wavelengths
Number of Pixels in Spectrum: 2048
>>>>>Begin Spectral Data<<<<<
223.165	-14.69
223.4	-14.69
223.635	-14.69
223.869	-30.69
224.104	-17.69
224.338	-0.69
224.573	-22.69
224.808	-15.69
225.042	-5.69
225.277	-6.69
225.511	-0.69
225.746	7.31
225.98	16.31
226.215	11.31
226.449	15.31
226.683	25.31
226.918	23.31
227.152	16.31
227.387	27.31
227.621	40.31
227.856	33.31
228.09	36.31
228.324	45.31
228.559	57.31
228.793	58.31
229.027	63.31
229.262	55.31
229.496	80.31
229.73	79.31
229.964	79.31
230.199	74.31
230.433	81.31
230.667	81.31
230.901	72.31
231.136	87.31
231.37	81.31
231.604	70.31
231.838	73.31
232.072	101.31
232.306	80.31
232.541	75.31
232.775	75.31
233.009	73.31
233.243	83.31
233.477	91.31
233.711	74.31
233.945	82.31
234.179	84.31
234.413	89.31
234.647	78.31
234.881	74.31
235.115	85.31
235.349	88.31
235.583	78.31
235.817	82.31
236.051	86.31
236.285	80.31
236.519	82.31
236.753	72.31
236.987	98.31
237.221	82.31
237.455	82.31
237.689	78.31
237.922	68.31
238.156	74.31
238.39	75.31
238.624	69.31
238.858	80.31
239.091	76.31
239.325	68.31
239.559	83.31
239.793	75.31
240.027	79.31
240.26	74.31
240.494	77.31
240.728	71.31
240.961	75.31
241.195	78.31
241.429	62.31
241.662	58.31
241.896	77.31
242.13	70.31
242.363	69.31
242.597	78.31
242.83	87.31
243.064	70.31
243.298	82.31
243.531	77.31
243.765	78.31
243.998	69.31
244.232	97.31
244.465	77.31
244.699	78.31
244.932	80.31
245.166	82.31
245.399	78.31
245.633	83.31
245.866	67.31
246.099	92.31
246.333	77.31
246.566	83.31
246.8	56.31
247.033	80.31
247.266	75.31
247.5	77.31
247.733	89.31
247.966	82.31
248.2	81.31
248.433	65.31
248.666	77.31
248.899	81.31
249.133	81.31
249.366	105.31
249.599	106.31
249.832	79.31
250.066	86.31
250.299	74.31
250.532	73.31
250.765	66.31
250.998	66.31
251.231	73.31
251.465	90.31
251.698	71.31
251.931	71.31
252.164	77.31
252.397	66.31
252.63	69.31
252.863	86.31
253.096	64.31
253.329	80.31
253.562	73.31
253.795	58.31
254.028	70.31
254.261	94.31
254.494	73.31
254.727	94.31
254.96	83.31
255.193	77.31
255.426	73.31
255.659	82.31
255.892	86.31
256.124	87.31
256.357	87.31
256.59	82.31
256.823	80.31
257.056	80.31
257.289	84.31
257.521	72.31
257.754	81.31
257.987	83.31
258.22	73.31
258.452	72.31
258.685	80.31
258.918	93.31
259.151	74.31
259.383	82.31
259.616	83.31
259.849	88.31
260.081	74.31
260.314	81.31
260.547	91.31
260.779	75.31
261.012	69.31
261.244	66.31
261.477	82.31
261.71	82.31
261.942	94.31
262.175	110.31
262.407	81.31
262.64	71.31
262.872	78.31
263.105	78.31
263.337	78.31
263.57	83.31
263.802	82.31
264.035	73.31
264.267	78.31
264.499	83.31
264.732	96.31
264.964	79.31
265.197	81.31
265.429	78.31
265.661	80.31
265.894	83.31
266.126	98.31
266.358	80.31
266.591	78.31
266.823	77.31
267.055	81.31
267.287	86.31
267.52	82.31
267.752	91.31
267.984	80.31
268.216	82.31
268.448	94.31
268.681	87.31
268.913	70.31
269.145	91.31
269.377	78.31
269.609	82.31
269.841	81.31
270.073	93.31
270.306	87.31
270.538	78.31
270.77	71.31
271.002	77.31
271.234	69.31
271.466	70.31
271.698	99.31
271.93	77.31
272.162	80.31
272.394	86.31
272.626	95.31
272.858	93.31
273.09	82.31
273.322	73.31
273.553	99.31
273.785	89.31
274.017	89.31
274.249	68.31
274.481	88.31
274.713	89.31
274.945	82.31
275.176	94.31
275.408	95.31
275.64	80.31
275.872	88.31
276.104	85.31
276.335	86.31
276.567	106.31
276.799	89.31
277.031	98.31
277.262	84.31
277.494	80.31
277.726	94.31
277.957	82.31
278.189	88.31
278.421	88.31
278.652	75.31
278.884	89.31
279.115	79.31
279.347	81.31
279.579	85.31
279.81	77.31
280.042	94.31
280.273	80.31
280.505	80.31
280.736	86.31
280.968	86.31
281.199	89.31
281.431	84.31
281.662	91.31
281.894	102.31
282.125	102.31
282.356	103.31
282.588	141.31
282.819	119.31
283.051	86.31
283.282	87.31
283.513	86.31
283.745	82.31
283.976	74.31
284.207	78.31
284.439	70.31
284.67	85.31
284.901	92.31
285.132	90.31
285.364	94.31
285.595	91.31
285.826	85.31
286.057	87.31
286.288	95.31
286.52	82.31
286.751	96.31
286.982	84.31
287.213	83.31
287.444	82.31
287.675	77.31
287.906	95.31
288.138	93.31
288.369	95.31
288.6	97.31
288.831	92.31
289.062	98.31
289.293	91.31
289.524	85.31
289.755	74.31
289.986	91.31
290.217	86.31
290.448	94.31
290.679	87.31
290.91	102.31
291.141	87.31
291.371	78.31
291.602	85.31
291.833	81.31
292.064	88.31
292.295	72.31
292.526	89.31
292.757	75.31
292.987	82.31
293.218	95.31
293.449	101.31
293.68	98.31
293.91	100.31
294.141	92.31
294.372	90.31
294.603	89.31
294.833	86.31
295.064	75.31
295.295	89.31
295.525	96.31
295.756	96.31
295.987	111.31
296.217	125.31
296.448	98.31
296.679	94.31
296.909	89.31
297.14	91.31
297.37	82.31
297.601	85.31
297.831	85.31
298.062	80.31
298.292	87.31
298.523	104.31
298.753	90.31
298.984	80.31
299.214	89.31
299.445	91.31
299.675	84.31
299.905	93.31
300.136	86.31
300.366	89.31
300.597	83.31
300.827	86.31
301.057	97.31
301.288	87.31
301.518	102.31
301.748	85.31
301.979	107.31
302.209	89.31
302.439	94.31
302.669	82.31
302.9	92.31
303.13	91.31
303.36	78.31
303.59	80.31
303.82	94.31
304.051	78.31
304.281	79.31
304.511	98.31
304.741	88.31
304.971	74.31
305.201	96.31
305.431	79.31
305.661	90.31
305.891	86.31
306.121	94.31
306.352	96.31
306.582	95.31
306.812	94.31
307.042	100.31
307.272	97.31
307.502	101.31
307.731	93.31
307.961	95.31
308.191	101.31
308.421	97.31
308.651	84.31
308.881	81.31
309.111	74.31
309.341	96.31
309.571	92.31
309.8	90.31
310.03	97.31
310.26	103.31
310.49	82.31
310.72	108.31
310.949	94.31
311.179	84.31
311.409	81.31
311.639	93.31
311.868	83.31
312.098	89.31
312.328	91.31
312.557	114.31
312.787	87.31
313.017	91.31
313.246	85.31
313.476	79.31
313.706	100.31
313.935	87.31
314.165	112.31
314.394	101.31
314.624	94.31
314.853	97.31
315.083	83.31
315.312	92.31
315.542	86.31
315.771	83.31
316.001	103.31
316.23	75.31
316.46	79.31
316.689	86.31
316.919	90.31
317.148	88.31
317.377	101.31
317.607	86.31
317.836	81.31
318.065	100.31
318.295	99.31
318.524	87.31
318.753	91.31
318.983	109.31
319.212	94.31
319.441	84.31
319.67	103.31
319.9	101.31
320.129	105.31
320.358	82.31
320.587	85.31
320.816	83.31
321.046	99.31
321.275	112.31
321.504	91.31
321.733	104.31
321.962	100.31
322.191	93.31
322.42	99.31
322.649	101.31
322.878	102.31
323.108	108.31
323.337	118.31
323.566	136.31
323.795	146.31
324.024	197.31
324.253	375.31
324.482	797.31
324.71	1599.31
324.939	2146.31
325.168	781.31
325.397	245.31
325.626	157.31
325.855	117.31
326.084	133.31
326.313	138.31
326.542	168.31
326.77	209.31
326.999	465.31
327.228	961.31
327.457	1690.31
327.686	1331.31
327.914	347.31
328.143	164.31
328.372	153.31
328.6	122.31
328.829	122.31
329.058	122.31
329.287	114.31
329.515	99.31
329.744	90.31
329.972	104.31
330.201	93.31
330.43	108.31
330.658	103.31
330.887	126.31
331.115	122.31
331.344	102.31
331.572	102.31
331.801	89.31
332.03	88.31
332.258	95.31
332.486	98.31
332.715	94.31
332.943	76.31
333.172	90.31
333.4	104.31
333.629	101.31
333.857	105.31
334.085	97.31
334.314	82.31
334.542	96.31
334.771	101.31
334.999	89.31
335.227	106.31
335.455	95.31
335.684	85.31
335.912	98.31
336.14	90.31
336.369	88.31
336.597	107.31
336.825	84.31
337.053	88.31
337.281	100.31
337.51	89.31
337.738	96.31
337.966	111.31
338.194	81.31
338.422	83.31
338.65	95.31
338.878	86.31
339.106	99.31
339.334	103.31
339.562	95.31
339.79	92.31
340.018	78.31
340.246	88.31
340.474	98.31
340.702	85.31
340.93	96.31
341.158	95.31
341.386	89.31
341.614	100.31
341.842	90.31
342.07	90.31
342.298	95.31
342.526	94.31
342.754	89.31
342.981	92.31
343.209	96.31
343.437	99.31
343.665	87.31
343.893	81.31
344.12	104.31
344.348	90.31
344.576	78.31
344.804	81.31
345.031	89.31
345.259	105.31
345.487	96.31
345.714	90.31
345.942	89.31
346.17	96.31
346.397	99.31
346.625	91.31
346.853	87.31
347.08	89.31
347.308	92.31
347.535	97.31
347.763	90.31
347.99	103.31
348.218	99.31
348.445	99.31
348.673	95.31
348.9	86.31
349.128	100.31
349.355	90.31
349.583	78.31
349.81	88.31
350.037	90.31
350.265	98.31
350.492	89.31
350.72	104.31
350.947	102.31
351.174	103.31
351.402	110.31
351.629	91.31
351.856	105.31
352.083	89.31
352.311	102.31
352.538	97.31
352.765	104.31
352.992	112.31
353.22	96.31
353.447	101.31
353.674	104.31
353.901	88.31
354.128	95.31
354.355	96.31
354.583	100.31
354.81	99.31
355.037	87.31
355.264	80.31
355.491	92.31
355.718	91.31
355.945	96.31
356.172	97.31
356.399	98.31
356.626	83.31
356.853	88.31
357.08	111.31
357.307	90.31
357.534	90.31
357.761	84.31
357.988	95.31
358.215	94.31
358.441	91.31
358.668	84.31
358.895	82.31
359.122	85.31
359.349	78.31
359.576	99.31
359.802	104.31
360.029	93.31
360.256	87.31
360.483	92.31
360.709	71.31
360.936	100.31
361.163	79.31
361.39	94.31
361.616	102.31
361.843	90.31
362.07	88.31
362.296	80.31
362.523	79.31
362.749	90.31
362.976	92.31
363.203	90.31
363.429	83.31
363.656	92.31
363.882	90.31
364.109	98.31
364.335	86.31
364.562	81.31
364.788	90.31
365.015	89.31
365.241	113.31
365.468	107.31
365.694	103.31
365.92	93.31
366.147	95.31
366.373	91.31
366.599	81.31
366.826	89.31
367.052	91.31
367.278	88.31
367.505	87.31
367.731	90.31
367.957	100.31
368.184	91.31
368.41	83.31
368.636	101.31
368.862	113.31
369.089	94.31
369.315	92.31
369.541	93.31
369.767	97.31
369.993	91.31
370.219	87.31
370.445	88.31
370.672	79.31
370.898	88.31
371.124	81.31
371.35	89.31
371.576	91.31
371.802	89.31
372.028	76.31
372.254	102.31
372.48	86.31
372.706	89.31
372.932	86.31
373.158	89.31
373.384	84.31
373.61	89.31
373.835	88.31
374.061	83.31
374.287	76.31
374.513	81.31
374.739	104.31
374.965	99.31
375.191	74.31
375.416	93.31
375.642	103.31
375.868	87.31
376.094	89.31
376.319	104.31
376.545	84.31
376.771	95.31
376.997	100.31
377.222	86.31
377.448	98.31
377.674	83.31
377.899	87.31
378.125	85.31
378.35	75.31
378.576	95.31
378.802	84.31
379.027	101.31
379.253	117.31
379.478	89.31
379.704	102.31
379.929	83.31
380.155	95.31
380.38	79.31
380.606	87.31
380.831	112.31
381.057	96.31
381.282	92.31
381.507	96.31
381.733	92.31
381.958	111.31
382.184	87.31
382.409	94.31
382.634	105.31
382.86	97.31
383.085	89.31
383.31	99.31
383.535	113.31
383.761	107.31
383.986	102.31
384.211	89.31
384.436	80.31
384.662	90.31
384.887	109.31
385.112	111.31
385.337	118.31
385.562	105.31
385.787	102.31
386.013	116.31
386.238	104.31
386.463	107.31
386.688	106.31
386.913	119.31
387.138	115.31
387.363	98.31
387.588	106.31
387.813	90.31
388.038	107.31
388.263	122.31
388.488	95.31
388.713	104.31
388.938	104.31
389.163	96.31
389.387	84.31
389.612	87.31
389.837	91.31
390.062	98.31
390.287	101.31
390.512	99.31
390.736	85.31
390.961	98.31
391.186	97.31
391.411	96.31
391.636	93.31
391.86	79.31
392.085	95.31
392.31	90.31
392.534	80.31
392.759	82.31
392.984	83.31
393.208	88.31
393.433	104.31
393.658	93.31
393.882	80.31
394.107	84.31
394.331	82.31
394.556	73.31
394.78	94.31
395.005	94.31
395.229	87.31
395.454	95.31
395.678	75.31
395.903	97.31
396.127	83.31
396.352	93.31
396.576	89.31
396.801	82.31
397.025	80.31
397.249	80.31
397.474	82.31
397.698	91.31
397.922	85.31
398.147	74.31
398.371	85.31
398.595	93.31
398.82	81.31
399.044	79.31
399.268	87.31
399.492	75.31
399.717	69.31
399.941	72.31
400.165	70.31
400.389	83.31
400.613	95.31
400.837	79.31
401.062	80.31
401.286	83.31
401.51	83.31
401.734	91.31
401.958	78.31
402.182	117.31
402.406	141.31
402.63	103.31
402.854	83.31
403.078	83.31
403.302	92.31
403.526	82.31
403.75	96.31
403.974	105.31
404.198	85.31
404.422	85.31
404.645	99.31
404.869	90.31
405.093	91.31
405.317	97.31
405.541	91.31
405.765	91.31
405.988	108.31
406.212	149.31
406.436	198.31
406.66	135.31
406.883	99.31
407.107	78.31
407.331	99.31
407.555	87.31
407.778	87.31
408.002	89.31
408.226	78.31
408.449	89.31
408.673	96.31
408.896	81.31
409.12	91.31
409.344	88.31
409.567	79.31
409.791	95.31
410.014	97.31
410.238	96.31
410.461	88.31
410.685	74.31
410.908	85.31
411.132	115.31
411.355	90.31
411.578	91.31
411.802	85.31
412.025	86.31
412.249	97.31
412.472	90.31
412.695	77.31
412.919	93.31
413.142	86.31
413.365	70.31
413.589	85.31
413.812	86.31
414.035	88.31
414.258	102.31
414.482	78.31
414.705	88.31
414.928	103.31
415.151	80.31
415.374	105.31
415.597	81.31
415.821	93.31
416.044	93.31
416.267	94.31
416.49	87.31
416.713	80.31
416.936	81.31
417.159	88.31
417.382	80.31
417.605	100.31
417.828	103.31
418.051	73.31
418.274	85.31
418.497	86.31
418.72	72.31
418.943	68.31
419.166	81.31
419.389	75.31
419.611	92.31
419.834	90.31
420.057	88.31
420.28	91.31
420.503	90.31
420.726	71.31
420.948	92.31
421.171	80.31
421.394	88.31
421.617	90.31
421.839	97.31
422.062	93.31
422.285	94.31
422.507	94.31
422.73	98.31
422.953	97.31
423.175	81.31
423.398	69.31
423.621	90.31
423.843	88.31
424.066	87.31
424.288	93.31
424.511	99.31
424.733	88.31
424.956	90.31
425.178	88.31
425.401	112.31
425.623	95.31
425.846	99.31
426.068	91.31
426.291	86.31
426.513	73.31
426.735	88.31
426.958	104.31
427.18	87.31
427.402	130.31
427.625	166.31
427.847	122.31
428.069	100.31
428.292	94.31
428.514	90.31
428.736	82.31
428.958	94.31
429.181	84.31
429.403	77.31
429.625	89.31
429.847	91.31
430.069	111.31
430.292	76.31
430.514	90.31
430.736	82.31
430.958	82.31
431.18	93.31
431.402	93.31
431.624	73.31
431.846	94.31
432.068	82.31
432.29	95.31
432.512	85.31
432.734	90.31
432.956	93.31
433.178	107.31
433.4	102.31
433.622	94.31
433.844	88.31
434.066	80.31
434.287	96.31
434.509	81.31
434.731	92.31
434.953	81.31
435.175	84.31
435.397	88.31
435.618	85.31
435.84	94.31
436.062	116.31
436.284	103.31
436.505	78.31
436.727	110.31
436.949	97.31
437.17	81.31
437.392	95.31
437.614	71.31
437.835	103.31
438.057	113.31
438.278	103.31
438.5	101.31
438.721	119.31
438.943	111.31
439.165	83.31
439.386	77.31
439.608	82.31
439.829	104.31
440.05	116.31
440.272	128.31
440.493	99.31
440.715	94.31
440.936	78.31
441.158	88.31
441.379	81.31
441.6	90.31
441.822	89.31
442.043	89.31
442.264	113.31
442.486	98.31
442.707	90.31
442.928	94.31
443.149	113.31
443.371	115.31
443.592	103.31
443.813	100.31
444.034	113.31
444.255	101.31
444.476	75.31
444.698	81.31
444.919	83.31
445.14	118.31
445.361	133.31
445.582	113.31
445.803	130.31
446.024	125.31
446.245	118.31
446.466	107.31
446.687	89.31
446.908	91.31
447.129	95.31
447.35	91.31
447.571	87.31
447.792	97.31
448.013	97.31
448.234	108.31
448.455	89.31
448.675	114.31
448.896	120.31
449.117	108.31
449.338	96.31
449.559	127.31
449.779	111.31
450	86.31
450.221	77.31
450.442	79.31
450.662	88.31
450.883	89.31
451.104	103.31
451.324	98.31
451.545	90.31
451.766	83.31
451.986	93.31
452.207	92.31
452.428	86.31
452.648	94.31
452.869	90.31
453.089	97.31
453.31	93.31
453.53	102.31
453.751	77.31
453.971	104.31
454.192	102.31
454.412	98.31
454.633	70.31
454.853	101.31
455.073	84.31
455.294	91.31
455.514	97.31
455.734	78.31
455.955	87.31
456.175	84.31
456.395	81.31
456.616	98.31
456.836	87.31
457.056	89.31
457.276	90.31
457.497	79.31
457.717	81.31
457.937	92.31
458.157	82.31
458.377	101.31
458.598	116.31
458.818	122.31
459.038	143.31
459.258	97.31
459.478	80.31
459.698	70.31
459.918	87.31
460.138	88.31
460.358	73.31
460.578	75.31
460.798	92.31
461.018	82.31
461.238	84.31
461.458	67.31
461.678	85.31
461.898	77.31
462.118	84.31
462.338	88.31
462.558	81.31
462.777	84.31
462.997	81.31
463.217	89.31
463.437	90.31
463.657	77.31
463.876	78.31
464.096	69.31
464.316	95.31
464.536	90.31
464.755	97.31
464.975	104.31
465.195	152.31
465.414	154.31
465.634	87.31
465.854	85.31
466.073	86.31
466.293	81.31
466.512	85.31
466.732	90.31
466.951	91.31
467.171	97.31
467.391	97.31
467.61	87.31
467.829	82.31
468.049	80.31
468.268	106.31
468.488	85.31
468.707	86.31
468.927	73.31
469.146	81.31
469.365	79.31
469.585	78.31
469.804	84.31
470.023	95.31
470.243	99.31
470.462	79.31
470.681	100.31
470.901	91.31
471.12	86.31
471.339	76.31
471.558	82.31
471.777	81.31
471.997	82.31
472.216	85.31
472.435	108.31
472.654	75.31
472.873	79.31
473.092	84.31
473.311	91.31
473.53	80.31
473.749	89.31
473.968	103.31
474.187	99.31
474.406	98.31
474.625	83.31
474.844	75.31
475.063	94.31
475.282	93.31
475.501	78.31
475.72	82.31
475.939	69.31
476.158	88.31
476.377	79.31
476.596	72.31
476.814	78.31
477.033	95.31
477.252	87.31
477.471	87.31
477.69	83.31
477.908	76.31
478.127	86.31
478.346	85.31
478.564	91.31
478.783	110.31
479.002	103.31
479.22	95.31
479.439	91.31
479.658	105.31
479.876	110.31
480.095	90.31
480.313	88.31
480.532	92.31
480.751	78.31
480.969	89.31
481.188	112.31
481.406	112.31
481.624	83.31
481.843	103.31
482.061	80.31
482.28	78.31
482.498	86.31
482.717	97.31
482.935	93.31
483.153	87.31
483.372	78.31
483.59	88.31
483.808	79.31
484.027	76.31
484.245	82.31
484.463	86.31
484.681	99.31
484.9	91.31
485.118	86.31
485.336	100.31
485.554	97.31
485.772	105.31
485.99	93.31
486.209	103.31
486.427	96.31
486.645	104.31
486.863	99.31
487.081	98.31
487.299	105.31
487.517	101.31
487.735	86.31
487.953	75.31
488.171	100.31
488.389	89.31
488.607	102.31
488.825	88.31
489.043	83.31
489.261	96.31
489.479	90.31
489.696	93.31
489.914	86.31
490.132	86.31
490.35	85.31
490.568	82.31
490.786	82.31
491.003	93.31
491.221	98.31
491.439	95.31
491.657	81.31
491.874	83.31
492.092	85.31
492.31	91.31
492.527	91.31
492.745	77.31
492.963	95.31
493.18	96.31
493.398	80.31
493.615	86.31
493.833	77.31
494.05	91.31
494.268	91.31
494.485	94.31
494.703	82.31
494.92	83.31
495.138	91.31
495.355	90.31
495.573	87.31
495.79	74.31
496.008	90.31
496.225	105.31
496.442	82.31
496.66	97.31
496.877	94.31
497.094	83.31
497.312	95.31
497.529	89.31
497.746	96.31
497.963	85.31
498.181	98.31
498.398	97.31
498.615	99.31
498.832	85.31
499.049	93.31
499.267	86.31
499.484	83.31
499.701	73.31
499.918	81.31
500.135	79.31
500.352	94.31
500.569	87.31
500.786	99.31
501.003	89.31
501.22	86.31
501.437	78.31
501.654	100.31
501.871	94.31
502.088	78.31
502.305	115.31
502.522	74.31
502.739	87.31
502.956	98.31
503.172	88.31
503.389	98.31
503.606	90.31
503.823	96.31
504.04	97.31
504.256	78.31
504.473	79.31
504.69	104.31
504.907	98.31
505.123	88.31
505.34	72.31
505.557	78.31
505.773	77.31
505.99	81.31
506.207	94.31
506.423	85.31
506.64	85.31
506.856	87.31
507.073	90.31
507.289	84.31
507.506	102.31
507.722	112.31
507.939	102.31
508.155	79.31
508.372	81.31
508.588	79.31
508.805	101.31
509.021	99.31
509.238	87.31
509.454	103.31
509.67	95.31
509.887	91.31
510.103	116.31
510.319	201.31
510.536	624.31
510.752	1968.31
510.968	559.31
511.184	133.31
511.401	96.31
511.617	94.31
511.833	93.31
512.049	82.31
512.265	82.31
512.481	93.31
512.698	100.31
512.914	85.31
513.13	89.31
513.346	94.31
513.562	76.31
513.778	98.31
513.994	97.31
514.21	96.31
514.426	97.31
514.642	115.31
514.858	117.31
515.074	133.31
515.29	368.31
515.506	1181.31
515.721	455.31
515.937	146.31
516.153	107.31
516.369	95.31
516.585	84.31
