Data from Circ_2002_H10_HRD10591_00018.txt Node
Date: Wed Jan 03 10:41:01 EST 2024
User: Yrep
Spectrometer: HR+D1059
Trigger mode: 1
Integration Time (sec): 1.000000E-1
Scans to average: 1
Electric dark correction enabled: true
Nonlinearity correction enabled: false
Boxcar width: 0
XAxis mode: Wavelengths
Number of Pixels in Spectrum: 2048
>>>>>Begin Spectral Data<<<<<
223.165	-12.19
223.4	-12.19
223.635	-12.19
223.869	-8.19
224.104	-44.19
224.338	-19.19
224.573	-12.19
224.808	-15.19
225.042	0.81
225.277	-1.19
225.511	5.81
225.746	0.81
225.98	3.81
226.215	3.81
226.449	5.81
226.683	30.81
226.918	28.81
227.152	31.81
227.387	26.81
227.621	35.81
227.856	29.81
228.09	50.81
228.324	41.81
228.559	50.81
228.793	70.81
229.027	58.81
229.262	73.81
229.496	93.81
229.73	83.81
229.964	76.81
230.199	64.81
230.433	60.81
230.667	84.81
230.901	81.81
231.136	64.81
231.37	81.81
231.604	73.81
231.838	80.81
232.072	82.81
232.306	78.81
232.541	80.81
232.775	71.81
233.009	86.81
233.243	78.81
233.477	66.81
233.711	73.81
233.945	92.81
234.179	74.81
234.413	98.81
234.647	76.81
234.881	88.81
235.115	79.81
235.349	72.81
235.583	79.81
235.817	58.81
236.051	65.81
236.285	78.81
236.519	70.81
236.753	78.81
236.987	68.81
237.221	86.81
237.455	86.81
237.689	80.81
237.922	73.81
238.156	86.81
238.39	62.81
238.624	77.81
238.858	76.81
239.091	85.81
239.325	82.81
239.559	84.81
239.793	76.81
240.027	74.81
240.26	69.81
240.494	61.81
240.728	73.81
240.961	89.81
241.195	72.81
241.429	60.81
241.662	80.81
241.896	77.81
242.13	72.81
242.363	68.81
242.597	64.81
242.83	77.81
243.064	86.81
243.298	71.81
243.531	88.81
243.765	73.81
243.998	57.81
244.232	80.81
244.465	85.81
244.699	69.81
244.932	85.81
245.166	81.81
245.399	73.81
245.633	80.81
245.866	82.81
246.099	93.81
246.333	70.81
246.566	82.81
246.8	77.81
247.033	78.81
247.266	73.81
247.5	81.81
247.733	84.81
247.966	76.81
248.2	83.81
248.433	67.81
248.666	81.81
248.899	89.81
249.133	74.81
249.366	96.81
249.599	76.81
249.832	72.81
250.066	77.81
250.299	79.81
250.532	88.81
250.765	77.81
250.998	80.81
251.231	78.81
251.465	88.81
251.698	72.81
251.931	75.81
252.164	71.81
252.397	81.81
252.63	88.81
252.863	69.81
253.096	74.81
253.329	82.81
253.562	82.81
253.795	82.81
254.028	101.81
254.261	88.81
254.494	87.81
254.727	69.81
254.96	78.81
255.193	68.81
255.426	72.81
255.659	71.81
255.892	78.81
256.124	80.81
256.357	72.81
256.59	78.81
256.823	78.81
257.056	73.81
257.289	82.81
257.521	82.81
257.754	89.81
257.987	76.81
258.22	80.81
258.452	72.81
258.685	78.81
258.918	75.81
259.151	72.81
259.383	81.81
259.616	72.81
259.849	70.81
260.081	95.81
260.314	78.81
260.547	66.81
260.779	72.81
261.012	82.81
261.244	71.81
261.477	89.81
261.71	106.81
261.942	98.81
262.175	88.81
262.407	72.81
262.64	85.81
262.872	96.81
263.105	85.81
263.337	83.81
263.57	81.81
263.802	84.81
264.035	76.81
264.267	81.81
264.499	87.81
264.732	70.81
264.964	77.81
265.197	80.81
265.429	79.81
265.661	88.81
265.894	71.81
266.126	76.81
266.358	83.81
266.591	95.81
266.823	85.81
267.055	82.81
267.287	78.81
267.52	91.81
267.752	97.81
267.984	95.81
268.216	88.81
268.448	79.81
268.681	70.81
268.913	85.81
269.145	89.81
269.377	76.81
269.609	86.81
269.841	87.81
270.073	85.81
270.306	87.81
270.538	83.81
270.77	90.81
271.002	84.81
271.234	87.81
271.466	93.81
271.698	80.81
271.93	84.81
272.162	81.81
272.394	90.81
272.626	77.81
272.858	79.81
273.09	76.81
273.322	89.81
273.553	80.81
273.785	78.81
274.017	69.81
274.249	98.81
274.481	88.81
274.713	94.81
274.945	66.81
275.176	73.81
275.408	78.81
275.64	85.81
275.872	100.81
276.104	95.81
276.335	89.81
276.567	100.81
276.799	95.81
277.031	90.81
277.262	82.81
277.494	96.81
277.726	80.81
277.957	89.81
278.189	86.81
278.421	84.81
278.652	72.81
278.884	93.81
279.115	84.81
279.347	86.81
279.579	77.81
279.81	88.81
280.042	92.81
280.273	84.81
280.505	73.81
280.736	85.81
280.968	71.81
281.199	82.81
281.431	90.81
281.662	90.81
281.894	89.81
282.125	105.81
282.356	94.81
282.588	120.81
282.819	108.81
283.051	100.81
283.282	80.81
283.513	96.81
283.745	95.81
283.976	80.81
284.207	91.81
284.439	78.81
284.67	86.81
284.901	84.81
285.132	85.81
285.364	90.81
285.595	94.81
285.826	91.81
286.057	78.81
286.288	78.81
286.52	89.81
286.751	72.81
286.982	82.81
287.213	86.81
287.444	86.81
287.675	93.81
287.906	90.81
288.138	95.81
288.369	99.81
288.6	90.81
288.831	89.81
289.062	81.81
289.293	86.81
289.524	85.81
289.755	91.81
289.986	85.81
290.217	84.81
290.448	89.81
290.679	77.81
290.91	71.81
291.141	76.81
291.371	83.81
291.602	93.81
291.833	75.81
292.064	93.81
292.295	93.81
292.526	81.81
292.757	80.81
292.987	71.81
293.218	79.81
293.449	87.81
293.68	82.81
293.91	82.81
294.141	73.81
294.372	93.81
294.603	82.81
294.833	88.81
295.064	84.81
295.295	79.81
295.525	101.81
295.756	109.81
295.987	105.81
296.217	117.81
296.448	117.81
296.679	79.81
296.909	90.81
297.14	92.81
297.37	84.81
297.601	86.81
297.831	94.81
298.062	85.81
298.292	83.81
298.523	77.81
298.753	78.81
298.984	75.81
299.214	87.81
299.445	93.81
299.675	82.81
299.905	102.81
300.136	100.81
300.366	77.81
300.597	101.81
300.827	97.81
301.057	97.81
301.288	88.81
301.518	99.81
301.748	92.81
301.979	104.81
302.209	93.81
302.439	94.81
302.669	81.81
302.9	82.81
303.13	90.81
303.36	72.81
303.59	90.81
303.82	85.81
304.051	95.81
304.281	90.81
304.511	88.81
304.741	80.81
304.971	85.81
305.201	82.81
305.431	84.81
305.661	90.81
305.891	84.81
306.121	109.81
306.352	99.81
306.582	96.81
306.812	90.81
307.042	92.81
307.272	87.81
307.502	88.81
307.731	81.81
307.961	83.81
308.191	81.81
308.421	91.81
308.651	84.81
308.881	89.81
309.111	93.81
309.341	99.81
309.571	93.81
309.8	96.81
310.03	88.81
310.26	87.81
310.49	98.81
310.72	89.81
310.949	105.81
311.179	93.81
311.409	101.81
311.639	87.81
311.868	93.81
312.098	88.81
312.328	96.81
312.557	81.81
312.787	101.81
313.017	97.81
313.246	93.81
313.476	81.81
313.706	100.81
313.935	91.81
314.165	96.81
314.394	100.81
314.624	65.81
314.853	88.81
315.083	77.81
315.312	90.81
315.542	97.81
315.771	84.81
316.001	88.81
316.23	84.81
316.46	82.81
316.689	91.81
316.919	80.81
317.148	93.81
317.377	92.81
317.607	92.81
317.836	87.81
318.065	79.81
318.295	76.81
318.524	79.81
318.753	87.81
318.983	85.81
319.212	93.81
319.441	95.81
319.67	97.81
319.9	85.81
320.129	89.81
320.358	89.81
320.587	94.81
320.816	91.81
321.046	92.81
321.275	103.81
321.504	97.81
321.733	97.81
321.962	90.81
322.191	101.81
322.42	98.81
322.649	113.81
322.878	89.81
323.108	101.81
323.337	116.81
323.566	129.81
323.795	150.81
324.024	185.81
324.253	357.81
324.482	761.81
324.71	1556.81
324.939	2078.81
325.168	771.81
325.397	226.81
325.626	140.81
325.855	115.81
326.084	114.81
326.313	115.81
326.542	149.81
326.77	223.81
326.999	445.81
327.228	916.81
327.457	1693.81
327.686	1324.81
327.914	366.81
328.143	181.81
328.372	120.81
328.6	118.81
328.829	110.81
329.058	121.81
329.287	122.81
329.515	107.81
329.744	94.81
329.972	98.81
330.201	96.81
330.43	94.81
330.658	96.81
330.887	116.81
331.115	118.81
331.344	106.81
331.572	99.81
331.801	89.81
332.03	86.81
332.258	80.81
332.486	87.81
332.715	105.81
332.943	84.81
333.172	88.81
333.4	116.81
333.629	100.81
333.857	94.81
334.085	104.81
334.314	97.81
334.542	98.81
334.771	91.81
334.999	83.81
335.227	81.81
335.455	76.81
335.684	96.81
335.912	87.81
336.14	104.81
336.369	98.81
336.597	104.81
336.825	94.81
337.053	92.81
337.281	100.81
337.51	74.81
337.738	81.81
337.966	87.81
338.194	105.81
338.422	83.81
338.65	69.81
338.878	77.81
339.106	86.81
339.334	83.81
339.562	82.81
339.79	98.81
340.018	80.81
340.246	89.81
340.474	88.81
340.702	96.81
340.93	98.81
341.158	96.81
341.386	99.81
341.614	75.81
341.842	103.81
342.07	89.81
342.298	84.81
342.526	90.81
342.754	78.81
342.981	99.81
343.209	93.81
343.437	91.81
343.665	86.81
343.893	84.81
344.12	72.81
344.348	89.81
344.576	82.81
344.804	93.81
345.031	94.81
345.259	101.81
345.487	88.81
345.714	88.81
345.942	92.81
346.17	91.81
346.397	84.81
346.625	100.81
346.853	88.81
347.08	82.81
347.308	94.81
347.535	83.81
347.763	99.81
347.99	90.81
348.218	100.81
348.445	88.81
348.673	87.81
348.9	79.81
349.128	96.81
349.355	95.81
349.583	96.81
349.81	107.81
350.037	93.81
350.265	94.81
350.492	89.81
350.72	87.81
350.947	95.81
351.174	111.81
351.402	103.81
351.629	95.81
351.856	105.81
352.083	97.81
352.311	105.81
352.538	117.81
352.765	102.81
352.992	105.81
353.22	108.81
353.447	111.81
353.674	105.81
353.901	98.81
354.128	93.81
354.355	98.81
354.583	90.81
354.81	94.81
355.037	91.81
355.264	103.81
355.491	102.81
355.718	90.81
355.945	113.81
356.172	88.81
356.399	81.81
356.626	87.81
356.853	82.81
357.08	91.81
357.307	97.81
357.534	93.81
357.761	97.81
357.988	96.81
358.215	85.81
358.441	101.81
358.668	93.81
358.895	91.81
359.122	104.81
359.349	94.81
359.576	100.81
359.802	97.81
360.029	98.81
360.256	110.81
360.483	101.81
360.709	90.81
360.936	87.81
361.163	101.81
361.39	91.81
361.616	79.81
361.843	105.81
362.07	105.81
362.296	86.81
362.523	87.81
362.749	92.81
362.976	89.81
363.203	88.81
363.429	92.81
363.656	76.81
363.882	78.81
364.109	107.81
364.335	94.81
364.562	96.81
364.788	84.81
365.015	93.81
365.241	90.81
365.468	86.81
365.694	86.81
365.92	101.81
366.147	86.81
366.373	78.81
366.599	81.81
366.826	82.81
367.052	93.81
367.278	81.81
367.505	91.81
367.731	86.81
367.957	99.81
368.184	100.81
368.41	98.81
368.636	104.81
368.862	93.81
369.089	106.81
369.315	104.81
369.541	81.81
369.767	96.81
369.993	85.81
370.219	89.81
370.445	77.81
370.672	82.81
370.898	100.81
371.124	89.81
371.35	89.81
371.576	81.81
371.802	76.81
372.028	85.81
372.254	88.81
372.48	92.81
372.706	80.81
372.932	87.81
373.158	103.81
373.384	90.81
373.61	88.81
373.835	89.81
374.061	87.81
374.287	96.81
374.513	97.81
374.739	103.81
374.965	95.81
375.191	81.81
375.416	92.81
375.642	90.81
375.868	94.81
376.094	82.81
376.319	93.81
376.545	90.81
376.771	91.81
376.997	88.81
377.222	82.81
377.448	87.81
377.674	86.81
377.899	98.81
378.125	88.81
378.35	86.81
378.576	83.81
378.802	78.81
379.027	71.81
379.253	97.81
379.478	82.81
379.704	97.81
379.929	83.81
380.155	104.81
380.38	93.81
380.606	97.81
380.831	102.81
381.057	99.81
381.282	97.81
381.507	90.81
381.733	91.81
381.958	105.81
382.184	96.81
382.409	91.81
382.634	98.81
382.86	106.81
383.085	108.81
383.31	105.81
383.535	98.81
383.761	86.81
383.986	91.81
384.211	112.81
384.436	98.81
384.662	108.81
384.887	105.81
385.112	121.81
385.337	115.81
385.562	111.81
385.787	102.81
386.013	130.81
386.238	121.81
386.463	98.81
386.688	115.81
386.913	108.81
387.138	114.81
387.363	109.81
387.588	114.81
387.813	94.81
388.038	119.81
388.263	112.81
388.488	120.81
388.713	85.81
388.938	96.81
389.163	100.81
389.387	105.81
389.612	91.81
389.837	89.81
390.062	107.81
390.287	84.81
390.512	92.81
390.736	83.81
390.961	89.81
391.186	94.81
391.411	81.81
391.636	85.81
391.86	91.81
392.085	93.81
392.31	88.81
392.534	74.81
392.759	84.81
392.984	76.81
393.208	98.81
393.433	90.81
393.658	109.81
393.882	103.81
394.107	96.81
394.331	82.81
394.556	87.81
394.78	79.81
395.005	84.81
395.229	97.81
395.454	60.81
395.678	87.81
395.903	89.81
396.127	79.81
396.352	74.81
396.576	97.81
396.801	104.81
397.025	96.81
397.249	85.81
397.474	87.81
397.698	82.81
397.922	88.81
398.147	84.81
398.371	86.81
398.595	93.81
398.82	81.81
399.044	82.81
399.268	83.81
399.492	71.81
399.717	85.81
399.941	87.81
400.165	79.81
400.389	73.81
400.613	87.81
400.837	85.81
401.062	76.81
401.286	80.81
401.51	97.81
401.734	64.81
401.958	74.81
402.182	112.81
402.406	140.81
402.63	114.81
402.854	87.81
403.078	87.81
403.302	76.81
403.526	84.81
403.75	90.81
403.974	84.81
404.198	90.81
404.422	79.81
404.645	85.81
404.869	82.81
405.093	90.81
405.317	97.81
405.541	103.81
405.765	81.81
405.988	104.81
406.212	151.81
406.436	184.81
406.66	134.81
406.883	98.81
407.107	88.81
407.331	101.81
407.555	89.81
407.778	103.81
408.002	96.81
408.226	84.81
408.449	68.81
408.673	82.81
408.896	88.81
409.12	92.81
409.344	88.81
409.567	93.81
409.791	96.81
410.014	84.81
410.238	96.81
410.461	109.81
410.685	100.81
410.908	108.81
411.132	95.81
411.355	91.81
411.578	92.81
411.802	74.81
412.025	81.81
412.249	90.81
412.472	75.81
412.695	83.81
412.919	78.81
413.142	87.81
413.365	77.81
413.589	77.81
413.812	82.81
414.035	95.81
414.258	95.81
414.482	83.81
414.705	82.81
414.928	71.81
415.151	87.81
415.374	89.81
415.597	71.81
415.821	95.81
416.044	95.81
416.267	83.81
416.49	95.81
416.713	88.81
416.936	79.81
417.159	88.81
417.382	89.81
417.605	85.81
417.828	92.81
418.051	101.81
418.274	89.81
418.497	88.81
418.72	83.81
418.943	91.81
419.166	82.81
419.389	78.81
419.611	90.81
419.834	93.81
420.057	96.81
420.28	88.81
420.503	67.81
420.726	77.81
420.948	79.81
421.171	92.81
421.394	98.81
421.617	88.81
421.839	88.81
422.062	80.81
422.285	82.81
422.507	103.81
422.73	113.81
422.953	94.81
423.175	94.81
423.398	87.81
423.621	84.81
423.843	76.81
424.066	74.81
424.288	82.81
424.511	71.81
424.733	85.81
424.956	101.81
425.178	79.81
425.401	89.81
425.623	80.81
425.846	88.81
426.068	92.81
426.291	92.81
426.513	80.81
426.735	89.81
426.958	76.81
427.18	88.81
427.402	121.81
427.625	137.81
427.847	102.81
428.069	95.81
428.292	94.81
428.514	97.81
428.736	81.81
428.958	82.81
429.181	97.81
429.403	95.81
429.625	87.81
429.847	74.81
430.069	96.81
430.292	99.81
430.514	91.81
430.736	94.81
430.958	84.81
431.18	74.81
431.402	87.81
431.624	100.81
431.846	93.81
432.068	82.81
432.29	90.81
432.512	90.81
432.734	82.81
432.956	95.81
433.178	97.81
433.4	97.81
433.622	76.81
433.844	82.81
434.066	98.81
434.287	81.81
434.509	95.81
434.731	90.81
434.953	79.81
435.175	80.81
435.397	89.81
435.618	93.81
435.84	103.81
436.062	121.81
436.284	103.81
436.505	110.81
436.727	99.81
436.949	91.81
437.17	95.81
437.392	90.81
437.614	88.81
437.835	104.81
438.057	105.81
438.278	117.81
438.5	103.81
438.721	118.81
438.943	113.81
439.165	86.81
439.386	86.81
439.608	104.81
439.829	90.81
440.05	109.81
440.272	134.81
440.493	94.81
440.715	88.81
440.936	90.81
441.158	69.81
441.379	88.81
441.6	80.81
441.822	84.81
442.043	94.81
442.264	98.81
442.486	80.81
442.707	88.81
442.928	96.81
443.149	126.81
443.371	120.81
443.592	111.81
443.813	107.81
444.034	106.81
444.255	87.81
444.476	82.81
444.698	105.81
444.919	88.81
445.14	121.81
445.361	128.81
445.582	97.81
445.803	112.81
446.024	131.81
446.245	127.81
446.466	111.81
446.687	97.81
446.908	84.81
447.129	90.81
447.35	86.81
447.571	93.81
447.792	88.81
448.013	85.81
448.234	90.81
448.455	92.81
448.675	111.81
448.896	105.81
449.117	95.81
449.338	101.81
449.559	135.81
449.779	127.81
450	94.81
450.221	81.81
450.442	84.81
450.662	96.81
450.883	100.81
451.104	94.81
451.324	92.81
451.545	78.81
451.766	82.81
451.986	93.81
452.207	79.81
452.428	71.81
452.648	83.81
452.869	94.81
453.089	97.81
453.31	109.81
453.53	78.81
453.751	86.81
453.971	94.81
454.192	95.81
454.412	87.81
454.633	78.81
454.853	81.81
455.073	75.81
455.294	88.81
455.514	76.81
455.734	87.81
455.955	83.81
456.175	92.81
456.395	74.81
456.616	80.81
456.836	77.81
457.056	87.81
457.276	79.81
457.497	78.81
457.717	79.81
457.937	76.81
458.157	73.81
458.377	86.81
458.598	93.81
458.818	124.81
459.038	140.81
459.258	104.81
459.478	98.81
459.698	72.81
459.918	90.81
460.138	81.81
460.358	91.81
460.578	90.81
460.798	89.81
461.018	93.81
461.238	76.81
461.458	72.81
461.678	86.81
461.898	89.81
462.118	78.81
462.338	87.81
462.558	85.81
462.777	78.81
462.997	82.81
463.217	76.81
463.437	84.81
463.657	86.81
463.876	100.81
464.096	93.81
464.316	110.81
464.536	78.81
464.755	97.81
464.975	108.81
465.195	136.81
465.414	130.81
465.634	82.81
465.854	90.81
466.073	95.81
466.293	92.81
466.512	99.81
466.732	94.81
466.951	98.81
467.171	91.81
467.391	84.81
467.61	90.81
467.829	76.81
468.049	94.81
468.268	92.81
468.488	88.81
468.707	92.81
468.927	100.81
469.146	90.81
469.365	84.81
469.585	95.81
469.804	88.81
470.023	81.81
470.243	83.81
470.462	91.81
470.681	97.81
470.901	101.81
471.12	90.81
471.339	89.81
471.558	98.81
471.777	98.81
471.997	96.81
472.216	95.81
472.435	96.81
472.654	76.81
472.873	66.81
473.092	76.81
473.311	86.81
473.53	75.81
473.749	90.81
473.968	84.81
474.187	103.81
474.406	94.81
474.625	73.81
474.844	87.81
475.063	79.81
475.282	94.81
475.501	88.81
475.72	88.81
475.939	88.81
476.158	77.81
476.377	98.81
476.596	97.81
476.814	89.81
477.033	86.81
477.252	79.81
477.471	78.81
477.69	72.81
477.908	89.81
478.127	89.81
478.346	93.81
478.564	88.81
478.783	82.81
479.002	84.81
479.22	94.81
479.439	101.81
479.658	94.81
479.876	102.81
480.095	89.81
480.313	91.81
480.532	95.81
480.751	81.81
480.969	89.81
481.188	101.81
481.406	93.81
481.624	89.81
481.843	97.81
482.061	89.81
482.28	93.81
482.498	89.81
482.717	91.81
482.935	95.81
483.153	97.81
483.372	85.81
483.59	86.81
483.808	90.81
484.027	73.81
484.245	89.81
484.463	96.81
484.681	81.81
484.9	99.81
485.118	104.81
485.336	106.81
485.554	101.81
485.772	98.81
485.99	108.81
486.209	112.81
486.427	85.81
486.645	119.81
486.863	117.81
487.081	113.81
487.299	98.81
487.517	85.81
487.735	81.81
487.953	91.81
488.171	100.81
488.389	94.81
488.607	96.81
488.825	99.81
489.043	100.81
489.261	91.81
489.479	86.81
489.696	92.81
489.914	92.81
490.132	87.81
490.35	80.81
490.568	94.81
490.786	97.81
491.003	84.81
491.221	97.81
491.439	82.81
491.657	93.81
491.874	96.81
492.092	70.81
492.31	95.81
492.527	77.81
492.745	89.81
492.963	93.81
493.18	113.81
493.398	98.81
493.615	80.81
493.833	85.81
494.05	87.81
494.268	94.81
494.485	91.81
494.703	98.81
494.92	88.81
495.138	83.81
495.355	78.81
495.573	85.81
495.79	81.81
496.008	89.81
496.225	84.81
496.442	81.81
496.66	80.81
496.877	101.81
497.094	93.81
497.312	81.81
497.529	78.81
497.746	95.81
497.963	81.81
498.181	95.81
498.398	91.81
498.615	95.81
498.832	83.81
499.049	94.81
499.267	91.81
499.484	83.81
499.701	96.81
499.918	90.81
500.135	101.81
500.352	82.81
500.569	97.81
500.786	104.81
501.003	74.81
501.22	90.81
501.437	88.81
501.654	106.81
501.871	91.81
502.088	89.81
502.305	94.81
502.522	90.81
502.739	77.81
502.956	88.81
503.172	98.81
503.389	94.81
503.606	109.81
503.823	89.81
504.04	85.81
504.256	93.81
504.473	89.81
504.69	82.81
504.907	89.81
505.123	97.81
505.34	89.81
505.557	89.81
505.773	86.81
505.99	95.81
506.207	90.81
506.423	89.81
506.64	85.81
506.856	80.81
507.073	97.81
507.289	86.81
507.506	93.81
507.722	102.81
507.939	92.81
508.155	77.81
508.372	94.81
508.588	96.81
508.805	94.81
509.021	85.81
509.238	106.81
509.454	97.81
509.67	91.81
509.887	112.81
510.103	125.81
510.319	184.81
510.536	578.81
510.752	1832.81
510.968	543.81
511.184	129.81
511.401	108.81
511.617	97.81
511.833	94.81
512.049	85.81
512.265	108.81
512.481	78.81
512.698	89.81
512.914	81.81
513.13	86.81
513.346	85.81
513.562	108.81
513.778	77.81
513.994	97.81
514.21	102.81
514.426	95.81
514.642	120.81
514.858	107.81
515.074	148.81
515.29	326.81
515.506	1129.81
515.721	440.81
515.937	131.81
516.153	107.81
516.369	94.81
516.585	90.81
516.801	99.81
