Data from Circ_2002_H10_HRD10591_00088.txt Node
Date: Wed Jan 03 10:41:15 EST 2024
User: Yrep
Spectrometer: HR+D1059
Trigger mode: 1
Integration Time (sec): 1.000000E-1
Scans to average: 1
Electric dark correction enabled: true
Nonlinearity correction enabled: false
Boxcar width: 0
XAxis mode: Wavelengths
Number of Pixels in Spectrum: 2048
>>>>>Begin Spectral Data<<<<<
223.165	-7.12
223.4	-7.12
223.635	-7.12
223.869	-17.12
224.104	-14.12
224.338	-8.12
224.573	-29.12
224.808	-13.12
225.042	-4.12
225.277	-2.12
225.511	-4.12
225.746	-1.12
225.98	0.88
226.215	26.88
226.449	14.88
226.683	14.88
226.918	16.88
227.152	25.88
227.387	37.88
227.621	34.88
227.856	39.88
228.09	50.88
228.324	60.88
228.559	50.88
228.793	52.88
229.027	56.88
229.262	63.88
229.496	51.88
229.73	78.88
229.964	78.88
230.199	69.88
230.433	79.88
230.667	75.88
230.901	77.88
231.136	79.88
231.37	74.88
231.604	86.88
231.838	84.88
232.072	72.88
232.306	91.88
232.541	70.88
232.775	86.88
233.009	81.88
233.243	83.88
233.477	85.88
233.711	87.88
233.945	88.88
234.179	78.88
234.413	82.88
234.647	79.88
234.881	74.88
235.115	88.88
235.349	72.88
235.583	71.88
235.817	70.88
236.051	73.88
236.285	78.88
236.519	73.88
236.753	75.88
236.987	73.88
237.221	70.88
237.455	84.88
237.689	82.88
237.922	80.88
238.156	62.88
238.39	82.88
238.624	73.88
238.858	81.88
239.091	80.88
239.325	76.88
239.559	87.88
239.793	82.88
240.027	78.88
240.26	80.88
240.494	83.88
240.728	73.88
240.961	90.88
241.195	89.88
241.429	66.88
241.662	79.88
241.896	90.88
242.13	69.88
242.363	73.88
242.597	63.88
242.83	68.88
243.064	81.88
243.298	73.88
243.531	71.88
243.765	83.88
243.998	90.88
244.232	71.88
244.465	84.88
244.699	70.88
244.932	79.88
245.166	70.88
245.399	87.88
245.633	76.88
245.866	84.88
246.099	66.88
246.333	78.88
246.566	64.88
246.8	77.88
247.033	62.88
247.266	75.88
247.5	78.88
247.733	84.88
247.966	78.88
248.2	86.88
248.433	70.88
248.666	69.88
248.899	79.88
249.133	84.88
249.366	79.88
249.599	94.88
249.832	73.88
250.066	80.88
250.299	74.88
250.532	74.88
250.765	84.88
250.998	73.88
251.231	80.88
251.465	82.88
251.698	80.88
251.931	91.88
252.164	91.88
252.397	86.88
252.63	82.88
252.863	88.88
253.096	87.88
253.329	79.88
253.562	85.88
253.795	96.88
254.028	86.88
254.261	74.88
254.494	90.88
254.727	79.88
254.96	72.88
255.193	86.88
255.426	79.88
255.659	82.88
255.892	92.88
256.124	83.88
256.357	83.88
256.59	77.88
256.823	81.88
257.056	76.88
257.289	66.88
257.521	73.88
257.754	83.88
257.987	83.88
258.22	76.88
258.452	74.88
258.685	90.88
258.918	74.88
259.151	87.88
259.383	70.88
259.616	90.88
259.849	77.88
260.081	79.88
260.314	68.88
260.547	82.88
260.779	78.88
261.012	92.88
261.244	67.88
261.477	74.88
261.71	86.88
261.942	107.88
262.175	101.88
262.407	95.88
262.64	92.88
262.872	97.88
263.105	82.88
263.337	95.88
263.57	84.88
263.802	94.88
264.035	86.88
264.267	90.88
264.499	71.88
264.732	76.88
264.964	79.88
265.197	92.88
265.429	83.88
265.661	83.88
265.894	71.88
266.126	102.88
266.358	91.88
266.591	86.88
266.823	79.88
267.055	70.88
267.287	82.88
267.52	86.88
267.752	89.88
267.984	95.88
268.216	84.88
268.448	86.88
268.681	84.88
268.913	89.88
269.145	82.88
269.377	86.88
269.609	89.88
269.841	71.88
270.073	74.88
270.306	83.88
270.538	96.88
270.77	85.88
271.002	88.88
271.234	80.88
271.466	76.88
271.698	83.88
271.93	83.88
272.162	83.88
272.394	80.88
272.626	87.88
272.858	78.88
273.09	70.88
273.322	79.88
273.553	82.88
273.785	84.88
274.017	79.88
274.249	86.88
274.481	91.88
274.713	78.88
274.945	92.88
275.176	80.88
275.408	74.88
275.64	78.88
275.872	87.88
276.104	100.88
276.335	84.88
276.567	85.88
276.799	96.88
277.031	85.88
277.262	89.88
277.494	76.88
277.726	89.88
277.957	78.88
278.189	78.88
278.421	84.88
278.652	86.88
278.884	82.88
279.115	71.88
279.347	82.88
279.579	83.88
279.81	95.88
280.042	98.88
280.273	82.88
280.505	83.88
280.736	91.88
280.968	92.88
281.199	70.88
281.431	85.88
281.662	81.88
281.894	89.88
282.125	83.88
282.356	110.88
282.588	128.88
282.819	108.88
283.051	91.88
283.282	86.88
283.513	90.88
283.745	74.88
283.976	92.88
284.207	78.88
284.439	80.88
284.67	85.88
284.901	86.88
285.132	71.88
285.364	78.88
285.595	76.88
285.826	83.88
286.057	88.88
286.288	76.88
286.52	96.88
286.751	80.88
286.982	71.88
287.213	80.88
287.444	80.88
287.675	92.88
287.906	95.88
288.138	92.88
288.369	97.88
288.6	86.88
288.831	76.88
289.062	94.88
289.293	85.88
289.524	88.88
289.755	93.88
289.986	86.88
290.217	88.88
290.448	77.88
290.679	89.88
290.91	91.88
291.141	66.88
291.371	85.88
291.602	85.88
291.833	91.88
292.064	84.88
292.295	73.88
292.526	78.88
292.757	93.88
292.987	91.88
293.218	77.88
293.449	74.88
293.68	91.88
293.91	97.88
294.141	88.88
294.372	81.88
294.603	98.88
294.833	86.88
295.064	85.88
295.295	81.88
295.525	93.88
295.756	96.88
295.987	111.88
296.217	132.88
296.448	129.88
296.679	98.88
296.909	112.88
297.14	90.88
297.37	94.88
297.601	83.88
297.831	85.88
298.062	90.88
298.292	89.88
298.523	86.88
298.753	95.88
298.984	86.88
299.214	97.88
299.445	102.88
299.675	97.88
299.905	82.88
300.136	88.88
300.366	99.88
300.597	74.88
300.827	107.88
301.057	105.88
301.288	100.88
301.518	94.88
301.748	90.88
301.979	81.88
302.209	86.88
302.439	94.88
302.669	78.88
302.9	98.88
303.13	86.88
303.36	75.88
303.59	104.88
303.82	87.88
304.051	94.88
304.281	82.88
304.511	90.88
304.741	88.88
304.971	92.88
305.201	75.88
305.431	86.88
305.661	80.88
305.891	89.88
306.121	90.88
306.352	94.88
306.582	98.88
306.812	101.88
307.042	101.88
307.272	94.88
307.502	88.88
307.731	90.88
307.961	87.88
308.191	94.88
308.421	98.88
308.651	91.88
308.881	97.88
309.111	100.88
309.341	97.88
309.571	73.88
309.8	82.88
310.03	99.88
310.26	97.88
310.49	78.88
310.72	88.88
310.949	90.88
311.179	98.88
311.409	94.88
311.639	104.88
311.868	104.88
312.098	90.88
312.328	93.88
312.557	111.88
312.787	100.88
313.017	100.88
313.246	93.88
313.476	82.88
313.706	96.88
313.935	94.88
314.165	116.88
314.394	104.88
314.624	92.88
314.853	93.88
315.083	86.88
315.312	89.88
315.542	84.88
315.771	93.88
316.001	89.88
316.23	69.88
316.46	88.88
316.689	91.88
316.919	94.88
317.148	83.88
317.377	88.88
317.607	108.88
317.836	92.88
318.065	80.88
318.295	82.88
318.524	91.88
318.753	98.88
318.983	79.88
319.212	98.88
319.441	93.88
319.67	103.88
319.9	95.88
320.129	84.88
320.358	98.88
320.587	98.88
320.816	97.88
321.046	98.88
321.275	86.88
321.504	100.88
321.733	92.88
321.962	109.88
322.191	104.88
322.42	103.88
322.649	102.88
322.878	104.88
323.108	123.88
323.337	105.88
323.566	120.88
323.795	137.88
324.024	192.88
324.253	355.88
324.482	768.88
324.71	1550.88
324.939	2051.88
325.168	746.88
325.397	235.88
325.626	137.88
325.855	145.88
326.084	116.88
326.313	134.88
326.542	144.88
326.77	229.88
326.999	439.88
327.228	894.88
327.457	1592.88
327.686	1287.88
327.914	367.88
328.143	188.88
328.372	148.88
328.6	141.88
328.829	110.88
329.058	109.88
329.287	125.88
329.515	98.88
329.744	110.88
329.972	120.88
330.201	121.88
330.43	150.88
330.658	106.88
330.887	130.88
331.115	114.88
331.344	98.88
331.572	91.88
331.801	91.88
332.03	106.88
332.258	92.88
332.486	101.88
332.715	89.88
332.943	100.88
333.172	85.88
333.4	100.88
333.629	97.88
333.857	118.88
334.085	132.88
334.314	132.88
334.542	180.88
334.771	138.88
334.999	105.88
335.227	100.88
335.455	87.88
335.684	119.88
335.912	111.88
336.14	103.88
336.369	95.88
336.597	101.88
336.825	90.88
337.053	95.88
337.281	91.88
337.51	90.88
337.738	83.88
337.966	99.88
338.194	85.88
338.422	86.88
338.65	97.88
338.878	92.88
339.106	95.88
339.334	91.88
339.562	81.88
339.79	82.88
340.018	84.88
340.246	91.88
340.474	102.88
340.702	100.88
340.93	89.88
341.158	91.88
341.386	76.88
341.614	101.88
341.842	92.88
342.07	99.88
342.298	94.88
342.526	83.88
342.754	91.88
342.981	79.88
343.209	92.88
343.437	111.88
343.665	89.88
343.893	94.88
344.12	92.88
344.348	93.88
344.576	100.88
344.804	80.88
345.031	81.88
345.259	98.88
345.487	101.88
345.714	82.88
345.942	91.88
346.17	83.88
346.397	103.88
346.625	88.88
346.853	91.88
347.08	74.88
347.308	90.88
347.535	95.88
347.763	98.88
347.99	95.88
348.218	104.88
348.445	100.88
348.673	87.88
348.9	96.88
349.128	92.88
349.355	94.88
349.583	98.88
349.81	96.88
350.037	105.88
350.265	89.88
350.492	98.88
350.72	91.88
350.947	84.88
351.174	104.88
351.402	101.88
351.629	91.88
351.856	93.88
352.083	110.88
352.311	118.88
352.538	106.88
352.765	93.88
352.992	104.88
353.22	106.88
353.447	102.88
353.674	103.88
353.901	112.88
354.128	85.88
354.355	87.88
354.583	99.88
354.81	91.88
355.037	101.88
355.264	110.88
355.491	91.88
355.718	84.88
355.945	96.88
356.172	100.88
356.399	99.88
356.626	96.88
356.853	96.88
357.08	88.88
357.307	92.88
357.534	98.88
357.761	87.88
357.988	92.88
358.215	84.88
358.441	95.88
358.668	102.88
358.895	88.88
359.122	80.88
359.349	98.88
359.576	84.88
359.802	89.88
360.029	99.88
360.256	117.88
360.483	86.88
360.709	88.88
360.936	92.88
361.163	98.88
361.39	89.88
361.616	96.88
361.843	88.88
362.07	96.88
362.296	88.88
362.523	103.88
362.749	95.88
362.976	80.88
363.203	91.88
363.429	82.88
363.656	84.88
363.882	91.88
364.109	88.88
364.335	95.88
364.562	75.88
364.788	90.88
365.015	90.88
365.241	95.88
365.468	100.88
365.694	96.88
365.92	96.88
366.147	103.88
366.373	95.88
366.599	87.88
366.826	96.88
367.052	96.88
367.278	82.88
367.505	81.88
367.731	93.88
367.957	98.88
368.184	96.88
368.41	105.88
368.636	107.88
368.862	100.88
369.089	102.88
369.315	95.88
369.541	84.88
369.767	90.88
369.993	83.88
370.219	100.88
370.445	99.88
370.672	87.88
370.898	91.88
371.124	89.88
371.35	81.88
371.576	96.88
371.802	90.88
372.028	79.88
372.254	88.88
372.48	89.88
372.706	82.88
372.932	83.88
373.158	79.88
373.384	82.88
373.61	94.88
373.835	79.88
374.061	87.88
374.287	78.88
374.513	103.88
374.739	100.88
374.965	81.88
375.191	90.88
375.416	86.88
375.642	90.88
375.868	96.88
376.094	85.88
376.319	82.88
376.545	85.88
376.771	88.88
376.997	81.88
377.222	93.88
377.448	77.88
377.674	91.88
377.899	86.88
378.125	89.88
378.35	92.88
378.576	90.88
378.802	83.88
379.027	82.88
379.253	99.88
379.478	89.88
379.704	92.88
379.929	95.88
380.155	104.88
380.38	98.88
380.606	97.88
380.831	75.88
381.057	79.88
381.282	88.88
381.507	88.88
381.733	90.88
381.958	99.88
382.184	94.88
382.409	91.88
382.634	106.88
382.86	92.88
383.085	98.88
383.31	90.88
383.535	90.88
383.761	86.88
383.986	87.88
384.211	102.88
384.436	83.88
384.662	98.88
384.887	97.88
385.112	107.88
385.337	91.88
385.562	115.88
385.787	88.88
386.013	107.88
386.238	102.88
386.463	111.88
386.688	115.88
386.913	91.88
387.138	101.88
387.363	97.88
387.588	99.88
387.813	97.88
388.038	106.88
388.263	102.88
388.488	98.88
388.713	97.88
388.938	104.88
389.163	115.88
389.387	96.88
389.612	95.88
389.837	91.88
390.062	88.88
390.287	91.88
390.512	91.88
390.736	100.88
390.961	92.88
391.186	84.88
391.411	98.88
391.636	77.88
391.86	76.88
392.085	88.88
392.31	92.88
392.534	96.88
392.759	81.88
392.984	98.88
393.208	86.88
393.433	101.88
393.658	79.88
393.882	78.88
394.107	86.88
394.331	82.88
394.556	94.88
394.78	97.88
395.005	87.88
395.229	94.88
395.454	89.88
395.678	72.88
395.903	89.88
396.127	85.88
396.352	91.88
396.576	100.88
396.801	80.88
397.025	98.88
397.249	92.88
397.474	89.88
397.698	83.88
397.922	101.88
398.147	83.88
398.371	82.88
398.595	84.88
398.82	80.88
399.044	74.88
399.268	78.88
399.492	91.88
399.717	90.88
399.941	89.88
400.165	83.88
400.389	87.88
400.613	90.88
400.837	85.88
401.062	92.88
401.286	86.88
401.51	96.88
401.734	93.88
401.958	89.88
402.182	120.88
402.406	144.88
402.63	113.88
402.854	82.88
403.078	84.88
403.302	95.88
403.526	84.88
403.75	84.88
403.974	88.88
404.198	87.88
404.422	92.88
404.645	90.88
404.869	83.88
405.093	92.88
405.317	93.88
405.541	88.88
405.765	88.88
405.988	122.88
406.212	157.88
406.436	191.88
406.66	140.88
406.883	88.88
407.107	103.88
407.331	98.88
407.555	100.88
407.778	92.88
408.002	88.88
408.226	84.88
408.449	94.88
408.673	91.88
408.896	101.88
409.12	87.88
409.344	88.88
409.567	86.88
409.791	92.88
410.014	90.88
410.238	90.88
410.461	83.88
410.685	87.88
410.908	103.88
411.132	95.88
411.355	91.88
411.578	94.88
411.802	86.88
412.025	88.88
412.249	107.88
412.472	98.88
412.695	90.88
412.919	106.88
413.142	82.88
413.365	91.88
413.589	95.88
413.812	78.88
414.035	85.88
414.258	101.88
414.482	79.88
414.705	92.88
414.928	96.88
415.151	96.88
415.374	97.88
415.597	86.88
415.821	89.88
416.044	79.88
416.267	109.88
416.49	76.88
416.713	91.88
416.936	80.88
417.159	77.88
417.382	86.88
417.605	102.88
417.828	102.88
418.051	96.88
418.274	93.88
418.497	87.88
418.72	72.88
418.943	91.88
419.166	93.88
419.389	87.88
419.611	89.88
419.834	93.88
420.057	103.88
420.28	90.88
420.503	87.88
420.726	82.88
420.948	100.88
421.171	96.88
421.394	86.88
421.617	74.88
421.839	98.88
422.062	84.88
422.285	104.88
422.507	104.88
422.73	93.88
422.953	89.88
423.175	85.88
423.398	95.88
423.621	104.88
423.843	96.88
424.066	85.88
424.288	80.88
424.511	78.88
424.733	98.88
424.956	92.88
425.178	84.88
425.401	103.88
425.623	88.88
425.846	87.88
426.068	101.88
426.291	84.88
426.513	100.88
426.735	83.88
426.958	80.88
427.18	96.88
427.402	122.88
427.625	147.88
427.847	128.88
428.069	115.88
428.292	89.88
428.514	88.88
428.736	78.88
428.958	82.88
429.181	81.88
429.403	83.88
429.625	77.88
429.847	105.88
430.069	92.88
430.292	93.88
430.514	86.88
430.736	90.88
430.958	71.88
431.18	93.88
431.402	66.88
431.624	89.88
431.846	78.88
432.068	92.88
432.29	83.88
432.512	82.88
432.734	87.88
432.956	87.88
433.178	98.88
433.4	110.88
433.622	85.88
433.844	84.88
434.066	96.88
434.287	95.88
434.509	95.88
434.731	80.88
434.953	83.88
435.175	86.88
435.397	88.88
435.618	92.88
435.84	98.88
436.062	110.88
436.284	111.88
436.505	108.88
436.727	112.88
436.949	88.88
437.17	89.88
437.392	97.88
437.614	82.88
437.835	81.88
438.057	106.88
438.278	122.88
438.5	88.88
438.721	119.88
438.943	105.88
439.165	86.88
439.386	95.88
439.608	80.88
439.829	106.88
440.05	118.88
440.272	119.88
440.493	99.88
440.715	94.88
440.936	94.88
441.158	91.88
441.379	101.88
441.6	98.88
441.822	83.88
442.043	95.88
442.264	94.88
442.486	85.88
442.707	106.88
442.928	117.88
443.149	121.88
443.371	95.88
443.592	110.88
443.813	99.88
444.034	103.88
444.255	123.88
444.476	79.88
444.698	92.88
444.919	87.88
445.14	132.88
445.361	126.88
445.582	107.88
445.803	114.88
446.024	131.88
446.245	117.88
446.466	105.88
446.687	88.88
446.908	93.88
447.129	81.88
447.35	87.88
447.571	83.88
447.792	99.88
448.013	101.88
448.234	102.88
448.455	104.88
448.675	104.88
448.896	102.88
449.117	105.88
449.338	103.88
449.559	118.88
449.779	122.88
450	85.88
450.221	73.88
450.442	86.88
450.662	101.88
450.883	97.88
451.104	94.88
451.324	81.88
451.545	87.88
451.766	92.88
451.986	80.88
452.207	84.88
452.428	88.88
452.648	100.88
452.869	99.88
453.089	109.88
453.31	102.88
453.53	91.88
453.751	95.88
453.971	96.88
454.192	105.88
454.412	90.88
454.633	85.88
454.853	78.88
455.073	86.88
455.294	98.88
455.514	93.88
455.734	91.88
455.955	82.88
456.175	71.88
456.395	83.88
456.616	76.88
456.836	103.88
457.056	86.88
457.276	86.88
457.497	65.88
457.717	79.88
457.937	87.88
458.157	78.88
458.377	102.88
458.598	100.88
458.818	127.88
459.038	146.88
459.258	119.88
459.478	80.88
459.698	85.88
459.918	91.88
460.138	80.88
460.358	91.88
460.578	91.88
460.798	87.88
461.018	76.88
461.238	82.88
461.458	80.88
461.678	79.88
461.898	88.88
462.118	90.88
462.338	71.88
462.558	80.88
462.777	82.88
462.997	87.88
463.217	92.88
463.437	83.88
463.657	97.88
463.876	75.88
464.096	78.88
464.316	84.88
464.536	97.88
464.755	92.88
464.975	91.88
465.195	146.88
465.414	140.88
465.634	93.88
465.854	90.88
466.073	79.88
466.293	92.88
466.512	80.88
466.732	81.88
466.951	89.88
467.171	97.88
467.391	85.88
467.61	96.88
467.829	106.88
468.049	94.88
468.268	103.88
468.488	81.88
468.707	92.88
468.927	93.88
469.146	72.88
469.365	80.88
469.585	78.88
469.804	86.88
470.023	91.88
470.243	95.88
470.462	118.88
470.681	90.88
470.901	83.88
471.12	89.88
471.339	86.88
471.558	82.88
471.777	78.88
471.997	101.88
472.216	140.88
472.435	215.88
472.654	105.88
472.873	91.88
473.092	89.88
473.311	89.88
473.53	98.88
473.749	77.88
473.968	92.88
474.187	82.88
474.406	97.88
474.625	92.88
474.844	88.88
475.063	88.88
475.282	79.88
475.501	91.88
475.72	89.88
475.939	84.88
476.158	75.88
476.377	87.88
476.596	90.88
476.814	78.88
477.033	92.88
477.252	80.88
477.471	83.88
477.69	82.88
477.908	76.88
478.127	92.88
478.346	90.88
478.564	97.88
478.783	96.88
479.002	95.88
479.22	98.88
479.439	98.88
479.658	92.88
479.876	99.88
480.095	94.88
480.313	94.88
480.532	97.88
480.751	98.88
480.969	142.88
481.188	302.88
481.406	212.88
481.624	100.88
481.843	87.88
482.061	87.88
482.28	76.88
482.498	78.88
482.717	82.88
482.935	77.88
483.153	88.88
483.372	89.88
483.59	77.88
483.808	108.88
484.027	94.88
484.245	91.88
484.463	93.88
484.681	90.88
484.9	104.88
485.118	100.88
485.336	85.88
485.554	90.88
485.772	103.88
485.99	80.88
486.209	102.88
486.427	106.88
486.645	104.88
486.863	109.88
487.081	119.88
487.299	95.88
487.517	91.88
487.735	94.88
487.953	92.88
488.171	87.88
488.389	78.88
488.607	105.88
488.825	87.88
489.043	80.88
489.261	80.88
489.479	92.88
489.696	87.88
489.914	81.88
490.132	99.88
490.35	85.88
490.568	83.88
490.786	90.88
491.003	90.88
491.221	92.88
491.439	97.88
491.657	86.88
491.874	91.88
492.092	95.88
492.31	99.88
492.527	105.88
492.745	80.88
492.963	83.88
493.18	91.88
493.398	106.88
493.615	96.88
493.833	91.88
494.05	73.88
494.268	95.88
494.485	89.88
494.703	91.88
494.92	84.88
495.138	96.88
495.355	89.88
495.573	92.88
495.79	91.88
496.008	92.88
496.225	94.88
496.442	94.88
496.66	90.88
496.877	89.88
497.094	92.88
497.312	101.88
497.529	96.88
497.746	92.88
497.963	70.88
498.181	92.88
498.398	87.88
498.615	101.88
498.832	99.88
499.049	88.88
499.267	92.88
499.484	84.88
499.701	81.88
499.918	86.88
500.135	91.88
500.352	92.88
500.569	90.88
500.786	85.88
501.003	78.88
501.22	104.88
501.437	91.88
501.654	80.88
501.871	107.88
502.088	92.88
502.305	93.88
502.522	88.88
502.739	82.88
502.956	92.88
503.172	96.88
503.389	91.88
503.606	107.88
503.823	95.88
504.04	83.88
504.256	95.88
504.473	86.88
504.69	96.88
504.907	84.88
505.123	72.88
505.34	84.88
505.557	81.88
505.773	69.88
505.99	92.88
506.207	97.88
506.423	91.88
506.64	90.88
506.856	88.88
507.073	94.88
507.289	100.88
507.506	85.88
507.722	100.88
507.939	98.88
508.155	101.88
508.372	91.88
508.588	88.88
508.805	100.88
509.021	90.88
509.238	90.88
509.454	91.88
509.67	102.88
509.887	105.88
510.103	113.88
510.319	178.88
510.536	620.88
510.752	1934.88
510.968	542.88
511.184	139.88
511.401	97.88
511.617	92.88
511.833	77.88
512.049	100.88
512.265	99.88
512.481	73.88
512.698	88.88
512.914	82.88
513.13	97.88
513.346	95.88
513.562	94.88
513.778	89.88
513.994	98.88
514.21	91.88
514.426	106.88
514.642	114.88
514.858	126.88
515.074	146.88
515.29	359.88
515.506	1139.88
515.721	438.88
515.937	133.88
516.153	110.88
516.369	104.88
