Data from Circ_1983_H10_HRD10591_00075.txt Node
Date: Wed Jan 03 12:26:59 EST 2024
User: Yrep
Spectrometer: HR+D1059
Trigger mode: 1
Integration Time (sec): 1.000000E-1
Scans to average: 1
Electric dark correction enabled: true
Nonlinearity correction enabled: false
Boxcar width: 0
XAxis mode: Wavelengths
Number of Pixels in Spectrum: 2048
>>>>>Begin Spectral Data<<<<<
223.165	-18.44
223.4	-18.44
223.635	-18.44
223.869	-15.44
224.104	-30.44
224.338	-19.44
224.573	-18.44
224.808	-11.44
225.042	0.56
225.277	7.56
225.511	4.56
225.746	1.56
225.98	-0.44
226.215	11.56
226.449	3.56
226.683	16.56
226.918	27.56
227.152	40.56
227.387	29.56
227.621	45.56
227.856	32.56
228.09	39.56
228.324	46.56
228.559	54.56
228.793	62.56
229.027	68.56
229.262	59.56
229.496	72.56
229.73	74.56
229.964	94.56
230.199	81.56
230.433	75.56
230.667	66.56
230.901	63.56
231.136	71.56
231.37	61.56
231.604	66.56
231.838	89.56
232.072	64.56
232.306	77.56
232.541	84.56
232.775	63.56
233.009	79.56
233.243	76.56
233.477	72.56
233.711	64.56
233.945	74.56
234.179	76.56
234.413	79.56
234.647	68.56
234.881	80.56
235.115	76.56
235.349	88.56
235.583	80.56
235.817	72.56
236.051	80.56
236.285	80.56
236.519	78.56
236.753	79.56
236.987	68.56
237.221	74.56
237.455	86.56
237.689	83.56
237.922	85.56
238.156	78.56
238.39	74.56
238.624	61.56
238.858	65.56
239.091	61.56
239.325	65.56
239.559	85.56
239.793	76.56
240.027	68.56
240.26	74.56
240.494	77.56
240.728	75.56
240.961	86.56
241.195	67.56
241.429	69.56
241.662	69.56
241.896	66.56
242.13	65.56
242.363	80.56
242.597	64.56
242.83	76.56
243.064	70.56
243.298	66.56
243.531	76.56
243.765	85.56
243.998	77.56
244.232	69.56
244.465	75.56
244.699	62.56
244.932	80.56
245.166	82.56
245.399	78.56
245.633	89.56
245.866	66.56
246.099	86.56
246.333	74.56
246.566	74.56
246.8	80.56
247.033	64.56
247.266	78.56
247.5	82.56
247.733	71.56
247.966	80.56
248.2	85.56
248.433	82.56
248.666	82.56
248.899	69.56
249.133	76.56
249.366	96.56
249.599	99.56
249.832	88.56
250.066	94.56
250.299	76.56
250.532	65.56
250.765	78.56
250.998	65.56
251.231	76.56
251.465	80.56
251.698	74.56
251.931	71.56
252.164	83.56
252.397	82.56
252.63	88.56
252.863	80.56
253.096	80.56
253.329	68.56
253.562	85.56
253.795	80.56
254.028	81.56
254.261	69.56
254.494	87.56
254.727	80.56
254.96	83.56
255.193	81.56
255.426	77.56
255.659	87.56
255.892	95.56
256.124	84.56
256.357	65.56
256.59	94.56
256.823	64.56
257.056	80.56
257.289	82.56
257.521	72.56
257.754	82.56
257.987	81.56
258.22	89.56
258.452	77.56
258.685	82.56
258.918	82.56
259.151	77.56
259.383	79.56
259.616	81.56
259.849	73.56
260.081	80.56
260.314	88.56
260.547	92.56
260.779	81.56
261.012	61.56
261.244	82.56
261.477	82.56
261.71	76.56
261.942	100.56
262.175	100.56
262.407	82.56
262.64	82.56
262.872	68.56
263.105	82.56
263.337	74.56
263.57	81.56
263.802	92.56
264.035	91.56
264.267	82.56
264.499	65.56
264.732	84.56
264.964	81.56
265.197	83.56
265.429	83.56
265.661	86.56
265.894	86.56
266.126	80.56
266.358	65.56
266.591	64.56
266.823	71.56
267.055	74.56
267.287	82.56
267.52	94.56
267.752	78.56
267.984	86.56
268.216	89.56
268.448	89.56
268.681	84.56
268.913	81.56
269.145	83.56
269.377	69.56
269.609	76.56
269.841	82.56
270.073	88.56
270.306	69.56
270.538	85.56
270.77	101.56
271.002	73.56
271.234	91.56
271.466	94.56
271.698	76.56
271.93	90.56
272.162	90.56
272.394	77.56
272.626	73.56
272.858	72.56
273.09	78.56
273.322	78.56
273.553	74.56
273.785	80.56
274.017	82.56
274.249	91.56
274.481	78.56
274.713	78.56
274.945	98.56
275.176	83.56
275.408	90.56
275.64	92.56
275.872	85.56
276.104	88.56
276.335	90.56
276.567	96.56
276.799	87.56
277.031	87.56
277.262	90.56
277.494	79.56
277.726	96.56
277.957	67.56
278.189	79.56
278.421	85.56
278.652	82.56
278.884	81.56
279.115	80.56
279.347	90.56
279.579	72.56
279.81	96.56
280.042	79.56
280.273	99.56
280.505	92.56
280.736	80.56
280.968	96.56
281.199	71.56
281.431	84.56
281.662	70.56
281.894	81.56
282.125	82.56
282.356	123.56
282.588	141.56
282.819	103.56
283.051	70.56
283.282	84.56
283.513	80.56
283.745	88.56
283.976	76.56
284.207	78.56
284.439	84.56
284.67	82.56
284.901	82.56
285.132	90.56
285.364	90.56
285.595	85.56
285.826	85.56
286.057	95.56
286.288	76.56
286.52	84.56
286.751	94.56
286.982	79.56
287.213	78.56
287.444	100.56
287.675	88.56
287.906	87.56
288.138	82.56
288.369	91.56
288.6	82.56
288.831	99.56
289.062	97.56
289.293	85.56
289.524	86.56
289.755	70.56
289.986	91.56
290.217	99.56
290.448	87.56
290.679	86.56
290.91	101.56
291.141	83.56
291.371	72.56
291.602	85.56
291.833	74.56
292.064	88.56
292.295	82.56
292.526	87.56
292.757	68.56
292.987	90.56
293.218	85.56
293.449	84.56
293.68	79.56
293.91	89.56
294.141	81.56
294.372	76.56
294.603	82.56
294.833	92.56
295.064	81.56
295.295	80.56
295.525	68.56
295.756	76.56
295.987	94.56
296.217	126.56
296.448	108.56
296.679	94.56
296.909	86.56
297.14	89.56
297.37	91.56
297.601	86.56
297.831	98.56
298.062	98.56
298.292	95.56
298.523	95.56
298.753	97.56
298.984	82.56
299.214	83.56
299.445	87.56
299.675	94.56
299.905	94.56
300.136	94.56
300.366	79.56
300.597	87.56
300.827	81.56
301.057	96.56
301.288	93.56
301.518	91.56
301.748	80.56
301.979	102.56
302.209	96.56
302.439	82.56
302.669	102.56
302.9	79.56
303.13	82.56
303.36	100.56
303.59	103.56
303.82	101.56
304.051	92.56
304.281	90.56
304.511	98.56
304.741	108.56
304.971	95.56
305.201	80.56
305.431	86.56
305.661	93.56
305.891	77.56
306.121	95.56
306.352	96.56
306.582	100.56
306.812	84.56
307.042	98.56
307.272	96.56
307.502	104.56
307.731	105.56
307.961	98.56
308.191	97.56
308.421	102.56
308.651	85.56
308.881	96.56
309.111	97.56
309.341	82.56
309.571	99.56
309.8	107.56
310.03	87.56
310.26	94.56
310.49	82.56
310.72	103.56
310.949	89.56
311.179	97.56
311.409	86.56
311.639	101.56
311.868	98.56
312.098	109.56
312.328	90.56
312.557	112.56
312.787	93.56
313.017	103.56
313.246	89.56
313.476	96.56
313.706	78.56
313.935	95.56
314.165	90.56
314.394	76.56
314.624	95.56
314.853	85.56
315.083	96.56
315.312	84.56
315.542	89.56
315.771	80.56
316.001	60.56
316.23	95.56
316.46	93.56
316.689	70.56
316.919	84.56
317.148	92.56
317.377	81.56
317.607	96.56
317.836	80.56
318.065	89.56
318.295	88.56
318.524	96.56
318.753	86.56
318.983	88.56
319.212	81.56
319.441	112.56
319.67	100.56
319.9	73.56
320.129	98.56
320.358	96.56
320.587	100.56
320.816	91.56
321.046	101.56
321.275	88.56
321.504	98.56
321.733	100.56
321.962	89.56
322.191	90.56
322.42	80.56
322.649	92.56
322.878	93.56
323.108	111.56
323.337	105.56
323.566	112.56
323.795	130.56
324.024	181.56
324.253	308.56
324.482	642.56
324.71	1323.56
324.939	1686.56
325.168	642.56
325.397	212.56
325.626	140.56
325.855	114.56
326.084	118.56
326.313	130.56
326.542	130.56
326.77	192.56
326.999	354.56
327.228	717.56
327.457	1278.56
327.686	1041.56
327.914	304.56
328.143	195.56
328.372	185.56
328.6	130.56
328.829	113.56
329.058	120.56
329.287	114.56
329.515	126.56
329.744	111.56
329.972	149.56
330.201	210.56
330.43	241.56
330.658	170.56
330.887	126.56
331.115	111.56
331.344	90.56
331.572	96.56
331.801	96.56
332.03	92.56
332.258	85.56
332.486	84.56
332.715	89.56
332.943	80.56
333.172	88.56
333.4	99.56
333.629	115.56
333.857	108.56
334.085	123.56
334.314	195.56
334.542	294.56
334.771	275.56
334.999	142.56
335.227	102.56
335.455	95.56
335.684	92.56
335.912	90.56
336.14	103.56
336.369	96.56
336.597	96.56
336.825	93.56
337.053	80.56
337.281	90.56
337.51	85.56
337.738	88.56
337.966	90.56
338.194	94.56
338.422	94.56
338.65	91.56
338.878	85.56
339.106	88.56
339.334	90.56
339.562	93.56
339.79	90.56
340.018	84.56
340.246	83.56
340.474	96.56
340.702	97.56
340.93	90.56
341.158	91.56
341.386	88.56
341.614	90.56
341.842	92.56
342.07	89.56
342.298	84.56
342.526	101.56
342.754	84.56
342.981	85.56
343.209	86.56
343.437	89.56
343.665	88.56
343.893	82.56
344.12	82.56
344.348	92.56
344.576	91.56
344.804	83.56
345.031	99.56
345.259	96.56
345.487	93.56
345.714	97.56
345.942	94.56
346.17	87.56
346.397	87.56
346.625	94.56
346.853	80.56
347.08	82.56
347.308	96.56
347.535	104.56
347.763	96.56
347.99	83.56
348.218	89.56
348.445	98.56
348.673	106.56
348.9	96.56
349.128	97.56
349.355	88.56
349.583	96.56
349.81	84.56
350.037	81.56
350.265	95.56
350.492	98.56
350.72	86.56
350.947	89.56
351.174	103.56
351.402	100.56
351.629	88.56
351.856	99.56
352.083	99.56
352.311	94.56
352.538	88.56
352.765	108.56
352.992	95.56
353.22	117.56
353.447	102.56
353.674	96.56
353.901	100.56
354.128	88.56
354.355	99.56
354.583	97.56
354.81	102.56
355.037	92.56
355.264	94.56
355.491	106.56
355.718	92.56
355.945	103.56
356.172	101.56
356.399	81.56
356.626	84.56
356.853	87.56
357.08	84.56
357.307	91.56
357.534	89.56
357.761	101.56
357.988	69.56
358.215	94.56
358.441	76.56
358.668	76.56
358.895	89.56
359.122	86.56
359.349	84.56
359.576	78.56
359.802	89.56
360.029	111.56
360.256	108.56
360.483	106.56
360.709	81.56
360.936	86.56
361.163	100.56
361.39	72.56
361.616	85.56
361.843	89.56
362.07	77.56
362.296	85.56
362.523	97.56
362.749	87.56
362.976	81.56
363.203	85.56
363.429	76.56
363.656	101.56
363.882	86.56
364.109	84.56
364.335	89.56
364.562	77.56
364.788	81.56
365.015	87.56
365.241	88.56
365.468	109.56
365.694	94.56
365.92	89.56
366.147	76.56
366.373	67.56
366.599	88.56
366.826	86.56
367.052	90.56
367.278	86.56
367.505	77.56
367.731	70.56
367.957	80.56
368.184	89.56
368.41	96.56
368.636	102.56
368.862	117.56
369.089	111.56
369.315	90.56
369.541	86.56
369.767	100.56
369.993	89.56
370.219	90.56
370.445	70.56
370.672	75.56
370.898	96.56
371.124	85.56
371.35	80.56
371.576	89.56
371.802	82.56
372.028	88.56
372.254	86.56
372.48	85.56
372.706	81.56
372.932	89.56
373.158	90.56
373.384	98.56
373.61	91.56
373.835	94.56
374.061	78.56
374.287	80.56
374.513	93.56
374.739	79.56
374.965	89.56
375.191	86.56
375.416	89.56
375.642	89.56
375.868	88.56
376.094	89.56
376.319	91.56
376.545	83.56
376.771	92.56
376.997	99.56
377.222	89.56
377.448	91.56
377.674	83.56
377.899	86.56
378.125	91.56
378.35	86.56
378.576	81.56
378.802	91.56
379.027	85.56
379.253	81.56
379.478	96.56
379.704	90.56
379.929	76.56
380.155	100.56
380.38	90.56
380.606	96.56
380.831	92.56
381.057	101.56
381.282	84.56
381.507	85.56
381.733	103.56
381.958	88.56
382.184	81.56
382.409	94.56
382.634	97.56
382.86	99.56
383.085	94.56
383.31	93.56
383.535	99.56
383.761	103.56
383.986	103.56
384.211	98.56
384.436	90.56
384.662	106.56
384.887	95.56
385.112	104.56
385.337	97.56
385.562	92.56
385.787	101.56
386.013	86.56
386.238	111.56
386.463	97.56
386.688	99.56
386.913	97.56
387.138	96.56
387.363	101.56
387.588	95.56
387.813	103.56
388.038	102.56
388.263	97.56
388.488	108.56
388.713	87.56
388.938	96.56
389.163	99.56
389.387	86.56
389.612	97.56
389.837	79.56
390.062	89.56
390.287	81.56
390.512	82.56
390.736	93.56
390.961	81.56
391.186	91.56
391.411	94.56
391.636	98.56
391.86	92.56
392.085	80.56
392.31	89.56
392.534	92.56
392.759	84.56
392.984	92.56
393.208	78.56
393.433	97.56
393.658	91.56
393.882	73.56
394.107	86.56
394.331	77.56
394.556	92.56
394.78	86.56
395.005	84.56
395.229	98.56
395.454	77.56
395.678	75.56
395.903	87.56
396.127	96.56
396.352	86.56
396.576	88.56
396.801	90.56
397.025	89.56
397.249	92.56
397.474	86.56
397.698	92.56
397.922	84.56
398.147	73.56
398.371	84.56
398.595	88.56
398.82	82.56
399.044	85.56
399.268	82.56
399.492	92.56
399.717	76.56
399.941	90.56
400.165	89.56
400.389	89.56
400.613	72.56
400.837	88.56
401.062	80.56
401.286	90.56
401.51	85.56
401.734	86.56
401.958	85.56
402.182	116.56
402.406	135.56
402.63	105.56
402.854	79.56
403.078	82.56
403.302	101.56
403.526	81.56
403.75	79.56
403.974	81.56
404.198	82.56
404.422	84.56
404.645	71.56
404.869	85.56
405.093	93.56
405.317	99.56
405.541	106.56
405.765	85.56
405.988	106.56
406.212	132.56
406.436	194.56
406.66	132.56
406.883	92.56
407.107	97.56
407.331	95.56
407.555	117.56
407.778	98.56
408.002	78.56
408.226	87.56
408.449	80.56
408.673	79.56
408.896	97.56
409.12	100.56
409.344	78.56
409.567	83.56
409.791	92.56
410.014	87.56
410.238	83.56
410.461	97.56
410.685	82.56
410.908	89.56
411.132	106.56
411.355	84.56
411.578	86.56
411.802	88.56
412.025	78.56
412.249	82.56
412.472	88.56
412.695	83.56
412.919	90.56
413.142	96.56
413.365	84.56
413.589	86.56
413.812	80.56
414.035	89.56
414.258	91.56
414.482	100.56
414.705	82.56
414.928	80.56
415.151	100.56
415.374	85.56
415.597	93.56
415.821	79.56
416.044	77.56
416.267	91.56
416.49	81.56
416.713	80.56
416.936	80.56
417.159	95.56
417.382	80.56
417.605	82.56
417.828	94.56
418.051	95.56
418.274	90.56
418.497	116.56
418.72	81.56
418.943	82.56
419.166	93.56
419.389	79.56
419.611	84.56
419.834	83.56
420.057	91.56
420.28	70.56
420.503	89.56
420.726	95.56
420.948	90.56
421.171	86.56
421.394	87.56
421.617	105.56
421.839	98.56
422.062	85.56
422.285	92.56
422.507	96.56
422.73	91.56
422.953	89.56
423.175	80.56
423.398	90.56
423.621	96.56
423.843	86.56
424.066	88.56
424.288	81.56
424.511	96.56
424.733	80.56
424.956	103.56
425.178	91.56
425.401	95.56
425.623	94.56
425.846	77.56
426.068	81.56
426.291	93.56
426.513	96.56
426.735	65.56
426.958	93.56
427.18	100.56
427.402	115.56
427.625	146.56
427.847	133.56
428.069	105.56
428.292	100.56
428.514	94.56
428.736	73.56
428.958	83.56
429.181	76.56
429.403	80.56
429.625	73.56
429.847	79.56
430.069	95.56
430.292	102.56
430.514	86.56
430.736	72.56
430.958	89.56
431.18	86.56
431.402	85.56
431.624	92.56
431.846	88.56
432.068	93.56
432.29	87.56
432.512	96.56
432.734	104.56
432.956	85.56
433.178	92.56
433.4	100.56
433.622	104.56
433.844	86.56
434.066	89.56
434.287	75.56
434.509	76.56
434.731	83.56
434.953	84.56
435.175	77.56
435.397	78.56
435.618	85.56
435.84	84.56
436.062	110.56
436.284	101.56
436.505	98.56
436.727	82.56
436.949	96.56
437.17	87.56
437.392	84.56
437.614	90.56
437.835	106.56
438.057	96.56
438.278	81.56
438.5	86.56
438.721	110.56
438.943	95.56
439.165	93.56
439.386	92.56
439.608	99.56
439.829	94.56
440.05	105.56
440.272	127.56
440.493	94.56
440.715	87.56
440.936	85.56
441.158	96.56
441.379	90.56
441.6	96.56
441.822	97.56
442.043	79.56
442.264	82.56
442.486	92.56
442.707	96.56
442.928	99.56
443.149	104.56
443.371	111.56
443.592	88.56
443.813	109.56
444.034	87.56
444.255	94.56
444.476	92.56
444.698	83.56
444.919	79.56
445.14	131.56
445.361	115.56
445.582	95.56
445.803	123.56
446.024	112.56
446.245	128.56
446.466	90.56
446.687	97.56
446.908	81.56
447.129	85.56
447.35	74.56
447.571	82.56
447.792	82.56
448.013	100.56
448.234	98.56
448.455	80.56
448.675	108.56
448.896	109.56
449.117	88.56
449.338	104.56
449.559	110.56
449.779	127.56
450	87.56
450.221	76.56
450.442	87.56
450.662	89.56
450.883	92.56
451.104	98.56
451.324	91.56
451.545	84.56
451.766	76.56
451.986	69.56
452.207	82.56
452.428	103.56
452.648	108.56
452.869	94.56
453.089	101.56
453.31	101.56
453.53	71.56
453.751	80.56
453.971	97.56
454.192	97.56
454.412	83.56
454.633	75.56
454.853	85.56
455.073	84.56
455.294	85.56
455.514	87.56
455.734	88.56
455.955	84.56
456.175	96.56
456.395	82.56
456.616	78.56
456.836	77.56
457.056	86.56
457.276	93.56
457.497	78.56
457.717	81.56
457.937	73.56
458.157	82.56
458.377	84.56
458.598	96.56
458.818	129.56
459.038	140.56
459.258	104.56
459.478	94.56
459.698	77.56
459.918	78.56
460.138	88.56
460.358	76.56
460.578	76.56
460.798	73.56
461.018	92.56
461.238	86.56
461.458	79.56
461.678	73.56
461.898	97.56
462.118	76.56
462.338	84.56
462.558	78.56
462.777	77.56
462.997	88.56
463.217	90.56
463.437	75.56
463.657	88.56
463.876	106.56
464.096	91.56
464.316	93.56
464.536	89.56
464.755	86.56
464.975	101.56
465.195	135.56
465.414	136.56
465.634	80.56
465.854	79.56
466.073	99.56
466.293	69.56
466.512	83.56
466.732	87.56
466.951	85.56
467.171	94.56
467.391	103.56
467.61	103.56
467.829	114.56
468.049	143.56
468.268	162.56
468.488	91.56
468.707	81.56
468.927	77.56
469.146	80.56
469.365	78.56
469.585	94.56
469.804	89.56
470.023	85.56
470.243	91.56
470.462	80.56
470.681	92.56
470.901	73.56
471.12	100.56
471.339	96.56
471.558	92.56
471.777	94.56
471.997	118.56
472.216	212.56
472.435	390.56
472.654	138.56
472.873	100.56
473.092	84.56
473.311	110.56
473.53	88.56
473.749	87.56
473.968	90.56
474.187	86.56
474.406	85.56
474.625	66.56
474.844	82.56
475.063	77.56
475.282	80.56
475.501	66.56
475.72	84.56
475.939	81.56
476.158	77.56
476.377	80.56
476.596	94.56
476.814	81.56
477.033	107.56
477.252	96.56
477.471	90.56
477.69	85.56
477.908	77.56
478.127	93.56
478.346	79.56
478.564	85.56
478.783	88.56
479.002	98.56
479.22	97.56
479.439	87.56
479.658	86.56
479.876	96.56
480.095	94.56
480.313	84.56
480.532	106.56
480.751	120.56
480.969	233.56
481.188	668.56
481.406	404.56
481.624	103.56
481.843	92.56
482.061	71.56
482.28	77.56
482.498	103.56
482.717	95.56
482.935	90.56
483.153	88.56
483.372	76.56
483.59	74.56
483.808	84.56
484.027	94.56
484.245	85.56
484.463	98.56
484.681	76.56
484.9	87.56
485.118	101.56
485.336	80.56
485.554	97.56
485.772	85.56
485.99	92.56
486.209	99.56
486.427	83.56
486.645	99.56
486.863	110.56
487.081	85.56
487.299	89.56
487.517	88.56
487.735	78.56
487.953	80.56
488.171	98.56
488.389	95.56
488.607	86.56
488.825	90.56
489.043	87.56
489.261	77.56
489.479	79.56
489.696	79.56
489.914	85.56
490.132	77.56
490.35	84.56
490.568	80.56
490.786	91.56
491.003	81.56
491.221	92.56
491.439	87.56
491.657	86.56
491.874	93.56
492.092	77.56
492.31	91.56
492.527	88.56
492.745	83.56
492.963	100.56
493.18	99.56
493.398	83.56
493.615	92.56
493.833	70.56
494.05	87.56
494.268	89.56
494.485	98.56
494.703	88.56
494.92	88.56
495.138	80.56
495.355	92.56
495.573	90.56
495.79	73.56
496.008	90.56
496.225	89.56
496.442	97.56
496.66	72.56
496.877	89.56
497.094	83.56
497.312	84.56
497.529	97.56
497.746	88.56
497.963	78.56
498.181	98.56
498.398	88.56
498.615	100.56
498.832	99.56
499.049	94.56
499.267	87.56
499.484	88.56
499.701	87.56
499.918	89.56
500.135	88.56
500.352	96.56
500.569	65.56
500.786	91.56
501.003	87.56
501.22	82.56
501.437	95.56
501.654	89.56
501.871	105.56
502.088	74.56
502.305	105.56
502.522	97.56
502.739	99.56
502.956	90.56
503.172	82.56
503.389	78.56
503.606	86.56
503.823	88.56
504.04	98.56
504.256	89.56
504.473	72.56
504.69	87.56
504.907	93.56
505.123	89.56
505.34	82.56
505.557	87.56
505.773	93.56
505.99	79.56
506.207	97.56
506.423	79.56
506.64	94.56
506.856	102.56
507.073	101.56
507.289	88.56
507.506	99.56
507.722	122.56
507.939	103.56
508.155	88.56
508.372	81.56
508.588	85.56
508.805	88.56
509.021	90.56
509.238	98.56
509.454	96.56
509.67	96.56
509.887	105.56
510.103	119.56
510.319	185.56
510.536	620.56
510.752	1906.56
510.968	540.56
511.184	125.56
511.401	105.56
511.617	94.56
511.833	102.56
512.049	87.56
512.265	89.56
512.481	100.56
512.698	81.56
512.914	91.56
513.13	89.56
513.346	84.56
513.562	84.56
513.778	86.56
513.994	90.56
514.21	92.56
514.426	106.56
514.642	114.56
514.858	120.56
515.074	130.56
515.29	367.56
515.506	1124.56
515.721	423.56
515.937	118.56
516.153	105.56
516.369	75.56
516.585	99.56
516.801	92.56
517.016	90.56
