Data from Circ_1983_H10_HRD10591_00100.txt Node
Date: Wed Jan 03 12:27:04 EST 2024
User: Yrep
Spectrometer: HR+D1059
Trigger mode: 1
Integration Time (sec): 1.000000E-1
Scans to average: 1
Electric dark correction enabled: true
Nonlinearity correction enabled: false
Boxcar width: 0
XAxis mode: Wavelengths
Number of Pixels in Spectrum: 2048
>>>>>Begin Spectral Data<<<<<
223.165	-7.25
223.4	-7.25
223.635	-7.25
223.869	-29.25
224.104	-28.25
224.338	-16.25
224.573	-14.25
224.808	3.75
225.042	-1.25
225.277	-9.25
225.511	-6.25
225.746	-1.25
225.98	17.75
226.215	13.75
226.449	-0.25
226.683	28.75
226.918	24.75
227.152	24.75
227.387	19.75
227.621	29.75
227.856	38.75
228.09	60.75
228.324	46.75
228.559	58.75
228.793	67.75
229.027	65.75
229.262	69.75
229.496	69.75
229.73	65.75
229.964	85.75
230.199	77.75
230.433	78.75
230.667	75.75
230.901	89.75
231.136	94.75
231.37	81.75
231.604	78.75
231.838	79.75
232.072	65.75
232.306	77.75
232.541	71.75
232.775	72.75
233.009	78.75
233.243	72.75
233.477	87.75
233.711	75.75
233.945	92.75
234.179	68.75
234.413	81.75
234.647	85.75
234.881	72.75
235.115	77.75
235.349	80.75
235.583	80.75
235.817	86.75
236.051	84.75
236.285	71.75
236.519	77.75
236.753	84.75
236.987	76.75
237.221	70.75
237.455	87.75
237.689	76.75
237.922	83.75
238.156	69.75
238.39	83.75
238.624	71.75
238.858	76.75
239.091	69.75
239.325	77.75
239.559	82.75
239.793	73.75
240.027	83.75
240.26	79.75
240.494	84.75
240.728	63.75
240.961	78.75
241.195	84.75
241.429	81.75
241.662	85.75
241.896	78.75
242.13	90.75
242.363	78.75
242.597	75.75
242.83	61.75
243.064	85.75
243.298	81.75
243.531	70.75
243.765	67.75
243.998	77.75
244.232	83.75
244.465	87.75
244.699	75.75
244.932	73.75
245.166	72.75
245.399	89.75
245.633	69.75
245.866	86.75
246.099	68.75
246.333	73.75
246.566	76.75
246.8	65.75
247.033	86.75
247.266	72.75
247.5	89.75
247.733	68.75
247.966	68.75
248.2	76.75
248.433	94.75
248.666	74.75
248.899	80.75
249.133	95.75
249.366	95.75
249.599	99.75
249.832	93.75
250.066	87.75
250.299	81.75
250.532	88.75
250.765	85.75
250.998	86.75
251.231	73.75
251.465	68.75
251.698	71.75
251.931	81.75
252.164	77.75
252.397	81.75
252.63	82.75
252.863	81.75
253.096	66.75
253.329	82.75
253.562	86.75
253.795	85.75
254.028	79.75
254.261	74.75
254.494	80.75
254.727	76.75
254.96	77.75
255.193	74.75
255.426	70.75
255.659	105.75
255.892	81.75
256.124	84.75
256.357	70.75
256.59	100.75
256.823	78.75
257.056	85.75
257.289	81.75
257.521	96.75
257.754	91.75
257.987	75.75
258.22	73.75
258.452	86.75
258.685	90.75
258.918	82.75
259.151	85.75
259.383	92.75
259.616	74.75
259.849	87.75
260.081	100.75
260.314	83.75
260.547	91.75
260.779	84.75
261.012	85.75
261.244	100.75
261.477	87.75
261.71	89.75
261.942	103.75
262.175	100.75
262.407	95.75
262.64	75.75
262.872	74.75
263.105	69.75
263.337	84.75
263.57	83.75
263.802	83.75
264.035	104.75
264.267	77.75
264.499	90.75
264.732	84.75
264.964	92.75
265.197	94.75
265.429	75.75
265.661	80.75
265.894	71.75
266.126	86.75
266.358	89.75
266.591	83.75
266.823	97.75
267.055	88.75
267.287	85.75
267.52	87.75
267.752	82.75
267.984	69.75
268.216	96.75
268.448	99.75
268.681	83.75
268.913	87.75
269.145	85.75
269.377	67.75
269.609	81.75
269.841	89.75
270.073	97.75
270.306	78.75
270.538	83.75
270.77	90.75
271.002	84.75
271.234	84.75
271.466	75.75
271.698	85.75
271.93	88.75
272.162	91.75
272.394	96.75
272.626	76.75
272.858	85.75
273.09	97.75
273.322	97.75
273.553	77.75
273.785	91.75
274.017	81.75
274.249	73.75
274.481	80.75
274.713	85.75
274.945	86.75
275.176	91.75
275.408	97.75
275.64	84.75
275.872	87.75
276.104	94.75
276.335	83.75
276.567	93.75
276.799	99.75
277.031	102.75
277.262	97.75
277.494	102.75
277.726	93.75
277.957	96.75
278.189	91.75
278.421	83.75
278.652	85.75
278.884	80.75
279.115	92.75
279.347	86.75
279.579	97.75
279.81	99.75
280.042	100.75
280.273	105.75
280.505	88.75
280.736	94.75
280.968	92.75
281.199	103.75
281.431	90.75
281.662	100.75
281.894	101.75
282.125	101.75
282.356	114.75
282.588	141.75
282.819	119.75
283.051	95.75
283.282	77.75
283.513	85.75
283.745	82.75
283.976	74.75
284.207	86.75
284.439	73.75
284.67	100.75
284.901	86.75
285.132	87.75
285.364	84.75
285.595	85.75
285.826	87.75
286.057	81.75
286.288	84.75
286.52	93.75
286.751	85.75
286.982	92.75
287.213	78.75
287.444	94.75
287.675	103.75
287.906	87.75
288.138	90.75
288.369	94.75
288.6	104.75
288.831	93.75
289.062	92.75
289.293	85.75
289.524	89.75
289.755	92.75
289.986	98.75
290.217	83.75
290.448	95.75
290.679	93.75
290.91	87.75
291.141	79.75
291.371	93.75
291.602	88.75
291.833	100.75
292.064	104.75
292.295	89.75
292.526	87.75
292.757	83.75
292.987	91.75
293.218	88.75
293.449	83.75
293.68	85.75
293.91	92.75
294.141	89.75
294.372	97.75
294.603	88.75
294.833	92.75
295.064	81.75
295.295	103.75
295.525	98.75
295.756	90.75
295.987	105.75
296.217	137.75
296.448	105.75
296.679	100.75
296.909	96.75
297.14	98.75
297.37	81.75
297.601	90.75
297.831	96.75
298.062	92.75
298.292	99.75
298.523	93.75
298.753	76.75
298.984	83.75
299.214	87.75
299.445	89.75
299.675	81.75
299.905	101.75
300.136	85.75
300.366	91.75
300.597	74.75
300.827	88.75
301.057	109.75
301.288	90.75
301.518	81.75
301.748	89.75
301.979	101.75
302.209	83.75
302.439	90.75
302.669	92.75
302.9	108.75
303.13	91.75
303.36	100.75
303.59	108.75
303.82	84.75
304.051	91.75
304.281	75.75
304.511	101.75
304.741	86.75
304.971	98.75
305.201	99.75
305.431	104.75
305.661	75.75
305.891	78.75
306.121	90.75
306.352	98.75
306.582	103.75
306.812	101.75
307.042	89.75
307.272	87.75
307.502	95.75
307.731	121.75
307.961	93.75
308.191	90.75
308.421	86.75
308.651	98.75
308.881	85.75
309.111	106.75
309.341	98.75
309.571	93.75
309.8	99.75
310.03	99.75
310.26	103.75
310.49	92.75
310.72	87.75
310.949	98.75
311.179	101.75
311.409	101.75
311.639	105.75
311.868	94.75
312.098	95.75
312.328	100.75
312.557	99.75
312.787	101.75
313.017	91.75
313.246	103.75
313.476	87.75
313.706	112.75
313.935	93.75
314.165	85.75
314.394	99.75
314.624	94.75
314.853	111.75
315.083	95.75
315.312	97.75
315.542	89.75
315.771	100.75
316.001	95.75
316.23	102.75
316.46	90.75
316.689	97.75
316.919	94.75
317.148	101.75
317.377	95.75
317.607	102.75
317.836	85.75
318.065	99.75
318.295	87.75
318.524	91.75
318.753	94.75
318.983	104.75
319.212	98.75
319.441	102.75
319.67	95.75
319.9	89.75
320.129	85.75
320.358	88.75
320.587	94.75
320.816	95.75
321.046	93.75
321.275	95.75
321.504	92.75
321.733	97.75
321.962	107.75
322.191	101.75
322.42	102.75
322.649	102.75
322.878	111.75
323.108	109.75
323.337	105.75
323.566	122.75
323.795	147.75
324.024	172.75
324.253	321.75
324.482	613.75
324.71	1248.75
324.939	1652.75
325.168	611.75
325.397	202.75
325.626	125.75
325.855	115.75
326.084	117.75
326.313	118.75
326.542	138.75
326.77	202.75
326.999	350.75
327.228	706.75
327.457	1255.75
327.686	1005.75
327.914	302.75
328.143	188.75
328.372	187.75
328.6	143.75
328.829	111.75
329.058	131.75
329.287	128.75
329.515	110.75
329.744	124.75
329.972	140.75
330.201	224.75
330.43	254.75
330.658	183.75
330.887	139.75
331.115	110.75
331.344	117.75
331.572	101.75
331.801	109.75
332.03	102.75
332.258	93.75
332.486	92.75
332.715	93.75
332.943	104.75
333.172	99.75
333.4	96.75
333.629	114.75
333.857	121.75
334.085	157.75
334.314	207.75
334.542	332.75
334.771	318.75
334.999	137.75
335.227	94.75
335.455	97.75
335.684	105.75
335.912	101.75
336.14	108.75
336.369	101.75
336.597	87.75
336.825	93.75
337.053	95.75
337.281	98.75
337.51	87.75
337.738	92.75
337.966	92.75
338.194	101.75
338.422	103.75
338.65	95.75
338.878	90.75
339.106	101.75
339.334	89.75
339.562	103.75
339.79	86.75
340.018	95.75
340.246	92.75
340.474	94.75
340.702	103.75
340.93	94.75
341.158	93.75
341.386	102.75
341.614	97.75
341.842	96.75
342.07	87.75
342.298	96.75
342.526	92.75
342.754	79.75
342.981	87.75
343.209	95.75
343.437	107.75
343.665	90.75
343.893	77.75
344.12	88.75
344.348	86.75
344.576	74.75
344.804	79.75
345.031	101.75
345.259	99.75
345.487	89.75
345.714	98.75
345.942	102.75
346.17	97.75
346.397	82.75
346.625	76.75
346.853	95.75
347.08	94.75
347.308	93.75
347.535	86.75
347.763	112.75
347.99	98.75
348.218	97.75
348.445	105.75
348.673	90.75
348.9	89.75
349.128	85.75
349.355	92.75
349.583	93.75
349.81	82.75
350.037	98.75
350.265	114.75
350.492	90.75
350.72	92.75
350.947	98.75
351.174	97.75
351.402	102.75
351.629	106.75
351.856	106.75
352.083	100.75
352.311	95.75
352.538	89.75
352.765	98.75
352.992	103.75
353.22	99.75
353.447	108.75
353.674	91.75
353.901	104.75
354.128	105.75
354.355	85.75
354.583	98.75
354.81	92.75
355.037	94.75
355.264	102.75
355.491	76.75
355.718	93.75
355.945	108.75
356.172	99.75
356.399	88.75
356.626	103.75
356.853	80.75
357.08	109.75
357.307	95.75
357.534	102.75
357.761	105.75
357.988	97.75
358.215	98.75
358.441	89.75
358.668	107.75
358.895	94.75
359.122	83.75
359.349	96.75
359.576	92.75
359.802	99.75
360.029	102.75
360.256	110.75
360.483	90.75
360.709	97.75
360.936	81.75
361.163	92.75
361.39	110.75
361.616	105.75
361.843	93.75
362.07	101.75
362.296	90.75
362.523	91.75
362.749	84.75
362.976	87.75
363.203	76.75
363.429	85.75
363.656	98.75
363.882	91.75
364.109	91.75
364.335	88.75
364.562	86.75
364.788	93.75
365.015	89.75
365.241	104.75
365.468	103.75
365.694	113.75
365.92	93.75
366.147	96.75
366.373	82.75
366.599	78.75
366.826	73.75
367.052	95.75
367.278	97.75
367.505	85.75
367.731	93.75
367.957	95.75
368.184	86.75
368.41	82.75
368.636	104.75
368.862	107.75
369.089	108.75
369.315	92.75
369.541	83.75
369.767	77.75
369.993	81.75
370.219	100.75
370.445	86.75
370.672	84.75
370.898	82.75
371.124	77.75
371.35	81.75
371.576	97.75
371.802	97.75
372.028	84.75
372.254	97.75
372.48	94.75
372.706	97.75
372.932	85.75
373.158	91.75
373.384	96.75
373.61	94.75
373.835	93.75
374.061	91.75
374.287	89.75
374.513	90.75
374.739	84.75
374.965	101.75
375.191	75.75
375.416	95.75
375.642	97.75
375.868	87.75
376.094	90.75
376.319	94.75
376.545	93.75
376.771	81.75
376.997	85.75
377.222	97.75
377.448	98.75
377.674	85.75
377.899	102.75
378.125	97.75
378.35	92.75
378.576	88.75
378.802	99.75
379.027	86.75
379.253	91.75
379.478	101.75
379.704	86.75
379.929	93.75
380.155	91.75
380.38	84.75
380.606	89.75
380.831	94.75
381.057	95.75
381.282	110.75
381.507	100.75
381.733	97.75
381.958	92.75
382.184	104.75
382.409	91.75
382.634	103.75
382.86	101.75
383.085	83.75
383.31	99.75
383.535	98.75
383.761	100.75
383.986	86.75
384.211	92.75
384.436	97.75
384.662	98.75
384.887	107.75
385.112	90.75
385.337	96.75
385.562	108.75
385.787	91.75
386.013	104.75
386.238	108.75
386.463	110.75
386.688	121.75
386.913	95.75
387.138	98.75
387.363	107.75
387.588	97.75
387.813	97.75
388.038	98.75
388.263	118.75
388.488	109.75
388.713	95.75
388.938	90.75
389.163	87.75
389.387	96.75
389.612	97.75
389.837	89.75
390.062	97.75
390.287	91.75
390.512	97.75
390.736	91.75
390.961	93.75
391.186	88.75
391.411	91.75
391.636	97.75
391.86	93.75
392.085	90.75
392.31	98.75
392.534	87.75
392.759	80.75
392.984	80.75
393.208	98.75
393.433	90.75
393.658	86.75
393.882	73.75
394.107	90.75
394.331	101.75
394.556	81.75
394.78	93.75
395.005	86.75
395.229	85.75
395.454	72.75
395.678	91.75
395.903	107.75
396.127	79.75
396.352	91.75
396.576	87.75
396.801	92.75
397.025	91.75
397.249	92.75
397.474	106.75
397.698	115.75
397.922	96.75
398.147	82.75
398.371	79.75
398.595	97.75
398.82	94.75
399.044	90.75
399.268	86.75
399.492	72.75
399.717	99.75
399.941	91.75
400.165	86.75
400.389	86.75
400.613	76.75
400.837	105.75
401.062	93.75
401.286	97.75
401.51	95.75
401.734	87.75
401.958	98.75
402.182	130.75
402.406	127.75
402.63	108.75
402.854	94.75
403.078	88.75
403.302	87.75
403.526	105.75
403.75	77.75
403.974	86.75
404.198	86.75
404.422	86.75
404.645	88.75
404.869	96.75
405.093	97.75
405.317	100.75
405.541	98.75
405.765	94.75
405.988	109.75
406.212	162.75
406.436	181.75
406.66	123.75
406.883	97.75
407.107	87.75
407.331	97.75
407.555	90.75
407.778	110.75
408.002	73.75
408.226	97.75
408.449	80.75
408.673	90.75
408.896	81.75
409.12	87.75
409.344	97.75
409.567	92.75
409.791	98.75
410.014	105.75
410.238	75.75
410.461	98.75
410.685	75.75
410.908	93.75
411.132	90.75
411.355	109.75
411.578	103.75
411.802	80.75
412.025	90.75
412.249	84.75
412.472	103.75
412.695	108.75
412.919	93.75
413.142	92.75
413.365	85.75
413.589	93.75
413.812	94.75
414.035	91.75
414.258	94.75
414.482	104.75
414.705	95.75
414.928	87.75
415.151	93.75
415.374	91.75
415.597	93.75
415.821	97.75
416.044	87.75
416.267	90.75
416.49	91.75
416.713	93.75
416.936	85.75
417.159	84.75
417.382	99.75
417.605	96.75
417.828	116.75
418.051	92.75
418.274	72.75
418.497	91.75
418.72	88.75
418.943	89.75
419.166	88.75
419.389	94.75
419.611	99.75
419.834	97.75
420.057	69.75
420.28	89.75
420.503	89.75
420.726	90.75
420.948	83.75
421.171	81.75
421.394	97.75
421.617	99.75
421.839	88.75
422.062	76.75
422.285	88.75
422.507	95.75
422.73	85.75
422.953	81.75
423.175	90.75
423.398	99.75
423.621	97.75
423.843	88.75
424.066	93.75
424.288	98.75
424.511	101.75
424.733	93.75
424.956	104.75
425.178	97.75
425.401	85.75
425.623	101.75
425.846	85.75
426.068	89.75
426.291	95.75
426.513	100.75
426.735	99.75
426.958	99.75
427.18	92.75
427.402	116.75
427.625	145.75
427.847	130.75
428.069	109.75
428.292	100.75
428.514	99.75
428.736	95.75
428.958	78.75
429.181	101.75
429.403	104.75
429.625	95.75
429.847	90.75
430.069	104.75
430.292	81.75
430.514	92.75
430.736	88.75
430.958	92.75
431.18	91.75
431.402	94.75
431.624	98.75
431.846	101.75
432.068	87.75
432.29	77.75
432.512	91.75
432.734	94.75
432.956	96.75
433.178	93.75
433.4	100.75
433.622	93.75
433.844	85.75
434.066	97.75
434.287	99.75
434.509	96.75
434.731	110.75
434.953	91.75
435.175	78.75
435.397	97.75
435.618	89.75
435.84	99.75
436.062	98.75
436.284	101.75
436.505	89.75
436.727	102.75
436.949	89.75
437.17	92.75
437.392	88.75
437.614	93.75
437.835	83.75
438.057	101.75
438.278	112.75
438.5	97.75
438.721	104.75
438.943	98.75
439.165	99.75
439.386	80.75
439.608	92.75
439.829	92.75
440.05	108.75
440.272	122.75
440.493	102.75
440.715	101.75
440.936	100.75
441.158	91.75
441.379	90.75
441.6	83.75
441.822	82.75
442.043	94.75
442.264	96.75
442.486	103.75
442.707	87.75
442.928	105.75
443.149	119.75
443.371	118.75
443.592	110.75
443.813	99.75
444.034	86.75
444.255	79.75
444.476	91.75
444.698	84.75
444.919	102.75
445.14	121.75
445.361	122.75
445.582	111.75
445.803	124.75
446.024	123.75
446.245	111.75
446.466	114.75
446.687	85.75
446.908	85.75
447.129	81.75
447.35	91.75
447.571	110.75
447.792	88.75
448.013	88.75
448.234	92.75
448.455	82.75
448.675	108.75
448.896	114.75
449.117	99.75
449.338	94.75
449.559	110.75
449.779	119.75
450	93.75
450.221	97.75
450.442	74.75
450.662	81.75
450.883	103.75
451.104	94.75
451.324	90.75
451.545	104.75
451.766	75.75
451.986	87.75
452.207	94.75
452.428	88.75
452.648	102.75
452.869	113.75
453.089	87.75
453.31	118.75
453.53	102.75
453.751	97.75
453.971	106.75
454.192	105.75
454.412	89.75
454.633	83.75
454.853	94.75
455.073	99.75
455.294	90.75
455.514	87.75
455.734	93.75
455.955	85.75
456.175	91.75
456.395	91.75
456.616	87.75
456.836	104.75
457.056	93.75
457.276	70.75
457.497	83.75
457.717	95.75
457.937	66.75
458.157	94.75
458.377	91.75
458.598	97.75
458.818	133.75
459.038	136.75
459.258	117.75
459.478	91.75
459.698	101.75
459.918	74.75
460.138	85.75
460.358	91.75
460.578	87.75
460.798	84.75
461.018	89.75
461.238	80.75
461.458	85.75
461.678	87.75
461.898	76.75
462.118	81.75
462.338	95.75
462.558	88.75
462.777	89.75
462.997	94.75
463.217	99.75
463.437	91.75
463.657	98.75
463.876	74.75
464.096	88.75
464.316	86.75
464.536	85.75
464.755	93.75
464.975	114.75
465.195	122.75
465.414	138.75
465.634	93.75
465.854	84.75
466.073	79.75
466.293	110.75
466.512	86.75
466.732	76.75
466.951	88.75
467.171	84.75
467.391	101.75
467.61	118.75
467.829	113.75
468.049	152.75
468.268	188.75
468.488	106.75
468.707	78.75
468.927	82.75
469.146	86.75
469.365	81.75
469.585	79.75
469.804	89.75
470.023	91.75
470.243	97.75
470.462	78.75
470.681	104.75
470.901	109.75
471.12	99.75
471.339	87.75
471.558	98.75
471.777	98.75
471.997	114.75
472.216	238.75
472.435	457.75
472.654	150.75
472.873	94.75
473.092	101.75
473.311	86.75
473.53	101.75
473.749	95.75
473.968	98.75
474.187	102.75
474.406	95.75
474.625	92.75
474.844	100.75
475.063	90.75
475.282	90.75
475.501	77.75
475.72	86.75
475.939	83.75
476.158	90.75
476.377	93.75
476.596	83.75
476.814	92.75
477.033	89.75
477.252	81.75
477.471	84.75
477.69	97.75
477.908	87.75
478.127	98.75
478.346	75.75
478.564	97.75
478.783	99.75
479.002	89.75
479.22	93.75
479.439	79.75
479.658	101.75
479.876	83.75
480.095	92.75
480.313	103.75
480.532	106.75
480.751	107.75
480.969	253.75
481.188	740.75
481.406	457.75
481.624	127.75
481.843	98.75
482.061	91.75
482.28	87.75
482.498	78.75
482.717	90.75
482.935	102.75
483.153	86.75
483.372	82.75
483.59	82.75
483.808	87.75
484.027	73.75
484.245	87.75
484.463	86.75
484.681	108.75
484.9	92.75
485.118	85.75
485.336	101.75
485.554	98.75
485.772	87.75
485.99	100.75
486.209	113.75
486.427	99.75
486.645	111.75
486.863	113.75
487.081	109.75
487.299	97.75
487.517	92.75
487.735	86.75
487.953	91.75
488.171	90.75
488.389	94.75
488.607	102.75
488.825	100.75
489.043	100.75
489.261	88.75
489.479	77.75
489.696	91.75
489.914	85.75
490.132	89.75
490.35	89.75
490.568	94.75
490.786	84.75
491.003	100.75
491.221	88.75
491.439	88.75
491.657	87.75
491.874	90.75
492.092	98.75
492.31	87.75
492.527	83.75
492.745	86.75
492.963	100.75
493.18	85.75
493.398	111.75
493.615	95.75
493.833	93.75
494.05	99.75
494.268	86.75
494.485	79.75
494.703	90.75
494.92	89.75
495.138	86.75
495.355	83.75
495.573	89.75
495.79	84.75
496.008	92.75
496.225	92.75
496.442	78.75
496.66	86.75
496.877	81.75
497.094	81.75
497.312	93.75
497.529	77.75
497.746	78.75
497.963	83.75
498.181	100.75
498.398	94.75
498.615	114.75
498.832	94.75
499.049	101.75
499.267	81.75
499.484	87.75
499.701	104.75
499.918	94.75
500.135	89.75
500.352	96.75
500.569	88.75
500.786	102.75
501.003	83.75
501.22	88.75
501.437	104.75
501.654	92.75
501.871	100.75
502.088	85.75
502.305	83.75
502.522	95.75
502.739	103.75
502.956	92.75
503.172	87.75
503.389	86.75
503.606	81.75
503.823	90.75
504.04	78.75
504.256	85.75
504.473	84.75
504.69	83.75
504.907	92.75
505.123	92.75
505.34	86.75
505.557	98.75
505.773	100.75
505.99	104.75
506.207	98.75
506.423	94.75
506.64	99.75
506.856	99.75
507.073	95.75
507.289	91.75
507.506	84.75
507.722	114.75
507.939	118.75
508.155	96.75
508.372	85.75
508.588	69.75
508.805	98.75
509.021	91.75
509.238	89.75
509.454	92.75
509.67	98.75
509.887	105.75
510.103	121.75
510.319	175.75
510.536	582.75
510.752	1823.75
510.968	509.75
511.184	133.75
511.401	110.75
511.617	89.75
511.833	78.75
512.049	87.75
512.265	100.75
512.481	102.75
512.698	83.75
512.914	98.75
513.13	99.75
513.346	90.75
513.562	91.75
513.778	96.75
513.994	98.75
514.21	111.75
514.426	107.75
514.642	122.75
514.858	118.75
515.074	153.75
515.29	344.75
515.506	1091.75
