Data from Circ_1983_H10_HRD10591_00044.txt Node
Date: Wed Jan 03 12:26:53 EST 2024
User: Yrep
Spectrometer: HR+D1059
Trigger mode: 1
Integration Time (sec): 1.000000E-1
Scans to average: 1
Electric dark correction enabled: true
Nonlinearity correction enabled: false
Boxcar width: 0
XAxis mode: Wavelengths
Number of Pixels in Spectrum: 2048
>>>>>Begin Spectral Data<<<<<
223.165	-14.69
223.4	-14.69
223.635	-14.69
223.869	-32.69
224.104	-24.69
224.338	-8.69
224.573	-27.69
224.808	-19.69
225.042	6.31
225.277	9.31
225.511	2.31
225.746	4.31
225.98	-3.69
226.215	18.31
226.449	9.31
226.683	8.31
226.918	35.31
227.152	38.31
227.387	32.31
227.621	35.31
227.856	26.31
228.09	33.31
228.324	50.31
228.559	45.31
228.793	46.31
229.027	64.31
229.262	81.31
229.496	69.31
229.73	59.31
229.964	82.31
230.199	73.31
230.433	67.31
230.667	86.31
230.901	71.31
231.136	76.31
231.37	84.31
231.604	80.31
231.838	72.31
232.072	83.31
232.306	82.31
232.541	68.31
232.775	71.31
233.009	80.31
233.243	76.31
233.477	86.31
233.711	81.31
233.945	60.31
234.179	76.31
234.413	69.31
234.647	75.31
234.881	84.31
235.115	62.31
235.349	67.31
235.583	81.31
235.817	95.31
236.051	72.31
236.285	67.31
236.519	64.31
236.753	75.31
236.987	87.31
237.221	72.31
237.455	94.31
237.689	65.31
237.922	76.31
238.156	67.31
238.39	80.31
238.624	73.31
238.858	68.31
239.091	78.31
239.325	72.31
239.559	76.31
239.793	70.31
240.027	74.31
240.26	85.31
240.494	74.31
240.728	77.31
240.961	78.31
241.195	73.31
241.429	74.31
241.662	69.31
241.896	78.31
242.13	73.31
242.363	78.31
242.597	63.31
242.83	69.31
243.064	76.31
243.298	81.31
243.531	65.31
243.765	86.31
243.998	94.31
244.232	99.31
244.465	78.31
244.699	90.31
244.932	89.31
245.166	75.31
245.399	77.31
245.633	82.31
245.866	70.31
246.099	89.31
246.333	74.31
246.566	73.31
246.8	74.31
247.033	71.31
247.266	79.31
247.5	78.31
247.733	82.31
247.966	89.31
248.2	78.31
248.433	66.31
248.666	85.31
248.899	79.31
249.133	83.31
249.366	74.31
249.599	91.31
249.832	72.31
250.066	84.31
250.299	72.31
250.532	79.31
250.765	84.31
250.998	78.31
251.231	86.31
251.465	81.31
251.698	80.31
251.931	77.31
252.164	79.31
252.397	61.31
252.63	76.31
252.863	76.31
253.096	65.31
253.329	72.31
253.562	70.31
253.795	70.31
254.028	73.31
254.261	77.31
254.494	80.31
254.727	85.31
254.96	73.31
255.193	80.31
255.426	92.31
255.659	69.31
255.892	81.31
256.124	65.31
256.357	89.31
256.59	80.31
256.823	85.31
257.056	79.31
257.289	72.31
257.521	78.31
257.754	92.31
257.987	74.31
258.22	88.31
258.452	78.31
258.685	85.31
258.918	87.31
259.151	83.31
259.383	80.31
259.616	72.31
259.849	71.31
260.081	82.31
260.314	89.31
260.547	83.31
260.779	86.31
261.012	75.31
261.244	76.31
261.477	82.31
261.71	92.31
261.942	98.31
262.175	96.31
262.407	88.31
262.64	78.31
262.872	82.31
263.105	79.31
263.337	73.31
263.57	83.31
263.802	84.31
264.035	65.31
264.267	74.31
264.499	78.31
264.732	80.31
264.964	77.31
265.197	88.31
265.429	87.31
265.661	91.31
265.894	82.31
266.126	73.31
266.358	76.31
266.591	73.31
266.823	80.31
267.055	89.31
267.287	88.31
267.52	76.31
267.752	73.31
267.984	66.31
268.216	76.31
268.448	72.31
268.681	78.31
268.913	86.31
269.145	85.31
269.377	83.31
269.609	88.31
269.841	78.31
270.073	63.31
270.306	81.31
270.538	80.31
270.77	79.31
271.002	99.31
271.234	77.31
271.466	74.31
271.698	86.31
271.93	83.31
272.162	94.31
272.394	93.31
272.626	77.31
272.858	67.31
273.09	92.31
273.322	93.31
273.553	80.31
273.785	80.31
274.017	86.31
274.249	84.31
274.481	77.31
274.713	81.31
274.945	93.31
275.176	93.31
275.408	85.31
275.64	83.31
275.872	78.31
276.104	71.31
276.335	92.31
276.567	82.31
276.799	97.31
277.031	89.31
277.262	92.31
277.494	104.31
277.726	80.31
277.957	89.31
278.189	84.31
278.421	90.31
278.652	98.31
278.884	89.31
279.115	82.31
279.347	87.31
279.579	79.31
279.81	80.31
280.042	99.31
280.273	86.31
280.505	89.31
280.736	70.31
280.968	78.31
281.199	91.31
281.431	78.31
281.662	90.31
281.894	97.31
282.125	92.31
282.356	104.31
282.588	126.31
282.819	103.31
283.051	92.31
283.282	87.31
283.513	90.31
283.745	81.31
283.976	82.31
284.207	79.31
284.439	65.31
284.67	77.31
284.901	88.31
285.132	93.31
285.364	76.31
285.595	79.31
285.826	72.31
286.057	90.31
286.288	80.31
286.52	80.31
286.751	76.31
286.982	76.31
287.213	97.31
287.444	82.31
287.675	90.31
287.906	79.31
288.138	84.31
288.369	98.31
288.6	92.31
288.831	80.31
289.062	77.31
289.293	92.31
289.524	73.31
289.755	74.31
289.986	73.31
290.217	84.31
290.448	76.31
290.679	77.31
290.91	89.31
291.141	66.31
291.371	87.31
291.602	95.31
291.833	88.31
292.064	89.31
292.295	88.31
292.526	86.31
292.757	86.31
292.987	77.31
293.218	95.31
293.449	76.31
293.68	88.31
293.91	90.31
294.141	92.31
294.372	90.31
294.603	84.31
294.833	82.31
295.064	80.31
295.295	64.31
295.525	72.31
295.756	82.31
295.987	100.31
296.217	116.31
296.448	103.31
296.679	89.31
296.909	100.31
297.14	84.31
297.37	97.31
297.601	88.31
297.831	90.31
298.062	96.31
298.292	78.31
298.523	74.31
298.753	82.31
298.984	80.31
299.214	81.31
299.445	98.31
299.675	83.31
299.905	81.31
300.136	86.31
300.366	85.31
300.597	92.31
300.827	83.31
301.057	93.31
301.288	100.31
301.518	102.31
301.748	100.31
301.979	118.31
302.209	89.31
302.439	88.31
302.669	66.31
302.9	84.31
303.13	82.31
303.36	61.31
303.59	94.31
303.82	103.31
304.051	73.31
304.281	91.31
304.511	85.31
304.741	82.31
304.971	81.31
305.201	100.31
305.431	88.31
305.661	72.31
305.891	77.31
306.121	92.31
306.352	93.31
306.582	94.31
306.812	106.31
307.042	84.31
307.272	79.31
307.502	93.31
307.731	95.31
307.961	77.31
308.191	94.31
308.421	89.31
308.651	100.31
308.881	100.31
309.111	97.31
309.341	89.31
309.571	85.31
309.8	85.31
310.03	85.31
310.26	93.31
310.49	73.31
310.72	103.31
310.949	92.31
311.179	95.31
311.409	85.31
311.639	88.31
311.868	81.31
312.098	90.31
312.328	86.31
312.557	87.31
312.787	102.31
313.017	84.31
313.246	79.31
313.476	80.31
313.706	95.31
313.935	87.31
314.165	101.31
314.394	90.31
314.624	82.31
314.853	91.31
315.083	98.31
315.312	101.31
315.542	93.31
315.771	96.31
316.001	83.31
316.23	81.31
316.46	74.31
316.689	74.31
316.919	78.31
317.148	74.31
317.377	80.31
317.607	86.31
317.836	97.31
318.065	88.31
318.295	86.31
318.524	91.31
318.753	92.31
318.983	89.31
319.212	95.31
319.441	117.31
319.67	102.31
319.9	100.31
320.129	98.31
320.358	87.31
320.587	85.31
320.816	82.31
321.046	97.31
321.275	91.31
321.504	89.31
321.733	79.31
321.962	92.31
322.191	90.31
322.42	90.31
322.649	100.31
322.878	101.31
323.108	113.31
323.337	100.31
323.566	126.31
323.795	142.31
324.024	185.31
324.253	319.31
324.482	657.31
324.71	1303.31
324.939	1724.31
325.168	644.31
325.397	199.31
325.626	129.31
325.855	128.31
326.084	120.31
326.313	130.31
326.542	129.31
326.77	182.31
326.999	364.31
327.228	733.31
327.457	1346.31
327.686	1064.31
327.914	308.31
328.143	172.31
328.372	160.31
328.6	123.31
328.829	112.31
329.058	106.31
329.287	123.31
329.515	106.31
329.744	105.31
329.972	115.31
330.201	164.31
330.43	205.31
330.658	152.31
330.887	135.31
331.115	107.31
331.344	69.31
331.572	98.31
331.801	103.31
332.03	89.31
332.258	99.31
332.486	91.31
332.715	97.31
332.943	97.31
333.172	92.31
333.4	84.31
333.629	89.31
333.857	117.31
334.085	135.31
334.314	164.31
334.542	237.31
334.771	230.31
334.999	107.31
335.227	98.31
335.455	95.31
335.684	90.31
335.912	94.31
336.14	113.31
336.369	90.31
336.597	88.31
336.825	103.31
337.053	97.31
337.281	95.31
337.51	72.31
337.738	98.31
337.966	100.31
338.194	79.31
338.422	92.31
338.65	82.31
338.878	72.31
339.106	82.31
339.334	90.31
339.562	97.31
339.79	98.31
340.018	93.31
340.246	83.31
340.474	81.31
340.702	82.31
340.93	97.31
341.158	85.31
341.386	82.31
341.614	94.31
341.842	85.31
342.07	85.31
342.298	93.31
342.526	83.31
342.754	91.31
342.981	76.31
343.209	89.31
343.437	89.31
343.665	89.31
343.893	91.31
344.12	78.31
344.348	82.31
344.576	84.31
344.804	85.31
345.031	76.31
345.259	89.31
345.487	98.31
345.714	91.31
345.942	97.31
346.17	91.31
346.397	90.31
346.625	104.31
346.853	101.31
347.08	72.31
347.308	96.31
347.535	97.31
347.763	93.31
347.99	112.31
348.218	91.31
348.445	94.31
348.673	94.31
348.9	95.31
349.128	88.31
349.355	85.31
349.583	87.31
349.81	102.31
350.037	96.31
350.265	103.31
350.492	84.31
350.72	93.31
350.947	104.31
351.174	98.31
351.402	103.31
351.629	99.31
351.856	98.31
352.083	96.31
352.311	87.31
352.538	100.31
352.765	101.31
352.992	123.31
353.22	107.31
353.447	93.31
353.674	86.31
353.901	100.31
354.128	94.31
354.355	87.31
354.583	84.31
354.81	93.31
355.037	87.31
355.264	97.31
355.491	95.31
355.718	89.31
355.945	81.31
356.172	87.31
356.399	90.31
356.626	81.31
356.853	101.31
357.08	86.31
357.307	87.31
357.534	99.31
357.761	90.31
357.988	89.31
358.215	89.31
358.441	94.31
358.668	84.31
358.895	88.31
359.122	80.31
359.349	90.31
359.576	86.31
359.802	89.31
360.029	130.31
360.256	108.31
360.483	97.31
360.709	96.31
360.936	96.31
361.163	94.31
361.39	95.31
361.616	89.31
361.843	81.31
362.07	105.31
362.296	100.31
362.523	101.31
362.749	88.31
362.976	82.31
363.203	96.31
363.429	87.31
363.656	93.31
363.882	81.31
364.109	92.31
364.335	93.31
364.562	80.31
364.788	96.31
365.015	96.31
365.241	90.31
365.468	100.31
365.694	97.31
365.92	87.31
366.147	81.31
366.373	86.31
366.599	82.31
366.826	99.31
367.052	96.31
367.278	94.31
367.505	83.31
367.731	103.31
367.957	89.31
368.184	98.31
368.41	93.31
368.636	113.31
368.862	104.31
369.089	92.31
369.315	95.31
369.541	88.31
369.767	95.31
369.993	90.31
370.219	90.31
370.445	73.31
370.672	83.31
370.898	91.31
371.124	78.31
371.35	102.31
371.576	92.31
371.802	77.31
372.028	95.31
372.254	81.31
372.48	87.31
372.706	96.31
372.932	84.31
373.158	73.31
373.384	84.31
373.61	90.31
373.835	85.31
374.061	89.31
374.287	79.31
374.513	94.31
374.739	93.31
374.965	85.31
375.191	86.31
375.416	77.31
375.642	89.31
375.868	88.31
376.094	86.31
376.319	86.31
376.545	88.31
376.771	85.31
376.997	80.31
377.222	88.31
377.448	95.31
377.674	81.31
377.899	86.31
378.125	105.31
378.35	90.31
378.576	79.31
378.802	94.31
379.027	88.31
379.253	99.31
379.478	80.31
379.704	85.31
379.929	95.31
380.155	102.31
380.38	77.31
380.606	93.31
380.831	91.31
381.057	112.31
381.282	95.31
381.507	78.31
381.733	95.31
381.958	90.31
382.184	86.31
382.409	96.31
382.634	94.31
382.86	93.31
383.085	100.31
383.31	81.31
383.535	93.31
383.761	115.31
383.986	96.31
384.211	78.31
384.436	92.31
384.662	97.31
384.887	85.31
385.112	108.31
385.337	101.31
385.562	103.31
385.787	106.31
386.013	100.31
386.238	121.31
386.463	105.31
386.688	110.31
386.913	97.31
387.138	100.31
387.363	94.31
387.588	79.31
387.813	86.31
388.038	106.31
388.263	104.31
388.488	111.31
388.713	108.31
388.938	92.31
389.163	85.31
389.387	98.31
389.612	84.31
389.837	88.31
390.062	90.31
390.287	93.31
390.512	89.31
390.736	73.31
390.961	65.31
391.186	85.31
391.411	94.31
391.636	80.31
391.86	81.31
392.085	91.31
392.31	78.31
392.534	92.31
392.759	93.31
392.984	78.31
393.208	98.31
393.433	124.31
393.658	103.31
393.882	76.31
394.107	74.31
394.331	94.31
394.556	79.31
394.78	76.31
395.005	73.31
395.229	86.31
395.454	78.31
395.678	75.31
395.903	83.31
396.127	96.31
396.352	83.31
396.576	97.31
396.801	80.31
397.025	106.31
397.249	75.31
397.474	85.31
397.698	90.31
397.922	86.31
398.147	69.31
398.371	71.31
398.595	89.31
398.82	84.31
399.044	81.31
399.268	77.31
399.492	71.31
399.717	80.31
399.941	84.31
400.165	83.31
400.389	80.31
400.613	82.31
400.837	77.31
401.062	72.31
401.286	73.31
401.51	97.31
401.734	84.31
401.958	99.31
402.182	121.31
402.406	149.31
402.63	99.31
402.854	86.31
403.078	83.31
403.302	85.31
403.526	87.31
403.75	94.31
403.974	85.31
404.198	93.31
404.422	73.31
404.645	89.31
404.869	85.31
405.093	104.31
405.317	86.31
405.541	88.31
405.765	99.31
405.988	106.31
406.212	153.31
406.436	194.31
406.66	119.31
406.883	95.31
407.107	89.31
407.331	78.31
407.555	109.31
407.778	90.31
408.002	82.31
408.226	79.31
408.449	89.31
408.673	82.31
408.896	68.31
409.12	93.31
409.344	89.31
409.567	85.31
409.791	82.31
410.014	77.31
410.238	90.31
410.461	82.31
410.685	91.31
410.908	88.31
411.132	102.31
411.355	87.31
411.578	88.31
411.802	72.31
412.025	92.31
412.249	84.31
412.472	93.31
412.695	87.31
412.919	95.31
413.142	85.31
413.365	99.31
413.589	84.31
413.812	91.31
414.035	88.31
414.258	98.31
414.482	80.31
414.705	73.31
414.928	90.31
415.151	80.31
415.374	96.31
415.597	92.31
415.821	84.31
416.044	93.31
416.267	84.31
416.49	100.31
416.713	59.31
416.936	84.31
417.159	79.31
417.382	94.31
417.605	91.31
417.828	94.31
418.051	92.31
418.274	89.31
418.497	86.31
418.72	98.31
418.943	88.31
419.166	86.31
419.389	86.31
419.611	85.31
419.834	85.31
420.057	83.31
420.28	87.31
420.503	89.31
420.726	94.31
420.948	81.31
421.171	88.31
421.394	89.31
421.617	94.31
421.839	103.31
422.062	85.31
422.285	91.31
422.507	78.31
422.73	95.31
422.953	80.31
423.175	75.31
423.398	83.31
423.621	85.31
423.843	77.31
424.066	88.31
424.288	86.31
424.511	88.31
424.733	86.31
424.956	108.31
425.178	74.31
425.401	76.31
425.623	92.31
425.846	85.31
426.068	87.31
426.291	84.31
426.513	81.31
426.735	94.31
426.958	87.31
427.18	98.31
427.402	124.31
427.625	136.31
427.847	118.31
428.069	122.31
428.292	87.31
428.514	85.31
428.736	71.31
428.958	76.31
429.181	86.31
429.403	57.31
429.625	73.31
429.847	78.31
430.069	88.31
430.292	84.31
430.514	77.31
430.736	66.31
430.958	80.31
431.18	86.31
431.402	94.31
431.624	68.31
431.846	92.31
432.068	96.31
432.29	82.31
432.512	87.31
432.734	85.31
432.956	96.31
433.178	111.31
433.4	94.31
433.622	94.31
433.844	84.31
434.066	86.31
434.287	73.31
434.509	84.31
434.731	98.31
434.953	83.31
435.175	80.31
435.397	93.31
435.618	76.31
435.84	101.31
436.062	112.31
436.284	103.31
436.505	91.31
436.727	86.31
436.949	85.31
437.17	92.31
437.392	91.31
437.614	85.31
437.835	101.31
438.057	97.31
438.278	68.31
438.5	97.31
438.721	101.31
438.943	98.31
439.165	82.31
439.386	92.31
439.608	86.31
439.829	92.31
440.05	107.31
440.272	128.31
440.493	105.31
440.715	74.31
440.936	85.31
441.158	97.31
441.379	101.31
441.6	90.31
441.822	93.31
442.043	87.31
442.264	76.31
442.486	88.31
442.707	67.31
442.928	102.31
443.149	110.31
443.371	111.31
443.592	104.31
443.813	103.31
444.034	90.31
444.255	88.31
444.476	89.31
444.698	63.31
444.919	92.31
445.14	146.31
445.361	117.31
445.582	110.31
445.803	126.31
446.024	102.31
446.245	94.31
446.466	103.31
446.687	81.31
446.908	89.31
447.129	72.31
447.35	96.31
447.571	100.31
447.792	88.31
448.013	94.31
448.234	109.31
448.455	90.31
448.675	88.31
448.896	103.31
449.117	99.31
449.338	87.31
449.559	93.31
449.779	103.31
450	87.31
450.221	91.31
450.442	85.31
450.662	92.31
450.883	84.31
451.104	95.31
451.324	98.31
451.545	82.31
451.766	73.31
451.986	96.31
452.207	80.31
452.428	88.31
452.648	91.31
452.869	115.31
453.089	107.31
453.31	100.31
453.53	95.31
453.751	87.31
453.971	86.31
454.192	98.31
454.412	87.31
454.633	86.31
454.853	81.31
455.073	82.31
455.294	77.31
455.514	97.31
455.734	72.31
455.955	65.31
456.175	82.31
456.395	85.31
456.616	89.31
456.836	84.31
457.056	81.31
457.276	93.31
457.497	91.31
457.717	85.31
457.937	93.31
458.157	85.31
458.377	85.31
458.598	97.31
458.818	129.31
459.038	131.31
459.258	113.31
459.478	94.31
459.698	92.31
459.918	88.31
460.138	80.31
460.358	84.31
460.578	90.31
460.798	61.31
461.018	87.31
461.238	78.31
461.458	86.31
461.678	80.31
461.898	82.31
462.118	86.31
462.338	81.31
462.558	89.31
462.777	78.31
462.997	82.31
463.217	79.31
463.437	77.31
463.657	84.31
463.876	80.31
464.096	76.31
464.316	97.31
464.536	70.31
464.755	77.31
464.975	102.31
465.195	145.31
465.414	148.31
465.634	87.31
465.854	90.31
466.073	85.31
466.293	88.31
466.512	78.31
466.732	96.31
466.951	88.31
467.171	81.31
467.391	92.31
467.61	98.31
467.829	108.31
468.049	114.31
468.268	130.31
468.488	83.31
468.707	94.31
468.927	72.31
469.146	86.31
469.365	95.31
469.585	82.31
469.804	76.31
470.023	94.31
470.243	94.31
470.462	94.31
470.681	99.31
470.901	100.31
471.12	94.31
471.339	72.31
471.558	85.31
471.777	82.31
471.997	102.31
472.216	177.31
472.435	301.31
472.654	113.31
472.873	89.31
473.092	77.31
473.311	80.31
473.53	98.31
473.749	85.31
473.968	82.31
474.187	101.31
474.406	82.31
474.625	74.31
474.844	90.31
475.063	79.31
475.282	88.31
475.501	74.31
475.72	88.31
475.939	82.31
476.158	95.31
476.377	87.31
476.596	80.31
476.814	92.31
477.033	92.31
477.252	81.31
477.471	78.31
477.69	93.31
477.908	85.31
478.127	78.31
478.346	83.31
478.564	82.31
478.783	86.31
479.002	81.31
479.22	88.31
479.439	82.31
479.658	91.31
479.876	90.31
480.095	94.31
480.313	105.31
480.532	88.31
480.751	103.31
480.969	181.31
481.188	479.31
481.406	308.31
481.624	108.31
481.843	81.31
482.061	86.31
482.28	78.31
482.498	86.31
482.717	82.31
482.935	91.31
483.153	99.31
483.372	89.31
483.59	70.31
483.808	83.31
484.027	90.31
484.245	93.31
484.463	87.31
484.681	89.31
484.9	85.31
485.118	74.31
485.336	90.31
485.554	95.31
485.772	95.31
485.99	101.31
486.209	92.31
486.427	101.31
486.645	87.31
486.863	103.31
487.081	112.31
487.299	91.31
487.517	77.31
487.735	93.31
487.953	86.31
488.171	90.31
488.389	81.31
488.607	85.31
488.825	85.31
489.043	72.31
489.261	86.31
489.479	89.31
489.696	81.31
489.914	78.31
490.132	93.31
490.35	87.31
490.568	82.31
490.786	73.31
491.003	73.31
491.221	84.31
491.439	98.31
491.657	81.31
491.874	80.31
492.092	83.31
492.31	95.31
492.527	94.31
492.745	84.31
492.963	74.31
493.18	73.31
493.398	92.31
493.615	98.31
493.833	87.31
494.05	83.31
494.268	73.31
494.485	82.31
494.703	83.31
494.92	74.31
495.138	66.31
495.355	92.31
495.573	88.31
495.79	92.31
496.008	92.31
496.225	103.31
496.442	83.31
496.66	97.31
496.877	89.31
497.094	96.31
497.312	82.31
497.529	86.31
497.746	88.31
497.963	77.31
498.181	82.31
498.398	107.31
498.615	105.31
498.832	99.31
499.049	86.31
499.267	83.31
499.484	73.31
499.701	78.31
499.918	102.31
500.135	95.31
500.352	83.31
500.569	87.31
500.786	91.31
501.003	72.31
501.22	76.31
501.437	84.31
501.654	96.31
501.871	93.31
502.088	71.31
502.305	107.31
502.522	89.31
502.739	102.31
502.956	97.31
503.172	89.31
503.389	71.31
503.606	97.31
503.823	92.31
504.04	100.31
504.256	88.31
504.473	92.31
504.69	98.31
504.907	86.31
505.123	89.31
505.34	83.31
505.557	95.31
505.773	88.31
505.99	78.31
506.207	89.31
506.423	101.31
506.64	94.31
506.856	82.31
507.073	88.31
507.289	82.31
507.506	90.31
507.722	109.31
507.939	114.31
508.155	83.31
508.372	95.31
508.588	102.31
508.805	81.31
509.021	85.31
509.238	95.31
509.454	92.31
509.67	92.31
509.887	84.31
510.103	123.31
510.319	185.31
510.536	652.31
510.752	1990.31
510.968	569.31
511.184	136.31
511.401	106.31
511.617	89.31
511.833	87.31
512.049	92.31
512.265	84.31
512.481	80.31
512.698	85.31
512.914	74.31
513.13	81.31
513.346	101.31
513.562	92.31
513.778	101.31
513.994	98.31
514.21	114.31
514.426	105.31
514.642	112.31
514.858	116.31
515.074	130.31
515.29	360.31
515.506	1214.31
515.721	445.31
515.937	128.31
516.153	104.31
516.369	97.31
516.585	90.31
516.801	83.31
517.016	89.31
