Data from Circ_1983_H10_HRD10591_00004.txt Node
Date: Wed Jan 03 12:26:45 EST 2024
User: Yrep
Spectrometer: HR+D1059
Trigger mode: 1
Integration Time (sec): 1.000000E-1
Scans to average: 1
Electric dark correction enabled: true
Nonlinearity correction enabled: false
Boxcar width: 0
XAxis mode: Wavelengths
Number of Pixels in Spectrum: 2048
>>>>>Begin Spectral Data<<<<<
223.165	-8.19
223.4	-8.19
223.635	-8.19
223.869	-30.19
224.104	-21.19
224.338	-26.19
224.573	-22.19
224.808	-9.19
225.042	-21.19
225.277	3.81
225.511	0.81
225.746	5.81
225.98	19.81
226.215	6.81
226.449	15.81
226.683	23.81
226.918	35.81
227.152	25.81
227.387	33.81
227.621	46.81
227.856	36.81
228.09	46.81
228.324	58.81
228.559	59.81
228.793	49.81
229.027	53.81
229.262	57.81
229.496	71.81
229.73	75.81
229.964	68.81
230.199	85.81
230.433	80.81
230.667	63.81
230.901	88.81
231.136	79.81
231.37	69.81
231.604	68.81
231.838	69.81
232.072	61.81
232.306	80.81
232.541	76.81
232.775	75.81
233.009	74.81
233.243	90.81
233.477	90.81
233.711	71.81
233.945	95.81
234.179	76.81
234.413	76.81
234.647	77.81
234.881	86.81
235.115	77.81
235.349	81.81
235.583	81.81
235.817	75.81
236.051	76.81
236.285	73.81
236.519	79.81
236.753	87.81
236.987	83.81
237.221	76.81
237.455	69.81
237.689	77.81
237.922	72.81
238.156	71.81
238.39	75.81
238.624	75.81
238.858	69.81
239.091	70.81
239.325	72.81
239.559	79.81
239.793	75.81
240.027	63.81
240.26	85.81
240.494	80.81
240.728	85.81
240.961	84.81
241.195	74.81
241.429	79.81
241.662	65.81
241.896	80.81
242.13	73.81
242.363	77.81
242.597	69.81
242.83	79.81
243.064	80.81
243.298	79.81
243.531	82.81
243.765	81.81
243.998	75.81
244.232	85.81
244.465	91.81
244.699	82.81
244.932	73.81
245.166	74.81
245.399	80.81
245.633	64.81
245.866	79.81
246.099	74.81
246.333	68.81
246.566	85.81
246.8	83.81
247.033	83.81
247.266	79.81
247.5	66.81
247.733	79.81
247.966	77.81
248.2	79.81
248.433	77.81
248.666	83.81
248.899	85.81
249.133	83.81
249.366	96.81
249.599	79.81
249.832	67.81
250.066	90.81
250.299	57.81
250.532	81.81
250.765	81.81
250.998	78.81
251.231	73.81
251.465	87.81
251.698	87.81
251.931	89.81
252.164	92.81
252.397	74.81
252.63	83.81
252.863	85.81
253.096	92.81
253.329	75.81
253.562	74.81
253.795	84.81
254.028	82.81
254.261	80.81
254.494	80.81
254.727	82.81
254.96	80.81
255.193	88.81
255.426	82.81
255.659	72.81
255.892	80.81
256.124	71.81
256.357	78.81
256.59	80.81
256.823	88.81
257.056	91.81
257.289	92.81
257.521	85.81
257.754	73.81
257.987	83.81
258.22	76.81
258.452	79.81
258.685	89.81
258.918	84.81
259.151	75.81
259.383	81.81
259.616	90.81
259.849	84.81
260.081	76.81
260.314	90.81
260.547	79.81
260.779	85.81
261.012	84.81
261.244	89.81
261.477	100.81
261.71	94.81
261.942	101.81
262.175	90.81
262.407	79.81
262.64	82.81
262.872	92.81
263.105	87.81
263.337	90.81
263.57	84.81
263.802	87.81
264.035	85.81
264.267	83.81
264.499	77.81
264.732	93.81
264.964	97.81
265.197	79.81
265.429	57.81
265.661	71.81
265.894	84.81
266.126	73.81
266.358	71.81
266.591	88.81
266.823	79.81
267.055	75.81
267.287	91.81
267.52	82.81
267.752	82.81
267.984	74.81
268.216	85.81
268.448	90.81
268.681	90.81
268.913	92.81
269.145	76.81
269.377	83.81
269.609	76.81
269.841	88.81
270.073	83.81
270.306	81.81
270.538	83.81
270.77	91.81
271.002	83.81
271.234	74.81
271.466	70.81
271.698	79.81
271.93	98.81
272.162	92.81
272.394	76.81
272.626	86.81
272.858	84.81
273.09	91.81
273.322	94.81
273.553	88.81
273.785	78.81
274.017	99.81
274.249	73.81
274.481	95.81
274.713	78.81
274.945	91.81
275.176	85.81
275.408	86.81
275.64	81.81
275.872	90.81
276.104	74.81
276.335	88.81
276.567	73.81
276.799	90.81
277.031	90.81
277.262	101.81
277.494	85.81
277.726	93.81
277.957	96.81
278.189	94.81
278.421	97.81
278.652	78.81
278.884	97.81
279.115	76.81
279.347	88.81
279.579	86.81
279.81	89.81
280.042	98.81
280.273	104.81
280.505	101.81
280.736	88.81
280.968	95.81
281.199	89.81
281.431	95.81
281.662	84.81
281.894	81.81
282.125	92.81
282.356	108.81
282.588	120.81
282.819	91.81
283.051	90.81
283.282	90.81
283.513	98.81
283.745	93.81
283.976	92.81
284.207	87.81
284.439	87.81
284.67	87.81
284.901	75.81
285.132	79.81
285.364	90.81
285.595	87.81
285.826	89.81
286.057	87.81
286.288	88.81
286.52	79.81
286.751	80.81
286.982	93.81
287.213	93.81
287.444	85.81
287.675	83.81
287.906	88.81
288.138	89.81
288.369	93.81
288.6	81.81
288.831	89.81
289.062	85.81
289.293	77.81
289.524	94.81
289.755	93.81
289.986	99.81
290.217	85.81
290.448	88.81
290.679	89.81
290.91	82.81
291.141	86.81
291.371	91.81
291.602	83.81
291.833	83.81
292.064	78.81
292.295	90.81
292.526	104.81
292.757	97.81
292.987	81.81
293.218	97.81
293.449	98.81
293.68	83.81
293.91	88.81
294.141	99.81
294.372	83.81
294.603	91.81
294.833	82.81
295.064	83.81
295.295	95.81
295.525	108.81
295.756	96.81
295.987	104.81
296.217	118.81
296.448	112.81
296.679	85.81
296.909	77.81
297.14	102.81
297.37	89.81
297.601	77.81
297.831	101.81
298.062	90.81
298.292	90.81
298.523	69.81
298.753	98.81
298.984	68.81
299.214	92.81
299.445	92.81
299.675	95.81
299.905	98.81
300.136	96.81
300.366	98.81
300.597	89.81
300.827	84.81
301.057	88.81
301.288	95.81
301.518	77.81
301.748	100.81
301.979	96.81
302.209	91.81
302.439	95.81
302.669	93.81
302.9	83.81
303.13	83.81
303.36	106.81
303.59	88.81
303.82	95.81
304.051	97.81
304.281	83.81
304.511	83.81
304.741	73.81
304.971	85.81
305.201	94.81
305.431	91.81
305.661	79.81
305.891	92.81
306.121	102.81
306.352	92.81
306.582	88.81
306.812	81.81
307.042	99.81
307.272	103.81
307.502	87.81
307.731	99.81
307.961	79.81
308.191	82.81
308.421	92.81
308.651	91.81
308.881	97.81
309.111	94.81
309.341	93.81
309.571	105.81
309.8	87.81
310.03	94.81
310.26	106.81
310.49	88.81
310.72	93.81
310.949	84.81
311.179	91.81
311.409	101.81
311.639	96.81
311.868	100.81
312.098	90.81
312.328	94.81
312.557	101.81
312.787	100.81
313.017	104.81
313.246	86.81
313.476	98.81
313.706	91.81
313.935	91.81
314.165	102.81
314.394	86.81
314.624	97.81
314.853	102.81
315.083	91.81
315.312	94.81
315.542	90.81
315.771	101.81
316.001	91.81
316.23	92.81
316.46	94.81
316.689	101.81
316.919	99.81
317.148	87.81
317.377	98.81
317.607	102.81
317.836	84.81
318.065	96.81
318.295	96.81
318.524	90.81
318.753	82.81
318.983	95.81
319.212	92.81
319.441	106.81
319.67	106.81
319.9	91.81
320.129	100.81
320.358	103.81
320.587	107.81
320.816	87.81
321.046	97.81
321.275	70.81
321.504	101.81
321.733	103.81
321.962	94.81
322.191	105.81
322.42	100.81
322.649	101.81
322.878	104.81
323.108	100.81
323.337	114.81
323.566	109.81
323.795	111.81
324.024	171.81
324.253	293.81
324.482	564.81
324.71	1155.81
324.939	1500.81
325.168	575.81
325.397	183.81
325.626	142.81
325.855	123.81
326.084	113.81
326.313	122.81
326.542	134.81
326.77	183.81
326.999	325.81
327.228	678.81
327.457	1184.81
327.686	946.81
327.914	295.81
328.143	161.81
328.372	137.81
328.6	114.81
328.829	90.81
329.058	117.81
329.287	119.81
329.515	92.81
329.744	82.81
329.972	104.81
330.201	110.81
330.43	145.81
330.658	111.81
330.887	117.81
331.115	120.81
331.344	89.81
331.572	93.81
331.801	90.81
332.03	106.81
332.258	93.81
332.486	93.81
332.715	114.81
332.943	102.81
333.172	101.81
333.4	95.81
333.629	94.81
333.857	109.81
334.085	108.81
334.314	121.81
334.542	136.81
334.771	128.81
334.999	105.81
335.227	82.81
335.455	95.81
335.684	84.81
335.912	88.81
336.14	106.81
336.369	94.81
336.597	89.81
336.825	100.81
337.053	88.81
337.281	97.81
337.51	93.81
337.738	92.81
337.966	99.81
338.194	84.81
338.422	105.81
338.65	91.81
338.878	87.81
339.106	93.81
339.334	104.81
339.562	92.81
339.79	92.81
340.018	93.81
340.246	102.81
340.474	91.81
340.702	75.81
340.93	103.81
341.158	109.81
341.386	99.81
341.614	85.81
341.842	93.81
342.07	100.81
342.298	83.81
342.526	97.81
342.754	97.81
342.981	87.81
343.209	87.81
343.437	88.81
343.665	80.81
343.893	84.81
344.12	101.81
344.348	91.81
344.576	92.81
344.804	81.81
345.031	92.81
345.259	103.81
345.487	80.81
345.714	84.81
345.942	105.81
346.17	95.81
346.397	94.81
346.625	95.81
346.853	84.81
347.08	86.81
347.308	95.81
347.535	88.81
347.763	91.81
347.99	92.81
348.218	104.81
348.445	96.81
348.673	92.81
348.9	89.81
349.128	96.81
349.355	89.81
349.583	87.81
349.81	104.81
350.037	95.81
350.265	97.81
350.492	94.81
350.72	107.81
350.947	96.81
351.174	100.81
351.402	96.81
351.629	92.81
351.856	96.81
352.083	95.81
352.311	102.81
352.538	116.81
352.765	95.81
352.992	92.81
353.22	115.81
353.447	103.81
353.674	105.81
353.901	90.81
354.128	85.81
354.355	101.81
354.583	101.81
354.81	95.81
355.037	96.81
355.264	101.81
355.491	100.81
355.718	95.81
355.945	97.81
356.172	92.81
356.399	83.81
356.626	103.81
356.853	99.81
357.08	97.81
357.307	85.81
357.534	106.81
357.761	95.81
357.988	98.81
358.215	109.81
358.441	114.81
358.668	110.81
358.895	103.81
359.122	89.81
359.349	93.81
359.576	95.81
359.802	97.81
360.029	98.81
360.256	102.81
360.483	98.81
360.709	98.81
360.936	96.81
361.163	93.81
361.39	90.81
361.616	78.81
361.843	91.81
362.07	90.81
362.296	88.81
362.523	96.81
362.749	94.81
362.976	91.81
363.203	88.81
363.429	99.81
363.656	89.81
363.882	83.81
364.109	95.81
364.335	94.81
364.562	100.81
364.788	86.81
365.015	89.81
365.241	94.81
365.468	95.81
365.694	100.81
365.92	98.81
366.147	107.81
366.373	86.81
366.599	87.81
366.826	77.81
367.052	85.81
367.278	85.81
367.505	85.81
367.731	93.81
367.957	92.81
368.184	102.81
368.41	87.81
368.636	115.81
368.862	107.81
369.089	95.81
369.315	83.81
369.541	85.81
369.767	86.81
369.993	100.81
370.219	85.81
370.445	94.81
370.672	90.81
370.898	81.81
371.124	86.81
371.35	77.81
371.576	83.81
371.802	85.81
372.028	96.81
372.254	83.81
372.48	78.81
372.706	81.81
372.932	91.81
373.158	91.81
373.384	108.81
373.61	85.81
373.835	94.81
374.061	80.81
374.287	105.81
374.513	98.81
374.739	95.81
374.965	84.81
375.191	97.81
375.416	97.81
375.642	94.81
375.868	89.81
376.094	101.81
376.319	88.81
376.545	92.81
376.771	89.81
376.997	112.81
377.222	96.81
377.448	88.81
377.674	86.81
377.899	91.81
378.125	85.81
378.35	108.81
378.576	102.81
378.802	101.81
379.027	103.81
379.253	92.81
379.478	97.81
379.704	95.81
379.929	97.81
380.155	101.81
380.38	103.81
380.606	99.81
380.831	121.81
381.057	101.81
381.282	115.81
381.507	106.81
381.733	104.81
381.958	115.81
382.184	124.81
382.409	123.81
382.634	114.81
382.86	128.81
383.085	112.81
383.31	116.81
383.535	117.81
383.761	122.81
383.986	125.81
384.211	131.81
384.436	121.81
384.662	121.81
384.887	143.81
385.112	129.81
385.337	125.81
385.562	128.81
385.787	143.81
386.013	130.81
386.238	136.81
386.463	119.81
386.688	116.81
386.913	162.81
387.138	151.81
387.363	130.81
387.588	127.81
387.813	105.81
388.038	137.81
388.263	178.81
388.488	145.81
388.713	111.81
388.938	102.81
389.163	82.81
389.387	98.81
389.612	107.81
389.837	97.81
390.062	91.81
390.287	93.81
390.512	89.81
390.736	89.81
390.961	99.81
391.186	99.81
391.411	92.81
391.636	91.81
391.86	84.81
392.085	76.81
392.31	86.81
392.534	83.81
392.759	85.81
392.984	103.81
393.208	121.81
393.433	142.81
393.658	137.81
393.882	84.81
394.107	88.81
394.331	91.81
394.556	87.81
394.78	75.81
395.005	79.81
395.229	79.81
395.454	85.81
395.678	72.81
395.903	83.81
396.127	102.81
396.352	86.81
396.576	107.81
396.801	125.81
397.025	119.81
397.249	92.81
397.474	82.81
397.698	83.81
397.922	83.81
398.147	91.81
398.371	72.81
398.595	91.81
398.82	72.81
399.044	77.81
399.268	95.81
399.492	79.81
399.717	83.81
399.941	81.81
400.165	93.81
400.389	97.81
400.613	88.81
400.837	89.81
401.062	67.81
401.286	89.81
401.51	98.81
401.734	83.81
401.958	84.81
402.182	97.81
402.406	119.81
402.63	106.81
402.854	84.81
403.078	101.81
403.302	83.81
403.526	89.81
403.75	87.81
403.974	82.81
404.198	85.81
404.422	87.81
404.645	90.81
404.869	90.81
405.093	87.81
405.317	102.81
405.541	103.81
405.765	84.81
405.988	97.81
406.212	120.81
406.436	163.81
406.66	128.81
406.883	98.81
407.107	81.81
407.331	103.81
407.555	89.81
407.778	85.81
408.002	91.81
408.226	100.81
408.449	84.81
408.673	98.81
408.896	77.81
409.12	74.81
409.344	82.81
409.567	81.81
409.791	93.81
410.014	97.81
410.238	87.81
410.461	99.81
410.685	107.81
410.908	100.81
411.132	96.81
411.355	92.81
411.578	108.81
411.802	100.81
412.025	98.81
412.249	99.81
412.472	90.81
412.695	92.81
412.919	99.81
413.142	73.81
413.365	84.81
413.589	103.81
413.812	81.81
414.035	80.81
414.258	98.81
414.482	81.81
414.705	88.81
414.928	93.81
415.151	102.81
415.374	89.81
415.597	96.81
415.821	89.81
416.044	74.81
416.267	98.81
416.49	99.81
416.713	98.81
416.936	92.81
417.159	83.81
417.382	89.81
417.605	89.81
417.828	85.81
418.051	87.81
418.274	82.81
418.497	87.81
418.72	84.81
418.943	88.81
419.166	83.81
419.389	113.81
419.611	96.81
419.834	98.81
420.057	89.81
420.28	90.81
420.503	83.81
420.726	90.81
420.948	84.81
421.171	95.81
421.394	87.81
421.617	91.81
421.839	89.81
422.062	87.81
422.285	89.81
422.507	91.81
422.73	109.81
422.953	101.81
423.175	89.81
423.398	91.81
423.621	89.81
423.843	88.81
424.066	82.81
424.288	94.81
424.511	79.81
424.733	85.81
424.956	103.81
425.178	91.81
425.401	91.81
425.623	92.81
425.846	85.81
426.068	85.81
426.291	95.81
426.513	93.81
426.735	79.81
426.958	83.81
427.18	93.81
427.402	121.81
427.625	124.81
427.847	128.81
428.069	120.81
428.292	88.81
428.514	88.81
428.736	81.81
428.958	83.81
429.181	85.81
429.403	94.81
429.625	92.81
429.847	83.81
430.069	90.81
430.292	75.81
430.514	83.81
430.736	62.81
430.958	81.81
431.18	87.81
431.402	98.81
431.624	83.81
431.846	84.81
432.068	75.81
432.29	89.81
432.512	91.81
432.734	90.81
432.956	88.81
433.178	91.81
433.4	94.81
433.622	94.81
433.844	89.81
434.066	95.81
434.287	96.81
434.509	85.81
434.731	71.81
434.953	76.81
435.175	99.81
435.397	84.81
435.618	71.81
435.84	82.81
436.062	117.81
436.284	114.81
436.505	96.81
436.727	96.81
436.949	91.81
437.17	79.81
437.392	77.81
437.614	86.81
437.835	104.81
438.057	104.81
438.278	96.81
438.5	83.81
438.721	101.81
438.943	90.81
439.165	79.81
439.386	81.81
439.608	93.81
439.829	93.81
440.05	97.81
440.272	125.81
440.493	90.81
440.715	89.81
440.936	76.81
441.158	89.81
441.379	87.81
441.6	90.81
441.822	87.81
442.043	87.81
442.264	98.81
442.486	101.81
442.707	97.81
442.928	86.81
443.149	107.81
443.371	110.81
443.592	100.81
443.813	108.81
444.034	98.81
444.255	83.81
444.476	105.81
444.698	97.81
444.919	90.81
445.14	143.81
445.361	118.81
445.582	106.81
445.803	95.81
446.024	101.81
446.245	108.81
446.466	102.81
446.687	82.81
446.908	102.81
447.129	86.81
447.35	85.81
447.571	95.81
447.792	94.81
448.013	94.81
448.234	112.81
448.455	76.81
448.675	99.81
448.896	91.81
449.117	85.81
449.338	94.81
449.559	114.81
449.779	104.81
450	87.81
450.221	98.81
450.442	87.81
450.662	87.81
450.883	95.81
451.104	102.81
451.324	83.81
451.545	90.81
451.766	94.81
451.986	72.81
452.207	83.81
452.428	99.81
452.648	86.81
452.869	93.81
453.089	100.81
453.31	95.81
453.53	86.81
453.751	86.81
453.971	86.81
454.192	99.81
454.412	91.81
454.633	80.81
454.853	83.81
455.073	83.81
455.294	101.81
455.514	89.81
455.734	96.81
455.955	97.81
456.175	76.81
456.395	83.81
456.616	95.81
456.836	80.81
457.056	79.81
457.276	89.81
457.497	76.81
457.717	88.81
457.937	97.81
458.157	67.81
458.377	87.81
458.598	102.81
458.818	96.81
459.038	110.81
459.258	92.81
459.478	78.81
459.698	82.81
459.918	74.81
460.138	88.81
460.358	91.81
460.578	95.81
460.798	85.81
461.018	88.81
461.238	81.81
461.458	84.81
461.678	85.81
461.898	87.81
462.118	72.81
462.338	95.81
462.558	87.81
462.777	64.81
462.997	79.81
463.217	77.81
463.437	90.81
463.657	91.81
463.876	74.81
464.096	83.81
464.316	79.81
464.536	100.81
464.755	92.81
464.975	96.81
465.195	132.81
465.414	115.81
465.634	110.81
465.854	81.81
466.073	77.81
466.293	88.81
466.512	101.81
466.732	95.81
466.951	92.81
467.171	94.81
467.391	84.81
467.61	84.81
467.829	98.81
468.049	91.81
468.268	86.81
468.488	89.81
468.707	86.81
468.927	95.81
469.146	84.81
469.365	90.81
469.585	74.81
469.804	90.81
470.023	86.81
470.243	96.81
470.462	103.81
470.681	109.81
470.901	85.81
471.12	93.81
471.339	84.81
471.558	78.81
471.777	89.81
471.997	88.81
472.216	120.81
472.435	129.81
472.654	90.81
472.873	81.81
473.092	87.81
473.311	86.81
473.53	80.81
473.749	96.81
473.968	87.81
474.187	104.81
474.406	87.81
474.625	85.81
474.844	87.81
475.063	74.81
475.282	102.81
475.501	85.81
475.72	75.81
475.939	91.81
476.158	79.81
476.377	82.81
476.596	85.81
476.814	101.81
477.033	103.81
477.252	86.81
477.471	71.81
477.69	89.81
477.908	82.81
478.127	88.81
478.346	90.81
478.564	83.81
478.783	94.81
479.002	87.81
479.22	83.81
479.439	92.81
479.658	91.81
479.876	96.81
480.095	79.81
480.313	87.81
480.532	103.81
480.751	83.81
480.969	104.81
481.188	175.81
481.406	128.81
481.624	103.81
481.843	76.81
482.061	97.81
482.28	78.81
482.498	85.81
482.717	88.81
482.935	82.81
483.153	89.81
483.372	89.81
483.59	84.81
483.808	85.81
484.027	96.81
484.245	85.81
484.463	86.81
484.681	89.81
484.9	91.81
485.118	99.81
485.336	90.81
485.554	98.81
485.772	101.81
485.99	103.81
486.209	123.81
486.427	104.81
486.645	113.81
486.863	108.81
487.081	108.81
487.299	95.81
487.517	98.81
487.735	99.81
487.953	84.81
488.171	93.81
488.389	93.81
488.607	106.81
488.825	95.81
489.043	81.81
489.261	90.81
489.479	99.81
489.696	87.81
489.914	89.81
490.132	101.81
490.35	100.81
490.568	93.81
490.786	79.81
491.003	87.81
491.221	106.81
491.439	67.81
491.657	91.81
491.874	99.81
492.092	87.81
492.31	90.81
492.527	92.81
492.745	91.81
492.963	92.81
493.18	100.81
493.398	92.81
493.615	104.81
493.833	89.81
494.05	87.81
494.268	95.81
494.485	89.81
494.703	83.81
494.92	94.81
495.138	106.81
495.355	90.81
495.573	99.81
495.79	78.81
496.008	108.81
496.225	91.81
496.442	104.81
496.66	85.81
496.877	81.81
497.094	91.81
497.312	80.81
497.529	98.81
497.746	92.81
497.963	84.81
498.181	96.81
498.398	84.81
498.615	103.81
498.832	98.81
499.049	85.81
499.267	82.81
499.484	89.81
499.701	100.81
499.918	90.81
500.135	85.81
500.352	97.81
500.569	87.81
500.786	95.81
501.003	88.81
501.22	99.81
501.437	83.81
501.654	103.81
501.871	106.81
502.088	91.81
502.305	90.81
502.522	82.81
502.739	81.81
502.956	92.81
503.172	97.81
503.389	90.81
503.606	88.81
503.823	91.81
504.04	88.81
504.256	88.81
504.473	94.81
504.69	94.81
504.907	103.81
505.123	93.81
505.34	100.81
505.557	91.81
505.773	93.81
505.99	90.81
506.207	88.81
506.423	89.81
506.64	92.81
506.856	99.81
507.073	81.81
507.289	89.81
507.506	91.81
507.722	107.81
507.939	112.81
508.155	85.81
508.372	87.81
508.588	71.81
508.805	97.81
509.021	100.81
509.238	99.81
509.454	101.81
509.67	94.81
509.887	117.81
510.103	122.81
510.319	189.81
510.536	542.81
510.752	1573.81
510.968	479.81
511.184	137.81
511.401	102.81
511.617	90.81
511.833	81.81
512.049	97.81
512.265	89.81
512.481	104.81
512.698	81.81
512.914	90.81
513.13	89.81
513.346	99.81
513.562	103.81
513.778	99.81
513.994	95.81
514.21	99.81
514.426	98.81
514.642	113.81
514.858	111.81
515.074	139.81
515.29	317.81
515.506	898.81
515.721	357.81
515.937	119.81
516.153	88.81
