Data from Circ_1983_H10_HRD10591_00041.txt Node
Date: Wed Jan 03 12:26:53 EST 2024
User: Yrep
Spectrometer: HR+D1059
Trigger mode: 1
Integration Time (sec): 1.000000E-1
Scans to average: 1
Electric dark correction enabled: true
Nonlinearity correction enabled: false
Boxcar width: 0
XAxis mode: Wavelengths
Number of Pixels in Spectrum: 2048
>>>>>Begin Spectral Data<<<<<
223.165	-22.25
223.4	-22.25
223.635	-22.25
223.869	-23.25
224.104	-14.25
224.338	-10.25
224.573	-24.25
224.808	-1.25
225.042	-8.25
225.277	2.75
225.511	-6.25
225.746	13.75
225.98	-2.25
226.215	8.75
226.449	19.75
226.683	21.75
226.918	13.75
227.152	31.75
227.387	38.75
227.621	31.75
227.856	40.75
228.09	48.75
228.324	45.75
228.559	49.75
228.793	61.75
229.027	58.75
229.262	66.75
229.496	67.75
229.73	83.75
229.964	63.75
230.199	82.75
230.433	62.75
230.667	87.75
230.901	91.75
231.136	84.75
231.37	83.75
231.604	70.75
231.838	61.75
232.072	78.75
232.306	74.75
232.541	78.75
232.775	76.75
233.009	71.75
233.243	77.75
233.477	81.75
233.711	86.75
233.945	62.75
234.179	86.75
234.413	83.75
234.647	73.75
234.881	69.75
235.115	68.75
235.349	62.75
235.583	77.75
235.817	75.75
236.051	79.75
236.285	81.75
236.519	76.75
236.753	72.75
236.987	79.75
237.221	87.75
237.455	78.75
237.689	85.75
237.922	85.75
238.156	62.75
238.39	74.75
238.624	69.75
238.858	75.75
239.091	73.75
239.325	82.75
239.559	67.75
239.793	75.75
240.027	66.75
240.26	67.75
240.494	74.75
240.728	94.75
240.961	77.75
241.195	81.75
241.429	79.75
241.662	70.75
241.896	69.75
242.13	78.75
242.363	85.75
242.597	71.75
242.83	79.75
243.064	62.75
243.298	71.75
243.531	75.75
243.765	75.75
243.998	81.75
244.232	77.75
244.465	73.75
244.699	77.75
244.932	85.75
245.166	81.75
245.399	80.75
245.633	79.75
245.866	73.75
246.099	75.75
246.333	75.75
246.566	72.75
246.8	70.75
247.033	81.75
247.266	74.75
247.5	67.75
247.733	77.75
247.966	69.75
248.2	76.75
248.433	73.75
248.666	77.75
248.899	77.75
249.133	104.75
249.366	98.75
249.599	107.75
249.832	81.75
250.066	81.75
250.299	64.75
250.532	77.75
250.765	71.75
250.998	79.75
251.231	91.75
251.465	82.75
251.698	92.75
251.931	77.75
252.164	71.75
252.397	82.75
252.63	84.75
252.863	76.75
253.096	78.75
253.329	95.75
253.562	86.75
253.795	80.75
254.028	84.75
254.261	75.75
254.494	86.75
254.727	95.75
254.96	80.75
255.193	87.75
255.426	65.75
255.659	66.75
255.892	74.75
256.124	62.75
256.357	81.75
256.59	70.75
256.823	74.75
257.056	66.75
257.289	80.75
257.521	64.75
257.754	80.75
257.987	73.75
258.22	79.75
258.452	79.75
258.685	66.75
258.918	83.75
259.151	85.75
259.383	80.75
259.616	77.75
259.849	91.75
260.081	88.75
260.314	83.75
260.547	74.75
260.779	88.75
261.012	70.75
261.244	79.75
261.477	63.75
261.71	107.75
261.942	100.75
262.175	118.75
262.407	66.75
262.64	67.75
262.872	90.75
263.105	77.75
263.337	87.75
263.57	72.75
263.802	82.75
264.035	68.75
264.267	87.75
264.499	85.75
264.732	89.75
264.964	87.75
265.197	79.75
265.429	84.75
265.661	85.75
265.894	69.75
266.126	75.75
266.358	72.75
266.591	85.75
266.823	72.75
267.055	89.75
267.287	73.75
267.52	75.75
267.752	82.75
267.984	81.75
268.216	90.75
268.448	66.75
268.681	81.75
268.913	84.75
269.145	91.75
269.377	87.75
269.609	90.75
269.841	100.75
270.073	82.75
270.306	98.75
270.538	88.75
270.77	78.75
271.002	79.75
271.234	90.75
271.466	90.75
271.698	91.75
271.93	76.75
272.162	65.75
272.394	90.75
272.626	82.75
272.858	81.75
273.09	80.75
273.322	66.75
273.553	87.75
273.785	81.75
274.017	77.75
274.249	80.75
274.481	88.75
274.713	86.75
274.945	89.75
275.176	83.75
275.408	83.75
275.64	84.75
275.872	83.75
276.104	86.75
276.335	81.75
276.567	83.75
276.799	102.75
277.031	83.75
277.262	90.75
277.494	85.75
277.726	94.75
277.957	94.75
278.189	74.75
278.421	94.75
278.652	88.75
278.884	84.75
279.115	79.75
279.347	87.75
279.579	82.75
279.81	77.75
280.042	90.75
280.273	94.75
280.505	92.75
280.736	79.75
280.968	93.75
281.199	77.75
281.431	93.75
281.662	88.75
281.894	87.75
282.125	107.75
282.356	102.75
282.588	121.75
282.819	101.75
283.051	93.75
283.282	90.75
283.513	90.75
283.745	81.75
283.976	87.75
284.207	82.75
284.439	87.75
284.67	87.75
284.901	74.75
285.132	82.75
285.364	81.75
285.595	82.75
285.826	93.75
286.057	86.75
286.288	80.75
286.52	85.75
286.751	83.75
286.982	81.75
287.213	77.75
287.444	82.75
287.675	80.75
287.906	72.75
288.138	80.75
288.369	78.75
288.6	93.75
288.831	93.75
289.062	62.75
289.293	101.75
289.524	100.75
289.755	81.75
289.986	90.75
290.217	85.75
290.448	86.75
290.679	82.75
290.91	110.75
291.141	82.75
291.371	93.75
291.602	73.75
291.833	85.75
292.064	93.75
292.295	71.75
292.526	105.75
292.757	91.75
292.987	78.75
293.218	79.75
293.449	96.75
293.68	89.75
293.91	87.75
294.141	101.75
294.372	92.75
294.603	83.75
294.833	82.75
295.064	89.75
295.295	102.75
295.525	85.75
295.756	81.75
295.987	105.75
296.217	126.75
296.448	113.75
296.679	95.75
296.909	91.75
297.14	96.75
297.37	81.75
297.601	82.75
297.831	74.75
298.062	91.75
298.292	100.75
298.523	89.75
298.753	88.75
298.984	90.75
299.214	99.75
299.445	95.75
299.675	89.75
299.905	89.75
300.136	87.75
300.366	80.75
300.597	87.75
300.827	86.75
301.057	95.75
301.288	96.75
301.518	85.75
301.748	72.75
301.979	98.75
302.209	94.75
302.439	93.75
302.669	81.75
302.9	88.75
303.13	81.75
303.36	91.75
303.59	94.75
303.82	99.75
304.051	90.75
304.281	81.75
304.511	83.75
304.741	102.75
304.971	71.75
305.201	73.75
305.431	95.75
305.661	77.75
305.891	87.75
306.121	96.75
306.352	101.75
306.582	101.75
306.812	96.75
307.042	95.75
307.272	83.75
307.502	94.75
307.731	98.75
307.961	93.75
308.191	89.75
308.421	89.75
308.651	78.75
308.881	96.75
309.111	91.75
309.341	100.75
309.571	92.75
309.8	76.75
310.03	93.75
310.26	90.75
310.49	101.75
310.72	83.75
310.949	97.75
311.179	93.75
311.409	82.75
311.639	93.75
311.868	94.75
312.098	95.75
312.328	89.75
312.557	89.75
312.787	113.75
313.017	101.75
313.246	87.75
313.476	89.75
313.706	96.75
313.935	93.75
314.165	92.75
314.394	92.75
314.624	104.75
314.853	89.75
315.083	85.75
315.312	91.75
315.542	80.75
315.771	85.75
316.001	90.75
316.23	83.75
316.46	99.75
316.689	96.75
316.919	94.75
317.148	96.75
317.377	80.75
317.607	93.75
317.836	87.75
318.065	88.75
318.295	79.75
318.524	78.75
318.753	93.75
318.983	90.75
319.212	101.75
319.441	101.75
319.67	99.75
319.9	83.75
320.129	84.75
320.358	89.75
320.587	102.75
320.816	96.75
321.046	89.75
321.275	95.75
321.504	89.75
321.733	77.75
321.962	97.75
322.191	90.75
322.42	98.75
322.649	101.75
322.878	101.75
323.108	101.75
323.337	109.75
323.566	114.75
323.795	145.75
324.024	186.75
324.253	312.75
324.482	639.75
324.71	1369.75
324.939	1823.75
325.168	663.75
325.397	222.75
325.626	138.75
325.855	112.75
326.084	113.75
326.313	120.75
326.542	141.75
326.77	194.75
326.999	379.75
327.228	747.75
327.457	1374.75
327.686	1077.75
327.914	308.75
328.143	180.75
328.372	164.75
328.6	124.75
328.829	112.75
329.058	119.75
329.287	116.75
329.515	101.75
329.744	111.75
329.972	123.75
330.201	150.75
330.43	191.75
330.658	139.75
330.887	131.75
331.115	105.75
331.344	99.75
331.572	106.75
331.801	98.75
332.03	86.75
332.258	96.75
332.486	95.75
332.715	85.75
332.943	73.75
333.172	110.75
333.4	101.75
333.629	108.75
333.857	99.75
334.085	111.75
334.314	152.75
334.542	221.75
334.771	212.75
334.999	124.75
335.227	98.75
335.455	98.75
335.684	95.75
335.912	95.75
336.14	97.75
336.369	96.75
336.597	84.75
336.825	100.75
337.053	91.75
337.281	90.75
337.51	83.75
337.738	87.75
337.966	100.75
338.194	83.75
338.422	88.75
338.65	89.75
338.878	86.75
339.106	82.75
339.334	102.75
339.562	85.75
339.79	86.75
340.018	91.75
340.246	79.75
340.474	87.75
340.702	91.75
340.93	86.75
341.158	91.75
341.386	102.75
341.614	80.75
341.842	85.75
342.07	91.75
342.298	80.75
342.526	91.75
342.754	93.75
342.981	84.75
343.209	80.75
343.437	101.75
343.665	100.75
343.893	85.75
344.12	86.75
344.348	87.75
344.576	86.75
344.804	87.75
345.031	94.75
345.259	79.75
345.487	90.75
345.714	91.75
345.942	88.75
346.17	85.75
346.397	91.75
346.625	97.75
346.853	93.75
347.08	98.75
347.308	103.75
347.535	98.75
347.763	89.75
347.99	97.75
348.218	94.75
348.445	77.75
348.673	93.75
348.9	71.75
349.128	107.75
349.355	83.75
349.583	88.75
349.81	90.75
350.037	102.75
350.265	103.75
350.492	86.75
350.72	90.75
350.947	100.75
351.174	98.75
351.402	113.75
351.629	81.75
351.856	99.75
352.083	91.75
352.311	100.75
352.538	98.75
352.765	90.75
352.992	119.75
353.22	104.75
353.447	88.75
353.674	103.75
353.901	86.75
354.128	96.75
354.355	78.75
354.583	106.75
354.81	80.75
355.037	88.75
355.264	103.75
355.491	89.75
355.718	91.75
355.945	89.75
356.172	86.75
356.399	103.75
356.626	81.75
356.853	78.75
357.08	90.75
357.307	84.75
357.534	89.75
357.761	91.75
357.988	81.75
358.215	91.75
358.441	91.75
358.668	84.75
358.895	93.75
359.122	98.75
359.349	74.75
359.576	90.75
359.802	85.75
360.029	96.75
360.256	98.75
360.483	101.75
360.709	72.75
360.936	80.75
361.163	89.75
361.39	98.75
361.616	97.75
361.843	99.75
362.07	100.75
362.296	90.75
362.523	98.75
362.749	88.75
362.976	95.75
363.203	76.75
363.429	88.75
363.656	96.75
363.882	84.75
364.109	102.75
364.335	94.75
364.562	85.75
364.788	73.75
365.015	90.75
365.241	94.75
365.468	113.75
365.694	86.75
365.92	85.75
366.147	67.75
366.373	81.75
366.599	77.75
366.826	87.75
367.052	83.75
367.278	98.75
367.505	91.75
367.731	96.75
367.957	84.75
368.184	89.75
368.41	108.75
368.636	97.75
368.862	95.75
369.089	108.75
369.315	83.75
369.541	92.75
369.767	78.75
369.993	81.75
370.219	77.75
370.445	87.75
370.672	91.75
370.898	93.75
371.124	92.75
371.35	81.75
371.576	87.75
371.802	87.75
372.028	88.75
372.254	77.75
372.48	81.75
372.706	86.75
372.932	81.75
373.158	83.75
373.384	85.75
373.61	103.75
373.835	97.75
374.061	73.75
374.287	79.75
374.513	73.75
374.739	81.75
374.965	98.75
375.191	98.75
375.416	92.75
375.642	80.75
375.868	86.75
376.094	85.75
376.319	78.75
376.545	85.75
376.771	79.75
376.997	73.75
377.222	73.75
377.448	83.75
377.674	85.75
377.899	90.75
378.125	85.75
378.35	84.75
378.576	91.75
378.802	93.75
379.027	90.75
379.253	99.75
379.478	86.75
379.704	90.75
379.929	95.75
380.155	93.75
380.38	96.75
380.606	89.75
380.831	91.75
381.057	101.75
381.282	78.75
381.507	87.75
381.733	99.75
381.958	83.75
382.184	97.75
382.409	84.75
382.634	93.75
382.86	90.75
383.085	89.75
383.31	103.75
383.535	103.75
383.761	94.75
383.986	82.75
384.211	84.75
384.436	94.75
384.662	92.75
384.887	109.75
385.112	95.75
385.337	105.75
385.562	105.75
385.787	88.75
386.013	116.75
386.238	97.75
386.463	104.75
386.688	112.75
386.913	87.75
387.138	87.75
387.363	104.75
387.588	98.75
387.813	93.75
388.038	104.75
388.263	104.75
388.488	109.75
388.713	95.75
388.938	97.75
389.163	91.75
389.387	106.75
389.612	94.75
389.837	75.75
390.062	90.75
390.287	85.75
390.512	92.75
390.736	99.75
390.961	104.75
391.186	90.75
391.411	89.75
391.636	89.75
391.86	73.75
392.085	87.75
392.31	84.75
392.534	102.75
392.759	96.75
392.984	89.75
393.208	99.75
393.433	114.75
393.658	115.75
393.882	78.75
394.107	83.75
394.331	88.75
394.556	78.75
394.78	83.75
395.005	83.75
395.229	86.75
395.454	82.75
395.678	95.75
395.903	75.75
396.127	81.75
396.352	70.75
396.576	93.75
396.801	107.75
397.025	110.75
397.249	85.75
397.474	89.75
397.698	84.75
397.922	75.75
398.147	87.75
398.371	85.75
398.595	92.75
398.82	77.75
399.044	87.75
399.268	80.75
399.492	87.75
399.717	83.75
399.941	89.75
400.165	88.75
400.389	90.75
400.613	73.75
400.837	90.75
401.062	82.75
401.286	91.75
401.51	89.75
401.734	82.75
401.958	77.75
402.182	112.75
402.406	153.75
402.63	114.75
402.854	84.75
403.078	104.75
403.302	84.75
403.526	97.75
403.75	83.75
403.974	96.75
404.198	82.75
404.422	84.75
404.645	80.75
404.869	86.75
405.093	100.75
405.317	83.75
405.541	78.75
405.765	95.75
405.988	104.75
406.212	152.75
406.436	208.75
406.66	127.75
406.883	96.75
407.107	78.75
407.331	85.75
407.555	88.75
407.778	92.75
408.002	101.75
408.226	77.75
408.449	83.75
408.673	83.75
408.896	86.75
409.12	94.75
409.344	90.75
409.567	85.75
409.791	76.75
410.014	87.75
410.238	98.75
410.461	85.75
410.685	77.75
410.908	99.75
411.132	95.75
411.355	93.75
411.578	73.75
411.802	86.75
412.025	87.75
412.249	87.75
412.472	91.75
412.695	98.75
412.919	89.75
413.142	94.75
413.365	95.75
413.589	80.75
413.812	82.75
414.035	89.75
414.258	75.75
414.482	83.75
414.705	96.75
414.928	90.75
415.151	85.75
415.374	93.75
415.597	82.75
415.821	87.75
416.044	76.75
416.267	87.75
416.49	91.75
416.713	95.75
416.936	101.75
417.159	90.75
417.382	82.75
417.605	80.75
417.828	95.75
418.051	97.75
418.274	81.75
418.497	88.75
418.72	99.75
418.943	94.75
419.166	85.75
419.389	80.75
419.611	84.75
419.834	102.75
420.057	70.75
420.28	90.75
420.503	90.75
420.726	92.75
420.948	93.75
421.171	80.75
421.394	93.75
421.617	86.75
421.839	85.75
422.062	87.75
422.285	102.75
422.507	90.75
422.73	98.75
422.953	77.75
423.175	91.75
423.398	90.75
423.621	95.75
423.843	91.75
424.066	83.75
424.288	74.75
424.511	88.75
424.733	96.75
424.956	106.75
425.178	96.75
425.401	96.75
425.623	94.75
425.846	91.75
426.068	87.75
426.291	87.75
426.513	87.75
426.735	84.75
426.958	96.75
427.18	88.75
427.402	127.75
427.625	144.75
427.847	126.75
428.069	109.75
428.292	87.75
428.514	79.75
428.736	77.75
428.958	80.75
429.181	91.75
429.403	85.75
429.625	56.75
429.847	75.75
430.069	92.75
430.292	95.75
430.514	88.75
430.736	80.75
430.958	91.75
431.18	73.75
431.402	88.75
431.624	91.75
431.846	93.75
432.068	89.75
432.29	69.75
432.512	83.75
432.734	83.75
432.956	91.75
433.178	83.75
433.4	82.75
433.622	83.75
433.844	84.75
434.066	84.75
434.287	97.75
434.509	81.75
434.731	86.75
434.953	80.75
435.175	71.75
435.397	94.75
435.618	97.75
435.84	89.75
436.062	112.75
436.284	110.75
436.505	94.75
436.727	82.75
436.949	85.75
437.17	82.75
437.392	88.75
437.614	98.75
437.835	93.75
438.057	99.75
438.278	98.75
438.5	93.75
438.721	94.75
438.943	96.75
439.165	84.75
439.386	79.75
439.608	96.75
439.829	95.75
440.05	127.75
440.272	114.75
440.493	93.75
440.715	97.75
440.936	75.75
441.158	77.75
441.379	77.75
441.6	88.75
441.822	90.75
442.043	92.75
442.264	87.75
442.486	77.75
442.707	84.75
442.928	112.75
443.149	104.75
443.371	122.75
443.592	103.75
443.813	89.75
444.034	88.75
444.255	98.75
444.476	76.75
444.698	61.75
444.919	87.75
445.14	130.75
445.361	118.75
445.582	108.75
445.803	120.75
446.024	130.75
446.245	117.75
446.466	117.75
446.687	72.75
446.908	85.75
447.129	73.75
447.35	99.75
447.571	86.75
447.792	87.75
448.013	84.75
448.234	111.75
448.455	94.75
448.675	98.75
448.896	106.75
449.117	82.75
449.338	111.75
449.559	100.75
449.779	91.75
450	84.75
450.221	89.75
450.442	97.75
450.662	81.75
450.883	102.75
451.104	107.75
451.324	88.75
451.545	94.75
451.766	81.75
451.986	88.75
452.207	89.75
452.428	95.75
452.648	87.75
452.869	117.75
453.089	98.75
453.31	108.75
453.53	87.75
453.751	102.75
453.971	90.75
454.192	102.75
454.412	93.75
454.633	79.75
454.853	77.75
455.073	86.75
455.294	73.75
455.514	98.75
455.734	79.75
455.955	87.75
456.175	89.75
456.395	98.75
456.616	93.75
456.836	80.75
457.056	95.75
457.276	84.75
457.497	85.75
457.717	81.75
457.937	88.75
458.157	75.75
458.377	86.75
458.598	87.75
458.818	131.75
459.038	132.75
459.258	101.75
459.478	75.75
459.698	78.75
459.918	95.75
460.138	95.75
460.358	70.75
460.578	77.75
460.798	86.75
461.018	88.75
461.238	84.75
461.458	87.75
461.678	79.75
461.898	65.75
462.118	85.75
462.338	82.75
462.558	86.75
462.777	68.75
462.997	98.75
463.217	83.75
463.437	82.75
463.657	89.75
463.876	74.75
464.096	95.75
464.316	83.75
464.536	89.75
464.755	95.75
464.975	96.75
465.195	132.75
465.414	115.75
465.634	84.75
465.854	85.75
466.073	90.75
466.293	84.75
466.512	85.75
466.732	85.75
466.951	98.75
467.171	89.75
467.391	94.75
467.61	107.75
467.829	110.75
468.049	117.75
468.268	137.75
468.488	84.75
468.707	72.75
468.927	85.75
469.146	89.75
469.365	85.75
469.585	88.75
469.804	84.75
470.023	85.75
470.243	81.75
470.462	97.75
470.681	106.75
470.901	95.75
471.12	93.75
471.339	93.75
471.558	88.75
471.777	92.75
471.997	100.75
472.216	173.75
472.435	278.75
472.654	127.75
472.873	96.75
473.092	73.75
473.311	96.75
473.53	89.75
473.749	91.75
473.968	72.75
474.187	97.75
474.406	92.75
474.625	82.75
474.844	78.75
475.063	91.75
475.282	86.75
475.501	93.75
475.72	69.75
475.939	85.75
476.158	73.75
476.377	84.75
476.596	66.75
476.814	88.75
477.033	97.75
477.252	95.75
477.471	87.75
477.69	74.75
477.908	77.75
478.127	97.75
478.346	90.75
478.564	81.75
478.783	93.75
479.002	95.75
479.22	83.75
479.439	90.75
479.658	107.75
479.876	99.75
480.095	79.75
480.313	100.75
480.532	100.75
480.751	95.75
480.969	185.75
481.188	445.75
481.406	288.75
481.624	111.75
481.843	94.75
482.061	92.75
482.28	75.75
482.498	77.75
482.717	81.75
482.935	71.75
483.153	89.75
483.372	77.75
483.59	88.75
483.808	98.75
484.027	90.75
484.245	92.75
484.463	73.75
484.681	88.75
484.9	93.75
485.118	91.75
485.336	87.75
485.554	89.75
485.772	97.75
485.99	84.75
486.209	105.75
486.427	90.75
486.645	103.75
486.863	106.75
487.081	93.75
487.299	93.75
487.517	109.75
487.735	81.75
487.953	79.75
488.171	98.75
488.389	90.75
488.607	102.75
488.825	94.75
489.043	89.75
489.261	85.75
489.479	98.75
489.696	88.75
489.914	90.75
490.132	83.75
490.35	85.75
490.568	89.75
490.786	91.75
491.003	94.75
491.221	77.75
491.439	90.75
491.657	84.75
491.874	90.75
492.092	97.75
492.31	77.75
492.527	90.75
492.745	95.75
492.963	90.75
493.18	85.75
493.398	99.75
493.615	87.75
493.833	101.75
494.05	93.75
494.268	95.75
494.485	84.75
494.703	90.75
494.92	95.75
495.138	91.75
495.355	86.75
495.573	79.75
495.79	82.75
496.008	93.75
496.225	89.75
496.442	94.75
496.66	94.75
496.877	86.75
497.094	90.75
497.312	91.75
497.529	97.75
497.746	88.75
497.963	89.75
498.181	89.75
498.398	97.75
498.615	96.75
498.832	89.75
499.049	84.75
499.267	95.75
499.484	91.75
499.701	91.75
499.918	87.75
500.135	98.75
500.352	86.75
500.569	82.75
500.786	90.75
501.003	101.75
501.22	90.75
501.437	87.75
501.654	91.75
501.871	106.75
502.088	90.75
502.305	86.75
502.522	86.75
502.739	98.75
502.956	94.75
503.172	95.75
503.389	91.75
503.606	98.75
503.823	82.75
504.04	101.75
504.256	87.75
504.473	91.75
504.69	93.75
504.907	75.75
505.123	85.75
505.34	89.75
505.557	89.75
505.773	77.75
505.99	81.75
506.207	93.75
506.423	73.75
506.64	86.75
506.856	84.75
507.073	90.75
507.289	92.75
507.506	82.75
507.722	110.75
507.939	107.75
508.155	83.75
508.372	100.75
508.588	91.75
508.805	93.75
509.021	102.75
509.238	90.75
509.454	89.75
509.67	97.75
509.887	105.75
510.103	128.75
510.319	188.75
510.536	655.75
510.752	2021.75
510.968	561.75
511.184	142.75
511.401	101.75
511.617	86.75
511.833	84.75
512.049	94.75
512.265	77.75
512.481	95.75
512.698	93.75
512.914	89.75
513.13	87.75
513.346	82.75
513.562	85.75
513.778	87.75
513.994	91.75
514.21	92.75
514.426	120.75
514.642	119.75
514.858	107.75
515.074	161.75
515.29	377.75
515.506	1232.75
515.721	469.75
515.937	144.75
516.153	103.75
516.369	81.75
516.585	91.75
516.801	79.75
517.016	93.75
