Data from Circ_1983_H10_HRD10591_00007.txt Node
Date: Wed Jan 03 12:26:46 EST 2024
User: Yrep
Spectrometer: HR+D1059
Trigger mode: 1
Integration Time (sec): 1.000000E-1
Scans to average: 1
Electric dark correction enabled: true
Nonlinearity correction enabled: false
Boxcar width: 0
XAxis mode: Wavelengths
Number of Pixels in Spectrum: 2048
>>>>>Begin Spectral Data<<<<<
223.165	-20.62
223.4	-20.62
223.635	-20.62
223.869	-16.62
224.104	-18.62
224.338	-12.62
224.573	-18.62
224.808	-7.62
225.042	-10.62
225.277	-7.62
225.511	-7.62
225.746	0.38
225.98	9.38
226.215	20.38
226.449	12.38
226.683	19.38
226.918	33.38
227.152	25.38
227.387	36.38
227.621	41.38
227.856	56.38
228.09	42.38
228.324	49.38
228.559	59.38
228.793	51.38
229.027	59.38
229.262	57.38
229.496	70.38
229.73	72.38
229.964	77.38
230.199	60.38
230.433	75.38
230.667	89.38
230.901	79.38
231.136	68.38
231.37	65.38
231.604	86.38
231.838	85.38
232.072	83.38
232.306	83.38
232.541	67.38
232.775	81.38
233.009	87.38
233.243	72.38
233.477	85.38
233.711	75.38
233.945	79.38
234.179	73.38
234.413	64.38
234.647	84.38
234.881	86.38
235.115	57.38
235.349	68.38
235.583	74.38
235.817	67.38
236.051	82.38
236.285	70.38
236.519	72.38
236.753	72.38
236.987	70.38
237.221	66.38
237.455	84.38
237.689	79.38
237.922	84.38
238.156	84.38
238.39	64.38
238.624	81.38
238.858	83.38
239.091	87.38
239.325	87.38
239.559	81.38
239.793	72.38
240.027	79.38
240.26	79.38
240.494	77.38
240.728	77.38
240.961	78.38
241.195	83.38
241.429	82.38
241.662	82.38
241.896	81.38
242.13	71.38
242.363	67.38
242.597	60.38
242.83	77.38
243.064	81.38
243.298	67.38
243.531	85.38
243.765	74.38
243.998	80.38
244.232	85.38
244.465	91.38
244.699	83.38
244.932	80.38
245.166	75.38
245.399	72.38
245.633	69.38
245.866	72.38
246.099	84.38
246.333	89.38
246.566	70.38
246.8	85.38
247.033	63.38
247.266	82.38
247.5	77.38
247.733	69.38
247.966	99.38
248.2	71.38
248.433	71.38
248.666	63.38
248.899	86.38
249.133	82.38
249.366	83.38
249.599	83.38
249.832	80.38
250.066	88.38
250.299	77.38
250.532	75.38
250.765	75.38
250.998	83.38
251.231	91.38
251.465	85.38
251.698	95.38
251.931	89.38
252.164	90.38
252.397	69.38
252.63	74.38
252.863	85.38
253.096	77.38
253.329	73.38
253.562	79.38
253.795	83.38
254.028	86.38
254.261	80.38
254.494	75.38
254.727	93.38
254.96	74.38
255.193	89.38
255.426	87.38
255.659	84.38
255.892	85.38
256.124	76.38
256.357	79.38
256.59	89.38
256.823	73.38
257.056	91.38
257.289	75.38
257.521	89.38
257.754	83.38
257.987	69.38
258.22	94.38
258.452	73.38
258.685	75.38
258.918	81.38
259.151	87.38
259.383	89.38
259.616	81.38
259.849	87.38
260.081	91.38
260.314	84.38
260.547	88.38
260.779	74.38
261.012	79.38
261.244	76.38
261.477	77.38
261.71	83.38
261.942	97.38
262.175	103.38
262.407	83.38
262.64	84.38
262.872	90.38
263.105	75.38
263.337	76.38
263.57	92.38
263.802	80.38
264.035	87.38
264.267	85.38
264.499	74.38
264.732	71.38
264.964	77.38
265.197	80.38
265.429	94.38
265.661	84.38
265.894	74.38
266.126	81.38
266.358	100.38
266.591	80.38
266.823	90.38
267.055	88.38
267.287	77.38
267.52	84.38
267.752	75.38
267.984	77.38
268.216	67.38
268.448	87.38
268.681	87.38
268.913	69.38
269.145	74.38
269.377	74.38
269.609	85.38
269.841	75.38
270.073	92.38
270.306	91.38
270.538	86.38
270.77	81.38
271.002	85.38
271.234	88.38
271.466	85.38
271.698	79.38
271.93	88.38
272.162	88.38
272.394	83.38
272.626	89.38
272.858	91.38
273.09	91.38
273.322	85.38
273.553	79.38
273.785	90.38
274.017	84.38
274.249	80.38
274.481	95.38
274.713	92.38
274.945	81.38
275.176	67.38
275.408	88.38
275.64	79.38
275.872	83.38
276.104	89.38
276.335	82.38
276.567	95.38
276.799	104.38
277.031	103.38
277.262	79.38
277.494	95.38
277.726	84.38
277.957	76.38
278.189	82.38
278.421	93.38
278.652	71.38
278.884	82.38
279.115	76.38
279.347	79.38
279.579	74.38
279.81	76.38
280.042	90.38
280.273	87.38
280.505	97.38
280.736	75.38
280.968	82.38
281.199	92.38
281.431	91.38
281.662	93.38
281.894	93.38
282.125	87.38
282.356	100.38
282.588	126.38
282.819	103.38
283.051	90.38
283.282	84.38
283.513	79.38
283.745	83.38
283.976	96.38
284.207	75.38
284.439	89.38
284.67	90.38
284.901	92.38
285.132	96.38
285.364	100.38
285.595	90.38
285.826	82.38
286.057	88.38
286.288	92.38
286.52	91.38
286.751	96.38
286.982	91.38
287.213	67.38
287.444	79.38
287.675	91.38
287.906	89.38
288.138	106.38
288.369	86.38
288.6	97.38
288.831	90.38
289.062	84.38
289.293	71.38
289.524	91.38
289.755	92.38
289.986	85.38
290.217	90.38
290.448	83.38
290.679	77.38
290.91	92.38
291.141	84.38
291.371	93.38
291.602	103.38
291.833	95.38
292.064	88.38
292.295	99.38
292.526	90.38
292.757	97.38
292.987	96.38
293.218	87.38
293.449	83.38
293.68	92.38
293.91	72.38
294.141	89.38
294.372	79.38
294.603	83.38
294.833	85.38
295.064	88.38
295.295	100.38
295.525	89.38
295.756	98.38
295.987	103.38
296.217	112.38
296.448	114.38
296.679	103.38
296.909	92.38
297.14	88.38
297.37	79.38
297.601	86.38
297.831	90.38
298.062	95.38
298.292	97.38
298.523	89.38
298.753	94.38
298.984	83.38
299.214	86.38
299.445	97.38
299.675	79.38
299.905	93.38
300.136	98.38
300.366	101.38
300.597	85.38
300.827	82.38
301.057	95.38
301.288	85.38
301.518	97.38
301.748	72.38
301.979	95.38
302.209	71.38
302.439	90.38
302.669	99.38
302.9	91.38
303.13	97.38
303.36	88.38
303.59	99.38
303.82	95.38
304.051	73.38
304.281	107.38
304.511	90.38
304.741	97.38
304.971	93.38
305.201	109.38
305.431	74.38
305.661	74.38
305.891	92.38
306.121	85.38
306.352	90.38
306.582	102.38
306.812	91.38
307.042	95.38
307.272	85.38
307.502	106.38
307.731	81.38
307.961	87.38
308.191	97.38
308.421	95.38
308.651	88.38
308.881	90.38
309.111	100.38
309.341	92.38
309.571	85.38
309.8	79.38
310.03	96.38
310.26	83.38
310.49	90.38
310.72	97.38
310.949	101.38
311.179	83.38
311.409	90.38
311.639	83.38
311.868	91.38
312.098	75.38
312.328	92.38
312.557	102.38
312.787	107.38
313.017	105.38
313.246	90.38
313.476	88.38
313.706	84.38
313.935	84.38
314.165	90.38
314.394	88.38
314.624	93.38
314.853	93.38
315.083	87.38
315.312	100.38
315.542	93.38
315.771	90.38
316.001	88.38
316.23	99.38
316.46	76.38
316.689	85.38
316.919	101.38
317.148	87.38
317.377	88.38
317.607	106.38
317.836	81.38
318.065	90.38
318.295	92.38
318.524	77.38
318.753	92.38
318.983	88.38
319.212	95.38
319.441	97.38
319.67	102.38
319.9	91.38
320.129	85.38
320.358	84.38
320.587	81.38
320.816	88.38
321.046	110.38
321.275	79.38
321.504	87.38
321.733	88.38
321.962	97.38
322.191	87.38
322.42	105.38
322.649	95.38
322.878	97.38
323.108	107.38
323.337	111.38
323.566	108.38
323.795	124.38
324.024	145.38
324.253	272.38
324.482	562.38
324.71	1151.38
324.939	1533.38
325.168	591.38
325.397	201.38
325.626	115.38
325.855	113.38
326.084	112.38
326.313	125.38
326.542	136.38
326.77	177.38
326.999	345.38
327.228	663.38
327.457	1215.38
327.686	967.38
327.914	267.38
328.143	168.38
328.372	129.38
328.6	117.38
328.829	103.38
329.058	113.38
329.287	115.38
329.515	93.38
329.744	99.38
329.972	102.38
330.201	100.38
330.43	120.38
330.658	117.38
330.887	99.38
331.115	120.38
331.344	118.38
331.572	91.38
331.801	108.38
332.03	95.38
332.258	92.38
332.486	76.38
332.715	94.38
332.943	94.38
333.172	98.38
333.4	93.38
333.629	103.38
333.857	100.38
334.085	103.38
334.314	105.38
334.542	128.38
334.771	118.38
334.999	93.38
335.227	98.38
335.455	90.38
335.684	92.38
335.912	97.38
336.14	93.38
336.369	107.38
336.597	68.38
336.825	101.38
337.053	98.38
337.281	101.38
337.51	85.38
337.738	77.38
337.966	79.38
338.194	86.38
338.422	83.38
338.65	83.38
338.878	89.38
339.106	74.38
339.334	79.38
339.562	99.38
339.79	90.38
340.018	74.38
340.246	91.38
340.474	84.38
340.702	83.38
340.93	105.38
341.158	92.38
341.386	85.38
341.614	89.38
341.842	104.38
342.07	103.38
342.298	80.38
342.526	90.38
342.754	81.38
342.981	92.38
343.209	104.38
343.437	83.38
343.665	98.38
343.893	101.38
344.12	108.38
344.348	100.38
344.576	89.38
344.804	92.38
345.031	87.38
345.259	100.38
345.487	87.38
345.714	87.38
345.942	90.38
346.17	83.38
346.397	88.38
346.625	83.38
346.853	83.38
347.08	96.38
347.308	81.38
347.535	78.38
347.763	93.38
347.99	101.38
348.218	98.38
348.445	83.38
348.673	101.38
348.9	100.38
349.128	97.38
349.355	99.38
349.583	80.38
349.81	93.38
350.037	96.38
350.265	92.38
350.492	81.38
350.72	91.38
350.947	94.38
351.174	113.38
351.402	87.38
351.629	83.38
351.856	94.38
352.083	111.38
352.311	119.38
352.538	97.38
352.765	91.38
352.992	100.38
353.22	107.38
353.447	111.38
353.674	107.38
353.901	87.38
354.128	84.38
354.355	81.38
354.583	96.38
354.81	92.38
355.037	104.38
355.264	96.38
355.491	93.38
355.718	96.38
355.945	91.38
356.172	87.38
356.399	95.38
356.626	104.38
356.853	100.38
357.08	102.38
357.307	96.38
357.534	98.38
357.761	97.38
357.988	92.38
358.215	106.38
358.441	102.38
358.668	99.38
358.895	89.38
359.122	97.38
359.349	89.38
359.576	85.38
359.802	93.38
360.029	96.38
360.256	85.38
360.483	91.38
360.709	85.38
360.936	100.38
361.163	94.38
361.39	97.38
361.616	90.38
361.843	87.38
362.07	79.38
362.296	91.38
362.523	91.38
362.749	80.38
362.976	107.38
363.203	96.38
363.429	97.38
363.656	80.38
363.882	83.38
364.109	88.38
364.335	93.38
364.562	103.38
364.788	86.38
365.015	88.38
365.241	93.38
365.468	99.38
365.694	84.38
365.92	96.38
366.147	82.38
366.373	85.38
366.599	91.38
366.826	75.38
367.052	72.38
367.278	94.38
367.505	79.38
367.731	112.38
367.957	88.38
368.184	68.38
368.41	104.38
368.636	108.38
368.862	121.38
369.089	93.38
369.315	75.38
369.541	84.38
369.767	89.38
369.993	84.38
370.219	91.38
370.445	100.38
370.672	87.38
370.898	85.38
371.124	91.38
371.35	86.38
371.576	80.38
371.802	87.38
372.028	110.38
372.254	79.38
372.48	86.38
372.706	105.38
372.932	90.38
373.158	91.38
373.384	93.38
373.61	104.38
373.835	101.38
374.061	81.38
374.287	85.38
374.513	98.38
374.739	98.38
374.965	88.38
375.191	94.38
375.416	107.38
375.642	87.38
375.868	100.38
376.094	94.38
376.319	88.38
376.545	90.38
376.771	89.38
376.997	86.38
377.222	84.38
377.448	95.38
377.674	99.38
377.899	108.38
378.125	92.38
378.35	109.38
378.576	98.38
378.802	96.38
379.027	106.38
379.253	90.38
379.478	105.38
379.704	99.38
379.929	105.38
380.155	101.38
380.38	101.38
380.606	107.38
380.831	100.38
381.057	100.38
381.282	92.38
381.507	96.38
381.733	107.38
381.958	128.38
382.184	102.38
382.409	100.38
382.634	112.38
382.86	109.38
383.085	112.38
383.31	107.38
383.535	121.38
383.761	119.38
383.986	120.38
384.211	102.38
384.436	95.38
384.662	104.38
384.887	127.38
385.112	123.38
385.337	123.38
385.562	138.38
385.787	117.38
386.013	130.38
386.238	128.38
386.463	120.38
386.688	125.38
386.913	129.38
387.138	135.38
387.363	122.38
387.588	101.38
387.813	124.38
388.038	117.38
388.263	127.38
388.488	146.38
388.713	100.38
388.938	87.38
389.163	86.38
389.387	100.38
389.612	93.38
389.837	88.38
390.062	84.38
390.287	95.38
390.512	91.38
390.736	92.38
390.961	98.38
391.186	100.38
391.411	105.38
391.636	93.38
391.86	87.38
392.085	97.38
392.31	92.38
392.534	104.38
392.759	95.38
392.984	106.38
393.208	120.38
393.433	172.38
393.658	139.38
393.882	108.38
394.107	75.38
394.331	65.38
394.556	87.38
394.78	85.38
395.005	83.38
395.229	88.38
395.454	88.38
395.678	69.38
395.903	99.38
396.127	74.38
396.352	80.38
396.576	85.38
396.801	101.38
397.025	117.38
397.249	111.38
397.474	99.38
397.698	87.38
397.922	93.38
398.147	91.38
398.371	81.38
398.595	86.38
398.82	81.38
399.044	89.38
399.268	89.38
399.492	88.38
399.717	72.38
399.941	87.38
400.165	106.38
400.389	97.38
400.613	79.38
400.837	71.38
401.062	76.38
401.286	82.38
401.51	84.38
401.734	93.38
401.958	101.38
402.182	95.38
402.406	127.38
402.63	99.38
402.854	88.38
403.078	79.38
403.302	95.38
403.526	84.38
403.75	95.38
403.974	85.38
404.198	82.38
404.422	95.38
404.645	99.38
404.869	86.38
405.093	97.38
405.317	100.38
405.541	93.38
405.765	100.38
405.988	92.38
406.212	127.38
406.436	173.38
406.66	106.38
406.883	97.38
407.107	80.38
407.331	96.38
407.555	89.38
407.778	87.38
408.002	87.38
408.226	79.38
408.449	70.38
408.673	75.38
408.896	75.38
409.12	88.38
409.344	95.38
409.567	109.38
409.791	86.38
410.014	94.38
410.238	92.38
410.461	102.38
410.685	91.38
410.908	84.38
411.132	113.38
411.355	104.38
411.578	79.38
411.802	76.38
412.025	81.38
412.249	72.38
412.472	85.38
412.695	92.38
412.919	102.38
413.142	81.38
413.365	84.38
413.589	89.38
413.812	81.38
414.035	95.38
414.258	89.38
414.482	96.38
414.705	92.38
414.928	91.38
415.151	104.38
415.374	104.38
415.597	95.38
415.821	84.38
416.044	84.38
416.267	87.38
416.49	84.38
416.713	93.38
416.936	106.38
417.159	76.38
417.382	92.38
417.605	97.38
417.828	92.38
418.051	97.38
418.274	83.38
418.497	92.38
418.72	79.38
418.943	96.38
419.166	77.38
419.389	79.38
419.611	86.38
419.834	94.38
420.057	91.38
420.28	92.38
420.503	76.38
420.726	85.38
420.948	82.38
421.171	84.38
421.394	80.38
421.617	95.38
421.839	88.38
422.062	81.38
422.285	89.38
422.507	107.38
422.73	74.38
422.953	104.38
423.175	84.38
423.398	86.38
423.621	72.38
423.843	88.38
424.066	74.38
424.288	81.38
424.511	87.38
424.733	103.38
424.956	101.38
425.178	105.38
425.401	98.38
425.623	98.38
425.846	91.38
426.068	91.38
426.291	95.38
426.513	81.38
426.735	89.38
426.958	86.38
427.18	92.38
427.402	116.38
427.625	137.38
427.847	112.38
428.069	95.38
428.292	98.38
428.514	85.38
428.736	79.38
428.958	76.38
429.181	76.38
429.403	68.38
429.625	92.38
429.847	86.38
430.069	97.38
430.292	95.38
430.514	94.38
430.736	73.38
430.958	91.38
431.18	89.38
431.402	85.38
431.624	84.38
431.846	86.38
432.068	79.38
432.29	87.38
432.512	86.38
432.734	84.38
432.956	89.38
433.178	96.38
433.4	71.38
433.622	83.38
433.844	95.38
434.066	91.38
434.287	84.38
434.509	83.38
434.731	66.38
434.953	100.38
435.175	84.38
435.397	88.38
435.618	95.38
435.84	95.38
436.062	97.38
436.284	95.38
436.505	102.38
436.727	94.38
436.949	90.38
437.17	98.38
437.392	79.38
437.614	82.38
437.835	98.38
438.057	93.38
438.278	98.38
438.5	107.38
438.721	90.38
438.943	90.38
439.165	87.38
439.386	89.38
439.608	97.38
439.829	89.38
440.05	110.38
440.272	110.38
440.493	81.38
440.715	90.38
440.936	77.38
441.158	89.38
441.379	83.38
441.6	92.38
441.822	83.38
442.043	90.38
442.264	90.38
442.486	97.38
442.707	77.38
442.928	102.38
443.149	97.38
443.371	114.38
443.592	100.38
443.813	99.38
444.034	100.38
444.255	85.38
444.476	89.38
444.698	100.38
444.919	95.38
445.14	126.38
445.361	121.38
445.582	114.38
445.803	116.38
446.024	116.38
446.245	124.38
446.466	101.38
446.687	88.38
446.908	91.38
447.129	86.38
447.35	89.38
447.571	91.38
447.792	84.38
448.013	92.38
448.234	96.38
448.455	88.38
448.675	87.38
448.896	85.38
449.117	95.38
449.338	93.38
449.559	107.38
449.779	91.38
450	92.38
450.221	92.38
450.442	71.38
450.662	79.38
450.883	88.38
451.104	106.38
451.324	89.38
451.545	80.38
451.766	82.38
451.986	92.38
452.207	65.38
452.428	91.38
452.648	90.38
452.869	97.38
453.089	96.38
453.31	104.38
453.53	91.38
453.751	84.38
453.971	101.38
454.192	99.38
454.412	84.38
454.633	81.38
454.853	89.38
455.073	94.38
455.294	96.38
455.514	91.38
455.734	87.38
455.955	96.38
456.175	82.38
456.395	81.38
456.616	87.38
456.836	71.38
457.056	89.38
457.276	83.38
457.497	81.38
457.717	91.38
457.937	85.38
458.157	74.38
458.377	85.38
458.598	83.38
458.818	120.38
459.038	128.38
459.258	99.38
459.478	92.38
459.698	84.38
459.918	100.38
460.138	82.38
460.358	84.38
460.578	88.38
460.798	89.38
461.018	83.38
461.238	86.38
461.458	83.38
461.678	80.38
461.898	96.38
462.118	79.38
462.338	80.38
462.558	87.38
462.777	87.38
462.997	85.38
463.217	89.38
463.437	87.38
463.657	93.38
463.876	99.38
464.096	80.38
464.316	85.38
464.536	75.38
464.755	92.38
464.975	91.38
465.195	129.38
465.414	127.38
465.634	98.38
465.854	90.38
466.073	87.38
466.293	84.38
466.512	78.38
466.732	76.38
466.951	77.38
467.171	100.38
467.391	97.38
467.61	94.38
467.829	99.38
468.049	104.38
468.268	101.38
468.488	81.38
468.707	80.38
468.927	81.38
469.146	90.38
469.365	98.38
469.585	76.38
469.804	93.38
470.023	97.38
470.243	82.38
470.462	89.38
470.681	100.38
470.901	83.38
471.12	79.38
471.339	88.38
471.558	93.38
471.777	91.38
471.997	105.38
472.216	88.38
472.435	134.38
472.654	100.38
472.873	81.38
473.092	87.38
473.311	80.38
473.53	90.38
473.749	87.38
473.968	85.38
474.187	85.38
474.406	87.38
474.625	77.38
474.844	103.38
475.063	90.38
475.282	89.38
475.501	90.38
475.72	95.38
475.939	87.38
476.158	77.38
476.377	87.38
476.596	74.38
476.814	79.38
477.033	92.38
477.252	88.38
477.471	89.38
477.69	88.38
477.908	90.38
478.127	93.38
478.346	86.38
478.564	95.38
478.783	98.38
479.002	98.38
479.22	95.38
479.439	92.38
479.658	89.38
479.876	88.38
480.095	91.38
480.313	91.38
480.532	81.38
480.751	92.38
480.969	99.38
481.188	180.38
481.406	145.38
481.624	97.38
481.843	82.38
482.061	86.38
482.28	94.38
482.498	74.38
482.717	85.38
482.935	79.38
483.153	83.38
483.372	96.38
483.59	99.38
483.808	89.38
484.027	93.38
484.245	87.38
484.463	83.38
484.681	85.38
484.9	98.38
485.118	85.38
485.336	99.38
485.554	98.38
485.772	86.38
485.99	104.38
486.209	108.38
486.427	103.38
486.645	107.38
486.863	101.38
487.081	81.38
487.299	91.38
487.517	87.38
487.735	91.38
487.953	97.38
488.171	85.38
488.389	103.38
488.607	79.38
488.825	88.38
489.043	87.38
489.261	102.38
489.479	81.38
489.696	89.38
489.914	85.38
490.132	96.38
490.35	87.38
490.568	85.38
490.786	89.38
491.003	89.38
491.221	91.38
491.439	83.38
491.657	89.38
491.874	99.38
492.092	96.38
492.31	80.38
492.527	86.38
492.745	90.38
492.963	84.38
493.18	80.38
493.398	92.38
493.615	93.38
493.833	87.38
494.05	90.38
494.268	89.38
494.485	99.38
494.703	77.38
494.92	69.38
495.138	81.38
495.355	85.38
495.573	76.38
495.79	88.38
496.008	99.38
496.225	83.38
496.442	96.38
496.66	89.38
496.877	89.38
497.094	75.38
497.312	73.38
497.529	87.38
497.746	88.38
497.963	97.38
498.181	104.38
498.398	88.38
498.615	99.38
498.832	111.38
499.049	98.38
499.267	95.38
499.484	88.38
499.701	92.38
499.918	96.38
500.135	97.38
500.352	83.38
500.569	80.38
500.786	93.38
501.003	91.38
501.22	80.38
501.437	90.38
501.654	95.38
501.871	108.38
502.088	96.38
502.305	99.38
502.522	74.38
502.739	95.38
502.956	72.38
503.172	87.38
503.389	100.38
503.606	97.38
503.823	93.38
504.04	83.38
504.256	102.38
504.473	84.38
504.69	91.38
504.907	94.38
505.123	85.38
505.34	89.38
505.557	81.38
505.773	88.38
505.99	86.38
506.207	97.38
506.423	81.38
506.64	83.38
506.856	85.38
507.073	88.38
507.289	95.38
507.506	104.38
507.722	103.38
507.939	103.38
508.155	89.38
508.372	92.38
508.588	87.38
508.805	89.38
509.021	88.38
509.238	106.38
509.454	116.38
509.67	97.38
509.887	118.38
510.103	115.38
510.319	195.38
510.536	517.38
510.752	1594.38
510.968	451.38
511.184	134.38
511.401	99.38
511.617	98.38
511.833	99.38
512.049	83.38
512.265	95.38
512.481	99.38
512.698	75.38
512.914	93.38
513.13	91.38
513.346	89.38
513.562	97.38
513.778	83.38
513.994	108.38
514.21	84.38
514.426	101.38
514.642	112.38
514.858	107.38
515.074	138.38
515.29	301.38
515.506	938.38
515.721	325.38
515.937	127.38
516.153	108.38
516.369	99.38
