Data from Circ_1983_H10_HRD10591_00032.txt Node
Date: Wed Jan 03 12:26:51 EST 2024
User: Yrep
Spectrometer: HR+D1059
Trigger mode: 1
Integration Time (sec): 1.000000E-1
Scans to average: 1
Electric dark correction enabled: true
Nonlinearity correction enabled: false
Boxcar width: 0
XAxis mode: Wavelengths
Number of Pixels in Spectrum: 2048
>>>>>Begin Spectral Data<<<<<
223.165	-19
223.4	-19
223.635	-19
223.869	-18
224.104	-18
224.338	-21
224.573	-14
224.808	-13
225.042	-10
225.277	-7
225.511	-8
225.746	-2
225.98	17
226.215	15
226.449	21
226.683	25
226.918	26
227.152	26
227.387	28
227.621	23
227.856	42
228.09	43
228.324	46
228.559	61
228.793	57
229.027	70
229.262	67
229.496	65
229.73	87
229.964	73
230.199	78
230.433	77
230.667	77
230.901	89
231.136	87
231.37	93
231.604	87
231.838	78
232.072	95
232.306	75
232.541	97
232.775	84
233.009	78
233.243	80
233.477	91
233.711	77
233.945	89
234.179	79
234.413	70
234.647	78
234.881	70
235.115	84
235.349	77
235.583	83
235.817	82
236.051	77
236.285	87
236.519	79
236.753	76
236.987	91
237.221	78
237.455	77
237.689	76
237.922	67
238.156	58
238.39	69
238.624	66
238.858	69
239.091	71
239.325	69
239.559	76
239.793	91
240.027	85
240.26	91
240.494	78
240.728	95
240.961	78
241.195	82
241.429	81
241.662	73
241.896	82
242.13	78
242.363	73
242.597	79
242.83	95
243.064	85
243.298	84
243.531	86
243.765	63
243.998	70
244.232	67
244.465	85
244.699	81
244.932	74
245.166	77
245.399	76
245.633	83
245.866	89
246.099	94
246.333	85
246.566	77
246.8	73
247.033	84
247.266	88
247.5	84
247.733	67
247.966	73
248.2	73
248.433	75
248.666	85
248.899	80
249.133	107
249.366	91
249.599	99
249.832	87
250.066	86
250.299	87
250.532	79
250.765	70
250.998	87
251.231	81
251.465	86
251.698	70
251.931	85
252.164	81
252.397	68
252.63	70
252.863	78
253.096	88
253.329	83
253.562	73
253.795	84
254.028	87
254.261	85
254.494	74
254.727	97
254.96	73
255.193	84
255.426	85
255.659	83
255.892	83
256.124	85
256.357	85
256.59	76
256.823	87
257.056	79
257.289	91
257.521	91
257.754	84
257.987	98
258.22	89
258.452	81
258.685	75
258.918	87
259.151	64
259.383	89
259.616	71
259.849	86
260.081	76
260.314	75
260.547	67
260.779	95
261.012	89
261.244	97
261.477	82
261.71	81
261.942	99
262.175	92
262.407	81
262.64	70
262.872	97
263.105	97
263.337	86
263.57	70
263.802	83
264.035	75
264.267	87
264.499	91
264.732	96
264.964	70
265.197	89
265.429	72
265.661	90
265.894	89
266.126	77
266.358	82
266.591	77
266.823	83
267.055	77
267.287	73
267.52	96
267.752	87
267.984	69
268.216	85
268.448	87
268.681	92
268.913	90
269.145	89
269.377	86
269.609	75
269.841	99
270.073	97
270.306	87
270.538	87
270.77	85
271.002	85
271.234	78
271.466	95
271.698	78
271.93	86
272.162	84
272.394	76
272.626	82
272.858	97
273.09	77
273.322	97
273.553	84
273.785	81
274.017	85
274.249	87
274.481	83
274.713	91
274.945	66
275.176	86
275.408	90
275.64	93
275.872	89
276.104	77
276.335	99
276.567	105
276.799	100
277.031	97
277.262	86
277.494	93
277.726	76
277.957	85
278.189	97
278.421	96
278.652	83
278.884	93
279.115	90
279.347	79
279.579	97
279.81	101
280.042	97
280.273	86
280.505	76
280.736	83
280.968	93
281.199	90
281.431	88
281.662	80
281.894	71
282.125	98
282.356	119
282.588	115
282.819	103
283.051	76
283.282	78
283.513	89
283.745	81
283.976	84
284.207	75
284.439	83
284.67	83
284.901	77
285.132	78
285.364	79
285.595	98
285.826	84
286.057	85
286.288	100
286.52	91
286.751	99
286.982	82
287.213	67
287.444	90
287.675	94
287.906	95
288.138	90
288.369	100
288.6	91
288.831	86
289.062	84
289.293	85
289.524	89
289.755	93
289.986	90
290.217	76
290.448	87
290.679	83
290.91	98
291.141	87
291.371	107
291.602	89
291.833	92
292.064	91
292.295	93
292.526	88
292.757	100
292.987	87
293.218	97
293.449	82
293.68	90
293.91	95
294.141	98
294.372	96
294.603	83
294.833	93
295.064	98
295.295	81
295.525	87
295.756	103
295.987	121
296.217	123
296.448	108
296.679	81
296.909	99
297.14	99
297.37	99
297.601	88
297.831	117
298.062	77
298.292	84
298.523	85
298.753	82
298.984	82
299.214	89
299.445	92
299.675	102
299.905	93
300.136	97
300.366	84
300.597	87
300.827	102
301.057	91
301.288	78
301.518	107
301.748	94
301.979	101
302.209	82
302.439	100
302.669	95
302.9	98
303.13	82
303.36	84
303.59	74
303.82	111
304.051	92
304.281	91
304.511	103
304.741	90
304.971	83
305.201	86
305.431	87
305.661	88
305.891	81
306.121	91
306.352	102
306.582	99
306.812	95
307.042	107
307.272	96
307.502	95
307.731	93
307.961	86
308.191	100
308.421	85
308.651	102
308.881	97
309.111	81
309.341	103
309.571	97
309.8	103
310.03	89
310.26	109
310.49	93
310.72	102
310.949	102
311.179	95
311.409	92
311.639	100
311.868	90
312.098	86
312.328	93
312.557	103
312.787	99
313.017	98
313.246	92
313.476	100
313.706	85
313.935	92
314.165	93
314.394	100
314.624	74
314.853	94
315.083	89
315.312	88
315.542	90
315.771	83
316.001	103
316.23	95
316.46	99
316.689	81
316.919	108
317.148	111
317.377	89
317.607	99
317.836	100
318.065	87
318.295	101
318.524	86
318.753	89
318.983	95
319.212	94
319.441	103
319.67	106
319.9	96
320.129	91
320.358	106
320.587	111
320.816	112
321.046	86
321.275	99
321.504	110
321.733	93
321.962	74
322.191	103
322.42	106
322.649	110
322.878	106
323.108	117
323.337	111
323.566	122
323.795	139
324.024	181
324.253	318
324.482	657
324.71	1307
324.939	1741
325.168	655
325.397	202
325.626	139
325.855	119
326.084	119
326.313	129
326.542	127
326.77	190
326.999	357
327.228	739
327.457	1338
327.686	1035
327.914	315
328.143	177
328.372	148
328.6	124
328.829	111
329.058	104
329.287	115
329.515	118
329.744	104
329.972	113
330.201	153
330.43	170
330.658	131
330.887	138
331.115	109
331.344	85
331.572	95
331.801	104
332.03	114
332.258	93
332.486	78
332.715	85
332.943	83
333.172	95
333.4	108
333.629	101
333.857	107
334.085	137
334.314	148
334.542	213
334.771	195
334.999	127
335.227	97
335.455	89
335.684	98
335.912	96
336.14	102
336.369	101
336.597	107
336.825	97
337.053	100
337.281	92
337.51	90
337.738	84
337.966	81
338.194	90
338.422	101
338.65	92
338.878	96
339.106	109
339.334	99
339.562	93
339.79	89
340.018	97
340.246	120
340.474	108
340.702	92
340.93	100
341.158	97
341.386	100
341.614	89
341.842	86
342.07	91
342.298	98
342.526	87
342.754	95
342.981	90
343.209	95
343.437	106
343.665	90
343.893	102
344.12	92
344.348	96
344.576	100
344.804	88
345.031	96
345.259	102
345.487	114
345.714	78
345.942	98
346.17	101
346.397	85
346.625	101
346.853	95
347.08	84
347.308	101
347.535	101
347.763	96
347.99	91
348.218	92
348.445	113
348.673	82
348.9	97
349.128	111
349.355	93
349.583	95
349.81	108
350.037	87
350.265	93
350.492	112
350.72	102
350.947	103
351.174	100
351.402	98
351.629	100
351.856	106
352.083	98
352.311	103
352.538	89
352.765	103
352.992	102
353.22	110
353.447	102
353.674	103
353.901	94
354.128	106
354.355	99
354.583	88
354.81	98
355.037	102
355.264	101
355.491	88
355.718	113
355.945	102
356.172	121
356.399	99
356.626	94
356.853	89
357.08	96
357.307	106
357.534	101
357.761	97
357.988	106
358.215	102
358.441	99
358.668	92
358.895	89
359.122	92
359.349	98
359.576	78
359.802	93
360.029	89
360.256	106
360.483	95
360.709	85
360.936	101
361.163	90
361.39	101
361.616	93
361.843	92
362.07	107
362.296	96
362.523	87
362.749	85
362.976	88
363.203	107
363.429	80
363.656	75
363.882	91
364.109	85
364.335	93
364.562	98
364.788	89
365.015	98
365.241	97
365.468	117
365.694	115
365.92	99
366.147	96
366.373	108
366.599	95
366.826	91
367.052	82
367.278	94
367.505	82
367.731	101
367.957	93
368.184	81
368.41	111
368.636	119
368.862	119
369.089	106
369.315	101
369.541	100
369.767	103
369.993	104
370.219	99
370.445	91
370.672	93
370.898	99
371.124	83
371.35	85
371.576	88
371.802	87
372.028	89
372.254	90
372.48	70
372.706	86
372.932	82
373.158	92
373.384	99
373.61	91
373.835	90
374.061	83
374.287	95
374.513	86
374.739	74
374.965	84
375.191	85
375.416	95
375.642	84
375.868	81
376.094	83
376.319	93
376.545	91
376.771	92
376.997	87
377.222	94
377.448	93
377.674	98
377.899	94
378.125	109
378.35	104
378.576	99
378.802	101
379.027	108
379.253	83
379.478	90
379.704	98
379.929	99
380.155	107
380.38	90
380.606	98
380.831	107
381.057	99
381.282	98
381.507	106
381.733	117
381.958	89
382.184	85
382.409	102
382.634	103
382.86	110
383.085	108
383.31	109
383.535	102
383.761	105
383.986	95
384.211	86
384.436	100
384.662	100
384.887	110
385.112	106
385.337	102
385.562	101
385.787	122
386.013	115
386.238	120
386.463	108
386.688	109
386.913	130
387.138	115
387.363	116
387.588	92
387.813	97
388.038	110
388.263	109
388.488	115
388.713	107
388.938	87
389.163	95
389.387	81
389.612	78
389.837	97
390.062	92
390.287	91
390.512	90
390.736	89
390.961	86
391.186	90
391.411	103
391.636	103
391.86	95
392.085	92
392.31	83
392.534	78
392.759	83
392.984	104
393.208	111
393.433	122
393.658	114
393.882	92
394.107	92
394.331	85
394.556	88
394.78	81
395.005	90
395.229	89
395.454	93
395.678	94
395.903	100
396.127	79
396.352	99
396.576	86
396.801	90
397.025	102
397.249	84
397.474	89
397.698	85
397.922	85
398.147	91
398.371	79
398.595	89
398.82	79
399.044	93
399.268	90
399.492	93
399.717	76
399.941	85
400.165	90
400.389	79
400.613	87
400.837	93
401.062	81
401.286	89
401.51	89
401.734	85
401.958	101
402.182	98
402.406	127
402.63	118
402.854	86
403.078	92
403.302	83
403.526	84
403.75	104
403.974	85
404.198	81
404.422	92
404.645	95
404.869	79
405.093	94
405.317	89
405.541	99
405.765	88
405.988	103
406.212	155
406.436	200
406.66	128
406.883	103
407.107	105
407.331	75
407.555	116
407.778	99
408.002	98
408.226	88
408.449	90
408.673	89
408.896	101
409.12	102
409.344	90
409.567	93
409.791	83
410.014	82
410.238	114
410.461	92
410.685	102
410.908	81
411.132	110
411.355	98
411.578	100
411.802	93
412.025	103
412.249	91
412.472	87
412.695	97
412.919	82
413.142	104
413.365	90
413.589	100
413.812	82
414.035	96
414.258	75
414.482	107
414.705	80
414.928	91
415.151	102
415.374	81
415.597	75
415.821	84
416.044	97
416.267	98
416.49	86
416.713	92
416.936	92
417.159	99
417.382	93
417.605	106
417.828	97
418.051	87
418.274	99
418.497	98
418.72	93
418.943	91
419.166	109
419.389	77
419.611	81
419.834	84
420.057	99
420.28	82
420.503	91
420.726	77
420.948	89
421.171	90
421.394	103
421.617	85
421.839	86
422.062	96
422.285	99
422.507	82
422.73	102
422.953	98
423.175	87
423.398	90
423.621	73
423.843	76
424.066	98
424.288	97
424.511	89
424.733	117
424.956	108
425.178	89
425.401	102
425.623	89
425.846	89
426.068	106
426.291	90
426.513	96
426.735	92
426.958	79
427.18	97
427.402	111
427.625	143
427.847	119
428.069	113
428.292	91
428.514	91
428.736	93
428.958	93
429.181	99
429.403	87
429.625	89
429.847	94
430.069	90
430.292	94
430.514	87
430.736	87
430.958	93
431.18	85
431.402	86
431.624	79
431.846	87
432.068	105
432.29	91
432.512	79
432.734	91
432.956	97
433.178	100
433.4	94
433.622	81
433.844	87
434.066	105
434.287	86
434.509	85
434.731	92
434.953	89
435.175	86
435.397	94
435.618	92
435.84	97
436.062	122
436.284	102
436.505	97
436.727	97
436.949	103
437.17	91
437.392	78
437.614	103
437.835	102
438.057	117
438.278	90
438.5	108
438.721	100
438.943	88
439.165	105
439.386	97
439.608	93
439.829	86
440.05	110
440.272	119
440.493	98
440.715	89
440.936	94
441.158	77
441.379	89
441.6	81
441.822	98
442.043	91
442.264	97
442.486	100
442.707	78
442.928	97
443.149	113
443.371	117
443.592	92
443.813	114
444.034	95
444.255	83
444.476	85
444.698	93
444.919	106
445.14	132
445.361	113
445.582	100
445.803	109
446.024	121
446.245	116
446.466	98
446.687	92
446.908	85
447.129	82
447.35	96
447.571	84
447.792	93
448.013	105
448.234	105
448.455	83
448.675	102
448.896	98
449.117	97
449.338	98
449.559	125
449.779	101
450	91
450.221	96
450.442	81
450.662	79
450.883	94
451.104	102
451.324	101
451.545	97
451.766	79
451.986	81
452.207	82
452.428	85
452.648	110
452.869	105
453.089	100
453.31	106
453.53	85
453.751	98
453.971	98
454.192	107
454.412	99
454.633	76
454.853	77
455.073	89
455.294	76
455.514	86
455.734	83
455.955	99
456.175	104
456.395	85
456.616	91
456.836	82
457.056	65
457.276	79
457.497	89
457.717	83
457.937	84
458.157	95
458.377	103
458.598	100
458.818	110
459.038	137
459.258	106
459.478	94
459.698	85
459.918	71
460.138	78
460.358	104
460.578	84
460.798	93
461.018	83
461.238	88
461.458	90
461.678	77
461.898	89
462.118	87
462.338	68
462.558	84
462.777	86
462.997	81
463.217	84
463.437	89
463.657	90
463.876	88
464.096	89
464.316	96
464.536	102
464.755	109
464.975	100
465.195	141
465.414	139
465.634	104
465.854	85
466.073	96
466.293	91
466.512	95
466.732	76
466.951	79
467.171	88
467.391	97
467.61	95
467.829	99
468.049	111
468.268	147
468.488	115
468.707	86
468.927	83
469.146	85
469.365	91
469.585	83
469.804	93
470.023	70
470.243	105
470.462	93
470.681	109
470.901	87
471.12	102
471.339	90
471.558	88
471.777	85
471.997	110
472.216	162
472.435	235
472.654	130
472.873	89
473.092	91
473.311	94
473.53	75
473.749	87
473.968	103
474.187	103
474.406	93
474.625	89
474.844	94
475.063	101
475.282	90
475.501	77
475.72	76
475.939	73
476.158	71
476.377	78
476.596	80
476.814	109
477.033	91
477.252	87
477.471	93
477.69	92
477.908	100
478.127	85
478.346	98
478.564	92
478.783	97
479.002	87
479.22	86
479.439	100
479.658	91
479.876	81
480.095	86
480.313	94
480.532	95
480.751	98
480.969	146
481.188	394
481.406	264
481.624	98
481.843	96
482.061	88
482.28	102
482.498	71
482.717	81
482.935	101
483.153	79
483.372	99
483.59	68
483.808	85
484.027	92
484.245	99
484.463	81
484.681	91
484.9	87
485.118	94
485.336	98
485.554	95
485.772	106
485.99	110
486.209	100
486.427	90
486.645	123
486.863	109
487.081	102
487.299	98
487.517	96
487.735	93
487.953	97
488.171	89
488.389	90
488.607	101
488.825	89
489.043	91
489.261	98
489.479	99
489.696	89
489.914	83
490.132	92
490.35	94
490.568	85
490.786	104
491.003	86
491.221	89
491.439	84
491.657	92
491.874	85
492.092	97
492.31	103
492.527	86
492.745	78
492.963	87
493.18	93
493.398	90
493.615	93
493.833	104
494.05	93
494.268	102
494.485	88
494.703	88
494.92	91
495.138	102
495.355	89
495.573	90
495.79	89
496.008	100
496.225	97
496.442	94
496.66	88
496.877	94
497.094	89
497.312	97
497.529	99
497.746	99
497.963	100
498.181	100
498.398	105
498.615	96
498.832	103
499.049	108
499.267	98
499.484	80
499.701	80
499.918	94
500.135	94
500.352	94
500.569	101
500.786	71
501.003	84
501.22	93
501.437	96
501.654	105
501.871	99
502.088	95
502.305	84
502.522	92
502.739	86
502.956	85
503.172	100
503.389	78
503.606	101
503.823	103
504.04	74
504.256	86
504.473	73
504.69	93
504.907	89
505.123	75
505.34	92
505.557	93
505.773	84
505.99	94
506.207	85
506.423	89
506.64	93
506.856	89
507.073	94
507.289	91
507.506	101
507.722	100
507.939	95
508.155	97
508.372	89
508.588	91
508.805	95
509.021	89
509.238	89
509.454	92
509.67	98
509.887	109
510.103	116
510.319	196
510.536	610
510.752	1825
510.968	525
511.184	147
511.401	97
511.617	100
511.833	78
512.049	89
512.265	91
512.481	101
512.698	99
512.914	77
513.13	91
513.346	102
513.562	95
513.778	98
513.994	92
514.21	95
514.426	119
514.642	124
514.858	121
515.074	135
515.29	360
515.506	1093
515.721	409
515.937	130
516.153	94
516.369	100
516.585	87
516.801	93
517.016	101
517.232	99
517.448	97
517.664	86
517.879	92
518.095	101
518.311	94
518.527	97
518.742	83
518.958	89
519.173	94
519.389	86
519.605	93
519.82	82
520.036	106
520.251	99
520.467	105
520.682	115
520.898	98
521.113	119
521.329	120
521.544	176
521.76	444
521.975	1805
522.19	1073
522.406	235
522.621	123
522.836	90
523.052	113
523.267	89
523.482	86
523.698	104
523.913	122
524.128	103
524.343	104
524.559	94
524.774	105
524.989	98
525.204	96
525.419	90
525.634	86
525.849	76
526.064	83
526.28	103
526.495	87
526.71	101
526.925	83
527.14	87
527.355	82
527.57	88
527.785	90
527.999	95
528.214	86
528.429	89
528.644	92
528.859	85
529.074	85
529.289	110
529.503	157
529.718	99
529.933	90
530.148	83
530.363	99
530.577	93
530.792	94
531.007	94
531.221	87
531.436	109
531.651	90
531.865	94
532.08	70
532.295	87
532.509	101
532.724	87
532.938	97
533.153	95
533.367	82
533.582	95
533.796	92
534.011	98
534.225	84
534.44	92
534.654	87
534.868	86
535.083	90
535.297	95
535.511	104
535.726	100
535.94	97
536.154	77
536.369	92
536.583	79
536.797	81
537.011	92
537.225	96
537.44	91
537.654	93
537.868	103
538.082	87
538.296	94
538.51	83
538.724	76
538.938	86
539.153	98
539.367	104
539.581	94
539.795	97
540.009	101
540.222	97
540.436	89
540.65	91
540.864	88
541.078	99
541.292	73
541.506	86
541.72	82
541.934	104
542.147	100
542.361	83
542.575	90
542.789	96
543.002	84
543.216	86
543.43	94
543.644	81
543.857	88
544.071	87
544.285	91
544.498	93
544.712	92
544.925	92
545.139	87
545.352	93
545.566	83
545.779	111
545.993	89
546.206	71
546.42	87
546.633	89
546.847	93
547.06	82
547.274	91
547.487	104
547.7	80
547.914	81
548.127	74
548.34	87
548.554	88
548.767	97
548.98	89
549.193	77
549.407	93
549.62	83
549.833	101
550.046	97
550.259	79
550.473	90
550.686	102
550.899	91
551.112	86
551.325	81
551.538	90
551.751	82
551.964	86
552.177	82
552.39	87
552.603	93
552.816	84
553.029	80
553.242	68
553.455	104
553.667	105
553.88	106
554.093	89
554.306	97
554.519	102
554.732	97
554.944	89
555.157	88
555.37	103
555.583	82
555.795	93
556.008	89
556.221	82
556.433	108
556.646	99
556.859	85
557.071	102
557.284	96
557.496	83
557.709	95
557.921	85
558.134	100
558.346	105
558.559	92
558.771	83
558.984	90
559.196	84
559.409	89
559.621	105
559.833	85
560.046	86
560.258	89
560.47	93
560.683	92
560.895	77
561.107	96
561.32	95
561.532	102
561.744	91
561.956	85
562.168	89
562.381	87
562.593	93
562.805	91
563.017	95
563.229	76
563.441	88
563.653	93
563.865	108
564.077	85
564.289	92
564.501	91
564.713	98
564.925	93
565.137	92
565.349	98
565.561	91
565.773	106
565.985	107
566.197	98
566.408	95
566.62	87
566.832	103
567.044	106
567.255	90
567.467	86
567.679	94
567.891	85
568.102	92
568.314	105
568.526	89
568.737	97
568.949	94
569.161	85
569.372	91
569.584	80
569.795	105
570.007	126
570.218	202
570.43	116
570.641	95
570.853	94
571.064	95
571.276	90
571.487	82
571.698	83
571.91	93
572.121	85
572.333	83
572.544	81
572.755	79
572.966	87
573.178	95
573.389	92
573.6	90
573.811	90
574.023	99
574.234	81
574.445	95
574.656	94
574.867	78
575.078	90
575.289	79
575.501	85
575.712	93
575.923	87
576.134	93
576.345	93
576.556	98
576.767	89
576.978	96
577.188	91
577.399	89
577.61	96
577.821	101
578.032	107
578.243	222
578.454	556
578.665	170
578.875	95
579.086	95
579.297	83
579.508	85
579.718	95
579.929	76
580.14	81
580.35	85
580.561	99
580.772	91
580.982	87
581.193	83
581.403	88
581.614	89
581.825	99
582.035	90
582.246	84
582.456	100
582.667	99
582.877	100
583.087	79
583.298	86
583.508	95
