Data from Circ_1983_H10_HRD10591_00060.txt Node
Date: Wed Jan 03 12:26:56 EST 2024
User: Yrep
Spectrometer: HR+D1059
Trigger mode: 1
Integration Time (sec): 1.000000E-1
Scans to average: 1
Electric dark correction enabled: true
Nonlinearity correction enabled: false
Boxcar width: 0
XAxis mode: Wavelengths
Number of Pixels in Spectrum: 2048
>>>>>Begin Spectral Data<<<<<
223.165	-16.88
223.4	-16.88
223.635	-16.88
223.869	-9.88
224.104	-13.88
224.338	-22.88
224.573	-13.88
224.808	-1.88
225.042	-5.88
225.277	-7.88
225.511	-4.88
225.746	-6.88
225.98	19.12
226.215	15.12
226.449	13.12
226.683	19.12
226.918	21.12
227.152	17.12
227.387	44.12
227.621	38.12
227.856	35.12
228.09	39.12
228.324	47.12
228.559	55.12
228.793	68.12
229.027	54.12
229.262	58.12
229.496	65.12
229.73	94.12
229.964	103.12
230.199	94.12
230.433	71.12
230.667	73.12
230.901	80.12
231.136	68.12
231.37	77.12
231.604	78.12
231.838	75.12
232.072	81.12
232.306	81.12
232.541	81.12
232.775	88.12
233.009	67.12
233.243	75.12
233.477	85.12
233.711	91.12
233.945	85.12
234.179	71.12
234.413	95.12
234.647	79.12
234.881	82.12
235.115	87.12
235.349	91.12
235.583	70.12
235.817	75.12
236.051	95.12
236.285	89.12
236.519	80.12
236.753	74.12
236.987	85.12
237.221	84.12
237.455	86.12
237.689	74.12
237.922	69.12
238.156	85.12
238.39	71.12
238.624	74.12
238.858	82.12
239.091	70.12
239.325	68.12
239.559	89.12
239.793	73.12
240.027	78.12
240.26	71.12
240.494	73.12
240.728	59.12
240.961	74.12
241.195	65.12
241.429	75.12
241.662	77.12
241.896	83.12
242.13	73.12
242.363	81.12
242.597	79.12
242.83	72.12
243.064	74.12
243.298	72.12
243.531	71.12
243.765	93.12
243.998	90.12
244.232	83.12
244.465	79.12
244.699	82.12
244.932	66.12
245.166	90.12
245.399	81.12
245.633	68.12
245.866	89.12
246.099	75.12
246.333	73.12
246.566	78.12
246.8	72.12
247.033	72.12
247.266	69.12
247.5	88.12
247.733	82.12
247.966	77.12
248.2	73.12
248.433	92.12
248.666	92.12
248.899	102.12
249.133	83.12
249.366	79.12
249.599	92.12
249.832	82.12
250.066	76.12
250.299	91.12
250.532	81.12
250.765	77.12
250.998	77.12
251.231	72.12
251.465	88.12
251.698	88.12
251.931	72.12
252.164	76.12
252.397	89.12
252.63	76.12
252.863	64.12
253.096	78.12
253.329	85.12
253.562	85.12
253.795	87.12
254.028	84.12
254.261	88.12
254.494	73.12
254.727	78.12
254.96	81.12
255.193	72.12
255.426	81.12
255.659	90.12
255.892	86.12
256.124	85.12
256.357	86.12
256.59	89.12
256.823	71.12
257.056	92.12
257.289	94.12
257.521	75.12
257.754	78.12
257.987	98.12
258.22	96.12
258.452	86.12
258.685	86.12
258.918	83.12
259.151	85.12
259.383	86.12
259.616	83.12
259.849	84.12
260.081	94.12
260.314	84.12
260.547	84.12
260.779	70.12
261.012	73.12
261.244	78.12
261.477	97.12
261.71	99.12
261.942	97.12
262.175	90.12
262.407	78.12
262.64	79.12
262.872	78.12
263.105	77.12
263.337	76.12
263.57	76.12
263.802	81.12
264.035	90.12
264.267	84.12
264.499	87.12
264.732	73.12
264.964	82.12
265.197	87.12
265.429	75.12
265.661	78.12
265.894	82.12
266.126	78.12
266.358	76.12
266.591	88.12
266.823	98.12
267.055	83.12
267.287	78.12
267.52	75.12
267.752	85.12
267.984	79.12
268.216	87.12
268.448	86.12
268.681	93.12
268.913	77.12
269.145	89.12
269.377	99.12
269.609	87.12
269.841	76.12
270.073	90.12
270.306	105.12
270.538	78.12
270.77	88.12
271.002	92.12
271.234	75.12
271.466	99.12
271.698	85.12
271.93	93.12
272.162	84.12
272.394	90.12
272.626	75.12
272.858	84.12
273.09	73.12
273.322	81.12
273.553	87.12
273.785	102.12
274.017	95.12
274.249	86.12
274.481	91.12
274.713	88.12
274.945	91.12
275.176	83.12
275.408	79.12
275.64	103.12
275.872	80.12
276.104	97.12
276.335	87.12
276.567	99.12
276.799	95.12
277.031	93.12
277.262	89.12
277.494	96.12
277.726	98.12
277.957	89.12
278.189	89.12
278.421	88.12
278.652	93.12
278.884	86.12
279.115	86.12
279.347	81.12
279.579	73.12
279.81	85.12
280.042	89.12
280.273	103.12
280.505	87.12
280.736	65.12
280.968	70.12
281.199	105.12
281.431	85.12
281.662	89.12
281.894	104.12
282.125	112.12
282.356	107.12
282.588	135.12
282.819	118.12
283.051	101.12
283.282	87.12
283.513	92.12
283.745	86.12
283.976	74.12
284.207	100.12
284.439	89.12
284.67	104.12
284.901	91.12
285.132	92.12
285.364	85.12
285.595	92.12
285.826	74.12
286.057	95.12
286.288	89.12
286.52	95.12
286.751	86.12
286.982	79.12
287.213	69.12
287.444	83.12
287.675	89.12
287.906	86.12
288.138	97.12
288.369	85.12
288.6	88.12
288.831	86.12
289.062	92.12
289.293	76.12
289.524	99.12
289.755	83.12
289.986	77.12
290.217	81.12
290.448	89.12
290.679	91.12
290.91	92.12
291.141	68.12
291.371	93.12
291.602	89.12
291.833	97.12
292.064	93.12
292.295	86.12
292.526	86.12
292.757	75.12
292.987	92.12
293.218	89.12
293.449	98.12
293.68	86.12
293.91	74.12
294.141	72.12
294.372	79.12
294.603	85.12
294.833	89.12
295.064	93.12
295.295	84.12
295.525	82.12
295.756	86.12
295.987	114.12
296.217	117.12
296.448	123.12
296.679	97.12
296.909	93.12
297.14	83.12
297.37	83.12
297.601	102.12
297.831	92.12
298.062	90.12
298.292	98.12
298.523	88.12
298.753	80.12
298.984	93.12
299.214	85.12
299.445	98.12
299.675	95.12
299.905	85.12
300.136	105.12
300.366	84.12
300.597	94.12
300.827	91.12
301.057	85.12
301.288	96.12
301.518	75.12
301.748	92.12
301.979	103.12
302.209	94.12
302.439	101.12
302.669	95.12
302.9	97.12
303.13	89.12
303.36	101.12
303.59	106.12
303.82	106.12
304.051	88.12
304.281	93.12
304.511	89.12
304.741	85.12
304.971	98.12
305.201	99.12
305.431	103.12
305.661	76.12
305.891	87.12
306.121	91.12
306.352	98.12
306.582	96.12
306.812	85.12
307.042	101.12
307.272	96.12
307.502	105.12
307.731	100.12
307.961	93.12
308.191	83.12
308.421	89.12
308.651	88.12
308.881	91.12
309.111	93.12
309.341	92.12
309.571	100.12
309.8	103.12
310.03	97.12
310.26	91.12
310.49	102.12
310.72	99.12
310.949	90.12
311.179	84.12
311.409	87.12
311.639	98.12
311.868	103.12
312.098	96.12
312.328	109.12
312.557	96.12
312.787	91.12
313.017	106.12
313.246	87.12
313.476	92.12
313.706	93.12
313.935	79.12
314.165	93.12
314.394	85.12
314.624	98.12
314.853	94.12
315.083	97.12
315.312	103.12
315.542	101.12
315.771	91.12
316.001	88.12
316.23	86.12
316.46	79.12
316.689	77.12
316.919	87.12
317.148	91.12
317.377	93.12
317.607	93.12
317.836	86.12
318.065	93.12
318.295	84.12
318.524	93.12
318.753	89.12
318.983	104.12
319.212	98.12
319.441	102.12
319.67	109.12
319.9	95.12
320.129	109.12
320.358	91.12
320.587	104.12
320.816	91.12
321.046	108.12
321.275	91.12
321.504	97.12
321.733	101.12
321.962	84.12
322.191	95.12
322.42	107.12
322.649	94.12
322.878	91.12
323.108	107.12
323.337	102.12
323.566	101.12
323.795	122.12
324.024	179.12
324.253	304.12
324.482	623.12
324.71	1222.12
324.939	1617.12
325.168	613.12
325.397	202.12
325.626	114.12
325.855	110.12
326.084	119.12
326.313	111.12
326.542	126.12
326.77	180.12
326.999	363.12
327.228	678.12
327.457	1235.12
327.686	1017.12
327.914	315.12
328.143	203.12
328.372	169.12
328.6	113.12
328.829	112.12
329.058	129.12
329.287	124.12
329.515	109.12
329.744	113.12
329.972	140.12
330.201	189.12
330.43	208.12
330.658	153.12
330.887	138.12
331.115	114.12
331.344	105.12
331.572	103.12
331.801	92.12
332.03	104.12
332.258	77.12
332.486	105.12
332.715	102.12
332.943	94.12
333.172	94.12
333.4	107.12
333.629	115.12
333.857	116.12
334.085	125.12
334.314	181.12
334.542	245.12
334.771	242.12
334.999	114.12
335.227	104.12
335.455	105.12
335.684	93.12
335.912	102.12
336.14	104.12
336.369	99.12
336.597	100.12
336.825	90.12
337.053	95.12
337.281	92.12
337.51	84.12
337.738	101.12
337.966	85.12
338.194	92.12
338.422	87.12
338.65	77.12
338.878	88.12
339.106	101.12
339.334	97.12
339.562	104.12
339.79	88.12
340.018	84.12
340.246	77.12
340.474	101.12
340.702	89.12
340.93	87.12
341.158	96.12
341.386	93.12
341.614	93.12
341.842	98.12
342.07	89.12
342.298	103.12
342.526	89.12
342.754	89.12
342.981	96.12
343.209	91.12
343.437	111.12
343.665	90.12
343.893	90.12
344.12	101.12
344.348	86.12
344.576	89.12
344.804	90.12
345.031	92.12
345.259	109.12
345.487	92.12
345.714	90.12
345.942	106.12
346.17	100.12
346.397	97.12
346.625	98.12
346.853	100.12
347.08	87.12
347.308	90.12
347.535	107.12
347.763	101.12
347.99	102.12
348.218	93.12
348.445	85.12
348.673	86.12
348.9	102.12
349.128	93.12
349.355	92.12
349.583	85.12
349.81	100.12
350.037	103.12
350.265	97.12
350.492	97.12
350.72	99.12
350.947	109.12
351.174	102.12
351.402	113.12
351.629	91.12
351.856	91.12
352.083	96.12
352.311	100.12
352.538	102.12
352.765	106.12
352.992	112.12
353.22	109.12
353.447	99.12
353.674	89.12
353.901	85.12
354.128	86.12
354.355	93.12
354.583	91.12
354.81	90.12
355.037	112.12
355.264	93.12
355.491	109.12
355.718	88.12
355.945	86.12
356.172	93.12
356.399	104.12
356.626	99.12
356.853	98.12
357.08	88.12
357.307	97.12
357.534	85.12
357.761	89.12
357.988	111.12
358.215	107.12
358.441	91.12
358.668	93.12
358.895	97.12
359.122	98.12
359.349	89.12
359.576	88.12
359.802	101.12
360.029	120.12
360.256	112.12
360.483	98.12
360.709	79.12
360.936	97.12
361.163	97.12
361.39	88.12
361.616	89.12
361.843	83.12
362.07	93.12
362.296	92.12
362.523	91.12
362.749	98.12
362.976	92.12
363.203	86.12
363.429	89.12
363.656	88.12
363.882	89.12
364.109	92.12
364.335	91.12
364.562	85.12
364.788	84.12
365.015	69.12
365.241	97.12
365.468	98.12
365.694	110.12
365.92	98.12
366.147	81.12
366.373	78.12
366.599	81.12
366.826	85.12
367.052	83.12
367.278	84.12
367.505	97.12
367.731	99.12
367.957	97.12
368.184	105.12
368.41	87.12
368.636	107.12
368.862	103.12
369.089	105.12
369.315	97.12
369.541	109.12
369.767	75.12
369.993	101.12
370.219	84.12
370.445	93.12
370.672	88.12
370.898	80.12
371.124	95.12
371.35	93.12
371.576	91.12
371.802	86.12
372.028	94.12
372.254	82.12
372.48	79.12
372.706	99.12
372.932	92.12
373.158	94.12
373.384	103.12
373.61	81.12
373.835	98.12
374.061	95.12
374.287	111.12
374.513	90.12
374.739	90.12
374.965	89.12
375.191	87.12
375.416	81.12
375.642	93.12
375.868	86.12
376.094	89.12
376.319	82.12
376.545	97.12
376.771	87.12
376.997	81.12
377.222	73.12
377.448	105.12
377.674	85.12
377.899	92.12
378.125	90.12
378.35	101.12
378.576	102.12
378.802	94.12
379.027	88.12
379.253	89.12
379.478	88.12
379.704	88.12
379.929	100.12
380.155	99.12
380.38	107.12
380.606	84.12
380.831	85.12
381.057	94.12
381.282	82.12
381.507	91.12
381.733	99.12
381.958	101.12
382.184	97.12
382.409	101.12
382.634	94.12
382.86	101.12
383.085	110.12
383.31	98.12
383.535	97.12
383.761	95.12
383.986	100.12
384.211	94.12
384.436	97.12
384.662	104.12
384.887	99.12
385.112	98.12
385.337	105.12
385.562	102.12
385.787	113.12
386.013	116.12
386.238	99.12
386.463	115.12
386.688	117.12
386.913	107.12
387.138	95.12
387.363	108.12
387.588	114.12
387.813	114.12
388.038	101.12
388.263	109.12
388.488	92.12
388.713	99.12
388.938	111.12
389.163	106.12
389.387	99.12
389.612	109.12
389.837	93.12
390.062	99.12
390.287	86.12
390.512	109.12
390.736	81.12
390.961	108.12
391.186	101.12
391.411	87.12
391.636	107.12
391.86	92.12
392.085	79.12
392.31	86.12
392.534	99.12
392.759	93.12
392.984	78.12
393.208	81.12
393.433	101.12
393.658	105.12
393.882	94.12
394.107	85.12
394.331	74.12
394.556	96.12
394.78	85.12
395.005	87.12
395.229	86.12
395.454	78.12
395.678	76.12
395.903	93.12
396.127	79.12
396.352	76.12
396.576	93.12
396.801	96.12
397.025	91.12
397.249	89.12
397.474	85.12
397.698	89.12
397.922	88.12
398.147	91.12
398.371	83.12
398.595	81.12
398.82	79.12
399.044	85.12
399.268	107.12
399.492	103.12
399.717	90.12
399.941	95.12
400.165	78.12
400.389	81.12
400.613	87.12
400.837	89.12
401.062	95.12
401.286	76.12
401.51	89.12
401.734	92.12
401.958	103.12
402.182	119.12
402.406	125.12
402.63	101.12
402.854	95.12
403.078	105.12
403.302	92.12
403.526	97.12
403.75	83.12
403.974	88.12
404.198	78.12
404.422	100.12
404.645	83.12
404.869	93.12
405.093	84.12
405.317	102.12
405.541	109.12
405.765	100.12
405.988	114.12
406.212	129.12
406.436	191.12
406.66	135.12
406.883	90.12
407.107	99.12
407.331	97.12
407.555	98.12
407.778	90.12
408.002	90.12
408.226	82.12
408.449	90.12
408.673	88.12
408.896	92.12
409.12	98.12
409.344	88.12
409.567	87.12
409.791	92.12
410.014	102.12
410.238	84.12
410.461	92.12
410.685	97.12
410.908	85.12
411.132	101.12
411.355	91.12
411.578	93.12
411.802	93.12
412.025	86.12
412.249	101.12
412.472	97.12
412.695	101.12
412.919	86.12
413.142	95.12
413.365	81.12
413.589	91.12
413.812	93.12
414.035	95.12
414.258	83.12
414.482	81.12
414.705	71.12
414.928	94.12
415.151	85.12
415.374	79.12
415.597	92.12
415.821	84.12
416.044	87.12
416.267	95.12
416.49	82.12
416.713	96.12
416.936	96.12
417.159	89.12
417.382	90.12
417.605	86.12
417.828	117.12
418.051	101.12
418.274	87.12
418.497	79.12
418.72	81.12
418.943	76.12
419.166	90.12
419.389	106.12
419.611	76.12
419.834	90.12
420.057	85.12
420.28	93.12
420.503	87.12
420.726	78.12
420.948	104.12
421.171	93.12
421.394	97.12
421.617	92.12
421.839	75.12
422.062	83.12
422.285	91.12
422.507	101.12
422.73	100.12
422.953	101.12
423.175	79.12
423.398	90.12
423.621	103.12
423.843	75.12
424.066	88.12
424.288	75.12
424.511	93.12
424.733	97.12
424.956	87.12
425.178	94.12
425.401	92.12
425.623	97.12
425.846	88.12
426.068	93.12
426.291	84.12
426.513	87.12
426.735	98.12
426.958	101.12
427.18	86.12
427.402	122.12
427.625	146.12
427.847	116.12
428.069	115.12
428.292	92.12
428.514	87.12
428.736	93.12
428.958	76.12
429.181	71.12
429.403	89.12
429.625	84.12
429.847	94.12
430.069	89.12
430.292	78.12
430.514	96.12
430.736	99.12
430.958	83.12
431.18	86.12
431.402	77.12
431.624	85.12
431.846	96.12
432.068	81.12
432.29	76.12
432.512	98.12
432.734	93.12
432.956	100.12
433.178	99.12
433.4	101.12
433.622	96.12
433.844	90.12
434.066	90.12
434.287	77.12
434.509	83.12
434.731	97.12
434.953	96.12
435.175	88.12
435.397	104.12
435.618	96.12
435.84	97.12
436.062	106.12
436.284	102.12
436.505	100.12
436.727	99.12
436.949	93.12
437.17	97.12
437.392	98.12
437.614	101.12
437.835	96.12
438.057	98.12
438.278	91.12
438.5	97.12
438.721	95.12
438.943	80.12
439.165	98.12
439.386	91.12
439.608	87.12
439.829	109.12
440.05	109.12
440.272	126.12
440.493	91.12
440.715	90.12
440.936	92.12
441.158	77.12
441.379	78.12
441.6	104.12
441.822	106.12
442.043	91.12
442.264	99.12
442.486	89.12
442.707	88.12
442.928	106.12
443.149	114.12
443.371	115.12
443.592	88.12
443.813	103.12
444.034	100.12
444.255	91.12
444.476	99.12
444.698	89.12
444.919	91.12
445.14	135.12
445.361	129.12
445.582	99.12
445.803	124.12
446.024	119.12
446.245	108.12
446.466	99.12
446.687	99.12
446.908	96.12
447.129	99.12
447.35	87.12
447.571	90.12
447.792	101.12
448.013	84.12
448.234	117.12
448.455	87.12
448.675	112.12
448.896	102.12
449.117	97.12
449.338	101.12
449.559	109.12
449.779	120.12
450	93.12
450.221	89.12
450.442	92.12
450.662	102.12
450.883	98.12
451.104	116.12
451.324	94.12
451.545	70.12
451.766	77.12
451.986	90.12
452.207	91.12
452.428	101.12
452.648	94.12
452.869	100.12
453.089	113.12
453.31	99.12
453.53	94.12
453.751	77.12
453.971	87.12
454.192	108.12
454.412	87.12
454.633	89.12
454.853	97.12
455.073	91.12
455.294	91.12
455.514	99.12
455.734	77.12
455.955	83.12
456.175	78.12
456.395	98.12
456.616	93.12
456.836	78.12
457.056	89.12
457.276	77.12
457.497	68.12
457.717	90.12
457.937	89.12
458.157	82.12
458.377	80.12
458.598	93.12
458.818	115.12
459.038	131.12
459.258	99.12
459.478	87.12
459.698	91.12
459.918	78.12
460.138	93.12
460.358	91.12
460.578	86.12
460.798	87.12
461.018	99.12
461.238	98.12
461.458	90.12
461.678	88.12
461.898	88.12
462.118	86.12
462.338	85.12
462.558	94.12
462.777	94.12
462.997	94.12
463.217	88.12
463.437	83.12
463.657	82.12
463.876	82.12
464.096	90.12
464.316	92.12
464.536	92.12
464.755	78.12
464.975	99.12
465.195	133.12
465.414	130.12
465.634	109.12
465.854	87.12
466.073	91.12
466.293	94.12
466.512	91.12
466.732	78.12
466.951	81.12
467.171	100.12
467.391	100.12
467.61	90.12
467.829	105.12
468.049	150.12
468.268	149.12
468.488	98.12
468.707	89.12
468.927	68.12
469.146	91.12
469.365	87.12
469.585	93.12
469.804	97.12
470.023	92.12
470.243	107.12
470.462	97.12
470.681	99.12
470.901	91.12
471.12	107.12
471.339	88.12
471.558	81.12
471.777	89.12
471.997	117.12
472.216	193.12
472.435	312.12
472.654	147.12
472.873	93.12
473.092	102.12
473.311	101.12
473.53	105.12
473.749	94.12
473.968	94.12
474.187	95.12
474.406	88.12
474.625	97.12
474.844	91.12
475.063	89.12
475.282	92.12
475.501	84.12
475.72	99.12
475.939	85.12
476.158	94.12
476.377	97.12
476.596	77.12
476.814	86.12
477.033	92.12
477.252	101.12
477.471	96.12
477.69	101.12
477.908	91.12
478.127	90.12
478.346	83.12
478.564	96.12
478.783	87.12
479.002	91.12
479.22	84.12
479.439	91.12
479.658	100.12
479.876	101.12
480.095	90.12
480.313	89.12
480.532	82.12
480.751	113.12
480.969	198.12
481.188	539.12
481.406	333.12
481.624	111.12
481.843	100.12
482.061	97.12
482.28	101.12
482.498	85.12
482.717	102.12
482.935	97.12
483.153	82.12
483.372	85.12
483.59	87.12
483.808	90.12
484.027	96.12
484.245	91.12
484.463	90.12
484.681	94.12
484.9	89.12
485.118	95.12
485.336	93.12
485.554	100.12
485.772	105.12
485.99	100.12
486.209	113.12
486.427	113.12
486.645	109.12
486.863	123.12
487.081	92.12
487.299	99.12
487.517	97.12
487.735	107.12
487.953	84.12
488.171	94.12
488.389	90.12
488.607	96.12
488.825	82.12
489.043	89.12
489.261	98.12
489.479	84.12
489.696	97.12
489.914	95.12
490.132	92.12
490.35	86.12
490.568	97.12
490.786	85.12
491.003	97.12
491.221	82.12
491.439	90.12
491.657	101.12
491.874	98.12
492.092	87.12
492.31	113.12
492.527	90.12
492.745	99.12
492.963	81.12
493.18	86.12
493.398	92.12
493.615	97.12
493.833	87.12
494.05	74.12
494.268	79.12
494.485	93.12
494.703	99.12
494.92	104.12
495.138	77.12
495.355	91.12
495.573	103.12
495.79	97.12
496.008	106.12
496.225	86.12
496.442	95.12
496.66	82.12
496.877	96.12
497.094	100.12
497.312	90.12
497.529	81.12
497.746	94.12
497.963	98.12
498.181	99.12
498.398	85.12
498.615	101.12
498.832	94.12
499.049	83.12
499.267	90.12
499.484	97.12
499.701	90.12
499.918	79.12
500.135	89.12
500.352	87.12
500.569	81.12
500.786	83.12
501.003	86.12
501.22	87.12
501.437	95.12
501.654	101.12
501.871	95.12
502.088	104.12
502.305	93.12
502.522	86.12
502.739	83.12
502.956	77.12
503.172	91.12
503.389	101.12
503.606	109.12
503.823	86.12
504.04	97.12
504.256	87.12
504.473	94.12
504.69	93.12
504.907	85.12
505.123	98.12
505.34	78.12
505.557	88.12
505.773	87.12
505.99	83.12
506.207	95.12
506.423	102.12
506.64	84.12
506.856	107.12
507.073	92.12
507.289	86.12
507.506	109.12
507.722	93.12
507.939	98.12
508.155	105.12
508.372	94.12
508.588	101.12
508.805	95.12
509.021	90.12
509.238	94.12
509.454	85.12
509.67	106.12
509.887	108.12
510.103	130.12
510.319	167.12
510.536	593.12
510.752	1772.12
510.968	484.12
511.184	118.12
511.401	98.12
511.617	95.12
511.833	87.12
512.049	90.12
512.265	85.12
512.481	97.12
512.698	94.12
512.914	102.12
513.13	97.12
513.346	85.12
513.562	90.12
513.778	100.12
513.994	94.12
514.21	90.12
514.426	87.12
514.642	110.12
514.858	121.12
515.074	131.12
515.29	344.12
515.506	1034.12
515.721	385.12
