Data from Circ_1983_H10_HRD10591_00068.txt Node
Date: Wed Jan 03 12:26:58 EST 2024
User: Yrep
Spectrometer: HR+D1059
Trigger mode: 1
Integration Time (sec): 1.000000E-1
Scans to average: 1
Electric dark correction enabled: true
Nonlinearity correction enabled: false
Boxcar width: 0
XAxis mode: Wavelengths
Number of Pixels in Spectrum: 2048
>>>>>Begin Spectral Data<<<<<
223.165	-33.19
223.4	-33.19
223.635	-33.19
223.869	-22.19
224.104	-19.19
224.338	-8.19
224.573	-10.19
224.808	-5.19
225.042	-4.19
225.277	-6.19
225.511	-19.19
225.746	-2.19
225.98	-0.19
226.215	10.81
226.449	11.81
226.683	29.81
226.918	37.81
227.152	39.81
227.387	32.81
227.621	42.81
227.856	45.81
228.09	46.81
228.324	46.81
228.559	57.81
228.793	59.81
229.027	85.81
229.262	60.81
229.496	84.81
229.73	71.81
229.964	91.81
230.199	71.81
230.433	81.81
230.667	85.81
230.901	85.81
231.136	92.81
231.37	89.81
231.604	85.81
231.838	85.81
232.072	78.81
232.306	87.81
232.541	91.81
232.775	62.81
233.009	98.81
233.243	85.81
233.477	81.81
233.711	93.81
233.945	74.81
234.179	97.81
234.413	78.81
234.647	78.81
234.881	91.81
235.115	87.81
235.349	79.81
235.583	87.81
235.817	81.81
236.051	79.81
236.285	83.81
236.519	97.81
236.753	63.81
236.987	78.81
237.221	101.81
237.455	71.81
237.689	77.81
237.922	74.81
238.156	82.81
238.39	85.81
238.624	81.81
238.858	74.81
239.091	72.81
239.325	74.81
239.559	81.81
239.793	79.81
240.027	87.81
240.26	76.81
240.494	68.81
240.728	70.81
240.961	86.81
241.195	86.81
241.429	71.81
241.662	85.81
241.896	79.81
242.13	70.81
242.363	77.81
242.597	72.81
242.83	87.81
243.064	77.81
243.298	81.81
243.531	73.81
243.765	78.81
243.998	76.81
244.232	92.81
244.465	88.81
244.699	77.81
244.932	88.81
245.166	65.81
245.399	89.81
245.633	78.81
245.866	85.81
246.099	85.81
246.333	83.81
246.566	85.81
246.8	83.81
247.033	71.81
247.266	81.81
247.5	92.81
247.733	93.81
247.966	87.81
248.2	75.81
248.433	75.81
248.666	81.81
248.899	82.81
249.133	83.81
249.366	101.81
249.599	87.81
249.832	86.81
250.066	73.81
250.299	84.81
250.532	80.81
250.765	74.81
250.998	64.81
251.231	74.81
251.465	86.81
251.698	89.81
251.931	85.81
252.164	81.81
252.397	73.81
252.63	69.81
252.863	77.81
253.096	86.81
253.329	97.81
253.562	79.81
253.795	85.81
254.028	85.81
254.261	82.81
254.494	87.81
254.727	70.81
254.96	73.81
255.193	94.81
255.426	83.81
255.659	81.81
255.892	88.81
256.124	78.81
256.357	91.81
256.59	77.81
256.823	90.81
257.056	81.81
257.289	76.81
257.521	69.81
257.754	70.81
257.987	85.81
258.22	68.81
258.452	83.81
258.685	78.81
258.918	83.81
259.151	79.81
259.383	90.81
259.616	89.81
259.849	89.81
260.081	85.81
260.314	85.81
260.547	76.81
260.779	81.81
261.012	108.81
261.244	83.81
261.477	103.81
261.71	103.81
261.942	113.81
262.175	125.81
262.407	98.81
262.64	94.81
262.872	81.81
263.105	82.81
263.337	90.81
263.57	93.81
263.802	91.81
264.035	93.81
264.267	86.81
264.499	98.81
264.732	78.81
264.964	76.81
265.197	81.81
265.429	91.81
265.661	80.81
265.894	86.81
266.126	85.81
266.358	99.81
266.591	74.81
266.823	73.81
267.055	81.81
267.287	81.81
267.52	95.81
267.752	90.81
267.984	98.81
268.216	72.81
268.448	85.81
268.681	87.81
268.913	79.81
269.145	81.81
269.377	81.81
269.609	81.81
269.841	87.81
270.073	83.81
270.306	91.81
270.538	81.81
270.77	84.81
271.002	71.81
271.234	98.81
271.466	86.81
271.698	95.81
271.93	87.81
272.162	78.81
272.394	84.81
272.626	83.81
272.858	85.81
273.09	69.81
273.322	102.81
273.553	103.81
273.785	86.81
274.017	86.81
274.249	91.81
274.481	88.81
274.713	77.81
274.945	97.81
275.176	77.81
275.408	89.81
275.64	90.81
275.872	87.81
276.104	81.81
276.335	89.81
276.567	98.81
276.799	97.81
277.031	85.81
277.262	94.81
277.494	89.81
277.726	98.81
277.957	85.81
278.189	86.81
278.421	99.81
278.652	82.81
278.884	91.81
279.115	108.81
279.347	81.81
279.579	83.81
279.81	95.81
280.042	90.81
280.273	94.81
280.505	88.81
280.736	95.81
280.968	76.81
281.199	89.81
281.431	97.81
281.662	86.81
281.894	89.81
282.125	98.81
282.356	113.81
282.588	137.81
282.819	105.81
283.051	87.81
283.282	81.81
283.513	95.81
283.745	71.81
283.976	92.81
284.207	97.81
284.439	87.81
284.67	88.81
284.901	98.81
285.132	87.81
285.364	92.81
285.595	87.81
285.826	89.81
286.057	91.81
286.288	81.81
286.52	90.81
286.751	85.81
286.982	82.81
287.213	96.81
287.444	98.81
287.675	89.81
287.906	101.81
288.138	86.81
288.369	85.81
288.6	92.81
288.831	88.81
289.062	86.81
289.293	98.81
289.524	85.81
289.755	96.81
289.986	85.81
290.217	97.81
290.448	76.81
290.679	74.81
290.91	99.81
291.141	95.81
291.371	87.81
291.602	107.81
291.833	95.81
292.064	102.81
292.295	96.81
292.526	84.81
292.757	90.81
292.987	78.81
293.218	82.81
293.449	81.81
293.68	94.81
293.91	73.81
294.141	95.81
294.372	83.81
294.603	90.81
294.833	85.81
295.064	93.81
295.295	99.81
295.525	87.81
295.756	110.81
295.987	90.81
296.217	125.81
296.448	110.81
296.679	97.81
296.909	91.81
297.14	99.81
297.37	75.81
297.601	89.81
297.831	91.81
298.062	101.81
298.292	84.81
298.523	77.81
298.753	91.81
298.984	86.81
299.214	107.81
299.445	105.81
299.675	95.81
299.905	91.81
300.136	90.81
300.366	71.81
300.597	76.81
300.827	96.81
301.057	81.81
301.288	110.81
301.518	94.81
301.748	98.81
301.979	104.81
302.209	101.81
302.439	89.81
302.669	81.81
302.9	105.81
303.13	84.81
303.36	89.81
303.59	96.81
303.82	106.81
304.051	103.81
304.281	82.81
304.511	93.81
304.741	101.81
304.971	94.81
305.201	94.81
305.431	86.81
305.661	95.81
305.891	93.81
306.121	104.81
306.352	101.81
306.582	94.81
306.812	93.81
307.042	106.81
307.272	95.81
307.502	106.81
307.731	93.81
307.961	94.81
308.191	101.81
308.421	97.81
308.651	93.81
308.881	86.81
309.111	101.81
309.341	101.81
309.571	81.81
309.8	117.81
310.03	98.81
310.26	89.81
310.49	89.81
310.72	97.81
310.949	98.81
311.179	89.81
311.409	73.81
311.639	91.81
311.868	92.81
312.098	117.81
312.328	98.81
312.557	93.81
312.787	81.81
313.017	105.81
313.246	105.81
313.476	88.81
313.706	97.81
313.935	118.81
314.165	105.81
314.394	82.81
314.624	91.81
314.853	111.81
315.083	98.81
315.312	92.81
315.542	94.81
315.771	105.81
316.001	97.81
316.23	87.81
316.46	90.81
316.689	98.81
316.919	101.81
317.148	85.81
317.377	104.81
317.607	103.81
317.836	106.81
318.065	88.81
318.295	95.81
318.524	87.81
318.753	88.81
318.983	99.81
319.212	108.81
319.441	98.81
319.67	102.81
319.9	87.81
320.129	98.81
320.358	99.81
320.587	95.81
320.816	94.81
321.046	111.81
321.275	116.81
321.504	91.81
321.733	99.81
321.962	83.81
322.191	95.81
322.42	119.81
322.649	119.81
322.878	110.81
323.108	95.81
323.337	126.81
323.566	129.81
323.795	121.81
324.024	186.81
324.253	317.81
324.482	643.81
324.71	1269.81
324.939	1719.81
325.168	628.81
325.397	211.81
325.626	140.81
325.855	112.81
326.084	117.81
326.313	136.81
326.542	149.81
326.77	187.81
326.999	378.81
327.228	753.81
327.457	1316.81
327.686	1045.81
327.914	313.81
328.143	185.81
328.372	175.81
328.6	130.81
328.829	118.81
329.058	115.81
329.287	117.81
329.515	105.81
329.744	106.81
329.972	127.81
330.201	181.81
330.43	215.81
330.658	125.81
330.887	126.81
331.115	115.81
331.344	102.81
331.572	105.81
331.801	102.81
332.03	100.81
332.258	99.81
332.486	93.81
332.715	89.81
332.943	95.81
333.172	101.81
333.4	108.81
333.629	113.81
333.857	123.81
334.085	132.81
334.314	180.81
334.542	259.81
334.771	249.81
334.999	126.81
335.227	108.81
335.455	90.81
335.684	98.81
335.912	98.81
336.14	122.81
336.369	109.81
336.597	107.81
336.825	98.81
337.053	104.81
337.281	98.81
337.51	104.81
337.738	89.81
337.966	96.81
338.194	105.81
338.422	101.81
338.65	97.81
338.878	101.81
339.106	97.81
339.334	92.81
339.562	100.81
339.79	94.81
340.018	99.81
340.246	88.81
340.474	99.81
340.702	97.81
340.93	81.81
341.158	108.81
341.386	79.81
341.614	96.81
341.842	82.81
342.07	98.81
342.298	85.81
342.526	89.81
342.754	100.81
342.981	97.81
343.209	87.81
343.437	89.81
343.665	90.81
343.893	103.81
344.12	100.81
344.348	88.81
344.576	89.81
344.804	90.81
345.031	93.81
345.259	89.81
345.487	77.81
345.714	90.81
345.942	85.81
346.17	93.81
346.397	102.81
346.625	110.81
346.853	107.81
347.08	85.81
347.308	89.81
347.535	105.81
347.763	93.81
347.99	94.81
348.218	97.81
348.445	114.81
348.673	93.81
348.9	83.81
349.128	97.81
349.355	101.81
349.583	89.81
349.81	99.81
350.037	104.81
350.265	103.81
350.492	103.81
350.72	104.81
350.947	102.81
351.174	106.81
351.402	109.81
351.629	108.81
351.856	92.81
352.083	113.81
352.311	97.81
352.538	105.81
352.765	101.81
352.992	113.81
353.22	108.81
353.447	105.81
353.674	115.81
353.901	101.81
354.128	101.81
354.355	92.81
354.583	93.81
354.81	101.81
355.037	98.81
355.264	92.81
355.491	92.81
355.718	83.81
355.945	91.81
356.172	101.81
356.399	109.81
356.626	92.81
356.853	91.81
357.08	89.81
357.307	90.81
357.534	80.81
357.761	101.81
357.988	99.81
358.215	98.81
358.441	96.81
358.668	91.81
358.895	94.81
359.122	86.81
359.349	98.81
359.576	94.81
359.802	103.81
360.029	91.81
360.256	102.81
360.483	100.81
360.709	88.81
360.936	101.81
361.163	103.81
361.39	106.81
361.616	100.81
361.843	79.81
362.07	87.81
362.296	97.81
362.523	102.81
362.749	96.81
362.976	62.81
363.203	89.81
363.429	95.81
363.656	97.81
363.882	91.81
364.109	93.81
364.335	102.81
364.562	93.81
364.788	100.81
365.015	86.81
365.241	105.81
365.468	111.81
365.694	93.81
365.92	95.81
366.147	87.81
366.373	86.81
366.599	87.81
366.826	83.81
367.052	82.81
367.278	87.81
367.505	100.81
367.731	98.81
367.957	107.81
368.184	102.81
368.41	106.81
368.636	108.81
368.862	108.81
369.089	99.81
369.315	94.81
369.541	95.81
369.767	73.81
369.993	108.81
370.219	99.81
370.445	90.81
370.672	91.81
370.898	94.81
371.124	99.81
371.35	88.81
371.576	91.81
371.802	87.81
372.028	86.81
372.254	92.81
372.48	83.81
372.706	94.81
372.932	92.81
373.158	100.81
373.384	101.81
373.61	84.81
373.835	93.81
374.061	107.81
374.287	98.81
374.513	84.81
374.739	101.81
374.965	96.81
375.191	86.81
375.416	81.81
375.642	84.81
375.868	85.81
376.094	94.81
376.319	87.81
376.545	81.81
376.771	85.81
376.997	87.81
377.222	76.81
377.448	102.81
377.674	75.81
377.899	91.81
378.125	77.81
378.35	106.81
378.576	101.81
378.802	91.81
379.027	91.81
379.253	88.81
379.478	106.81
379.704	113.81
379.929	91.81
380.155	85.81
380.38	107.81
380.606	101.81
380.831	102.81
381.057	106.81
381.282	100.81
381.507	104.81
381.733	99.81
381.958	99.81
382.184	110.81
382.409	92.81
382.634	95.81
382.86	96.81
383.085	108.81
383.31	113.81
383.535	95.81
383.761	93.81
383.986	100.81
384.211	96.81
384.436	105.81
384.662	92.81
384.887	98.81
385.112	114.81
385.337	100.81
385.562	106.81
385.787	99.81
386.013	103.81
386.238	117.81
386.463	96.81
386.688	106.81
386.913	107.81
387.138	108.81
387.363	94.81
387.588	97.81
387.813	102.81
388.038	104.81
388.263	106.81
388.488	103.81
388.713	101.81
388.938	89.81
389.163	100.81
389.387	89.81
389.612	89.81
389.837	93.81
390.062	97.81
390.287	88.81
390.512	85.81
390.736	87.81
390.961	93.81
391.186	99.81
391.411	88.81
391.636	87.81
391.86	94.81
392.085	88.81
392.31	71.81
392.534	92.81
392.759	85.81
392.984	82.81
393.208	97.81
393.433	110.81
393.658	107.81
393.882	96.81
394.107	85.81
394.331	89.81
394.556	97.81
394.78	88.81
395.005	104.81
395.229	85.81
395.454	88.81
395.678	71.81
395.903	101.81
396.127	83.81
396.352	91.81
396.576	83.81
396.801	91.81
397.025	98.81
397.249	91.81
397.474	96.81
397.698	97.81
397.922	94.81
398.147	81.81
398.371	93.81
398.595	104.81
398.82	81.81
399.044	97.81
399.268	93.81
399.492	82.81
399.717	75.81
399.941	87.81
400.165	97.81
400.389	92.81
400.613	94.81
400.837	89.81
401.062	98.81
401.286	93.81
401.51	92.81
401.734	90.81
401.958	96.81
402.182	118.81
402.406	134.81
402.63	113.81
402.854	89.81
403.078	87.81
403.302	83.81
403.526	103.81
403.75	90.81
403.974	102.81
404.198	100.81
404.422	83.81
404.645	89.81
404.869	89.81
405.093	83.81
405.317	102.81
405.541	90.81
405.765	101.81
405.988	103.81
406.212	157.81
406.436	193.81
406.66	123.81
406.883	105.81
407.107	93.81
407.331	95.81
407.555	98.81
407.778	85.81
408.002	84.81
408.226	85.81
408.449	93.81
408.673	95.81
408.896	101.81
409.12	90.81
409.344	100.81
409.567	89.81
409.791	89.81
410.014	99.81
410.238	95.81
410.461	83.81
410.685	101.81
410.908	91.81
411.132	101.81
411.355	103.81
411.578	94.81
411.802	89.81
412.025	74.81
412.249	94.81
412.472	103.81
412.695	98.81
412.919	97.81
413.142	93.81
413.365	92.81
413.589	86.81
413.812	78.81
414.035	83.81
414.258	87.81
414.482	81.81
414.705	83.81
414.928	99.81
415.151	84.81
415.374	105.81
415.597	90.81
415.821	101.81
416.044	109.81
416.267	100.81
416.49	87.81
416.713	81.81
416.936	88.81
417.159	87.81
417.382	80.81
417.605	93.81
417.828	81.81
418.051	78.81
418.274	95.81
418.497	83.81
418.72	89.81
418.943	106.81
419.166	85.81
419.389	90.81
419.611	99.81
419.834	86.81
420.057	99.81
420.28	94.81
420.503	104.81
420.726	84.81
420.948	104.81
421.171	99.81
421.394	90.81
421.617	82.81
421.839	87.81
422.062	100.81
422.285	95.81
422.507	106.81
422.73	99.81
422.953	97.81
423.175	89.81
423.398	90.81
423.621	81.81
423.843	95.81
424.066	98.81
424.288	90.81
424.511	78.81
424.733	89.81
424.956	91.81
425.178	86.81
425.401	81.81
425.623	99.81
425.846	85.81
426.068	72.81
426.291	86.81
426.513	97.81
426.735	76.81
426.958	87.81
427.18	86.81
427.402	129.81
427.625	146.81
427.847	142.81
428.069	118.81
428.292	84.81
428.514	86.81
428.736	81.81
428.958	85.81
429.181	117.81
429.403	90.81
429.625	89.81
429.847	89.81
430.069	111.81
430.292	100.81
430.514	91.81
430.736	91.81
430.958	100.81
431.18	81.81
431.402	79.81
431.624	95.81
431.846	85.81
432.068	74.81
432.29	101.81
432.512	89.81
432.734	77.81
432.956	92.81
433.178	112.81
433.4	98.81
433.622	92.81
433.844	91.81
434.066	87.81
434.287	89.81
434.509	104.81
434.731	91.81
434.953	92.81
435.175	88.81
435.397	82.81
435.618	90.81
435.84	109.81
436.062	97.81
436.284	110.81
436.505	106.81
436.727	101.81
436.949	85.81
437.17	104.81
437.392	99.81
437.614	96.81
437.835	110.81
438.057	111.81
438.278	95.81
438.5	89.81
438.721	111.81
438.943	89.81
439.165	89.81
439.386	77.81
439.608	94.81
439.829	102.81
440.05	113.81
440.272	124.81
440.493	91.81
440.715	97.81
440.936	85.81
441.158	87.81
441.379	88.81
441.6	90.81
441.822	99.81
442.043	91.81
442.264	86.81
442.486	87.81
442.707	88.81
442.928	99.81
443.149	123.81
443.371	111.81
443.592	114.81
443.813	106.81
444.034	97.81
444.255	92.81
444.476	84.81
444.698	97.81
444.919	71.81
445.14	159.81
445.361	118.81
445.582	93.81
445.803	115.81
446.024	130.81
446.245	140.81
446.466	112.81
446.687	102.81
446.908	87.81
447.129	85.81
447.35	77.81
447.571	99.81
447.792	83.81
448.013	103.81
448.234	98.81
448.455	88.81
448.675	89.81
448.896	102.81
449.117	86.81
449.338	94.81
449.559	103.81
449.779	121.81
450	78.81
450.221	92.81
450.442	82.81
450.662	90.81
450.883	105.81
451.104	109.81
451.324	83.81
451.545	89.81
451.766	86.81
451.986	83.81
452.207	97.81
452.428	71.81
452.648	86.81
452.869	101.81
453.089	110.81
453.31	108.81
453.53	100.81
453.751	95.81
453.971	96.81
454.192	91.81
454.412	97.81
454.633	105.81
454.853	70.81
455.073	88.81
455.294	97.81
455.514	90.81
455.734	89.81
455.955	98.81
456.175	83.81
456.395	83.81
456.616	93.81
456.836	73.81
457.056	92.81
457.276	76.81
457.497	77.81
457.717	81.81
457.937	81.81
458.157	77.81
458.377	89.81
458.598	106.81
458.818	137.81
459.038	137.81
459.258	100.81
459.478	77.81
459.698	91.81
459.918	69.81
460.138	92.81
460.358	78.81
460.578	72.81
460.798	92.81
461.018	91.81
461.238	91.81
461.458	100.81
461.678	84.81
461.898	98.81
462.118	83.81
462.338	93.81
462.558	80.81
462.777	85.81
462.997	81.81
463.217	76.81
463.437	101.81
463.657	87.81
463.876	97.81
464.096	108.81
464.316	97.81
464.536	98.81
464.755	93.81
464.975	113.81
465.195	152.81
465.414	124.81
465.634	83.81
465.854	82.81
466.073	82.81
466.293	82.81
466.512	78.81
466.732	88.81
466.951	98.81
467.171	96.81
467.391	97.81
467.61	101.81
467.829	106.81
468.049	142.81
468.268	152.81
468.488	99.81
468.707	99.81
468.927	94.81
469.146	87.81
469.365	82.81
469.585	86.81
469.804	91.81
470.023	93.81
470.243	96.81
470.462	106.81
470.681	97.81
470.901	86.81
471.12	88.81
471.339	99.81
471.558	97.81
471.777	85.81
471.997	95.81
472.216	211.81
472.435	355.81
472.654	129.81
472.873	88.81
473.092	90.81
473.311	87.81
473.53	79.81
473.749	96.81
473.968	97.81
474.187	105.81
474.406	94.81
474.625	83.81
474.844	81.81
475.063	83.81
475.282	86.81
475.501	87.81
475.72	95.81
475.939	92.81
476.158	84.81
476.377	86.81
476.596	91.81
476.814	88.81
477.033	86.81
477.252	86.81
477.471	95.81
477.69	99.81
477.908	95.81
478.127	95.81
478.346	79.81
478.564	87.81
478.783	108.81
479.002	95.81
479.22	95.81
479.439	88.81
479.658	99.81
479.876	93.81
480.095	106.81
480.313	97.81
480.532	100.81
480.751	111.81
480.969	213.81
481.188	584.81
481.406	366.81
481.624	106.81
481.843	91.81
482.061	89.81
482.28	94.81
482.498	99.81
482.717	89.81
482.935	88.81
483.153	90.81
483.372	100.81
483.59	95.81
483.808	104.81
484.027	78.81
484.245	89.81
484.463	93.81
484.681	97.81
484.9	104.81
485.118	101.81
485.336	102.81
485.554	101.81
485.772	113.81
485.99	105.81
486.209	100.81
486.427	86.81
486.645	119.81
486.863	105.81
487.081	101.81
487.299	89.81
487.517	78.81
487.735	85.81
487.953	91.81
488.171	90.81
488.389	110.81
488.607	107.81
488.825	81.81
489.043	101.81
489.261	102.81
489.479	74.81
489.696	94.81
489.914	92.81
490.132	96.81
490.35	91.81
490.568	94.81
490.786	93.81
491.003	79.81
491.221	89.81
491.439	98.81
491.657	89.81
491.874	97.81
492.092	101.81
492.31	95.81
492.527	83.81
492.745	92.81
492.963	98.81
493.18	89.81
493.398	91.81
493.615	97.81
493.833	90.81
494.05	89.81
494.268	92.81
494.485	91.81
494.703	85.81
494.92	110.81
495.138	95.81
495.355	106.81
495.573	88.81
495.79	94.81
496.008	91.81
496.225	90.81
496.442	92.81
496.66	98.81
496.877	97.81
497.094	97.81
497.312	95.81
497.529	86.81
497.746	99.81
497.963	109.81
498.181	87.81
498.398	103.81
498.615	103.81
498.832	90.81
499.049	100.81
499.267	81.81
499.484	99.81
499.701	100.81
499.918	94.81
500.135	86.81
500.352	90.81
500.569	83.81
500.786	95.81
501.003	78.81
501.22	93.81
501.437	92.81
501.654	92.81
501.871	111.81
502.088	98.81
502.305	103.81
502.522	94.81
502.739	90.81
502.956	89.81
503.172	88.81
503.389	93.81
503.606	86.81
503.823	102.81
504.04	85.81
504.256	100.81
504.473	78.81
504.69	95.81
504.907	89.81
505.123	100.81
505.34	108.81
505.557	91.81
505.773	96.81
505.99	101.81
506.207	105.81
506.423	98.81
506.64	69.81
506.856	84.81
507.073	88.81
507.289	107.81
507.506	94.81
507.722	96.81
507.939	101.81
508.155	98.81
508.372	89.81
508.588	90.81
508.805	103.81
509.021	90.81
509.238	102.81
509.454	98.81
509.67	108.81
509.887	102.81
510.103	132.81
510.319	182.81
510.536	622.81
510.752	1895.81
510.968	524.81
511.184	128.81
511.401	103.81
511.617	99.81
511.833	107.81
512.049	94.81
512.265	94.81
512.481	106.81
512.698	98.81
512.914	101.81
513.13	107.81
513.346	104.81
513.562	97.81
513.778	102.81
513.994	97.81
514.21	114.81
514.426	110.81
514.642	124.81
514.858	103.81
515.074	145.81
