Data from Circ_1983_H10_HRD10591_00029.txt Node
Date: Wed Jan 03 12:26:50 EST 2024
User: Yrep
Spectrometer: HR+D1059
Trigger mode: 1
Integration Time (sec): 1.000000E-1
Scans to average: 1
Electric dark correction enabled: true
Nonlinearity correction enabled: false
Boxcar width: 0
XAxis mode: Wavelengths
Number of Pixels in Spectrum: 2048
>>>>>Begin Spectral Data<<<<<
223.165	-15.5
223.4	-15.5
223.635	-15.5
223.869	-31.5
224.104	-14.5
224.338	-15.5
224.573	-19.5
224.808	-16.5
225.042	-5.5
225.277	-12.5
225.511	-3.5
225.746	1.5
225.98	9.5
226.215	4.5
226.449	25.5
226.683	28.5
226.918	28.5
227.152	36.5
227.387	32.5
227.621	24.5
227.856	37.5
228.09	52.5
228.324	46.5
228.559	46.5
228.793	48.5
229.027	60.5
229.262	57.5
229.496	71.5
229.73	73.5
229.964	74.5
230.199	77.5
230.433	67.5
230.667	76.5
230.901	74.5
231.136	70.5
231.37	63.5
231.604	86.5
231.838	82.5
232.072	81.5
232.306	76.5
232.541	78.5
232.775	86.5
233.009	68.5
233.243	76.5
233.477	87.5
233.711	79.5
233.945	63.5
234.179	60.5
234.413	86.5
234.647	74.5
234.881	80.5
235.115	76.5
235.349	83.5
235.583	78.5
235.817	86.5
236.051	82.5
236.285	96.5
236.519	82.5
236.753	74.5
236.987	85.5
237.221	77.5
237.455	82.5
237.689	67.5
237.922	83.5
238.156	76.5
238.39	73.5
238.624	84.5
238.858	70.5
239.091	80.5
239.325	80.5
239.559	70.5
239.793	70.5
240.027	69.5
240.26	71.5
240.494	82.5
240.728	84.5
240.961	81.5
241.195	83.5
241.429	83.5
241.662	74.5
241.896	68.5
242.13	80.5
242.363	89.5
242.597	82.5
242.83	78.5
243.064	76.5
243.298	74.5
243.531	81.5
243.765	74.5
243.998	58.5
244.232	88.5
244.465	84.5
244.699	64.5
244.932	74.5
245.166	63.5
245.399	71.5
245.633	65.5
245.866	78.5
246.099	75.5
246.333	78.5
246.566	84.5
246.8	66.5
247.033	82.5
247.266	77.5
247.5	59.5
247.733	87.5
247.966	83.5
248.2	84.5
248.433	76.5
248.666	91.5
248.899	76.5
249.133	90.5
249.366	98.5
249.599	97.5
249.832	86.5
250.066	74.5
250.299	84.5
250.532	81.5
250.765	67.5
250.998	78.5
251.231	88.5
251.465	85.5
251.698	75.5
251.931	91.5
252.164	65.5
252.397	75.5
252.63	71.5
252.863	90.5
253.096	84.5
253.329	77.5
253.562	80.5
253.795	73.5
254.028	73.5
254.261	78.5
254.494	84.5
254.727	84.5
254.96	83.5
255.193	84.5
255.426	81.5
255.659	83.5
255.892	89.5
256.124	78.5
256.357	90.5
256.59	90.5
256.823	86.5
257.056	75.5
257.289	89.5
257.521	62.5
257.754	81.5
257.987	84.5
258.22	78.5
258.452	80.5
258.685	84.5
258.918	79.5
259.151	76.5
259.383	75.5
259.616	66.5
259.849	71.5
260.081	85.5
260.314	82.5
260.547	98.5
260.779	74.5
261.012	78.5
261.244	83.5
261.477	94.5
261.71	114.5
261.942	114.5
262.175	89.5
262.407	81.5
262.64	68.5
262.872	75.5
263.105	75.5
263.337	95.5
263.57	91.5
263.802	82.5
264.035	76.5
264.267	82.5
264.499	102.5
264.732	87.5
264.964	88.5
265.197	88.5
265.429	98.5
265.661	75.5
265.894	89.5
266.126	83.5
266.358	89.5
266.591	84.5
266.823	73.5
267.055	88.5
267.287	65.5
267.52	86.5
267.752	87.5
267.984	74.5
268.216	89.5
268.448	85.5
268.681	71.5
268.913	98.5
269.145	75.5
269.377	69.5
269.609	74.5
269.841	85.5
270.073	83.5
270.306	83.5
270.538	76.5
270.77	73.5
271.002	89.5
271.234	84.5
271.466	73.5
271.698	73.5
271.93	72.5
272.162	94.5
272.394	91.5
272.626	89.5
272.858	90.5
273.09	75.5
273.322	89.5
273.553	74.5
273.785	75.5
274.017	94.5
274.249	72.5
274.481	82.5
274.713	86.5
274.945	78.5
275.176	83.5
275.408	87.5
275.64	80.5
275.872	84.5
276.104	95.5
276.335	78.5
276.567	86.5
276.799	75.5
277.031	86.5
277.262	80.5
277.494	86.5
277.726	81.5
277.957	90.5
278.189	74.5
278.421	76.5
278.652	79.5
278.884	81.5
279.115	94.5
279.347	82.5
279.579	92.5
279.81	83.5
280.042	75.5
280.273	94.5
280.505	84.5
280.736	84.5
280.968	88.5
281.199	76.5
281.431	74.5
281.662	80.5
281.894	77.5
282.125	86.5
282.356	105.5
282.588	121.5
282.819	103.5
283.051	80.5
283.282	74.5
283.513	76.5
283.745	89.5
283.976	96.5
284.207	78.5
284.439	82.5
284.67	86.5
284.901	72.5
285.132	80.5
285.364	91.5
285.595	94.5
285.826	72.5
286.057	63.5
286.288	82.5
286.52	86.5
286.751	90.5
286.982	95.5
287.213	95.5
287.444	86.5
287.675	78.5
287.906	87.5
288.138	92.5
288.369	93.5
288.6	99.5
288.831	102.5
289.062	96.5
289.293	91.5
289.524	82.5
289.755	72.5
289.986	80.5
290.217	99.5
290.448	94.5
290.679	88.5
290.91	89.5
291.141	88.5
291.371	82.5
291.602	92.5
291.833	84.5
292.064	89.5
292.295	79.5
292.526	82.5
292.757	97.5
292.987	94.5
293.218	82.5
293.449	72.5
293.68	102.5
293.91	96.5
294.141	98.5
294.372	80.5
294.603	92.5
294.833	97.5
295.064	82.5
295.295	93.5
295.525	89.5
295.756	89.5
295.987	98.5
296.217	120.5
296.448	112.5
296.679	100.5
296.909	81.5
297.14	91.5
297.37	78.5
297.601	87.5
297.831	95.5
298.062	78.5
298.292	89.5
298.523	88.5
298.753	104.5
298.984	89.5
299.214	94.5
299.445	94.5
299.675	100.5
299.905	103.5
300.136	83.5
300.366	97.5
300.597	94.5
300.827	101.5
301.057	90.5
301.288	92.5
301.518	92.5
301.748	83.5
301.979	100.5
302.209	89.5
302.439	75.5
302.669	102.5
302.9	84.5
303.13	93.5
303.36	85.5
303.59	104.5
303.82	96.5
304.051	86.5
304.281	88.5
304.511	92.5
304.741	99.5
304.971	92.5
305.201	87.5
305.431	84.5
305.661	82.5
305.891	95.5
306.121	99.5
306.352	103.5
306.582	92.5
306.812	98.5
307.042	96.5
307.272	94.5
307.502	88.5
307.731	90.5
307.961	84.5
308.191	81.5
308.421	81.5
308.651	91.5
308.881	102.5
309.111	92.5
309.341	82.5
309.571	96.5
309.8	81.5
310.03	95.5
310.26	86.5
310.49	94.5
310.72	83.5
310.949	90.5
311.179	103.5
311.409	90.5
311.639	86.5
311.868	88.5
312.098	91.5
312.328	87.5
312.557	108.5
312.787	102.5
313.017	94.5
313.246	89.5
313.476	110.5
313.706	97.5
313.935	102.5
314.165	82.5
314.394	95.5
314.624	95.5
314.853	80.5
315.083	93.5
315.312	66.5
315.542	72.5
315.771	83.5
316.001	95.5
316.23	81.5
316.46	93.5
316.689	89.5
316.919	71.5
317.148	97.5
317.377	85.5
317.607	98.5
317.836	117.5
318.065	105.5
318.295	89.5
318.524	79.5
318.753	95.5
318.983	94.5
319.212	91.5
319.441	94.5
319.67	105.5
319.9	88.5
320.129	91.5
320.358	94.5
320.587	99.5
320.816	80.5
321.046	99.5
321.275	82.5
321.504	99.5
321.733	105.5
321.962	102.5
322.191	93.5
322.42	98.5
322.649	96.5
322.878	97.5
323.108	114.5
323.337	109.5
323.566	111.5
323.795	125.5
324.024	156.5
324.253	292.5
324.482	619.5
324.71	1262.5
324.939	1590.5
325.168	594.5
325.397	195.5
325.626	133.5
325.855	114.5
326.084	114.5
326.313	121.5
326.542	145.5
326.77	185.5
326.999	367.5
327.228	702.5
327.457	1285.5
327.686	1000.5
327.914	288.5
328.143	171.5
328.372	137.5
328.6	123.5
328.829	106.5
329.058	111.5
329.287	116.5
329.515	108.5
329.744	102.5
329.972	124.5
330.201	123.5
330.43	171.5
330.658	129.5
330.887	123.5
331.115	112.5
331.344	88.5
331.572	102.5
331.801	90.5
332.03	95.5
332.258	90.5
332.486	110.5
332.715	90.5
332.943	99.5
333.172	90.5
333.4	108.5
333.629	94.5
333.857	105.5
334.085	104.5
334.314	137.5
334.542	175.5
334.771	177.5
334.999	108.5
335.227	104.5
335.455	106.5
335.684	100.5
335.912	100.5
336.14	92.5
336.369	97.5
336.597	107.5
336.825	94.5
337.053	93.5
337.281	85.5
337.51	95.5
337.738	84.5
337.966	79.5
338.194	98.5
338.422	87.5
338.65	92.5
338.878	92.5
339.106	89.5
339.334	90.5
339.562	97.5
339.79	86.5
340.018	87.5
340.246	103.5
340.474	96.5
340.702	97.5
340.93	90.5
341.158	91.5
341.386	84.5
341.614	87.5
341.842	102.5
342.07	86.5
342.298	89.5
342.526	88.5
342.754	83.5
342.981	87.5
343.209	92.5
343.437	92.5
343.665	86.5
343.893	99.5
344.12	100.5
344.348	91.5
344.576	90.5
344.804	96.5
345.031	100.5
345.259	88.5
345.487	91.5
345.714	90.5
345.942	88.5
346.17	92.5
346.397	105.5
346.625	82.5
346.853	92.5
347.08	104.5
347.308	82.5
347.535	103.5
347.763	105.5
347.99	72.5
348.218	107.5
348.445	85.5
348.673	88.5
348.9	100.5
349.128	92.5
349.355	98.5
349.583	83.5
349.81	98.5
350.037	91.5
350.265	92.5
350.492	89.5
350.72	95.5
350.947	75.5
351.174	95.5
351.402	94.5
351.629	109.5
351.856	94.5
352.083	105.5
352.311	87.5
352.538	95.5
352.765	98.5
352.992	121.5
353.22	123.5
353.447	97.5
353.674	93.5
353.901	96.5
354.128	82.5
354.355	76.5
354.583	95.5
354.81	105.5
355.037	94.5
355.264	104.5
355.491	92.5
355.718	86.5
355.945	97.5
356.172	99.5
356.399	80.5
356.626	93.5
356.853	101.5
357.08	98.5
357.307	92.5
357.534	92.5
357.761	90.5
357.988	85.5
358.215	94.5
358.441	82.5
358.668	95.5
358.895	104.5
359.122	85.5
359.349	99.5
359.576	88.5
359.802	102.5
360.029	115.5
360.256	98.5
360.483	93.5
360.709	98.5
360.936	101.5
361.163	89.5
361.39	92.5
361.616	91.5
361.843	101.5
362.07	88.5
362.296	92.5
362.523	96.5
362.749	90.5
362.976	96.5
363.203	86.5
363.429	78.5
363.656	96.5
363.882	96.5
364.109	95.5
364.335	86.5
364.562	95.5
364.788	95.5
365.015	86.5
365.241	79.5
365.468	89.5
365.694	107.5
365.92	96.5
366.147	107.5
366.373	86.5
366.599	94.5
366.826	98.5
367.052	81.5
367.278	100.5
367.505	95.5
367.731	92.5
367.957	89.5
368.184	72.5
368.41	101.5
368.636	98.5
368.862	97.5
369.089	99.5
369.315	90.5
369.541	87.5
369.767	93.5
369.993	87.5
370.219	76.5
370.445	103.5
370.672	88.5
370.898	87.5
371.124	89.5
371.35	86.5
371.576	78.5
371.802	75.5
372.028	82.5
372.254	79.5
372.48	93.5
372.706	89.5
372.932	78.5
373.158	83.5
373.384	97.5
373.61	92.5
373.835	82.5
374.061	90.5
374.287	79.5
374.513	75.5
374.739	83.5
374.965	85.5
375.191	86.5
375.416	88.5
375.642	87.5
375.868	110.5
376.094	92.5
376.319	91.5
376.545	91.5
376.771	97.5
376.997	86.5
377.222	88.5
377.448	75.5
377.674	84.5
377.899	99.5
378.125	90.5
378.35	100.5
378.576	99.5
378.802	86.5
379.027	92.5
379.253	91.5
379.478	88.5
379.704	91.5
379.929	92.5
380.155	99.5
380.38	94.5
380.606	95.5
380.831	100.5
381.057	94.5
381.282	98.5
381.507	101.5
381.733	102.5
381.958	84.5
382.184	98.5
382.409	93.5
382.634	103.5
382.86	95.5
383.085	103.5
383.31	97.5
383.535	115.5
383.761	98.5
383.986	97.5
384.211	98.5
384.436	97.5
384.662	101.5
384.887	112.5
385.112	111.5
385.337	108.5
385.562	109.5
385.787	109.5
386.013	108.5
386.238	105.5
386.463	100.5
386.688	108.5
386.913	115.5
387.138	115.5
387.363	114.5
387.588	99.5
387.813	110.5
388.038	113.5
388.263	119.5
388.488	115.5
388.713	97.5
388.938	86.5
389.163	89.5
389.387	96.5
389.612	91.5
389.837	86.5
390.062	88.5
390.287	94.5
390.512	106.5
390.736	85.5
390.961	94.5
391.186	102.5
391.411	78.5
391.636	84.5
391.86	74.5
392.085	66.5
392.31	86.5
392.534	84.5
392.759	85.5
392.984	79.5
393.208	91.5
393.433	121.5
393.658	114.5
393.882	78.5
394.107	86.5
394.331	80.5
394.556	82.5
394.78	88.5
395.005	89.5
395.229	86.5
395.454	85.5
395.678	98.5
395.903	90.5
396.127	83.5
396.352	81.5
396.576	93.5
396.801	100.5
397.025	112.5
397.249	98.5
397.474	89.5
397.698	86.5
397.922	91.5
398.147	86.5
398.371	78.5
398.595	81.5
398.82	86.5
399.044	89.5
399.268	87.5
399.492	81.5
399.717	85.5
399.941	77.5
400.165	91.5
400.389	86.5
400.613	86.5
400.837	83.5
401.062	96.5
401.286	93.5
401.51	71.5
401.734	79.5
401.958	93.5
402.182	104.5
402.406	133.5
402.63	104.5
402.854	91.5
403.078	70.5
403.302	90.5
403.526	84.5
403.75	95.5
403.974	96.5
404.198	91.5
404.422	95.5
404.645	86.5
404.869	83.5
405.093	101.5
405.317	108.5
405.541	90.5
405.765	91.5
405.988	114.5
406.212	120.5
406.436	168.5
406.66	128.5
406.883	102.5
407.107	85.5
407.331	92.5
407.555	83.5
407.778	80.5
408.002	98.5
408.226	79.5
408.449	83.5
408.673	90.5
408.896	95.5
409.12	87.5
409.344	87.5
409.567	74.5
409.791	100.5
410.014	86.5
410.238	88.5
410.461	85.5
410.685	80.5
410.908	82.5
411.132	94.5
411.355	103.5
411.578	96.5
411.802	102.5
412.025	78.5
412.249	79.5
412.472	84.5
412.695	100.5
412.919	92.5
413.142	84.5
413.365	91.5
413.589	87.5
413.812	82.5
414.035	90.5
414.258	94.5
414.482	93.5
414.705	84.5
414.928	103.5
415.151	86.5
415.374	91.5
415.597	90.5
415.821	76.5
416.044	110.5
416.267	90.5
416.49	83.5
416.713	77.5
416.936	101.5
417.159	86.5
417.382	91.5
417.605	86.5
417.828	99.5
418.051	90.5
418.274	81.5
418.497	84.5
418.72	63.5
418.943	80.5
419.166	88.5
419.389	87.5
419.611	84.5
419.834	91.5
420.057	96.5
420.28	84.5
420.503	75.5
420.726	88.5
420.948	91.5
421.171	85.5
421.394	98.5
421.617	99.5
421.839	86.5
422.062	98.5
422.285	87.5
422.507	99.5
422.73	91.5
422.953	92.5
423.175	92.5
423.398	87.5
423.621	94.5
423.843	97.5
424.066	93.5
424.288	84.5
424.511	95.5
424.733	90.5
424.956	100.5
425.178	96.5
425.401	90.5
425.623	94.5
425.846	81.5
426.068	84.5
426.291	101.5
426.513	70.5
426.735	88.5
426.958	98.5
427.18	95.5
427.402	111.5
427.625	130.5
427.847	115.5
428.069	102.5
428.292	94.5
428.514	83.5
428.736	89.5
428.958	89.5
429.181	82.5
429.403	83.5
429.625	82.5
429.847	91.5
430.069	88.5
430.292	87.5
430.514	75.5
430.736	92.5
430.958	78.5
431.18	80.5
431.402	73.5
431.624	92.5
431.846	84.5
432.068	102.5
432.29	88.5
432.512	92.5
432.734	76.5
432.956	85.5
433.178	90.5
433.4	84.5
433.622	80.5
433.844	94.5
434.066	91.5
434.287	98.5
434.509	91.5
434.731	85.5
434.953	96.5
435.175	78.5
435.397	71.5
435.618	94.5
435.84	92.5
436.062	110.5
436.284	91.5
436.505	102.5
436.727	107.5
436.949	91.5
437.17	103.5
437.392	72.5
437.614	82.5
437.835	82.5
438.057	98.5
438.278	90.5
438.5	100.5
438.721	92.5
438.943	76.5
439.165	85.5
439.386	90.5
439.608	83.5
439.829	89.5
440.05	119.5
440.272	122.5
440.493	92.5
440.715	96.5
440.936	87.5
441.158	81.5
441.379	94.5
441.6	98.5
441.822	94.5
442.043	86.5
442.264	103.5
442.486	91.5
442.707	94.5
442.928	107.5
443.149	119.5
443.371	122.5
443.592	113.5
443.813	94.5
444.034	99.5
444.255	91.5
444.476	86.5
444.698	82.5
444.919	81.5
445.14	138.5
445.361	118.5
445.582	115.5
445.803	132.5
446.024	112.5
446.245	101.5
446.466	103.5
446.687	97.5
446.908	86.5
447.129	98.5
447.35	80.5
447.571	82.5
447.792	90.5
448.013	95.5
448.234	106.5
448.455	109.5
448.675	98.5
448.896	108.5
449.117	85.5
449.338	88.5
449.559	111.5
449.779	108.5
450	98.5
450.221	94.5
450.442	99.5
450.662	90.5
450.883	99.5
451.104	100.5
451.324	86.5
451.545	85.5
451.766	100.5
451.986	87.5
452.207	87.5
452.428	92.5
452.648	94.5
452.869	113.5
453.089	103.5
453.31	111.5
453.53	92.5
453.751	90.5
453.971	92.5
454.192	86.5
454.412	91.5
454.633	99.5
454.853	81.5
455.073	81.5
455.294	96.5
455.514	104.5
455.734	88.5
455.955	92.5
456.175	87.5
456.395	92.5
456.616	86.5
456.836	67.5
457.056	99.5
457.276	88.5
457.497	78.5
457.717	80.5
457.937	84.5
458.157	84.5
458.377	90.5
458.598	93.5
458.818	116.5
459.038	129.5
459.258	106.5
459.478	81.5
459.698	84.5
459.918	93.5
460.138	87.5
460.358	97.5
460.578	90.5
460.798	84.5
461.018	80.5
461.238	84.5
461.458	89.5
461.678	90.5
461.898	105.5
462.118	84.5
462.338	75.5
462.558	83.5
462.777	84.5
462.997	93.5
463.217	84.5
463.437	98.5
463.657	83.5
463.876	90.5
464.096	98.5
464.316	91.5
464.536	106.5
464.755	90.5
464.975	82.5
465.195	132.5
465.414	126.5
465.634	91.5
465.854	101.5
466.073	80.5
466.293	90.5
466.512	89.5
466.732	88.5
466.951	84.5
467.171	103.5
467.391	91.5
467.61	90.5
467.829	98.5
468.049	108.5
468.268	116.5
468.488	75.5
468.707	81.5
468.927	76.5
469.146	73.5
469.365	90.5
469.585	84.5
469.804	94.5
470.023	87.5
470.243	96.5
470.462	97.5
470.681	94.5
470.901	79.5
471.12	80.5
471.339	84.5
471.558	88.5
471.777	86.5
471.997	105.5
472.216	136.5
472.435	226.5
472.654	121.5
472.873	83.5
473.092	107.5
473.311	94.5
473.53	91.5
473.749	90.5
473.968	92.5
474.187	103.5
474.406	87.5
474.625	87.5
474.844	84.5
475.063	88.5
475.282	85.5
475.501	83.5
475.72	91.5
475.939	90.5
476.158	92.5
476.377	92.5
476.596	86.5
476.814	82.5
477.033	84.5
477.252	83.5
477.471	78.5
477.69	91.5
477.908	86.5
478.127	80.5
478.346	83.5
478.564	98.5
478.783	88.5
479.002	78.5
479.22	94.5
479.439	98.5
479.658	91.5
479.876	102.5
480.095	89.5
480.313	80.5
480.532	96.5
480.751	90.5
480.969	151.5
481.188	349.5
481.406	226.5
481.624	113.5
481.843	87.5
482.061	81.5
482.28	95.5
482.498	98.5
482.717	88.5
482.935	90.5
483.153	98.5
483.372	91.5
483.59	96.5
483.808	96.5
484.027	95.5
484.245	88.5
484.463	83.5
484.681	100.5
484.9	94.5
485.118	90.5
485.336	98.5
485.554	87.5
485.772	100.5
485.99	106.5
486.209	108.5
486.427	113.5
486.645	98.5
486.863	114.5
487.081	106.5
487.299	115.5
487.517	95.5
487.735	81.5
487.953	98.5
488.171	83.5
488.389	85.5
488.607	98.5
488.825	69.5
489.043	86.5
489.261	82.5
489.479	83.5
489.696	100.5
489.914	95.5
490.132	89.5
490.35	96.5
490.568	89.5
490.786	88.5
491.003	100.5
491.221	82.5
491.439	84.5
491.657	88.5
491.874	65.5
492.092	88.5
492.31	92.5
492.527	90.5
492.745	81.5
492.963	88.5
493.18	82.5
493.398	100.5
493.615	108.5
493.833	74.5
494.05	66.5
494.268	99.5
494.485	97.5
494.703	85.5
494.92	88.5
495.138	86.5
495.355	99.5
495.573	78.5
495.79	85.5
496.008	92.5
496.225	89.5
496.442	84.5
496.66	90.5
496.877	92.5
497.094	99.5
497.312	103.5
497.529	84.5
497.746	87.5
497.963	96.5
498.181	88.5
498.398	88.5
498.615	102.5
498.832	99.5
499.049	91.5
499.267	86.5
499.484	93.5
499.701	89.5
499.918	82.5
500.135	80.5
500.352	97.5
500.569	83.5
500.786	105.5
501.003	75.5
501.22	81.5
501.437	90.5
501.654	89.5
501.871	112.5
502.088	90.5
502.305	88.5
502.522	93.5
502.739	100.5
502.956	99.5
503.172	79.5
503.389	84.5
503.606	114.5
503.823	93.5
504.04	95.5
504.256	92.5
504.473	90.5
504.69	82.5
504.907	92.5
505.123	82.5
505.34	95.5
505.557	79.5
505.773	87.5
505.99	96.5
506.207	93.5
506.423	88.5
506.64	86.5
506.856	95.5
507.073	85.5
507.289	94.5
507.506	92.5
507.722	83.5
507.939	104.5
508.155	100.5
508.372	80.5
508.588	87.5
508.805	87.5
509.021	91.5
509.238	87.5
509.454	96.5
509.67	98.5
509.887	98.5
510.103	118.5
510.319	184.5
510.536	546.5
510.752	1720.5
510.968	468.5
511.184	142.5
511.401	99.5
511.617	91.5
511.833	100.5
512.049	84.5
512.265	90.5
512.481	91.5
512.698	82.5
512.914	84.5
513.13	95.5
513.346	102.5
513.562	87.5
513.778	80.5
513.994	94.5
514.21	98.5
514.426	120.5
514.642	112.5
514.858	100.5
515.074	133.5
515.29	329.5
515.506	995.5
515.721	379.5
515.937	133.5
516.153	99.5
516.369	103.5
516.585	84.5
516.801	94.5
517.016	87.5
517.232	94.5
517.448	92.5
517.664	74.5
517.879	105.5
518.095	104.5
518.311	84.5
518.527	94.5
518.742	102.5
518.958	93.5
519.173	85.5
519.389	94.5
519.605	94.5
519.82	99.5
520.036	101.5
520.251	106.5
520.467	107.5
520.682	102.5
520.898	96.5
521.113	108.5
521.329	108.5
521.544	168.5
521.76	386.5
521.975	1626.5
522.19	979.5
522.406	247.5
522.621	112.5
522.836	99.5
523.052	94.5
523.267	83.5
523.482	101.5
523.698	86.5
523.913	105.5
524.128	88.5
524.343	87.5
524.559	106.5
524.774	88.5
524.989	99.5
525.204	94.5
525.419	92.5
525.634	86.5
525.849	90.5
526.064	99.5
526.28	98.5
526.495	96.5
526.71	100.5
526.925	80.5
527.14	94.5
527.355	84.5
527.57	91.5
527.785	85.5
527.999	88.5
528.214	94.5
528.429	90.5
528.644	106.5
528.859	88.5
529.074	96.5
529.289	115.5
529.503	136.5
529.718	114.5
529.933	97.5
530.148	91.5
530.363	97.5
530.577	76.5
530.792	104.5
531.007	86.5
531.221	76.5
531.436	97.5
531.651	86.5
531.865	87.5
532.08	84.5
532.295	90.5
532.509	76.5
532.724	99.5
532.938	97.5
533.153	88.5
533.367	84.5
533.582	99.5
533.796	96.5
534.011	106.5
534.225	89.5
534.44	90.5
534.654	111.5
534.868	98.5
535.083	83.5
535.297	87.5
535.511	89.5
535.726	88.5
535.94	98.5
536.154	98.5
