Data from Circ_1983_H10_HRD10591_00003.txt Node
Date: Wed Jan 03 12:26:45 EST 2024
User: Yrep
Spectrometer: HR+D1059
Trigger mode: 1
Integration Time (sec): 1.000000E-1
Scans to average: 1
Electric dark correction enabled: true
Nonlinearity correction enabled: false
Boxcar width: 0
XAxis mode: Wavelengths
Number of Pixels in Spectrum: 2048
>>>>>Begin Spectral Data<<<<<
223.165	-13.69
223.4	-13.69
223.635	-13.69
223.869	-18.69
224.104	-20.69
224.338	-11.69
224.573	-6.69
224.808	-17.69
225.042	-14.69
225.277	-10.69
225.511	-6.69
225.746	17.31
225.98	14.31
226.215	10.31
226.449	24.31
226.683	9.31
226.918	16.31
227.152	29.31
227.387	32.31
227.621	41.31
227.856	36.31
228.09	41.31
228.324	50.31
228.559	53.31
228.793	66.31
229.027	62.31
229.262	72.31
229.496	66.31
229.73	80.31
229.964	75.31
230.199	73.31
230.433	84.31
230.667	80.31
230.901	81.31
231.136	77.31
231.37	67.31
231.604	56.31
231.838	90.31
232.072	84.31
232.306	80.31
232.541	74.31
232.775	77.31
233.009	73.31
233.243	82.31
233.477	86.31
233.711	75.31
233.945	82.31
234.179	75.31
234.413	80.31
234.647	98.31
234.881	75.31
235.115	83.31
235.349	76.31
235.583	91.31
235.817	80.31
236.051	71.31
236.285	77.31
236.519	75.31
236.753	75.31
236.987	83.31
237.221	81.31
237.455	73.31
237.689	74.31
237.922	80.31
238.156	69.31
238.39	77.31
238.624	81.31
238.858	88.31
239.091	83.31
239.325	80.31
239.559	91.31
239.793	64.31
240.027	76.31
240.26	91.31
240.494	70.31
240.728	70.31
240.961	71.31
241.195	84.31
241.429	77.31
241.662	69.31
241.896	85.31
242.13	72.31
242.363	92.31
242.597	99.31
242.83	85.31
243.064	86.31
243.298	77.31
243.531	86.31
243.765	77.31
243.998	86.31
244.232	65.31
244.465	71.31
244.699	93.31
244.932	77.31
245.166	61.31
245.399	73.31
245.633	69.31
245.866	72.31
246.099	82.31
246.333	89.31
246.566	75.31
246.8	72.31
247.033	69.31
247.266	67.31
247.5	77.31
247.733	85.31
247.966	86.31
248.2	82.31
248.433	84.31
248.666	74.31
248.899	91.31
249.133	78.31
249.366	98.31
249.599	99.31
249.832	84.31
250.066	70.31
250.299	96.31
250.532	80.31
250.765	97.31
250.998	79.31
251.231	72.31
251.465	90.31
251.698	82.31
251.931	94.31
252.164	90.31
252.397	74.31
252.63	91.31
252.863	82.31
253.096	101.31
253.329	93.31
253.562	74.31
253.795	84.31
254.028	85.31
254.261	74.31
254.494	80.31
254.727	73.31
254.96	76.31
255.193	73.31
255.426	86.31
255.659	84.31
255.892	78.31
256.124	77.31
256.357	77.31
256.59	76.31
256.823	73.31
257.056	70.31
257.289	96.31
257.521	82.31
257.754	85.31
257.987	77.31
258.22	91.31
258.452	76.31
258.685	77.31
258.918	86.31
259.151	85.31
259.383	86.31
259.616	82.31
259.849	85.31
260.081	85.31
260.314	73.31
260.547	73.31
260.779	82.31
261.012	91.31
261.244	90.31
261.477	84.31
261.71	72.31
261.942	104.31
262.175	95.31
262.407	87.31
262.64	98.31
262.872	91.31
263.105	110.31
263.337	97.31
263.57	89.31
263.802	81.31
264.035	90.31
264.267	82.31
264.499	83.31
264.732	91.31
264.964	93.31
265.197	91.31
265.429	74.31
265.661	94.31
265.894	82.31
266.126	83.31
266.358	90.31
266.591	82.31
266.823	100.31
267.055	87.31
267.287	100.31
267.52	92.31
267.752	83.31
267.984	71.31
268.216	85.31
268.448	107.31
268.681	95.31
268.913	76.31
269.145	85.31
269.377	90.31
269.609	94.31
269.841	92.31
270.073	77.31
270.306	72.31
270.538	88.31
270.77	83.31
271.002	85.31
271.234	68.31
271.466	87.31
271.698	89.31
271.93	83.31
272.162	81.31
272.394	84.31
272.626	91.31
272.858	84.31
273.09	89.31
273.322	90.31
273.553	82.31
273.785	69.31
274.017	79.31
274.249	84.31
274.481	80.31
274.713	90.31
274.945	96.31
275.176	86.31
275.408	86.31
275.64	97.31
275.872	81.31
276.104	89.31
276.335	90.31
276.567	97.31
276.799	96.31
277.031	90.31
277.262	80.31
277.494	90.31
277.726	101.31
277.957	80.31
278.189	80.31
278.421	97.31
278.652	84.31
278.884	76.31
279.115	80.31
279.347	75.31
279.579	95.31
279.81	92.31
280.042	84.31
280.273	96.31
280.505	85.31
280.736	82.31
280.968	83.31
281.199	90.31
281.431	104.31
281.662	86.31
281.894	92.31
282.125	82.31
282.356	104.31
282.588	113.31
282.819	103.31
283.051	82.31
283.282	90.31
283.513	88.31
283.745	91.31
283.976	88.31
284.207	70.31
284.439	88.31
284.67	88.31
284.901	89.31
285.132	95.31
285.364	91.31
285.595	102.31
285.826	78.31
286.057	107.31
286.288	76.31
286.52	88.31
286.751	87.31
286.982	100.31
287.213	84.31
287.444	89.31
287.675	86.31
287.906	100.31
288.138	100.31
288.369	86.31
288.6	92.31
288.831	91.31
289.062	76.31
289.293	86.31
289.524	93.31
289.755	97.31
289.986	88.31
290.217	96.31
290.448	88.31
290.679	96.31
290.91	88.31
291.141	88.31
291.371	97.31
291.602	105.31
291.833	82.31
292.064	76.31
292.295	88.31
292.526	90.31
292.757	89.31
292.987	95.31
293.218	83.31
293.449	62.31
293.68	81.31
293.91	88.31
294.141	85.31
294.372	81.31
294.603	87.31
294.833	93.31
295.064	93.31
295.295	76.31
295.525	101.31
295.756	108.31
295.987	103.31
296.217	124.31
296.448	115.31
296.679	98.31
296.909	106.31
297.14	96.31
297.37	103.31
297.601	84.31
297.831	81.31
298.062	97.31
298.292	101.31
298.523	97.31
298.753	82.31
298.984	84.31
299.214	88.31
299.445	88.31
299.675	100.31
299.905	88.31
300.136	82.31
300.366	90.31
300.597	91.31
300.827	93.31
301.057	90.31
301.288	103.31
301.518	86.31
301.748	83.31
301.979	89.31
302.209	94.31
302.439	85.31
302.669	85.31
302.9	96.31
303.13	101.31
303.36	83.31
303.59	99.31
303.82	100.31
304.051	105.31
304.281	89.31
304.511	87.31
304.741	108.31
304.971	89.31
305.201	96.31
305.431	85.31
305.661	85.31
305.891	86.31
306.121	117.31
306.352	100.31
306.582	104.31
306.812	99.31
307.042	93.31
307.272	92.31
307.502	95.31
307.731	91.31
307.961	95.31
308.191	93.31
308.421	83.31
308.651	74.31
308.881	92.31
309.111	77.31
309.341	89.31
309.571	110.31
309.8	100.31
310.03	94.31
310.26	97.31
310.49	103.31
310.72	98.31
310.949	98.31
311.179	95.31
311.409	93.31
311.639	83.31
311.868	102.31
312.098	98.31
312.328	103.31
312.557	91.31
312.787	97.31
313.017	105.31
313.246	84.31
313.476	108.31
313.706	97.31
313.935	94.31
314.165	96.31
314.394	85.31
314.624	89.31
314.853	101.31
315.083	88.31
315.312	92.31
315.542	89.31
315.771	76.31
316.001	92.31
316.23	102.31
316.46	82.31
316.689	91.31
316.919	72.31
317.148	107.31
317.377	88.31
317.607	91.31
317.836	96.31
318.065	92.31
318.295	82.31
318.524	84.31
318.753	96.31
318.983	96.31
319.212	98.31
319.441	110.31
319.67	107.31
319.9	81.31
320.129	93.31
320.358	100.31
320.587	83.31
320.816	102.31
321.046	102.31
321.275	89.31
321.504	91.31
321.733	109.31
321.962	97.31
322.191	104.31
322.42	108.31
322.649	105.31
322.878	90.31
323.108	106.31
323.337	107.31
323.566	124.31
323.795	126.31
324.024	184.31
324.253	294.31
324.482	624.31
324.71	1223.31
324.939	1602.31
325.168	605.31
325.397	200.31
325.626	133.31
325.855	109.31
326.084	125.31
326.313	114.31
326.542	136.31
326.77	184.31
326.999	355.31
327.228	729.31
327.457	1267.31
327.686	1001.31
327.914	277.31
328.143	170.31
328.372	138.31
328.6	105.31
328.829	104.31
329.058	102.31
329.287	114.31
329.515	100.31
329.744	105.31
329.972	84.31
330.201	112.31
330.43	121.31
330.658	111.31
330.887	116.31
331.115	116.31
331.344	96.31
331.572	118.31
331.801	109.31
332.03	91.31
332.258	85.31
332.486	105.31
332.715	94.31
332.943	73.31
333.172	85.31
333.4	80.31
333.629	117.31
333.857	103.31
334.085	105.31
334.314	107.31
334.542	146.31
334.771	130.31
334.999	89.31
335.227	92.31
335.455	89.31
335.684	88.31
335.912	91.31
336.14	101.31
336.369	109.31
336.597	100.31
336.825	95.31
337.053	89.31
337.281	110.31
337.51	96.31
337.738	104.31
337.966	94.31
338.194	89.31
338.422	93.31
338.65	87.31
338.878	94.31
339.106	96.31
339.334	86.31
339.562	70.31
339.79	96.31
340.018	86.31
340.246	92.31
340.474	102.31
340.702	89.31
340.93	94.31
341.158	86.31
341.386	109.31
341.614	99.31
341.842	93.31
342.07	97.31
342.298	82.31
342.526	86.31
342.754	96.31
342.981	101.31
343.209	88.31
343.437	96.31
343.665	91.31
343.893	86.31
344.12	86.31
344.348	93.31
344.576	88.31
344.804	101.31
345.031	90.31
345.259	98.31
345.487	91.31
345.714	89.31
345.942	95.31
346.17	88.31
346.397	88.31
346.625	94.31
346.853	95.31
347.08	95.31
347.308	96.31
347.535	96.31
347.763	90.31
347.99	104.31
348.218	100.31
348.445	113.31
348.673	91.31
348.9	87.31
349.128	88.31
349.355	102.31
349.583	93.31
349.81	84.31
350.037	94.31
350.265	97.31
350.492	99.31
350.72	98.31
350.947	102.31
351.174	112.31
351.402	101.31
351.629	106.31
351.856	110.31
352.083	93.31
352.311	98.31
352.538	98.31
352.765	102.31
352.992	107.31
353.22	118.31
353.447	102.31
353.674	106.31
353.901	89.31
354.128	106.31
354.355	91.31
354.583	104.31
354.81	105.31
355.037	97.31
355.264	94.31
355.491	100.31
355.718	98.31
355.945	104.31
356.172	89.31
356.399	108.31
356.626	97.31
356.853	94.31
357.08	95.31
357.307	103.31
357.534	94.31
357.761	101.31
357.988	110.31
358.215	115.31
358.441	110.31
358.668	109.31
358.895	100.31
359.122	96.31
359.349	83.31
359.576	94.31
359.802	87.31
360.029	92.31
360.256	87.31
360.483	98.31
360.709	88.31
360.936	101.31
361.163	82.31
361.39	102.31
361.616	96.31
361.843	78.31
362.07	85.31
362.296	102.31
362.523	84.31
362.749	83.31
362.976	101.31
363.203	95.31
363.429	85.31
363.656	94.31
363.882	88.31
364.109	88.31
364.335	87.31
364.562	88.31
364.788	85.31
365.015	94.31
365.241	101.31
365.468	98.31
365.694	108.31
365.92	97.31
366.147	84.31
366.373	76.31
366.599	88.31
366.826	92.31
367.052	73.31
367.278	82.31
367.505	85.31
367.731	93.31
367.957	72.31
368.184	88.31
368.41	96.31
368.636	111.31
368.862	121.31
369.089	94.31
369.315	91.31
369.541	78.31
369.767	81.31
369.993	94.31
370.219	111.31
370.445	94.31
370.672	80.31
370.898	86.31
371.124	98.31
371.35	71.31
371.576	86.31
371.802	87.31
372.028	98.31
372.254	81.31
372.48	91.31
372.706	83.31
372.932	98.31
373.158	85.31
373.384	83.31
373.61	86.31
373.835	72.31
374.061	88.31
374.287	90.31
374.513	102.31
374.739	104.31
374.965	87.31
375.191	101.31
375.416	88.31
375.642	100.31
375.868	87.31
376.094	90.31
376.319	97.31
376.545	102.31
376.771	111.31
376.997	91.31
377.222	93.31
377.448	95.31
377.674	91.31
377.899	91.31
378.125	102.31
378.35	108.31
378.576	103.31
378.802	83.31
379.027	90.31
379.253	99.31
379.478	91.31
379.704	92.31
379.929	114.31
380.155	107.31
380.38	101.31
380.606	102.31
380.831	93.31
381.057	117.31
381.282	88.31
381.507	98.31
381.733	104.31
381.958	114.31
382.184	101.31
382.409	126.31
382.634	117.31
382.86	127.31
383.085	115.31
383.31	122.31
383.535	122.31
383.761	127.31
383.986	130.31
384.211	121.31
384.436	100.31
384.662	131.31
384.887	138.31
385.112	127.31
385.337	145.31
385.562	132.31
385.787	120.31
386.013	140.31
386.238	132.31
386.463	132.31
386.688	131.31
386.913	124.31
387.138	147.31
387.363	129.31
387.588	121.31
387.813	126.31
388.038	147.31
388.263	178.31
388.488	151.31
388.713	101.31
388.938	99.31
389.163	86.31
389.387	84.31
389.612	96.31
389.837	93.31
390.062	94.31
390.287	89.31
390.512	94.31
390.736	91.31
390.961	96.31
391.186	89.31
391.411	92.31
391.636	94.31
391.86	94.31
392.085	87.31
392.31	85.31
392.534	84.31
392.759	93.31
392.984	97.31
393.208	135.31
393.433	192.31
393.658	170.31
393.882	98.31
394.107	92.31
394.331	109.31
394.556	71.31
394.78	87.31
395.005	91.31
395.229	99.31
395.454	88.31
395.678	99.31
395.903	84.31
396.127	97.31
396.352	91.31
396.576	102.31
396.801	127.31
397.025	146.31
397.249	93.31
397.474	98.31
397.698	87.31
397.922	77.31
398.147	95.31
398.371	91.31
398.595	98.31
398.82	87.31
399.044	89.31
399.268	89.31
399.492	82.31
399.717	92.31
399.941	97.31
400.165	81.31
400.389	105.31
400.613	87.31
400.837	68.31
401.062	86.31
401.286	98.31
401.51	85.31
401.734	100.31
401.958	86.31
402.182	126.31
402.406	139.31
402.63	115.31
402.854	73.31
403.078	91.31
403.302	75.31
403.526	93.31
403.75	92.31
403.974	97.31
404.198	83.31
404.422	88.31
404.645	90.31
404.869	77.31
405.093	99.31
405.317	102.31
405.541	102.31
405.765	105.31
405.988	118.31
406.212	120.31
406.436	181.31
406.66	125.31
406.883	84.31
407.107	96.31
407.331	93.31
407.555	100.31
407.778	88.31
408.002	82.31
408.226	92.31
408.449	81.31
408.673	95.31
408.896	91.31
409.12	80.31
409.344	102.31
409.567	107.31
409.791	93.31
410.014	104.31
410.238	94.31
410.461	76.31
410.685	96.31
410.908	89.31
411.132	96.31
411.355	94.31
411.578	95.31
411.802	98.31
412.025	90.31
412.249	99.31
412.472	99.31
412.695	94.31
412.919	98.31
413.142	101.31
413.365	72.31
413.589	103.31
413.812	94.31
414.035	96.31
414.258	82.31
414.482	87.31
414.705	94.31
414.928	92.31
415.151	98.31
415.374	101.31
415.597	93.31
415.821	98.31
416.044	99.31
416.267	102.31
416.49	99.31
416.713	99.31
416.936	97.31
417.159	91.31
417.382	98.31
417.605	84.31
417.828	86.31
418.051	96.31
418.274	77.31
418.497	91.31
418.72	89.31
418.943	90.31
419.166	84.31
419.389	88.31
419.611	88.31
419.834	89.31
420.057	84.31
420.28	93.31
420.503	100.31
420.726	94.31
420.948	87.31
421.171	93.31
421.394	94.31
421.617	104.31
421.839	87.31
422.062	86.31
422.285	101.31
422.507	102.31
422.73	141.31
422.953	118.31
423.175	90.31
423.398	87.31
423.621	98.31
423.843	83.31
424.066	66.31
424.288	68.31
424.511	106.31
424.733	98.31
424.956	96.31
425.178	86.31
425.401	88.31
425.623	92.31
425.846	101.31
426.068	92.31
426.291	98.31
426.513	82.31
426.735	83.31
426.958	78.31
427.18	88.31
427.402	115.31
427.625	132.31
427.847	111.31
428.069	106.31
428.292	99.31
428.514	86.31
428.736	66.31
428.958	85.31
429.181	83.31
429.403	77.31
429.625	89.31
429.847	91.31
430.069	91.31
430.292	92.31
430.514	80.31
430.736	89.31
430.958	97.31
431.18	75.31
431.402	76.31
431.624	77.31
431.846	74.31
432.068	88.31
432.29	93.31
432.512	91.31
432.734	77.31
432.956	81.31
433.178	97.31
433.4	99.31
433.622	84.31
433.844	100.31
434.066	90.31
434.287	92.31
434.509	86.31
434.731	74.31
434.953	86.31
435.175	88.31
435.397	96.31
435.618	99.31
435.84	102.31
436.062	96.31
436.284	98.31
436.505	85.31
436.727	109.31
436.949	87.31
437.17	74.31
437.392	85.31
437.614	102.31
437.835	104.31
438.057	101.31
438.278	100.31
438.5	96.31
438.721	100.31
438.943	87.31
439.165	80.31
439.386	84.31
439.608	90.31
439.829	96.31
440.05	102.31
440.272	117.31
440.493	88.31
440.715	102.31
440.936	87.31
441.158	86.31
441.379	93.31
441.6	88.31
441.822	85.31
442.043	83.31
442.264	90.31
442.486	88.31
442.707	107.31
442.928	89.31
443.149	104.31
443.371	112.31
443.592	92.31
443.813	110.31
444.034	98.31
444.255	86.31
444.476	90.31
444.698	84.31
444.919	83.31
445.14	136.31
445.361	133.31
445.582	105.31
445.803	122.31
446.024	96.31
446.245	113.31
446.466	109.31
446.687	93.31
446.908	95.31
447.129	81.31
447.35	103.31
447.571	92.31
447.792	80.31
448.013	80.31
448.234	105.31
448.455	100.31
448.675	97.31
448.896	94.31
449.117	104.31
449.338	93.31
449.559	98.31
449.779	104.31
450	93.31
450.221	82.31
450.442	89.31
450.662	96.31
450.883	90.31
451.104	120.31
451.324	97.31
451.545	76.31
451.766	92.31
451.986	89.31
452.207	98.31
452.428	77.31
452.648	96.31
452.869	86.31
453.089	101.31
453.31	98.31
453.53	82.31
453.751	104.31
453.971	96.31
454.192	107.31
454.412	79.31
454.633	80.31
454.853	86.31
455.073	90.31
455.294	92.31
455.514	89.31
455.734	97.31
455.955	72.31
456.175	68.31
456.395	85.31
456.616	97.31
456.836	82.31
457.056	86.31
457.276	81.31
457.497	82.31
457.717	71.31
457.937	78.31
458.157	80.31
458.377	80.31
458.598	82.31
458.818	108.31
459.038	122.31
459.258	110.31
459.478	75.31
459.698	85.31
459.918	92.31
460.138	77.31
460.358	88.31
460.578	96.31
460.798	89.31
461.018	96.31
461.238	88.31
461.458	82.31
461.678	93.31
461.898	82.31
462.118	85.31
462.338	81.31
462.558	83.31
462.777	81.31
462.997	82.31
463.217	83.31
463.437	77.31
463.657	101.31
463.876	91.31
464.096	100.31
464.316	107.31
464.536	93.31
464.755	100.31
464.975	103.31
465.195	121.31
465.414	119.31
465.634	101.31
465.854	90.31
466.073	88.31
466.293	86.31
466.512	88.31
466.732	80.31
466.951	72.31
467.171	77.31
467.391	84.31
467.61	107.31
467.829	97.31
468.049	101.31
468.268	96.31
468.488	100.31
468.707	96.31
468.927	77.31
469.146	94.31
469.365	82.31
469.585	88.31
469.804	94.31
470.023	91.31
470.243	90.31
470.462	105.31
470.681	101.31
470.901	73.31
471.12	92.31
471.339	85.31
471.558	96.31
471.777	93.31
471.997	98.31
472.216	112.31
472.435	132.31
472.654	107.31
472.873	91.31
473.092	89.31
473.311	83.31
473.53	82.31
473.749	77.31
473.968	98.31
474.187	100.31
474.406	92.31
474.625	93.31
474.844	82.31
475.063	100.31
475.282	96.31
475.501	79.31
475.72	90.31
475.939	96.31
476.158	93.31
476.377	96.31
476.596	73.31
476.814	67.31
477.033	89.31
477.252	80.31
477.471	87.31
477.69	103.31
477.908	94.31
478.127	86.31
478.346	87.31
478.564	84.31
478.783	95.31
479.002	90.31
479.22	75.31
479.439	90.31
479.658	85.31
479.876	96.31
480.095	81.31
480.313	81.31
480.532	98.31
480.751	88.31
480.969	126.31
481.188	164.31
481.406	136.31
481.624	107.31
481.843	94.31
482.061	106.31
482.28	97.31
482.498	87.31
482.717	87.31
482.935	80.31
483.153	84.31
483.372	86.31
483.59	101.31
483.808	94.31
484.027	99.31
484.245	88.31
484.463	107.31
484.681	85.31
484.9	82.31
485.118	95.31
485.336	99.31
485.554	94.31
485.772	115.31
485.99	115.31
486.209	106.31
486.427	103.31
486.645	103.31
486.863	106.31
487.081	102.31
487.299	95.31
487.517	99.31
487.735	101.31
487.953	86.31
488.171	87.31
488.389	97.31
488.607	93.31
488.825	89.31
489.043	90.31
489.261	76.31
489.479	94.31
489.696	98.31
489.914	93.31
490.132	73.31
490.35	99.31
490.568	87.31
490.786	91.31
491.003	101.31
491.221	105.31
491.439	99.31
491.657	93.31
491.874	78.31
492.092	96.31
492.31	100.31
492.527	88.31
492.745	99.31
492.963	76.31
493.18	90.31
493.398	93.31
493.615	92.31
493.833	85.31
494.05	80.31
494.268	88.31
494.485	89.31
494.703	102.31
494.92	86.31
495.138	96.31
495.355	97.31
495.573	94.31
495.79	89.31
496.008	80.31
496.225	103.31
496.442	82.31
496.66	88.31
496.877	89.31
497.094	99.31
497.312	76.31
497.529	100.31
497.746	101.31
497.963	82.31
498.181	99.31
498.398	98.31
498.615	87.31
498.832	109.31
499.049	93.31
499.267	92.31
499.484	88.31
499.701	90.31
499.918	78.31
500.135	82.31
500.352	91.31
500.569	92.31
500.786	80.31
501.003	82.31
501.22	94.31
501.437	104.31
501.654	91.31
501.871	87.31
502.088	94.31
502.305	80.31
502.522	92.31
502.739	86.31
502.956	90.31
503.172	102.31
503.389	99.31
503.606	99.31
503.823	101.31
504.04	87.31
504.256	85.31
504.473	84.31
504.69	92.31
504.907	91.31
505.123	87.31
505.34	99.31
505.557	90.31
505.773	88.31
505.99	94.31
506.207	94.31
506.423	91.31
506.64	93.31
506.856	90.31
507.073	106.31
507.289	97.31
507.506	90.31
507.722	98.31
507.939	96.31
508.155	90.31
508.372	95.31
508.588	95.31
508.805	103.31
509.021	100.31
509.238	110.31
509.454	93.31
509.67	107.31
509.887	99.31
510.103	127.31
510.319	175.31
510.536	606.31
510.752	1795.31
510.968	516.31
511.184	139.31
511.401	88.31
511.617	97.31
511.833	69.31
512.049	81.31
512.265	94.31
512.481	78.31
512.698	76.31
512.914	85.31
513.13	74.31
513.346	94.31
513.562	94.31
513.778	92.31
513.994	92.31
514.21	88.31
514.426	115.31
514.642	119.31
514.858	115.31
515.074	148.31
515.29	328.31
515.506	1044.31
