Data from Circ_1983_H10_HRD10591_00076.txt Node
Date: Wed Jan 03 12:27:00 EST 2024
User: Yrep
Spectrometer: HR+D1059
Trigger mode: 1
Integration Time (sec): 1.000000E-1
Scans to average: 1
Electric dark correction enabled: true
Nonlinearity correction enabled: false
Boxcar width: 0
XAxis mode: Wavelengths
Number of Pixels in Spectrum: 2048
>>>>>Begin Spectral Data<<<<<
223.165	-12.25
223.4	-12.25
223.635	-12.25
223.869	-26.25
224.104	-19.25
224.338	-14.25
224.573	-16.25
224.808	-14.25
225.042	0.75
225.277	-4.25
225.511	-8.25
225.746	-8.25
225.98	5.75
226.215	14.75
226.449	24.75
226.683	30.75
226.918	17.75
227.152	28.75
227.387	36.75
227.621	45.75
227.856	46.75
228.09	45.75
228.324	55.75
228.559	66.75
228.793	71.75
229.027	71.75
229.262	63.75
229.496	68.75
229.73	79.75
229.964	70.75
230.199	71.75
230.433	68.75
230.667	75.75
230.901	74.75
231.136	76.75
231.37	70.75
231.604	82.75
231.838	101.75
232.072	75.75
232.306	72.75
232.541	83.75
232.775	74.75
233.009	94.75
233.243	94.75
233.477	84.75
233.711	83.75
233.945	74.75
234.179	86.75
234.413	82.75
234.647	84.75
234.881	85.75
235.115	85.75
235.349	87.75
235.583	88.75
235.817	91.75
236.051	88.75
236.285	85.75
236.519	68.75
236.753	80.75
236.987	86.75
237.221	92.75
237.455	97.75
237.689	74.75
237.922	79.75
238.156	81.75
238.39	68.75
238.624	74.75
238.858	85.75
239.091	87.75
239.325	81.75
239.559	74.75
239.793	78.75
240.027	63.75
240.26	76.75
240.494	84.75
240.728	74.75
240.961	86.75
241.195	94.75
241.429	77.75
241.662	66.75
241.896	84.75
242.13	82.75
242.363	62.75
242.597	72.75
242.83	78.75
243.064	88.75
243.298	76.75
243.531	65.75
243.765	87.75
243.998	85.75
244.232	74.75
244.465	79.75
244.699	90.75
244.932	76.75
245.166	74.75
245.399	70.75
245.633	81.75
245.866	74.75
246.099	86.75
246.333	80.75
246.566	78.75
246.8	87.75
247.033	76.75
247.266	79.75
247.5	73.75
247.733	107.75
247.966	82.75
248.2	87.75
248.433	75.75
248.666	84.75
248.899	82.75
249.133	86.75
249.366	94.75
249.599	104.75
249.832	90.75
250.066	84.75
250.299	78.75
250.532	86.75
250.765	76.75
250.998	80.75
251.231	79.75
251.465	89.75
251.698	85.75
251.931	80.75
252.164	91.75
252.397	94.75
252.63	92.75
252.863	85.75
253.096	89.75
253.329	75.75
253.562	83.75
253.795	88.75
254.028	66.75
254.261	88.75
254.494	83.75
254.727	96.75
254.96	84.75
255.193	85.75
255.426	86.75
255.659	67.75
255.892	75.75
256.124	86.75
256.357	89.75
256.59	84.75
256.823	75.75
257.056	78.75
257.289	89.75
257.521	82.75
257.754	88.75
257.987	88.75
258.22	90.75
258.452	80.75
258.685	77.75
258.918	91.75
259.151	78.75
259.383	84.75
259.616	88.75
259.849	86.75
260.081	91.75
260.314	78.75
260.547	90.75
260.779	92.75
261.012	88.75
261.244	82.75
261.477	101.75
261.71	96.75
261.942	110.75
262.175	113.75
262.407	86.75
262.64	100.75
262.872	85.75
263.105	76.75
263.337	85.75
263.57	93.75
263.802	98.75
264.035	91.75
264.267	90.75
264.499	93.75
264.732	90.75
264.964	83.75
265.197	81.75
265.429	92.75
265.661	87.75
265.894	89.75
266.126	94.75
266.358	75.75
266.591	70.75
266.823	79.75
267.055	68.75
267.287	86.75
267.52	89.75
267.752	77.75
267.984	78.75
268.216	93.75
268.448	82.75
268.681	78.75
268.913	97.75
269.145	98.75
269.377	85.75
269.609	65.75
269.841	97.75
270.073	85.75
270.306	82.75
270.538	95.75
270.77	88.75
271.002	107.75
271.234	89.75
271.466	80.75
271.698	78.75
271.93	89.75
272.162	86.75
272.394	88.75
272.626	96.75
272.858	95.75
273.09	93.75
273.322	91.75
273.553	85.75
273.785	90.75
274.017	90.75
274.249	82.75
274.481	72.75
274.713	83.75
274.945	99.75
275.176	95.75
275.408	80.75
275.64	94.75
275.872	80.75
276.104	96.75
276.335	94.75
276.567	83.75
276.799	96.75
277.031	93.75
277.262	90.75
277.494	94.75
277.726	107.75
277.957	90.75
278.189	83.75
278.421	92.75
278.652	87.75
278.884	94.75
279.115	94.75
279.347	86.75
279.579	95.75
279.81	79.75
280.042	93.75
280.273	89.75
280.505	80.75
280.736	68.75
280.968	82.75
281.199	94.75
281.431	87.75
281.662	87.75
281.894	98.75
282.125	88.75
282.356	99.75
282.588	121.75
282.819	101.75
283.051	102.75
283.282	88.75
283.513	99.75
283.745	83.75
283.976	85.75
284.207	85.75
284.439	89.75
284.67	92.75
284.901	92.75
285.132	83.75
285.364	87.75
285.595	76.75
285.826	102.75
286.057	96.75
286.288	87.75
286.52	84.75
286.751	95.75
286.982	107.75
287.213	82.75
287.444	91.75
287.675	88.75
287.906	92.75
288.138	96.75
288.369	88.75
288.6	98.75
288.831	91.75
289.062	88.75
289.293	88.75
289.524	90.75
289.755	73.75
289.986	94.75
290.217	93.75
290.448	83.75
290.679	86.75
290.91	84.75
291.141	90.75
291.371	79.75
291.602	94.75
291.833	90.75
292.064	92.75
292.295	94.75
292.526	82.75
292.757	87.75
292.987	86.75
293.218	85.75
293.449	73.75
293.68	82.75
293.91	91.75
294.141	98.75
294.372	99.75
294.603	110.75
294.833	89.75
295.064	79.75
295.295	74.75
295.525	89.75
295.756	99.75
295.987	104.75
296.217	138.75
296.448	105.75
296.679	93.75
296.909	98.75
297.14	95.75
297.37	93.75
297.601	87.75
297.831	90.75
298.062	91.75
298.292	94.75
298.523	91.75
298.753	93.75
298.984	83.75
299.214	94.75
299.445	100.75
299.675	90.75
299.905	91.75
300.136	93.75
300.366	105.75
300.597	80.75
300.827	93.75
301.057	95.75
301.288	105.75
301.518	86.75
301.748	87.75
301.979	92.75
302.209	73.75
302.439	87.75
302.669	86.75
302.9	83.75
303.13	83.75
303.36	91.75
303.59	100.75
303.82	90.75
304.051	101.75
304.281	96.75
304.511	98.75
304.741	87.75
304.971	82.75
305.201	77.75
305.431	88.75
305.661	84.75
305.891	93.75
306.121	97.75
306.352	91.75
306.582	116.75
306.812	84.75
307.042	85.75
307.272	104.75
307.502	101.75
307.731	99.75
307.961	82.75
308.191	99.75
308.421	91.75
308.651	105.75
308.881	104.75
309.111	110.75
309.341	95.75
309.571	101.75
309.8	95.75
310.03	85.75
310.26	107.75
310.49	103.75
310.72	89.75
310.949	91.75
311.179	91.75
311.409	83.75
311.639	98.75
311.868	80.75
312.098	99.75
312.328	81.75
312.557	103.75
312.787	110.75
313.017	91.75
313.246	104.75
313.476	98.75
313.706	93.75
313.935	100.75
314.165	95.75
314.394	110.75
314.624	91.75
314.853	98.75
315.083	99.75
315.312	85.75
315.542	87.75
315.771	91.75
316.001	102.75
316.23	94.75
316.46	95.75
316.689	91.75
316.919	80.75
317.148	85.75
317.377	89.75
317.607	81.75
317.836	100.75
318.065	103.75
318.295	77.75
318.524	100.75
318.753	78.75
318.983	104.75
319.212	106.75
319.441	95.75
319.67	93.75
319.9	94.75
320.129	91.75
320.358	93.75
320.587	115.75
320.816	98.75
321.046	106.75
321.275	90.75
321.504	79.75
321.733	93.75
321.962	105.75
322.191	102.75
322.42	105.75
322.649	98.75
322.878	101.75
323.108	118.75
323.337	111.75
323.566	120.75
323.795	140.75
324.024	158.75
324.253	302.75
324.482	597.75
324.71	1216.75
324.939	1538.75
325.168	592.75
325.397	182.75
325.626	122.75
325.855	111.75
326.084	126.75
326.313	122.75
326.542	139.75
326.77	185.75
326.999	345.75
327.228	666.75
327.457	1238.75
327.686	995.75
327.914	283.75
328.143	190.75
328.372	182.75
328.6	127.75
328.829	120.75
329.058	119.75
329.287	103.75
329.515	102.75
329.744	119.75
329.972	144.75
330.201	184.75
330.43	212.75
330.658	166.75
330.887	115.75
331.115	116.75
331.344	68.75
331.572	100.75
331.801	101.75
332.03	111.75
332.258	110.75
332.486	90.75
332.715	92.75
332.943	93.75
333.172	90.75
333.4	102.75
333.629	102.75
333.857	111.75
334.085	136.75
334.314	194.75
334.542	275.75
334.771	248.75
334.999	115.75
335.227	109.75
335.455	85.75
335.684	94.75
335.912	100.75
336.14	92.75
336.369	94.75
336.597	93.75
336.825	107.75
337.053	88.75
337.281	99.75
337.51	101.75
337.738	107.75
337.966	91.75
338.194	94.75
338.422	92.75
338.65	94.75
338.878	97.75
339.106	92.75
339.334	105.75
339.562	96.75
339.79	95.75
340.018	80.75
340.246	88.75
340.474	103.75
340.702	93.75
340.93	89.75
341.158	83.75
341.386	82.75
341.614	103.75
341.842	94.75
342.07	84.75
342.298	96.75
342.526	82.75
342.754	86.75
342.981	83.75
343.209	91.75
343.437	101.75
343.665	92.75
343.893	99.75
344.12	89.75
344.348	86.75
344.576	93.75
344.804	92.75
345.031	98.75
345.259	98.75
345.487	75.75
345.714	100.75
345.942	97.75
346.17	92.75
346.397	98.75
346.625	110.75
346.853	91.75
347.08	88.75
347.308	88.75
347.535	83.75
347.763	94.75
347.99	98.75
348.218	115.75
348.445	107.75
348.673	95.75
348.9	111.75
349.128	90.75
349.355	94.75
349.583	100.75
349.81	98.75
350.037	102.75
350.265	105.75
350.492	93.75
350.72	94.75
350.947	104.75
351.174	109.75
351.402	104.75
351.629	101.75
351.856	102.75
352.083	103.75
352.311	101.75
352.538	95.75
352.765	107.75
352.992	120.75
353.22	107.75
353.447	95.75
353.674	112.75
353.901	98.75
354.128	90.75
354.355	97.75
354.583	87.75
354.81	92.75
355.037	100.75
355.264	106.75
355.491	92.75
355.718	93.75
355.945	100.75
356.172	98.75
356.399	99.75
356.626	95.75
356.853	98.75
357.08	98.75
357.307	99.75
357.534	88.75
357.761	89.75
357.988	114.75
358.215	110.75
358.441	105.75
358.668	94.75
358.895	102.75
359.122	87.75
359.349	87.75
359.576	97.75
359.802	106.75
360.029	94.75
360.256	99.75
360.483	108.75
360.709	87.75
360.936	94.75
361.163	94.75
361.39	87.75
361.616	83.75
361.843	94.75
362.07	105.75
362.296	85.75
362.523	99.75
362.749	84.75
362.976	101.75
363.203	88.75
363.429	79.75
363.656	94.75
363.882	89.75
364.109	84.75
364.335	91.75
364.562	84.75
364.788	83.75
365.015	90.75
365.241	100.75
365.468	84.75
365.694	99.75
365.92	95.75
366.147	98.75
366.373	91.75
366.599	80.75
366.826	92.75
367.052	97.75
367.278	94.75
367.505	90.75
367.731	107.75
367.957	96.75
368.184	94.75
368.41	88.75
368.636	101.75
368.862	111.75
369.089	110.75
369.315	84.75
369.541	110.75
369.767	92.75
369.993	95.75
370.219	104.75
370.445	95.75
370.672	94.75
370.898	70.75
371.124	69.75
371.35	84.75
371.576	89.75
371.802	88.75
372.028	86.75
372.254	84.75
372.48	101.75
372.706	95.75
372.932	74.75
373.158	93.75
373.384	105.75
373.61	88.75
373.835	83.75
374.061	100.75
374.287	91.75
374.513	90.75
374.739	91.75
374.965	87.75
375.191	95.75
375.416	104.75
375.642	88.75
375.868	96.75
376.094	96.75
376.319	86.75
376.545	83.75
376.771	86.75
376.997	98.75
377.222	87.75
377.448	102.75
377.674	98.75
377.899	95.75
378.125	86.75
378.35	84.75
378.576	95.75
378.802	94.75
379.027	99.75
379.253	97.75
379.478	95.75
379.704	92.75
379.929	95.75
380.155	106.75
380.38	91.75
380.606	100.75
380.831	95.75
381.057	98.75
381.282	88.75
381.507	106.75
381.733	90.75
381.958	94.75
382.184	105.75
382.409	100.75
382.634	96.75
382.86	107.75
383.085	109.75
383.31	109.75
383.535	104.75
383.761	94.75
383.986	111.75
384.211	88.75
384.436	85.75
384.662	104.75
384.887	107.75
385.112	112.75
385.337	92.75
385.562	100.75
385.787	100.75
386.013	110.75
386.238	129.75
386.463	105.75
386.688	105.75
386.913	115.75
387.138	106.75
387.363	78.75
387.588	99.75
387.813	109.75
388.038	108.75
388.263	109.75
388.488	115.75
388.713	105.75
388.938	99.75
389.163	101.75
389.387	106.75
389.612	95.75
389.837	100.75
390.062	104.75
390.287	101.75
390.512	92.75
390.736	87.75
390.961	88.75
391.186	92.75
391.411	83.75
391.636	92.75
391.86	89.75
392.085	88.75
392.31	88.75
392.534	100.75
392.759	90.75
392.984	102.75
393.208	104.75
393.433	95.75
393.658	99.75
393.882	93.75
394.107	88.75
394.331	90.75
394.556	90.75
394.78	88.75
395.005	88.75
395.229	83.75
395.454	90.75
395.678	96.75
395.903	77.75
396.127	101.75
396.352	80.75
396.576	95.75
396.801	79.75
397.025	97.75
397.249	77.75
397.474	80.75
397.698	90.75
397.922	107.75
398.147	72.75
398.371	101.75
398.595	92.75
398.82	93.75
399.044	70.75
399.268	82.75
399.492	117.75
399.717	96.75
399.941	73.75
400.165	99.75
400.389	85.75
400.613	86.75
400.837	98.75
401.062	91.75
401.286	92.75
401.51	87.75
401.734	87.75
401.958	98.75
402.182	112.75
402.406	129.75
402.63	109.75
402.854	105.75
403.078	90.75
403.302	90.75
403.526	73.75
403.75	85.75
403.974	95.75
404.198	85.75
404.422	99.75
404.645	93.75
404.869	79.75
405.093	95.75
405.317	105.75
405.541	100.75
405.765	96.75
405.988	101.75
406.212	150.75
406.436	169.75
406.66	110.75
406.883	98.75
407.107	97.75
407.331	84.75
407.555	90.75
407.778	91.75
408.002	93.75
408.226	88.75
408.449	92.75
408.673	86.75
408.896	90.75
409.12	90.75
409.344	87.75
409.567	88.75
409.791	99.75
410.014	93.75
410.238	89.75
410.461	100.75
410.685	97.75
410.908	103.75
411.132	93.75
411.355	100.75
411.578	80.75
411.802	91.75
412.025	105.75
412.249	95.75
412.472	109.75
412.695	96.75
412.919	100.75
413.142	69.75
413.365	96.75
413.589	75.75
413.812	88.75
414.035	88.75
414.258	90.75
414.482	90.75
414.705	99.75
414.928	81.75
415.151	80.75
415.374	98.75
415.597	96.75
415.821	85.75
416.044	88.75
416.267	96.75
416.49	94.75
416.713	80.75
416.936	95.75
417.159	86.75
417.382	97.75
417.605	89.75
417.828	93.75
418.051	82.75
418.274	98.75
418.497	90.75
418.72	82.75
418.943	91.75
419.166	91.75
419.389	90.75
419.611	87.75
419.834	85.75
420.057	90.75
420.28	93.75
420.503	77.75
420.726	71.75
420.948	102.75
421.171	90.75
421.394	75.75
421.617	109.75
421.839	105.75
422.062	80.75
422.285	104.75
422.507	106.75
422.73	99.75
422.953	89.75
423.175	83.75
423.398	89.75
423.621	88.75
423.843	88.75
424.066	88.75
424.288	71.75
424.511	98.75
424.733	99.75
424.956	90.75
425.178	103.75
425.401	106.75
425.623	95.75
425.846	99.75
426.068	101.75
426.291	96.75
426.513	89.75
426.735	94.75
426.958	106.75
427.18	110.75
427.402	111.75
427.625	143.75
427.847	131.75
428.069	108.75
428.292	83.75
428.514	98.75
428.736	95.75
428.958	92.75
429.181	78.75
429.403	94.75
429.625	120.75
429.847	90.75
430.069	105.75
430.292	98.75
430.514	87.75
430.736	80.75
430.958	87.75
431.18	82.75
431.402	90.75
431.624	96.75
431.846	93.75
432.068	95.75
432.29	90.75
432.512	91.75
432.734	85.75
432.956	85.75
433.178	93.75
433.4	100.75
433.622	96.75
433.844	91.75
434.066	86.75
434.287	98.75
434.509	88.75
434.731	93.75
434.953	103.75
435.175	96.75
435.397	94.75
435.618	86.75
435.84	94.75
436.062	98.75
436.284	105.75
436.505	88.75
436.727	91.75
436.949	91.75
437.17	95.75
437.392	98.75
437.614	86.75
437.835	96.75
438.057	99.75
438.278	92.75
438.5	98.75
438.721	101.75
438.943	101.75
439.165	83.75
439.386	82.75
439.608	82.75
439.829	101.75
440.05	107.75
440.272	116.75
440.493	99.75
440.715	98.75
440.936	93.75
441.158	93.75
441.379	79.75
441.6	95.75
441.822	103.75
442.043	88.75
442.264	102.75
442.486	100.75
442.707	100.75
442.928	94.75
443.149	107.75
443.371	103.75
443.592	91.75
443.813	101.75
444.034	96.75
444.255	82.75
444.476	88.75
444.698	85.75
444.919	86.75
445.14	134.75
445.361	109.75
445.582	114.75
445.803	126.75
446.024	113.75
446.245	118.75
446.466	108.75
446.687	79.75
446.908	84.75
447.129	72.75
447.35	70.75
447.571	92.75
447.792	89.75
448.013	98.75
448.234	94.75
448.455	102.75
448.675	98.75
448.896	116.75
449.117	95.75
449.338	103.75
449.559	115.75
449.779	112.75
450	108.75
450.221	102.75
450.442	91.75
450.662	95.75
450.883	92.75
451.104	114.75
451.324	105.75
451.545	94.75
451.766	88.75
451.986	94.75
452.207	91.75
452.428	108.75
452.648	87.75
452.869	109.75
453.089	95.75
453.31	100.75
453.53	85.75
453.751	104.75
453.971	98.75
454.192	112.75
454.412	96.75
454.633	103.75
454.853	88.75
455.073	96.75
455.294	81.75
455.514	95.75
455.734	93.75
455.955	94.75
456.175	83.75
456.395	91.75
456.616	83.75
456.836	80.75
457.056	82.75
457.276	91.75
457.497	78.75
457.717	95.75
457.937	86.75
458.157	97.75
458.377	88.75
458.598	97.75
458.818	128.75
459.038	133.75
459.258	97.75
459.478	93.75
459.698	90.75
459.918	95.75
460.138	92.75
460.358	82.75
460.578	98.75
460.798	84.75
461.018	85.75
461.238	99.75
461.458	86.75
461.678	85.75
461.898	76.75
462.118	97.75
462.338	83.75
462.558	80.75
462.777	92.75
462.997	86.75
463.217	91.75
463.437	92.75
463.657	90.75
463.876	80.75
464.096	86.75
464.316	92.75
464.536	78.75
464.755	100.75
464.975	90.75
465.195	138.75
465.414	131.75
465.634	91.75
465.854	88.75
466.073	85.75
466.293	92.75
466.512	89.75
466.732	84.75
466.951	93.75
467.171	98.75
467.391	98.75
467.61	108.75
467.829	97.75
468.049	137.75
468.268	162.75
468.488	91.75
468.707	90.75
468.927	78.75
469.146	98.75
469.365	83.75
469.585	78.75
469.804	103.75
470.023	103.75
470.243	108.75
470.462	100.75
470.681	94.75
470.901	98.75
471.12	91.75
471.339	101.75
471.558	84.75
471.777	101.75
471.997	99.75
472.216	213.75
472.435	360.75
472.654	134.75
472.873	106.75
473.092	88.75
473.311	88.75
473.53	82.75
473.749	76.75
473.968	95.75
474.187	98.75
474.406	101.75
474.625	80.75
474.844	96.75
475.063	82.75
475.282	84.75
475.501	83.75
475.72	98.75
475.939	88.75
476.158	87.75
476.377	86.75
476.596	90.75
476.814	80.75
477.033	95.75
477.252	92.75
477.471	84.75
477.69	91.75
477.908	96.75
478.127	99.75
478.346	87.75
478.564	79.75
478.783	78.75
479.002	78.75
479.22	112.75
479.439	114.75
479.658	94.75
479.876	94.75
480.095	83.75
480.313	88.75
480.532	93.75
480.751	107.75
480.969	222.75
481.188	570.75
481.406	358.75
481.624	117.75
481.843	88.75
482.061	76.75
482.28	75.75
482.498	84.75
482.717	88.75
482.935	107.75
483.153	97.75
483.372	101.75
483.59	91.75
483.808	82.75
484.027	89.75
484.245	91.75
484.463	96.75
484.681	109.75
484.9	96.75
485.118	91.75
485.336	99.75
485.554	100.75
485.772	95.75
485.99	115.75
486.209	127.75
486.427	115.75
486.645	107.75
486.863	96.75
487.081	105.75
487.299	94.75
487.517	84.75
487.735	106.75
487.953	99.75
488.171	92.75
488.389	84.75
488.607	87.75
488.825	87.75
489.043	92.75
489.261	99.75
489.479	88.75
489.696	90.75
489.914	97.75
490.132	87.75
490.35	90.75
490.568	88.75
490.786	84.75
491.003	84.75
491.221	87.75
491.439	102.75
491.657	82.75
491.874	92.75
492.092	89.75
492.31	93.75
492.527	94.75
492.745	84.75
492.963	94.75
493.18	106.75
493.398	95.75
493.615	99.75
493.833	89.75
494.05	90.75
494.268	94.75
494.485	100.75
494.703	84.75
494.92	83.75
495.138	96.75
495.355	89.75
495.573	100.75
495.79	108.75
496.008	99.75
496.225	99.75
496.442	91.75
496.66	100.75
496.877	101.75
497.094	102.75
497.312	99.75
497.529	87.75
497.746	96.75
497.963	96.75
498.181	93.75
498.398	88.75
498.615	95.75
498.832	98.75
499.049	103.75
499.267	91.75
499.484	89.75
499.701	84.75
499.918	85.75
500.135	99.75
500.352	92.75
500.569	97.75
500.786	95.75
501.003	93.75
501.22	82.75
501.437	90.75
501.654	98.75
501.871	102.75
502.088	93.75
502.305	96.75
502.522	99.75
502.739	92.75
502.956	92.75
503.172	102.75
503.389	98.75
503.606	130.75
503.823	88.75
504.04	94.75
504.256	88.75
504.473	88.75
504.69	99.75
504.907	96.75
505.123	103.75
505.34	96.75
505.557	89.75
505.773	86.75
505.99	108.75
506.207	84.75
506.423	86.75
506.64	82.75
506.856	91.75
507.073	83.75
507.289	94.75
507.506	87.75
507.722	89.75
507.939	105.75
508.155	99.75
508.372	92.75
508.588	88.75
508.805	103.75
509.021	97.75
509.238	98.75
509.454	99.75
509.67	104.75
509.887	91.75
510.103	114.75
510.319	180.75
510.536	556.75
510.752	1675.75
510.968	463.75
511.184	135.75
511.401	112.75
511.617	91.75
511.833	98.75
512.049	98.75
512.265	95.75
512.481	93.75
512.698	102.75
512.914	102.75
513.13	82.75
513.346	102.75
513.562	93.75
513.778	98.75
513.994	98.75
514.21	94.75
514.426	100.75
514.642	106.75
514.858	102.75
515.074	140.75
515.29	330.75
515.506	950.75
