Data from Circ_1983_H10_HRD10591_00064.txt Node
Date: Wed Jan 03 12:26:57 EST 2024
User: Yrep
Spectrometer: HR+D1059
Trigger mode: 1
Integration Time (sec): 1.000000E-1
Scans to average: 1
Electric dark correction enabled: true
Nonlinearity correction enabled: false
Boxcar width: 0
XAxis mode: Wavelengths
Number of Pixels in Spectrum: 2048
>>>>>Begin Spectral Data<<<<<
223.165	-12.38
223.4	-12.38
223.635	-12.38
223.869	-17.38
224.104	-20.38
224.338	-28.38
224.573	-20.38
224.808	-8.38
225.042	-0.38
225.277	-0.38
225.511	4.62
225.746	-0.38
225.98	19.62
226.215	3.62
226.449	7.62
226.683	20.62
226.918	30.62
227.152	21.62
227.387	27.62
227.621	38.62
227.856	34.62
228.09	49.62
228.324	49.62
228.559	58.62
228.793	56.62
229.027	62.62
229.262	53.62
229.496	73.62
229.73	88.62
229.964	78.62
230.199	77.62
230.433	91.62
230.667	72.62
230.901	84.62
231.136	71.62
231.37	76.62
231.604	77.62
231.838	84.62
232.072	76.62
232.306	79.62
232.541	82.62
232.775	68.62
233.009	75.62
233.243	86.62
233.477	90.62
233.711	71.62
233.945	84.62
234.179	95.62
234.413	69.62
234.647	86.62
234.881	74.62
235.115	89.62
235.349	94.62
235.583	96.62
235.817	80.62
236.051	84.62
236.285	67.62
236.519	73.62
236.753	74.62
236.987	76.62
237.221	85.62
237.455	86.62
237.689	82.62
237.922	74.62
238.156	91.62
238.39	82.62
238.624	70.62
238.858	71.62
239.091	83.62
239.325	84.62
239.559	82.62
239.793	90.62
240.027	66.62
240.26	77.62
240.494	71.62
240.728	75.62
240.961	77.62
241.195	74.62
241.429	84.62
241.662	76.62
241.896	67.62
242.13	75.62
242.363	88.62
242.597	89.62
242.83	68.62
243.064	81.62
243.298	69.62
243.531	80.62
243.765	69.62
243.998	77.62
244.232	83.62
244.465	89.62
244.699	79.62
244.932	84.62
245.166	90.62
245.399	73.62
245.633	86.62
245.866	90.62
246.099	85.62
246.333	84.62
246.566	83.62
246.8	82.62
247.033	71.62
247.266	76.62
247.5	79.62
247.733	81.62
247.966	90.62
248.2	79.62
248.433	70.62
248.666	91.62
248.899	79.62
249.133	102.62
249.366	91.62
249.599	92.62
249.832	77.62
250.066	90.62
250.299	68.62
250.532	75.62
250.765	72.62
250.998	94.62
251.231	84.62
251.465	96.62
251.698	79.62
251.931	79.62
252.164	82.62
252.397	78.62
252.63	78.62
252.863	68.62
253.096	79.62
253.329	75.62
253.562	75.62
253.795	75.62
254.028	82.62
254.261	75.62
254.494	70.62
254.727	71.62
254.96	86.62
255.193	94.62
255.426	100.62
255.659	82.62
255.892	83.62
256.124	91.62
256.357	93.62
256.59	71.62
256.823	87.62
257.056	67.62
257.289	69.62
257.521	83.62
257.754	83.62
257.987	84.62
258.22	86.62
258.452	73.62
258.685	102.62
258.918	79.62
259.151	74.62
259.383	82.62
259.616	82.62
259.849	88.62
260.081	94.62
260.314	83.62
260.547	74.62
260.779	64.62
261.012	86.62
261.244	93.62
261.477	88.62
261.71	101.62
261.942	97.62
262.175	94.62
262.407	94.62
262.64	75.62
262.872	82.62
263.105	84.62
263.337	84.62
263.57	83.62
263.802	90.62
264.035	96.62
264.267	74.62
264.499	78.62
264.732	94.62
264.964	85.62
265.197	63.62
265.429	86.62
265.661	82.62
265.894	100.62
266.126	85.62
266.358	72.62
266.591	75.62
266.823	70.62
267.055	90.62
267.287	90.62
267.52	80.62
267.752	76.62
267.984	88.62
268.216	79.62
268.448	79.62
268.681	96.62
268.913	94.62
269.145	90.62
269.377	102.62
269.609	82.62
269.841	85.62
270.073	70.62
270.306	95.62
270.538	78.62
270.77	86.62
271.002	88.62
271.234	90.62
271.466	84.62
271.698	90.62
271.93	94.62
272.162	98.62
272.394	93.62
272.626	82.62
272.858	86.62
273.09	74.62
273.322	91.62
273.553	75.62
273.785	74.62
274.017	68.62
274.249	84.62
274.481	88.62
274.713	92.62
274.945	90.62
275.176	97.62
275.408	90.62
275.64	85.62
275.872	89.62
276.104	86.62
276.335	95.62
276.567	109.62
276.799	107.62
277.031	99.62
277.262	97.62
277.494	90.62
277.726	75.62
277.957	74.62
278.189	72.62
278.421	90.62
278.652	82.62
278.884	98.62
279.115	102.62
279.347	94.62
279.579	92.62
279.81	79.62
280.042	82.62
280.273	108.62
280.505	105.62
280.736	73.62
280.968	89.62
281.199	99.62
281.431	90.62
281.662	88.62
281.894	89.62
282.125	93.62
282.356	86.62
282.588	125.62
282.819	120.62
283.051	95.62
283.282	92.62
283.513	101.62
283.745	84.62
283.976	82.62
284.207	74.62
284.439	86.62
284.67	93.62
284.901	95.62
285.132	93.62
285.364	82.62
285.595	105.62
285.826	97.62
286.057	80.62
286.288	84.62
286.52	86.62
286.751	75.62
286.982	79.62
287.213	86.62
287.444	95.62
287.675	84.62
287.906	75.62
288.138	83.62
288.369	81.62
288.6	103.62
288.831	96.62
289.062	83.62
289.293	91.62
289.524	100.62
289.755	82.62
289.986	74.62
290.217	108.62
290.448	85.62
290.679	67.62
290.91	86.62
291.141	84.62
291.371	95.62
291.602	69.62
291.833	90.62
292.064	88.62
292.295	107.62
292.526	84.62
292.757	87.62
292.987	89.62
293.218	85.62
293.449	81.62
293.68	82.62
293.91	79.62
294.141	88.62
294.372	76.62
294.603	82.62
294.833	95.62
295.064	80.62
295.295	90.62
295.525	104.62
295.756	99.62
295.987	101.62
296.217	126.62
296.448	121.62
296.679	85.62
296.909	85.62
297.14	95.62
297.37	95.62
297.601	79.62
297.831	80.62
298.062	88.62
298.292	79.62
298.523	91.62
298.753	86.62
298.984	95.62
299.214	92.62
299.445	91.62
299.675	73.62
299.905	87.62
300.136	106.62
300.366	100.62
300.597	98.62
300.827	90.62
301.057	99.62
301.288	101.62
301.518	95.62
301.748	90.62
301.979	88.62
302.209	90.62
302.439	98.62
302.669	98.62
302.9	93.62
303.13	76.62
303.36	93.62
303.59	112.62
303.82	100.62
304.051	96.62
304.281	83.62
304.511	88.62
304.741	95.62
304.971	96.62
305.201	83.62
305.431	93.62
305.661	104.62
305.891	94.62
306.121	109.62
306.352	111.62
306.582	105.62
306.812	95.62
307.042	107.62
307.272	107.62
307.502	89.62
307.731	102.62
307.961	99.62
308.191	89.62
308.421	104.62
308.651	92.62
308.881	95.62
309.111	87.62
309.341	99.62
309.571	81.62
309.8	103.62
310.03	90.62
310.26	88.62
310.49	96.62
310.72	87.62
310.949	106.62
311.179	109.62
311.409	100.62
311.639	76.62
311.868	96.62
312.098	85.62
312.328	101.62
312.557	93.62
312.787	93.62
313.017	94.62
313.246	81.62
313.476	105.62
313.706	103.62
313.935	90.62
314.165	92.62
314.394	92.62
314.624	96.62
314.853	95.62
315.083	84.62
315.312	89.62
315.542	102.62
315.771	84.62
316.001	95.62
316.23	83.62
316.46	93.62
316.689	91.62
316.919	81.62
317.148	107.62
317.377	105.62
317.607	102.62
317.836	92.62
318.065	104.62
318.295	87.62
318.524	89.62
318.753	88.62
318.983	93.62
319.212	85.62
319.441	105.62
319.67	88.62
319.9	90.62
320.129	71.62
320.358	84.62
320.587	88.62
320.816	98.62
321.046	99.62
321.275	98.62
321.504	99.62
321.733	98.62
321.962	96.62
322.191	99.62
322.42	101.62
322.649	106.62
322.878	106.62
323.108	117.62
323.337	118.62
323.566	136.62
323.795	148.62
324.024	165.62
324.253	315.62
324.482	610.62
324.71	1214.62
324.939	1625.62
325.168	588.62
325.397	208.62
325.626	132.62
325.855	123.62
326.084	120.62
326.313	112.62
326.542	136.62
326.77	183.62
326.999	370.62
327.228	703.62
327.457	1287.62
327.686	995.62
327.914	301.62
328.143	194.62
328.372	177.62
328.6	135.62
328.829	122.62
329.058	125.62
329.287	117.62
329.515	101.62
329.744	107.62
329.972	129.62
330.201	197.62
330.43	236.62
330.658	160.62
330.887	141.62
331.115	127.62
331.344	109.62
331.572	111.62
331.801	103.62
332.03	112.62
332.258	98.62
332.486	90.62
332.715	96.62
332.943	90.62
333.172	103.62
333.4	86.62
333.629	100.62
333.857	109.62
334.085	139.62
334.314	183.62
334.542	280.62
334.771	265.62
334.999	125.62
335.227	115.62
335.455	102.62
335.684	101.62
335.912	83.62
336.14	95.62
336.369	108.62
336.597	85.62
336.825	102.62
337.053	86.62
337.281	83.62
337.51	89.62
337.738	95.62
337.966	87.62
338.194	91.62
338.422	86.62
338.65	91.62
338.878	91.62
339.106	96.62
339.334	100.62
339.562	90.62
339.79	93.62
340.018	100.62
340.246	82.62
340.474	109.62
340.702	91.62
340.93	99.62
341.158	91.62
341.386	96.62
341.614	94.62
341.842	102.62
342.07	95.62
342.298	94.62
342.526	90.62
342.754	84.62
342.981	84.62
343.209	87.62
343.437	95.62
343.665	95.62
343.893	103.62
344.12	72.62
344.348	100.62
344.576	88.62
344.804	83.62
345.031	100.62
345.259	92.62
345.487	96.62
345.714	109.62
345.942	101.62
346.17	98.62
346.397	91.62
346.625	106.62
346.853	80.62
347.08	90.62
347.308	86.62
347.535	103.62
347.763	85.62
347.99	96.62
348.218	95.62
348.445	95.62
348.673	94.62
348.9	88.62
349.128	96.62
349.355	107.62
349.583	96.62
349.81	88.62
350.037	108.62
350.265	99.62
350.492	92.62
350.72	91.62
350.947	94.62
351.174	114.62
351.402	106.62
351.629	110.62
351.856	101.62
352.083	107.62
352.311	106.62
352.538	95.62
352.765	116.62
352.992	120.62
353.22	105.62
353.447	104.62
353.674	105.62
353.901	108.62
354.128	97.62
354.355	84.62
354.583	95.62
354.81	96.62
355.037	100.62
355.264	112.62
355.491	90.62
355.718	103.62
355.945	92.62
356.172	97.62
356.399	102.62
356.626	94.62
356.853	90.62
357.08	93.62
357.307	77.62
357.534	95.62
357.761	90.62
357.988	107.62
358.215	83.62
358.441	96.62
358.668	89.62
358.895	96.62
359.122	78.62
359.349	87.62
359.576	99.62
359.802	99.62
360.029	100.62
360.256	106.62
360.483	98.62
360.709	85.62
360.936	90.62
361.163	100.62
361.39	101.62
361.616	103.62
361.843	80.62
362.07	87.62
362.296	92.62
362.523	85.62
362.749	89.62
362.976	104.62
363.203	107.62
363.429	95.62
363.656	96.62
363.882	87.62
364.109	98.62
364.335	94.62
364.562	98.62
364.788	94.62
365.015	88.62
365.241	113.62
365.468	89.62
365.694	96.62
365.92	96.62
366.147	88.62
366.373	90.62
366.599	86.62
366.826	87.62
367.052	98.62
367.278	93.62
367.505	103.62
367.731	89.62
367.957	93.62
368.184	99.62
368.41	79.62
368.636	115.62
368.862	106.62
369.089	98.62
369.315	82.62
369.541	102.62
369.767	86.62
369.993	91.62
370.219	95.62
370.445	91.62
370.672	85.62
370.898	87.62
371.124	77.62
371.35	104.62
371.576	90.62
371.802	89.62
372.028	76.62
372.254	105.62
372.48	84.62
372.706	100.62
372.932	88.62
373.158	96.62
373.384	97.62
373.61	80.62
373.835	107.62
374.061	89.62
374.287	89.62
374.513	108.62
374.739	90.62
374.965	94.62
375.191	86.62
375.416	91.62
375.642	94.62
375.868	88.62
376.094	103.62
376.319	109.62
376.545	85.62
376.771	101.62
376.997	90.62
377.222	89.62
377.448	96.62
377.674	88.62
377.899	89.62
378.125	85.62
378.35	100.62
378.576	92.62
378.802	94.62
379.027	95.62
379.253	91.62
379.478	92.62
379.704	101.62
379.929	90.62
380.155	96.62
380.38	95.62
380.606	90.62
380.831	105.62
381.057	105.62
381.282	87.62
381.507	98.62
381.733	94.62
381.958	98.62
382.184	81.62
382.409	101.62
382.634	97.62
382.86	106.62
383.085	109.62
383.31	107.62
383.535	109.62
383.761	112.62
383.986	94.62
384.211	109.62
384.436	111.62
384.662	96.62
384.887	106.62
385.112	123.62
385.337	123.62
385.562	100.62
385.787	118.62
386.013	103.62
386.238	118.62
386.463	102.62
386.688	124.62
386.913	101.62
387.138	109.62
387.363	104.62
387.588	98.62
387.813	119.62
388.038	110.62
388.263	122.62
388.488	110.62
388.713	99.62
388.938	103.62
389.163	97.62
389.387	99.62
389.612	96.62
389.837	95.62
390.062	93.62
390.287	90.62
390.512	107.62
390.736	94.62
390.961	91.62
391.186	101.62
391.411	102.62
391.636	83.62
391.86	95.62
392.085	102.62
392.31	85.62
392.534	94.62
392.759	91.62
392.984	82.62
393.208	102.62
393.433	109.62
393.658	91.62
393.882	85.62
394.107	98.62
394.331	86.62
394.556	82.62
394.78	89.62
395.005	86.62
395.229	87.62
395.454	95.62
395.678	86.62
395.903	95.62
396.127	84.62
396.352	86.62
396.576	96.62
396.801	104.62
397.025	98.62
397.249	95.62
397.474	92.62
397.698	86.62
397.922	96.62
398.147	94.62
398.371	78.62
398.595	82.62
398.82	88.62
399.044	74.62
399.268	82.62
399.492	92.62
399.717	93.62
399.941	83.62
400.165	96.62
400.389	93.62
400.613	101.62
400.837	86.62
401.062	90.62
401.286	93.62
401.51	77.62
401.734	92.62
401.958	95.62
402.182	119.62
402.406	149.62
402.63	114.62
402.854	92.62
403.078	93.62
403.302	102.62
403.526	96.62
403.75	87.62
403.974	97.62
404.198	87.62
404.422	86.62
404.645	79.62
404.869	86.62
405.093	89.62
405.317	110.62
405.541	108.62
405.765	94.62
405.988	111.62
406.212	147.62
406.436	186.62
406.66	135.62
406.883	103.62
407.107	88.62
407.331	92.62
407.555	93.62
407.778	103.62
408.002	107.62
408.226	95.62
408.449	78.62
408.673	95.62
408.896	102.62
409.12	87.62
409.344	97.62
409.567	94.62
409.791	84.62
410.014	95.62
410.238	91.62
410.461	75.62
410.685	94.62
410.908	104.62
411.132	93.62
411.355	107.62
411.578	105.62
411.802	93.62
412.025	97.62
412.249	106.62
412.472	94.62
412.695	98.62
412.919	105.62
413.142	116.62
413.365	102.62
413.589	90.62
413.812	95.62
414.035	78.62
414.258	90.62
414.482	83.62
414.705	87.62
414.928	100.62
415.151	102.62
415.374	92.62
415.597	84.62
415.821	85.62
416.044	100.62
416.267	97.62
416.49	94.62
416.713	79.62
416.936	95.62
417.159	88.62
417.382	86.62
417.605	90.62
417.828	91.62
418.051	95.62
418.274	106.62
418.497	99.62
418.72	90.62
418.943	77.62
419.166	94.62
419.389	82.62
419.611	98.62
419.834	83.62
420.057	85.62
420.28	77.62
420.503	100.62
420.726	91.62
420.948	93.62
421.171	102.62
421.394	96.62
421.617	107.62
421.839	95.62
422.062	84.62
422.285	88.62
422.507	103.62
422.73	95.62
422.953	85.62
423.175	85.62
423.398	94.62
423.621	89.62
423.843	89.62
424.066	93.62
424.288	94.62
424.511	79.62
424.733	93.62
424.956	110.62
425.178	94.62
425.401	97.62
425.623	86.62
425.846	91.62
426.068	91.62
426.291	94.62
426.513	83.62
426.735	89.62
426.958	93.62
427.18	93.62
427.402	113.62
427.625	130.62
427.847	128.62
428.069	119.62
428.292	110.62
428.514	90.62
428.736	97.62
428.958	104.62
429.181	95.62
429.403	79.62
429.625	90.62
429.847	84.62
430.069	92.62
430.292	92.62
430.514	93.62
430.736	75.62
430.958	98.62
431.18	91.62
431.402	96.62
431.624	112.62
431.846	90.62
432.068	78.62
432.29	86.62
432.512	104.62
432.734	100.62
432.956	101.62
433.178	107.62
433.4	91.62
433.622	89.62
433.844	100.62
434.066	84.62
434.287	99.62
434.509	92.62
434.731	91.62
434.953	94.62
435.175	92.62
435.397	85.62
435.618	94.62
435.84	105.62
436.062	126.62
436.284	102.62
436.505	92.62
436.727	85.62
436.949	97.62
437.17	84.62
437.392	75.62
437.614	95.62
437.835	99.62
438.057	115.62
438.278	103.62
438.5	106.62
438.721	107.62
438.943	91.62
439.165	89.62
439.386	83.62
439.608	98.62
439.829	114.62
440.05	123.62
440.272	118.62
440.493	90.62
440.715	82.62
440.936	84.62
441.158	85.62
441.379	84.62
441.6	106.62
441.822	103.62
442.043	99.62
442.264	93.62
442.486	87.62
442.707	92.62
442.928	110.62
443.149	115.62
443.371	114.62
443.592	102.62
443.813	103.62
444.034	91.62
444.255	92.62
444.476	92.62
444.698	82.62
444.919	77.62
445.14	133.62
445.361	107.62
445.582	95.62
445.803	118.62
446.024	116.62
446.245	140.62
446.466	107.62
446.687	94.62
446.908	80.62
447.129	89.62
447.35	78.62
447.571	91.62
447.792	86.62
448.013	89.62
448.234	98.62
448.455	88.62
448.675	106.62
448.896	114.62
449.117	82.62
449.338	98.62
449.559	115.62
449.779	120.62
450	91.62
450.221	77.62
450.442	92.62
450.662	95.62
450.883	99.62
451.104	107.62
451.324	93.62
451.545	79.62
451.766	78.62
451.986	84.62
452.207	102.62
452.428	90.62
452.648	100.62
452.869	109.62
453.089	99.62
453.31	104.62
453.53	90.62
453.751	95.62
453.971	96.62
454.192	100.62
454.412	96.62
454.633	95.62
454.853	90.62
455.073	80.62
455.294	96.62
455.514	89.62
455.734	80.62
455.955	82.62
456.175	82.62
456.395	82.62
456.616	107.62
456.836	95.62
457.056	88.62
457.276	77.62
457.497	70.62
457.717	82.62
457.937	95.62
458.157	85.62
458.377	94.62
458.598	100.62
458.818	140.62
459.038	131.62
459.258	103.62
459.478	80.62
459.698	79.62
459.918	90.62
460.138	75.62
460.358	80.62
460.578	94.62
460.798	93.62
461.018	86.62
461.238	91.62
461.458	85.62
461.678	85.62
461.898	91.62
462.118	79.62
462.338	102.62
462.558	82.62
462.777	84.62
462.997	80.62
463.217	88.62
463.437	99.62
463.657	76.62
463.876	103.62
464.096	97.62
464.316	94.62
464.536	90.62
464.755	107.62
464.975	99.62
465.195	142.62
465.414	135.62
465.634	104.62
465.854	102.62
466.073	97.62
466.293	74.62
466.512	90.62
466.732	77.62
466.951	85.62
467.171	109.62
467.391	86.62
467.61	101.62
467.829	95.62
468.049	144.62
468.268	159.62
468.488	104.62
468.707	93.62
468.927	85.62
469.146	82.62
469.365	86.62
469.585	88.62
469.804	106.62
470.023	80.62
470.243	86.62
470.462	90.62
470.681	117.62
470.901	87.62
471.12	96.62
471.339	99.62
471.558	93.62
471.777	104.62
471.997	109.62
472.216	222.62
472.435	366.62
472.654	139.62
472.873	100.62
473.092	99.62
473.311	93.62
473.53	103.62
473.749	95.62
473.968	95.62
474.187	78.62
474.406	100.62
474.625	103.62
474.844	88.62
475.063	79.62
475.282	100.62
475.501	88.62
475.72	90.62
475.939	95.62
476.158	87.62
476.377	91.62
476.596	73.62
476.814	91.62
477.033	102.62
477.252	90.62
477.471	87.62
477.69	89.62
477.908	91.62
478.127	82.62
478.346	100.62
478.564	107.62
478.783	96.62
479.002	94.62
479.22	95.62
479.439	103.62
479.658	110.62
479.876	95.62
480.095	94.62
480.313	105.62
480.532	106.62
480.751	119.62
480.969	207.62
481.188	565.62
481.406	368.62
481.624	106.62
481.843	95.62
482.061	100.62
482.28	99.62
482.498	94.62
482.717	100.62
482.935	93.62
483.153	105.62
483.372	85.62
483.59	90.62
483.808	91.62
484.027	90.62
484.245	91.62
484.463	94.62
484.681	99.62
484.9	88.62
485.118	98.62
485.336	99.62
485.554	91.62
485.772	110.62
485.99	108.62
486.209	122.62
486.427	98.62
486.645	99.62
486.863	106.62
487.081	98.62
487.299	99.62
487.517	111.62
487.735	106.62
487.953	93.62
488.171	84.62
488.389	94.62
488.607	90.62
488.825	100.62
489.043	100.62
489.261	106.62
489.479	95.62
489.696	96.62
489.914	95.62
490.132	91.62
490.35	103.62
490.568	93.62
490.786	93.62
491.003	93.62
491.221	86.62
491.439	102.62
491.657	102.62
491.874	94.62
492.092	79.62
492.31	92.62
492.527	91.62
492.745	93.62
492.963	90.62
493.18	91.62
493.398	87.62
493.615	86.62
493.833	103.62
494.05	91.62
494.268	68.62
494.485	93.62
494.703	84.62
494.92	86.62
495.138	98.62
495.355	97.62
495.573	91.62
495.79	95.62
496.008	95.62
496.225	104.62
496.442	94.62
496.66	88.62
496.877	91.62
497.094	94.62
497.312	90.62
497.529	76.62
497.746	86.62
497.963	100.62
498.181	90.62
498.398	108.62
498.615	107.62
498.832	91.62
499.049	98.62
499.267	101.62
499.484	88.62
499.701	93.62
499.918	87.62
500.135	86.62
500.352	89.62
500.569	92.62
500.786	103.62
501.003	104.62
501.22	88.62
501.437	94.62
501.654	99.62
501.871	90.62
502.088	87.62
502.305	95.62
502.522	87.62
502.739	98.62
502.956	101.62
503.172	88.62
503.389	96.62
503.606	103.62
503.823	96.62
504.04	98.62
504.256	90.62
504.473	95.62
504.69	93.62
504.907	87.62
505.123	88.62
505.34	86.62
505.557	98.62
505.773	92.62
505.99	98.62
506.207	88.62
506.423	94.62
506.64	96.62
506.856	99.62
507.073	92.62
507.289	88.62
507.506	98.62
507.722	98.62
507.939	100.62
508.155	93.62
508.372	93.62
508.588	91.62
508.805	96.62
509.021	83.62
509.238	102.62
509.454	101.62
509.67	94.62
509.887	116.62
510.103	129.62
510.319	177.62
510.536	586.62
510.752	1751.62
510.968	493.62
511.184	135.62
511.401	113.62
511.617	91.62
511.833	93.62
512.049	92.62
512.265	93.62
512.481	99.62
512.698	82.62
512.914	101.62
513.13	99.62
513.346	100.62
513.562	98.62
513.778	81.62
513.994	105.62
514.21	109.62
514.426	100.62
514.642	118.62
514.858	115.62
515.074	134.62
