Data from Circ_1983_H10_HRD10591_00089.txt Node
Date: Wed Jan 03 12:27:02 EST 2024
User: Yrep
Spectrometer: HR+D1059
Trigger mode: 1
Integration Time (sec): 1.000000E-1
Scans to average: 1
Electric dark correction enabled: true
Nonlinearity correction enabled: false
Boxcar width: 0
XAxis mode: Wavelengths
Number of Pixels in Spectrum: 2048
>>>>>Begin Spectral Data<<<<<
223.165	-12.38
223.4	-12.38
223.635	-12.38
223.869	-18.38
224.104	-9.38
224.338	-18.38
224.573	-21.38
224.808	0.62
225.042	0.62
225.277	-5.38
225.511	-11.38
225.746	-14.38
225.98	7.62
226.215	11.62
226.449	25.62
226.683	15.62
226.918	8.62
227.152	40.62
227.387	36.62
227.621	36.62
227.856	39.62
228.09	46.62
228.324	47.62
228.559	55.62
228.793	64.62
229.027	65.62
229.262	77.62
229.496	63.62
229.73	58.62
229.964	95.62
230.199	76.62
230.433	73.62
230.667	89.62
230.901	77.62
231.136	72.62
231.37	86.62
231.604	85.62
231.838	99.62
232.072	84.62
232.306	82.62
232.541	88.62
232.775	84.62
233.009	77.62
233.243	87.62
233.477	85.62
233.711	88.62
233.945	69.62
234.179	82.62
234.413	80.62
234.647	78.62
234.881	71.62
235.115	88.62
235.349	83.62
235.583	84.62
235.817	84.62
236.051	89.62
236.285	86.62
236.519	75.62
236.753	82.62
236.987	86.62
237.221	90.62
237.455	90.62
237.689	90.62
237.922	100.62
238.156	62.62
238.39	75.62
238.624	80.62
238.858	82.62
239.091	72.62
239.325	86.62
239.559	76.62
239.793	81.62
240.027	68.62
240.26	76.62
240.494	67.62
240.728	87.62
240.961	78.62
241.195	86.62
241.429	80.62
241.662	83.62
241.896	96.62
242.13	90.62
242.363	86.62
242.597	67.62
242.83	71.62
243.064	84.62
243.298	83.62
243.531	77.62
243.765	75.62
243.998	74.62
244.232	74.62
244.465	88.62
244.699	82.62
244.932	69.62
245.166	83.62
245.399	83.62
245.633	72.62
245.866	66.62
246.099	80.62
246.333	86.62
246.566	71.62
246.8	72.62
247.033	91.62
247.266	81.62
247.5	89.62
247.733	99.62
247.966	91.62
248.2	92.62
248.433	74.62
248.666	77.62
248.899	84.62
249.133	90.62
249.366	96.62
249.599	98.62
249.832	94.62
250.066	93.62
250.299	81.62
250.532	71.62
250.765	77.62
250.998	75.62
251.231	81.62
251.465	88.62
251.698	79.62
251.931	74.62
252.164	78.62
252.397	107.62
252.63	89.62
252.863	83.62
253.096	72.62
253.329	79.62
253.562	80.62
253.795	62.62
254.028	92.62
254.261	69.62
254.494	92.62
254.727	82.62
254.96	69.62
255.193	68.62
255.426	86.62
255.659	82.62
255.892	93.62
256.124	75.62
256.357	86.62
256.59	75.62
256.823	76.62
257.056	90.62
257.289	67.62
257.521	82.62
257.754	97.62
257.987	85.62
258.22	74.62
258.452	96.62
258.685	70.62
258.918	77.62
259.151	82.62
259.383	80.62
259.616	81.62
259.849	82.62
260.081	77.62
260.314	95.62
260.547	92.62
260.779	84.62
261.012	85.62
261.244	84.62
261.477	92.62
261.71	88.62
261.942	101.62
262.175	100.62
262.407	75.62
262.64	92.62
262.872	79.62
263.105	86.62
263.337	86.62
263.57	64.62
263.802	72.62
264.035	92.62
264.267	82.62
264.499	88.62
264.732	80.62
264.964	85.62
265.197	92.62
265.429	81.62
265.661	66.62
265.894	76.62
266.126	84.62
266.358	80.62
266.591	82.62
266.823	91.62
267.055	73.62
267.287	90.62
267.52	80.62
267.752	97.62
267.984	74.62
268.216	95.62
268.448	89.62
268.681	76.62
268.913	102.62
269.145	94.62
269.377	84.62
269.609	83.62
269.841	87.62
270.073	87.62
270.306	75.62
270.538	95.62
270.77	75.62
271.002	74.62
271.234	92.62
271.466	82.62
271.698	100.62
271.93	86.62
272.162	94.62
272.394	82.62
272.626	93.62
272.858	85.62
273.09	88.62
273.322	88.62
273.553	92.62
273.785	89.62
274.017	90.62
274.249	96.62
274.481	88.62
274.713	83.62
274.945	83.62
275.176	93.62
275.408	98.62
275.64	88.62
275.872	89.62
276.104	92.62
276.335	97.62
276.567	102.62
276.799	101.62
277.031	106.62
277.262	85.62
277.494	100.62
277.726	98.62
277.957	97.62
278.189	97.62
278.421	97.62
278.652	93.62
278.884	87.62
279.115	84.62
279.347	84.62
279.579	88.62
279.81	86.62
280.042	100.62
280.273	110.62
280.505	95.62
280.736	82.62
280.968	94.62
281.199	78.62
281.431	84.62
281.662	93.62
281.894	101.62
282.125	95.62
282.356	119.62
282.588	121.62
282.819	109.62
283.051	86.62
283.282	73.62
283.513	83.62
283.745	97.62
283.976	96.62
284.207	90.62
284.439	84.62
284.67	82.62
284.901	89.62
285.132	85.62
285.364	77.62
285.595	75.62
285.826	74.62
286.057	64.62
286.288	68.62
286.52	87.62
286.751	75.62
286.982	74.62
287.213	92.62
287.444	82.62
287.675	99.62
287.906	92.62
288.138	84.62
288.369	94.62
288.6	104.62
288.831	93.62
289.062	84.62
289.293	78.62
289.524	88.62
289.755	83.62
289.986	94.62
290.217	99.62
290.448	84.62
290.679	74.62
290.91	88.62
291.141	95.62
291.371	83.62
291.602	85.62
291.833	88.62
292.064	87.62
292.295	93.62
292.526	82.62
292.757	73.62
292.987	98.62
293.218	88.62
293.449	91.62
293.68	88.62
293.91	91.62
294.141	106.62
294.372	88.62
294.603	86.62
294.833	98.62
295.064	85.62
295.295	91.62
295.525	104.62
295.756	114.62
295.987	104.62
296.217	121.62
296.448	109.62
296.679	87.62
296.909	89.62
297.14	77.62
297.37	88.62
297.601	102.62
297.831	93.62
298.062	85.62
298.292	101.62
298.523	96.62
298.753	84.62
298.984	92.62
299.214	83.62
299.445	90.62
299.675	86.62
299.905	89.62
300.136	98.62
300.366	100.62
300.597	87.62
300.827	104.62
301.057	101.62
301.288	104.62
301.518	84.62
301.748	88.62
301.979	94.62
302.209	93.62
302.439	90.62
302.669	76.62
302.9	99.62
303.13	95.62
303.36	99.62
303.59	107.62
303.82	106.62
304.051	76.62
304.281	89.62
304.511	76.62
304.741	78.62
304.971	77.62
305.201	82.62
305.431	88.62
305.661	98.62
305.891	95.62
306.121	95.62
306.352	98.62
306.582	104.62
306.812	90.62
307.042	93.62
307.272	98.62
307.502	99.62
307.731	106.62
307.961	89.62
308.191	102.62
308.421	81.62
308.651	81.62
308.881	91.62
309.111	98.62
309.341	110.62
309.571	90.62
309.8	93.62
310.03	112.62
310.26	104.62
310.49	101.62
310.72	98.62
310.949	87.62
311.179	96.62
311.409	89.62
311.639	77.62
311.868	88.62
312.098	104.62
312.328	107.62
312.557	97.62
312.787	102.62
313.017	108.62
313.246	94.62
313.476	92.62
313.706	96.62
313.935	90.62
314.165	99.62
314.394	99.62
314.624	95.62
314.853	93.62
315.083	88.62
315.312	92.62
315.542	86.62
315.771	92.62
316.001	87.62
316.23	100.62
316.46	92.62
316.689	86.62
316.919	94.62
317.148	101.62
317.377	109.62
317.607	93.62
317.836	101.62
318.065	96.62
318.295	98.62
318.524	86.62
318.753	96.62
318.983	82.62
319.212	102.62
319.441	93.62
319.67	95.62
319.9	87.62
320.129	91.62
320.358	105.62
320.587	85.62
320.816	92.62
321.046	101.62
321.275	102.62
321.504	104.62
321.733	102.62
321.962	103.62
322.191	80.62
322.42	96.62
322.649	100.62
322.878	96.62
323.108	106.62
323.337	117.62
323.566	124.62
323.795	123.62
324.024	195.62
324.253	324.62
324.482	643.62
324.71	1269.62
324.939	1657.62
325.168	642.62
325.397	206.62
325.626	142.62
325.855	122.62
326.084	101.62
326.313	123.62
326.542	138.62
326.77	186.62
326.999	356.62
327.228	703.62
327.457	1264.62
327.686	994.62
327.914	283.62
328.143	189.62
328.372	192.62
328.6	145.62
328.829	122.62
329.058	125.62
329.287	115.62
329.515	107.62
329.744	129.62
329.972	153.62
330.201	217.62
330.43	287.62
330.658	187.62
330.887	145.62
331.115	118.62
331.344	104.62
331.572	104.62
331.801	98.62
332.03	97.62
332.258	82.62
332.486	88.62
332.715	91.62
332.943	92.62
333.172	95.62
333.4	110.62
333.629	98.62
333.857	128.62
334.085	153.62
334.314	209.62
334.542	343.62
334.771	308.62
334.999	130.62
335.227	98.62
335.455	101.62
335.684	88.62
335.912	88.62
336.14	98.62
336.369	96.62
336.597	92.62
336.825	98.62
337.053	110.62
337.281	93.62
337.51	94.62
337.738	85.62
337.966	89.62
338.194	77.62
338.422	112.62
338.65	100.62
338.878	108.62
339.106	93.62
339.334	99.62
339.562	86.62
339.79	99.62
340.018	100.62
340.246	86.62
340.474	89.62
340.702	98.62
340.93	91.62
341.158	99.62
341.386	115.62
341.614	89.62
341.842	98.62
342.07	92.62
342.298	97.62
342.526	75.62
342.754	100.62
342.981	92.62
343.209	91.62
343.437	114.62
343.665	84.62
343.893	91.62
344.12	105.62
344.348	89.62
344.576	93.62
344.804	80.62
345.031	98.62
345.259	94.62
345.487	104.62
345.714	85.62
345.942	79.62
346.17	92.62
346.397	93.62
346.625	84.62
346.853	86.62
347.08	93.62
347.308	93.62
347.535	92.62
347.763	112.62
347.99	87.62
348.218	108.62
348.445	116.62
348.673	102.62
348.9	96.62
349.128	80.62
349.355	84.62
349.583	94.62
349.81	95.62
350.037	94.62
350.265	87.62
350.492	86.62
350.72	107.62
350.947	105.62
351.174	99.62
351.402	107.62
351.629	114.62
351.856	98.62
352.083	91.62
352.311	97.62
352.538	103.62
352.765	110.62
352.992	110.62
353.22	117.62
353.447	111.62
353.674	97.62
353.901	104.62
354.128	82.62
354.355	97.62
354.583	99.62
354.81	104.62
355.037	94.62
355.264	102.62
355.491	90.62
355.718	91.62
355.945	108.62
356.172	102.62
356.399	100.62
356.626	94.62
356.853	79.62
357.08	92.62
357.307	82.62
357.534	82.62
357.761	84.62
357.988	109.62
358.215	88.62
358.441	105.62
358.668	98.62
358.895	89.62
359.122	67.62
359.349	98.62
359.576	88.62
359.802	82.62
360.029	101.62
360.256	105.62
360.483	92.62
360.709	86.62
360.936	102.62
361.163	86.62
361.39	101.62
361.616	101.62
361.843	90.62
362.07	96.62
362.296	91.62
362.523	106.62
362.749	102.62
362.976	76.62
363.203	106.62
363.429	89.62
363.656	88.62
363.882	87.62
364.109	72.62
364.335	92.62
364.562	83.62
364.788	98.62
365.015	93.62
365.241	94.62
365.468	105.62
365.694	100.62
365.92	105.62
366.147	102.62
366.373	92.62
366.599	96.62
366.826	98.62
367.052	91.62
367.278	97.62
367.505	86.62
367.731	93.62
367.957	84.62
368.184	112.62
368.41	92.62
368.636	104.62
368.862	110.62
369.089	107.62
369.315	105.62
369.541	86.62
369.767	91.62
369.993	87.62
370.219	87.62
370.445	91.62
370.672	84.62
370.898	97.62
371.124	93.62
371.35	86.62
371.576	87.62
371.802	86.62
372.028	86.62
372.254	98.62
372.48	89.62
372.706	84.62
372.932	96.62
373.158	77.62
373.384	89.62
373.61	76.62
373.835	83.62
374.061	78.62
374.287	85.62
374.513	85.62
374.739	88.62
374.965	85.62
375.191	86.62
375.416	85.62
375.642	98.62
375.868	97.62
376.094	84.62
376.319	95.62
376.545	83.62
376.771	86.62
376.997	97.62
377.222	102.62
377.448	89.62
377.674	90.62
377.899	88.62
378.125	87.62
378.35	100.62
378.576	88.62
378.802	93.62
379.027	68.62
379.253	86.62
379.478	88.62
379.704	88.62
379.929	105.62
380.155	92.62
380.38	94.62
380.606	96.62
380.831	109.62
381.057	105.62
381.282	97.62
381.507	73.62
381.733	94.62
381.958	96.62
382.184	84.62
382.409	97.62
382.634	92.62
382.86	96.62
383.085	105.62
383.31	100.62
383.535	105.62
383.761	102.62
383.986	107.62
384.211	95.62
384.436	98.62
384.662	101.62
384.887	104.62
385.112	105.62
385.337	99.62
385.562	102.62
385.787	109.62
386.013	108.62
386.238	109.62
386.463	99.62
386.688	115.62
386.913	123.62
387.138	105.62
387.363	110.62
387.588	102.62
387.813	99.62
388.038	90.62
388.263	120.62
388.488	119.62
388.713	90.62
388.938	95.62
389.163	106.62
389.387	102.62
389.612	96.62
389.837	82.62
390.062	93.62
390.287	90.62
390.512	85.62
390.736	83.62
390.961	94.62
391.186	84.62
391.411	88.62
391.636	88.62
391.86	80.62
392.085	81.62
392.31	84.62
392.534	83.62
392.759	93.62
392.984	84.62
393.208	87.62
393.433	102.62
393.658	100.62
393.882	60.62
394.107	101.62
394.331	80.62
394.556	88.62
394.78	91.62
395.005	87.62
395.229	77.62
395.454	100.62
395.678	84.62
395.903	101.62
396.127	81.62
396.352	96.62
396.576	89.62
396.801	104.62
397.025	102.62
397.249	83.62
397.474	83.62
397.698	86.62
397.922	96.62
398.147	83.62
398.371	100.62
398.595	90.62
398.82	103.62
399.044	96.62
399.268	77.62
399.492	78.62
399.717	82.62
399.941	78.62
400.165	86.62
400.389	91.62
400.613	83.62
400.837	83.62
401.062	100.62
401.286	97.62
401.51	90.62
401.734	102.62
401.958	89.62
402.182	112.62
402.406	139.62
402.63	109.62
402.854	92.62
403.078	89.62
403.302	86.62
403.526	72.62
403.75	86.62
403.974	86.62
404.198	94.62
404.422	82.62
404.645	85.62
404.869	84.62
405.093	102.62
405.317	102.62
405.541	93.62
405.765	104.62
405.988	116.62
406.212	157.62
406.436	188.62
406.66	121.62
406.883	93.62
407.107	110.62
407.331	107.62
407.555	100.62
407.778	94.62
408.002	97.62
408.226	102.62
408.449	94.62
408.673	85.62
408.896	84.62
409.12	106.62
409.344	92.62
409.567	81.62
409.791	104.62
410.014	102.62
410.238	96.62
410.461	116.62
410.685	91.62
410.908	97.62
411.132	116.62
411.355	107.62
411.578	105.62
411.802	93.62
412.025	73.62
412.249	84.62
412.472	107.62
412.695	102.62
412.919	76.62
413.142	90.62
413.365	95.62
413.589	86.62
413.812	98.62
414.035	87.62
414.258	85.62
414.482	93.62
414.705	83.62
414.928	98.62
415.151	93.62
415.374	91.62
415.597	90.62
415.821	94.62
416.044	81.62
416.267	95.62
416.49	75.62
416.713	99.62
416.936	87.62
417.159	77.62
417.382	89.62
417.605	87.62
417.828	105.62
418.051	88.62
418.274	81.62
418.497	102.62
418.72	80.62
418.943	91.62
419.166	96.62
419.389	86.62
419.611	94.62
419.834	94.62
420.057	85.62
420.28	77.62
420.503	98.62
420.726	97.62
420.948	86.62
421.171	90.62
421.394	93.62
421.617	105.62
421.839	85.62
422.062	85.62
422.285	92.62
422.507	107.62
422.73	93.62
422.953	90.62
423.175	75.62
423.398	86.62
423.621	80.62
423.843	79.62
424.066	89.62
424.288	91.62
424.511	86.62
424.733	98.62
424.956	94.62
425.178	98.62
425.401	104.62
425.623	100.62
425.846	92.62
426.068	102.62
426.291	76.62
426.513	93.62
426.735	102.62
426.958	88.62
427.18	90.62
427.402	118.62
427.625	149.62
427.847	121.62
428.069	115.62
428.292	96.62
428.514	98.62
428.736	90.62
428.958	88.62
429.181	86.62
429.403	84.62
429.625	87.62
429.847	108.62
430.069	96.62
430.292	93.62
430.514	76.62
430.736	86.62
430.958	90.62
431.18	88.62
431.402	87.62
431.624	94.62
431.846	91.62
432.068	93.62
432.29	87.62
432.512	90.62
432.734	76.62
432.956	88.62
433.178	94.62
433.4	106.62
433.622	100.62
433.844	108.62
434.066	91.62
434.287	97.62
434.509	102.62
434.731	102.62
434.953	97.62
435.175	91.62
435.397	99.62
435.618	91.62
435.84	112.62
436.062	103.62
436.284	106.62
436.505	102.62
436.727	110.62
436.949	95.62
437.17	86.62
437.392	87.62
437.614	87.62
437.835	98.62
438.057	118.62
438.278	107.62
438.5	98.62
438.721	110.62
438.943	109.62
439.165	83.62
439.386	96.62
439.608	95.62
439.829	95.62
440.05	115.62
440.272	124.62
440.493	86.62
440.715	87.62
440.936	67.62
441.158	85.62
441.379	83.62
441.6	78.62
441.822	92.62
442.043	103.62
442.264	103.62
442.486	87.62
442.707	94.62
442.928	105.62
443.149	129.62
443.371	126.62
443.592	108.62
443.813	106.62
444.034	107.62
444.255	81.62
444.476	89.62
444.698	91.62
444.919	96.62
445.14	136.62
445.361	110.62
445.582	113.62
445.803	125.62
446.024	138.62
446.245	114.62
446.466	94.62
446.687	89.62
446.908	101.62
447.129	76.62
447.35	93.62
447.571	86.62
447.792	94.62
448.013	97.62
448.234	120.62
448.455	96.62
448.675	100.62
448.896	106.62
449.117	81.62
449.338	97.62
449.559	94.62
449.779	113.62
450	90.62
450.221	91.62
450.442	91.62
450.662	99.62
450.883	95.62
451.104	91.62
451.324	95.62
451.545	103.62
451.766	67.62
451.986	86.62
452.207	98.62
452.428	96.62
452.648	103.62
452.869	101.62
453.089	98.62
453.31	99.62
453.53	91.62
453.751	92.62
453.971	97.62
454.192	107.62
454.412	100.62
454.633	92.62
454.853	88.62
455.073	75.62
455.294	95.62
455.514	98.62
455.734	90.62
455.955	88.62
456.175	87.62
456.395	83.62
456.616	80.62
456.836	104.62
457.056	84.62
457.276	83.62
457.497	88.62
457.717	78.62
457.937	84.62
458.157	88.62
458.377	90.62
458.598	86.62
458.818	128.62
459.038	153.62
459.258	106.62
459.478	98.62
459.698	96.62
459.918	81.62
460.138	97.62
460.358	81.62
460.578	91.62
460.798	98.62
461.018	89.62
461.238	96.62
461.458	92.62
461.678	85.62
461.898	87.62
462.118	84.62
462.338	79.62
462.558	78.62
462.777	81.62
462.997	82.62
463.217	92.62
463.437	106.62
463.657	97.62
463.876	97.62
464.096	90.62
464.316	101.62
464.536	99.62
464.755	93.62
464.975	108.62
465.195	140.62
465.414	130.62
465.634	84.62
465.854	94.62
466.073	101.62
466.293	96.62
466.512	94.62
466.732	83.62
466.951	90.62
467.171	90.62
467.391	108.62
467.61	107.62
467.829	106.62
468.049	153.62
468.268	179.62
468.488	97.62
468.707	92.62
468.927	88.62
469.146	85.62
469.365	82.62
469.585	88.62
469.804	89.62
470.023	101.62
470.243	92.62
470.462	88.62
470.681	104.62
470.901	89.62
471.12	89.62
471.339	94.62
471.558	88.62
471.777	106.62
471.997	130.62
472.216	246.62
472.435	426.62
472.654	145.62
472.873	108.62
473.092	84.62
473.311	92.62
473.53	77.62
473.749	96.62
473.968	88.62
474.187	96.62
474.406	88.62
474.625	82.62
474.844	92.62
475.063	88.62
475.282	97.62
475.501	108.62
475.72	84.62
475.939	80.62
476.158	92.62
476.377	86.62
476.596	88.62
476.814	99.62
477.033	101.62
477.252	98.62
477.471	100.62
477.69	93.62
477.908	88.62
478.127	88.62
478.346	88.62
478.564	91.62
478.783	110.62
479.002	95.62
479.22	93.62
479.439	94.62
479.658	95.62
479.876	92.62
480.095	96.62
480.313	90.62
480.532	104.62
480.751	118.62
480.969	257.62
481.188	748.62
481.406	451.62
481.624	146.62
481.843	100.62
482.061	102.62
482.28	87.62
482.498	91.62
482.717	90.62
482.935	93.62
483.153	94.62
483.372	92.62
483.59	86.62
483.808	83.62
484.027	104.62
484.245	106.62
484.463	98.62
484.681	81.62
484.9	91.62
485.118	94.62
485.336	93.62
485.554	103.62
485.772	108.62
485.99	109.62
486.209	99.62
486.427	98.62
486.645	108.62
486.863	111.62
487.081	99.62
487.299	90.62
487.517	95.62
487.735	99.62
487.953	97.62
488.171	94.62
488.389	94.62
488.607	117.62
488.825	100.62
489.043	87.62
489.261	89.62
489.479	100.62
489.696	80.62
489.914	83.62
490.132	97.62
490.35	91.62
490.568	89.62
490.786	92.62
491.003	95.62
491.221	102.62
491.439	93.62
491.657	88.62
491.874	89.62
492.092	89.62
492.31	86.62
492.527	86.62
492.745	98.62
492.963	90.62
493.18	97.62
493.398	92.62
493.615	96.62
493.833	100.62
494.05	94.62
494.268	91.62
494.485	85.62
494.703	98.62
494.92	91.62
495.138	80.62
495.355	94.62
495.573	76.62
495.79	77.62
496.008	82.62
496.225	91.62
496.442	99.62
496.66	94.62
496.877	96.62
497.094	100.62
497.312	106.62
497.529	101.62
497.746	98.62
497.963	103.62
498.181	88.62
498.398	100.62
498.615	108.62
498.832	101.62
499.049	86.62
499.267	94.62
499.484	91.62
499.701	97.62
499.918	101.62
500.135	94.62
500.352	90.62
500.569	89.62
500.786	97.62
501.003	104.62
501.22	79.62
501.437	85.62
501.654	97.62
501.871	101.62
502.088	90.62
502.305	96.62
502.522	98.62
502.739	87.62
502.956	74.62
503.172	87.62
503.389	96.62
503.606	101.62
503.823	96.62
504.04	116.62
504.256	104.62
504.473	86.62
504.69	100.62
504.907	90.62
505.123	91.62
505.34	81.62
505.557	101.62
505.773	88.62
505.99	86.62
506.207	83.62
506.423	91.62
506.64	83.62
506.856	66.62
507.073	91.62
507.289	94.62
507.506	92.62
507.722	109.62
507.939	93.62
508.155	95.62
508.372	94.62
508.588	92.62
508.805	101.62
509.021	98.62
509.238	84.62
509.454	105.62
509.67	104.62
509.887	99.62
510.103	118.62
510.319	179.62
510.536	586.62
510.752	1844.62
510.968	528.62
511.184	144.62
511.401	102.62
511.617	97.62
511.833	94.62
512.049	93.62
512.265	91.62
512.481	82.62
512.698	94.62
512.914	97.62
513.13	94.62
513.346	93.62
513.562	93.62
513.778	93.62
513.994	87.62
514.21	91.62
514.426	118.62
514.642	120.62
514.858	116.62
515.074	151.62
515.29	354.62
