Data from Circ_1983_H10_HRD10591_00052.txt Node
Date: Wed Jan 03 12:26:55 EST 2024
User: Yrep
Spectrometer: HR+D1059
Trigger mode: 1
Integration Time (sec): 1.000000E-1
Scans to average: 1
Electric dark correction enabled: true
Nonlinearity correction enabled: false
Boxcar width: 0
XAxis mode: Wavelengths
Number of Pixels in Spectrum: 2048
>>>>>Begin Spectral Data<<<<<
223.165	-11.88
223.4	-11.88
223.635	-11.88
223.869	-19.88
224.104	-14.88
224.338	-9.88
224.573	-15.88
224.808	-1.88
225.042	-11.88
225.277	-11.88
225.511	-9.88
225.746	0.12
225.98	5.12
226.215	5.12
226.449	11.12
226.683	12.12
226.918	30.12
227.152	44.12
227.387	35.12
227.621	41.12
227.856	45.12
228.09	42.12
228.324	55.12
228.559	69.12
228.793	52.12
229.027	62.12
229.262	76.12
229.496	68.12
229.73	84.12
229.964	86.12
230.199	71.12
230.433	70.12
230.667	85.12
230.901	68.12
231.136	83.12
231.37	69.12
231.604	76.12
231.838	80.12
232.072	82.12
232.306	82.12
232.541	75.12
232.775	84.12
233.009	90.12
233.243	76.12
233.477	82.12
233.711	96.12
233.945	71.12
234.179	69.12
234.413	89.12
234.647	76.12
234.881	62.12
235.115	98.12
235.349	78.12
235.583	72.12
235.817	75.12
236.051	68.12
236.285	88.12
236.519	74.12
236.753	81.12
236.987	74.12
237.221	72.12
237.455	85.12
237.689	82.12
237.922	69.12
238.156	77.12
238.39	75.12
238.624	81.12
238.858	82.12
239.091	67.12
239.325	79.12
239.559	77.12
239.793	81.12
240.027	80.12
240.26	80.12
240.494	82.12
240.728	86.12
240.961	80.12
241.195	80.12
241.429	65.12
241.662	84.12
241.896	86.12
242.13	77.12
242.363	84.12
242.597	83.12
242.83	91.12
243.064	90.12
243.298	84.12
243.531	76.12
243.765	69.12
243.998	94.12
244.232	77.12
244.465	67.12
244.699	82.12
244.932	94.12
245.166	75.12
245.399	84.12
245.633	73.12
245.866	83.12
246.099	77.12
246.333	82.12
246.566	78.12
246.8	83.12
247.033	71.12
247.266	77.12
247.5	80.12
247.733	75.12
247.966	62.12
248.2	96.12
248.433	81.12
248.666	77.12
248.899	90.12
249.133	97.12
249.366	91.12
249.599	82.12
249.832	79.12
250.066	75.12
250.299	77.12
250.532	73.12
250.765	84.12
250.998	93.12
251.231	84.12
251.465	87.12
251.698	70.12
251.931	83.12
252.164	80.12
252.397	83.12
252.63	78.12
252.863	84.12
253.096	78.12
253.329	67.12
253.562	76.12
253.795	90.12
254.028	91.12
254.261	77.12
254.494	78.12
254.727	91.12
254.96	84.12
255.193	89.12
255.426	75.12
255.659	76.12
255.892	79.12
256.124	71.12
256.357	82.12
256.59	92.12
256.823	82.12
257.056	76.12
257.289	78.12
257.521	82.12
257.754	77.12
257.987	80.12
258.22	94.12
258.452	62.12
258.685	74.12
258.918	79.12
259.151	82.12
259.383	82.12
259.616	84.12
259.849	74.12
260.081	88.12
260.314	80.12
260.547	89.12
260.779	83.12
261.012	91.12
261.244	85.12
261.477	104.12
261.71	86.12
261.942	97.12
262.175	104.12
262.407	91.12
262.64	73.12
262.872	80.12
263.105	102.12
263.337	86.12
263.57	77.12
263.802	75.12
264.035	88.12
264.267	89.12
264.499	74.12
264.732	85.12
264.964	80.12
265.197	77.12
265.429	80.12
265.661	89.12
265.894	78.12
266.126	84.12
266.358	80.12
266.591	84.12
266.823	76.12
267.055	78.12
267.287	82.12
267.52	84.12
267.752	91.12
267.984	88.12
268.216	81.12
268.448	77.12
268.681	75.12
268.913	81.12
269.145	93.12
269.377	89.12
269.609	84.12
269.841	85.12
270.073	85.12
270.306	93.12
270.538	77.12
270.77	68.12
271.002	83.12
271.234	88.12
271.466	91.12
271.698	76.12
271.93	84.12
272.162	87.12
272.394	84.12
272.626	91.12
272.858	98.12
273.09	77.12
273.322	90.12
273.553	80.12
273.785	84.12
274.017	100.12
274.249	81.12
274.481	80.12
274.713	86.12
274.945	73.12
275.176	69.12
275.408	83.12
275.64	88.12
275.872	93.12
276.104	100.12
276.335	81.12
276.567	88.12
276.799	110.12
277.031	103.12
277.262	98.12
277.494	96.12
277.726	89.12
277.957	85.12
278.189	90.12
278.421	92.12
278.652	92.12
278.884	91.12
279.115	72.12
279.347	86.12
279.579	93.12
279.81	93.12
280.042	104.12
280.273	110.12
280.505	100.12
280.736	85.12
280.968	80.12
281.199	84.12
281.431	89.12
281.662	99.12
281.894	102.12
282.125	93.12
282.356	106.12
282.588	122.12
282.819	100.12
283.051	98.12
283.282	83.12
283.513	85.12
283.745	96.12
283.976	98.12
284.207	91.12
284.439	85.12
284.67	92.12
284.901	68.12
285.132	89.12
285.364	88.12
285.595	89.12
285.826	85.12
286.057	93.12
286.288	88.12
286.52	88.12
286.751	91.12
286.982	98.12
287.213	72.12
287.444	94.12
287.675	106.12
287.906	82.12
288.138	93.12
288.369	115.12
288.6	94.12
288.831	91.12
289.062	96.12
289.293	107.12
289.524	104.12
289.755	64.12
289.986	84.12
290.217	81.12
290.448	100.12
290.679	98.12
290.91	81.12
291.141	94.12
291.371	93.12
291.602	84.12
291.833	76.12
292.064	77.12
292.295	89.12
292.526	86.12
292.757	89.12
292.987	86.12
293.218	87.12
293.449	82.12
293.68	92.12
293.91	82.12
294.141	94.12
294.372	90.12
294.603	102.12
294.833	98.12
295.064	84.12
295.295	94.12
295.525	95.12
295.756	105.12
295.987	88.12
296.217	126.12
296.448	108.12
296.679	97.12
296.909	85.12
297.14	97.12
297.37	81.12
297.601	81.12
297.831	104.12
298.062	86.12
298.292	108.12
298.523	82.12
298.753	92.12
298.984	94.12
299.214	90.12
299.445	88.12
299.675	80.12
299.905	81.12
300.136	94.12
300.366	93.12
300.597	85.12
300.827	98.12
301.057	110.12
301.288	91.12
301.518	85.12
301.748	104.12
301.979	88.12
302.209	82.12
302.439	81.12
302.669	93.12
302.9	92.12
303.13	89.12
303.36	89.12
303.59	106.12
303.82	106.12
304.051	90.12
304.281	96.12
304.511	87.12
304.741	87.12
304.971	75.12
305.201	99.12
305.431	99.12
305.661	77.12
305.891	93.12
306.121	91.12
306.352	114.12
306.582	109.12
306.812	103.12
307.042	90.12
307.272	92.12
307.502	106.12
307.731	97.12
307.961	78.12
308.191	80.12
308.421	93.12
308.651	96.12
308.881	98.12
309.111	81.12
309.341	102.12
309.571	98.12
309.8	96.12
310.03	93.12
310.26	76.12
310.49	101.12
310.72	102.12
310.949	99.12
311.179	98.12
311.409	101.12
311.639	94.12
311.868	111.12
312.098	98.12
312.328	101.12
312.557	115.12
312.787	103.12
313.017	105.12
313.246	97.12
313.476	91.12
313.706	93.12
313.935	96.12
314.165	104.12
314.394	95.12
314.624	89.12
314.853	91.12
315.083	101.12
315.312	97.12
315.542	107.12
315.771	93.12
316.001	88.12
316.23	99.12
316.46	87.12
316.689	96.12
316.919	95.12
317.148	104.12
317.377	103.12
317.607	90.12
317.836	100.12
318.065	75.12
318.295	100.12
318.524	103.12
318.753	105.12
318.983	86.12
319.212	89.12
319.441	81.12
319.67	111.12
319.9	87.12
320.129	96.12
320.358	101.12
320.587	107.12
320.816	98.12
321.046	100.12
321.275	114.12
321.504	79.12
321.733	100.12
321.962	96.12
322.191	90.12
322.42	95.12
322.649	98.12
322.878	114.12
323.108	96.12
323.337	122.12
323.566	97.12
323.795	120.12
324.024	160.12
324.253	305.12
324.482	620.12
324.71	1261.12
324.939	1645.12
325.168	622.12
325.397	210.12
325.626	130.12
325.855	129.12
326.084	113.12
326.313	129.12
326.542	124.12
326.77	195.12
326.999	361.12
327.228	710.12
327.457	1253.12
327.686	1024.12
327.914	303.12
328.143	163.12
328.372	147.12
328.6	129.12
328.829	106.12
329.058	109.12
329.287	125.12
329.515	109.12
329.744	105.12
329.972	103.12
330.201	166.12
330.43	192.12
330.658	149.12
330.887	124.12
331.115	105.12
331.344	100.12
331.572	106.12
331.801	101.12
332.03	104.12
332.258	96.12
332.486	93.12
332.715	98.12
332.943	89.12
333.172	88.12
333.4	92.12
333.629	92.12
333.857	109.12
334.085	126.12
334.314	153.12
334.542	246.12
334.771	216.12
334.999	117.12
335.227	120.12
335.455	96.12
335.684	105.12
335.912	110.12
336.14	93.12
336.369	108.12
336.597	103.12
336.825	101.12
337.053	100.12
337.281	95.12
337.51	77.12
337.738	90.12
337.966	89.12
338.194	97.12
338.422	93.12
338.65	108.12
338.878	95.12
339.106	98.12
339.334	92.12
339.562	72.12
339.79	106.12
340.018	86.12
340.246	91.12
340.474	85.12
340.702	86.12
340.93	93.12
341.158	75.12
341.386	102.12
341.614	98.12
341.842	91.12
342.07	94.12
342.298	96.12
342.526	102.12
342.754	99.12
342.981	84.12
343.209	95.12
343.437	95.12
343.665	94.12
343.893	93.12
344.12	93.12
344.348	94.12
344.576	101.12
344.804	100.12
345.031	85.12
345.259	93.12
345.487	89.12
345.714	86.12
345.942	96.12
346.17	82.12
346.397	81.12
346.625	91.12
346.853	105.12
347.08	99.12
347.308	85.12
347.535	86.12
347.763	89.12
347.99	102.12
348.218	92.12
348.445	98.12
348.673	103.12
348.9	89.12
349.128	80.12
349.355	101.12
349.583	102.12
349.81	91.12
350.037	90.12
350.265	99.12
350.492	99.12
350.72	89.12
350.947	100.12
351.174	96.12
351.402	115.12
351.629	99.12
351.856	93.12
352.083	100.12
352.311	105.12
352.538	117.12
352.765	97.12
352.992	113.12
353.22	109.12
353.447	109.12
353.674	102.12
353.901	89.12
354.128	86.12
354.355	103.12
354.583	102.12
354.81	98.12
355.037	91.12
355.264	105.12
355.491	89.12
355.718	97.12
355.945	94.12
356.172	103.12
356.399	105.12
356.626	109.12
356.853	92.12
357.08	92.12
357.307	90.12
357.534	100.12
357.761	92.12
357.988	96.12
358.215	102.12
358.441	83.12
358.668	99.12
358.895	100.12
359.122	88.12
359.349	89.12
359.576	101.12
359.802	92.12
360.029	104.12
360.256	104.12
360.483	105.12
360.709	93.12
360.936	104.12
361.163	97.12
361.39	100.12
361.616	103.12
361.843	82.12
362.07	96.12
362.296	89.12
362.523	90.12
362.749	92.12
362.976	96.12
363.203	91.12
363.429	88.12
363.656	84.12
363.882	90.12
364.109	97.12
364.335	88.12
364.562	94.12
364.788	99.12
365.015	90.12
365.241	109.12
365.468	106.12
365.694	102.12
365.92	117.12
366.147	104.12
366.373	85.12
366.599	94.12
366.826	101.12
367.052	88.12
367.278	92.12
367.505	100.12
367.731	104.12
367.957	90.12
368.184	77.12
368.41	106.12
368.636	90.12
368.862	119.12
369.089	117.12
369.315	89.12
369.541	99.12
369.767	103.12
369.993	88.12
370.219	86.12
370.445	93.12
370.672	86.12
370.898	86.12
371.124	96.12
371.35	85.12
371.576	76.12
371.802	85.12
372.028	90.12
372.254	79.12
372.48	94.12
372.706	91.12
372.932	82.12
373.158	86.12
373.384	74.12
373.61	87.12
373.835	89.12
374.061	83.12
374.287	99.12
374.513	107.12
374.739	75.12
374.965	87.12
375.191	86.12
375.416	97.12
375.642	99.12
375.868	103.12
376.094	104.12
376.319	76.12
376.545	96.12
376.771	85.12
376.997	94.12
377.222	82.12
377.448	88.12
377.674	100.12
377.899	92.12
378.125	91.12
378.35	85.12
378.576	91.12
378.802	84.12
379.027	84.12
379.253	101.12
379.478	89.12
379.704	91.12
379.929	99.12
380.155	87.12
380.38	103.12
380.606	94.12
380.831	76.12
381.057	106.12
381.282	100.12
381.507	86.12
381.733	99.12
381.958	96.12
382.184	85.12
382.409	93.12
382.634	99.12
382.86	112.12
383.085	113.12
383.31	86.12
383.535	97.12
383.761	107.12
383.986	88.12
384.211	102.12
384.436	106.12
384.662	106.12
384.887	91.12
385.112	107.12
385.337	88.12
385.562	97.12
385.787	102.12
386.013	118.12
386.238	120.12
386.463	91.12
386.688	110.12
386.913	106.12
387.138	114.12
387.363	103.12
387.588	104.12
387.813	117.12
388.038	113.12
388.263	112.12
388.488	123.12
388.713	96.12
388.938	104.12
389.163	106.12
389.387	100.12
389.612	100.12
389.837	92.12
390.062	98.12
390.287	92.12
390.512	89.12
390.736	91.12
390.961	84.12
391.186	96.12
391.411	102.12
391.636	89.12
391.86	93.12
392.085	82.12
392.31	88.12
392.534	70.12
392.759	86.12
392.984	98.12
393.208	92.12
393.433	121.12
393.658	109.12
393.882	85.12
394.107	92.12
394.331	91.12
394.556	97.12
394.78	84.12
395.005	85.12
395.229	88.12
395.454	102.12
395.678	77.12
395.903	92.12
396.127	97.12
396.352	87.12
396.576	75.12
396.801	91.12
397.025	102.12
397.249	114.12
397.474	84.12
397.698	103.12
397.922	101.12
398.147	91.12
398.371	81.12
398.595	101.12
398.82	85.12
399.044	98.12
399.268	84.12
399.492	83.12
399.717	85.12
399.941	73.12
400.165	103.12
400.389	90.12
400.613	85.12
400.837	98.12
401.062	87.12
401.286	97.12
401.51	86.12
401.734	92.12
401.958	105.12
402.182	124.12
402.406	124.12
402.63	109.12
402.854	82.12
403.078	84.12
403.302	77.12
403.526	86.12
403.75	73.12
403.974	85.12
404.198	79.12
404.422	81.12
404.645	86.12
404.869	82.12
405.093	94.12
405.317	110.12
405.541	93.12
405.765	98.12
405.988	106.12
406.212	146.12
406.436	184.12
406.66	119.12
406.883	107.12
407.107	92.12
407.331	82.12
407.555	84.12
407.778	85.12
408.002	93.12
408.226	81.12
408.449	96.12
408.673	88.12
408.896	93.12
409.12	86.12
409.344	83.12
409.567	89.12
409.791	101.12
410.014	105.12
410.238	99.12
410.461	110.12
410.685	98.12
410.908	80.12
411.132	108.12
411.355	84.12
411.578	103.12
411.802	86.12
412.025	88.12
412.249	91.12
412.472	92.12
412.695	100.12
412.919	85.12
413.142	88.12
413.365	96.12
413.589	92.12
413.812	91.12
414.035	82.12
414.258	100.12
414.482	89.12
414.705	86.12
414.928	87.12
415.151	93.12
415.374	96.12
415.597	79.12
415.821	82.12
416.044	102.12
416.267	100.12
416.49	89.12
416.713	87.12
416.936	87.12
417.159	91.12
417.382	74.12
417.605	104.12
417.828	90.12
418.051	87.12
418.274	95.12
418.497	87.12
418.72	71.12
418.943	84.12
419.166	96.12
419.389	88.12
419.611	95.12
419.834	86.12
420.057	101.12
420.28	85.12
420.503	88.12
420.726	88.12
420.948	87.12
421.171	92.12
421.394	106.12
421.617	88.12
421.839	85.12
422.062	85.12
422.285	90.12
422.507	107.12
422.73	94.12
422.953	93.12
423.175	76.12
423.398	91.12
423.621	94.12
423.843	93.12
424.066	82.12
424.288	95.12
424.511	76.12
424.733	104.12
424.956	106.12
425.178	108.12
425.401	89.12
425.623	98.12
425.846	72.12
426.068	93.12
426.291	96.12
426.513	85.12
426.735	84.12
426.958	89.12
427.18	98.12
427.402	111.12
427.625	139.12
427.847	138.12
428.069	126.12
428.292	102.12
428.514	75.12
428.736	88.12
428.958	67.12
429.181	90.12
429.403	90.12
429.625	89.12
429.847	84.12
430.069	91.12
430.292	86.12
430.514	92.12
430.736	89.12
430.958	91.12
431.18	93.12
431.402	90.12
431.624	78.12
431.846	83.12
432.068	82.12
432.29	96.12
432.512	103.12
432.734	91.12
432.956	91.12
433.178	104.12
433.4	99.12
433.622	97.12
433.844	88.12
434.066	94.12
434.287	94.12
434.509	89.12
434.731	95.12
434.953	86.12
435.175	88.12
435.397	87.12
435.618	81.12
435.84	99.12
436.062	116.12
436.284	108.12
436.505	99.12
436.727	103.12
436.949	92.12
437.17	93.12
437.392	79.12
437.614	95.12
437.835	96.12
438.057	90.12
438.278	94.12
438.5	90.12
438.721	127.12
438.943	107.12
439.165	100.12
439.386	88.12
439.608	95.12
439.829	104.12
440.05	116.12
440.272	120.12
440.493	97.12
440.715	80.12
440.936	103.12
441.158	98.12
441.379	89.12
441.6	84.12
441.822	105.12
442.043	82.12
442.264	80.12
442.486	82.12
442.707	88.12
442.928	109.12
443.149	104.12
443.371	105.12
443.592	105.12
443.813	88.12
444.034	105.12
444.255	98.12
444.476	84.12
444.698	72.12
444.919	82.12
445.14	125.12
445.361	131.12
445.582	104.12
445.803	114.12
446.024	119.12
446.245	110.12
446.466	99.12
446.687	84.12
446.908	84.12
447.129	86.12
447.35	98.12
447.571	76.12
447.792	84.12
448.013	100.12
448.234	106.12
448.455	97.12
448.675	107.12
448.896	112.12
449.117	90.12
449.338	100.12
449.559	116.12
449.779	102.12
450	98.12
450.221	92.12
450.442	94.12
450.662	94.12
450.883	92.12
451.104	102.12
451.324	93.12
451.545	94.12
451.766	78.12
451.986	95.12
452.207	82.12
452.428	98.12
452.648	88.12
452.869	116.12
453.089	104.12
453.31	99.12
453.53	86.12
453.751	100.12
453.971	83.12
454.192	96.12
454.412	89.12
454.633	78.12
454.853	85.12
455.073	91.12
455.294	94.12
455.514	97.12
455.734	92.12
455.955	91.12
456.175	82.12
456.395	83.12
456.616	81.12
456.836	101.12
457.056	94.12
457.276	92.12
457.497	101.12
457.717	88.12
457.937	91.12
458.157	82.12
458.377	86.12
458.598	89.12
458.818	129.12
459.038	138.12
459.258	100.12
459.478	88.12
459.698	84.12
459.918	99.12
460.138	76.12
460.358	66.12
460.578	83.12
460.798	88.12
461.018	96.12
461.238	91.12
461.458	97.12
461.678	84.12
461.898	83.12
462.118	83.12
462.338	82.12
462.558	96.12
462.777	82.12
462.997	78.12
463.217	88.12
463.437	100.12
463.657	85.12
463.876	91.12
464.096	105.12
464.316	92.12
464.536	90.12
464.755	104.12
464.975	105.12
465.195	134.12
465.414	141.12
465.634	77.12
465.854	87.12
466.073	86.12
466.293	75.12
466.512	72.12
466.732	82.12
466.951	80.12
467.171	87.12
467.391	90.12
467.61	100.12
467.829	85.12
468.049	123.12
468.268	150.12
468.488	88.12
468.707	79.12
468.927	84.12
469.146	81.12
469.365	93.12
469.585	88.12
469.804	83.12
470.023	96.12
470.243	84.12
470.462	101.12
470.681	102.12
470.901	89.12
471.12	94.12
471.339	104.12
471.558	75.12
471.777	91.12
471.997	120.12
472.216	192.12
472.435	294.12
472.654	132.12
472.873	101.12
473.092	76.12
473.311	83.12
473.53	84.12
473.749	92.12
473.968	90.12
474.187	96.12
474.406	88.12
474.625	81.12
474.844	81.12
475.063	92.12
475.282	96.12
475.501	90.12
475.72	80.12
475.939	87.12
476.158	77.12
476.377	89.12
476.596	88.12
476.814	76.12
477.033	99.12
477.252	102.12
477.471	103.12
477.69	103.12
477.908	91.12
478.127	96.12
478.346	86.12
478.564	99.12
478.783	86.12
479.002	91.12
479.22	84.12
479.439	92.12
479.658	72.12
479.876	92.12
480.095	86.12
480.313	85.12
480.532	108.12
480.751	114.12
480.969	190.12
481.188	489.12
481.406	321.12
481.624	111.12
481.843	85.12
482.061	89.12
482.28	86.12
482.498	93.12
482.717	102.12
482.935	83.12
483.153	89.12
483.372	70.12
483.59	96.12
483.808	91.12
484.027	101.12
484.245	97.12
484.463	90.12
484.681	110.12
484.9	93.12
485.118	100.12
485.336	99.12
485.554	83.12
485.772	108.12
485.99	108.12
486.209	103.12
486.427	104.12
486.645	108.12
486.863	101.12
487.081	85.12
487.299	109.12
487.517	105.12
487.735	91.12
487.953	97.12
488.171	85.12
488.389	104.12
488.607	92.12
488.825	83.12
489.043	85.12
489.261	89.12
489.479	92.12
489.696	80.12
489.914	95.12
490.132	82.12
490.35	92.12
490.568	91.12
490.786	87.12
491.003	93.12
491.221	90.12
491.439	91.12
491.657	98.12
491.874	86.12
492.092	84.12
492.31	105.12
492.527	100.12
492.745	96.12
492.963	90.12
493.18	89.12
493.398	96.12
493.615	103.12
493.833	100.12
494.05	89.12
494.268	94.12
494.485	93.12
494.703	87.12
494.92	89.12
495.138	88.12
495.355	101.12
495.573	87.12
495.79	106.12
496.008	106.12
496.225	89.12
496.442	89.12
496.66	84.12
496.877	77.12
497.094	94.12
497.312	104.12
497.529	90.12
497.746	103.12
497.963	88.12
498.181	84.12
498.398	77.12
498.615	102.12
498.832	87.12
499.049	85.12
499.267	90.12
499.484	88.12
499.701	84.12
499.918	80.12
500.135	103.12
500.352	94.12
500.569	101.12
500.786	93.12
501.003	86.12
501.22	91.12
501.437	96.12
501.654	80.12
501.871	90.12
502.088	84.12
502.305	92.12
502.522	98.12
502.739	88.12
502.956	93.12
503.172	102.12
503.389	87.12
503.606	98.12
503.823	106.12
504.04	97.12
504.256	94.12
504.473	89.12
504.69	84.12
504.907	92.12
505.123	102.12
505.34	84.12
505.557	83.12
505.773	92.12
505.99	97.12
506.207	82.12
506.423	88.12
506.64	78.12
506.856	103.12
507.073	90.12
507.289	82.12
507.506	97.12
507.722	107.12
507.939	95.12
508.155	101.12
508.372	89.12
508.588	99.12
508.805	92.12
509.021	97.12
509.238	103.12
509.454	106.12
509.67	96.12
509.887	103.12
510.103	102.12
510.319	183.12
510.536	589.12
510.752	1778.12
510.968	505.12
511.184	142.12
511.401	94.12
511.617	100.12
511.833	97.12
512.049	86.12
512.265	84.12
512.481	91.12
512.698	93.12
512.914	93.12
513.13	101.12
513.346	109.12
513.562	106.12
513.778	96.12
513.994	92.12
514.21	92.12
514.426	113.12
514.642	114.12
514.858	121.12
515.074	137.12
515.29	347.12
