Data from Circ_1983_H10_HRD10591_00057.txt Node
Date: Wed Jan 03 12:26:56 EST 2024
User: Yrep
Spectrometer: HR+D1059
Trigger mode: 1
Integration Time (sec): 1.000000E-1
Scans to average: 1
Electric dark correction enabled: true
Nonlinearity correction enabled: false
Boxcar width: 0
XAxis mode: Wavelengths
Number of Pixels in Spectrum: 2048
>>>>>Begin Spectral Data<<<<<
223.165	-16.19
223.4	-16.19
223.635	-16.19
223.869	-29.19
224.104	-14.19
224.338	-25.19
224.573	-16.19
224.808	-6.19
225.042	-6.19
225.277	-10.19
225.511	8.81
225.746	-0.19
225.98	10.81
226.215	11.81
226.449	18.81
226.683	16.81
226.918	26.81
227.152	29.81
227.387	43.81
227.621	43.81
227.856	33.81
228.09	31.81
228.324	47.81
228.559	58.81
228.793	60.81
229.027	68.81
229.262	59.81
229.496	71.81
229.73	90.81
229.964	77.81
230.199	73.81
230.433	65.81
230.667	66.81
230.901	83.81
231.136	89.81
231.37	74.81
231.604	69.81
231.838	64.81
232.072	75.81
232.306	82.81
232.541	57.81
232.775	80.81
233.009	68.81
233.243	97.81
233.477	74.81
233.711	80.81
233.945	74.81
234.179	85.81
234.413	85.81
234.647	80.81
234.881	80.81
235.115	87.81
235.349	74.81
235.583	84.81
235.817	70.81
236.051	73.81
236.285	66.81
236.519	84.81
236.753	79.81
236.987	85.81
237.221	78.81
237.455	74.81
237.689	81.81
237.922	79.81
238.156	76.81
238.39	80.81
238.624	72.81
238.858	82.81
239.091	93.81
239.325	90.81
239.559	83.81
239.793	72.81
240.027	68.81
240.26	71.81
240.494	74.81
240.728	59.81
240.961	67.81
241.195	80.81
241.429	85.81
241.662	86.81
241.896	69.81
242.13	90.81
242.363	68.81
242.597	70.81
242.83	73.81
243.064	97.81
243.298	83.81
243.531	66.81
243.765	96.81
243.998	78.81
244.232	87.81
244.465	81.81
244.699	46.81
244.932	68.81
245.166	93.81
245.399	83.81
245.633	85.81
245.866	69.81
246.099	81.81
246.333	65.81
246.566	81.81
246.8	77.81
247.033	69.81
247.266	72.81
247.5	70.81
247.733	68.81
247.966	82.81
248.2	74.81
248.433	72.81
248.666	70.81
248.899	73.81
249.133	69.81
249.366	87.81
249.599	83.81
249.832	74.81
250.066	81.81
250.299	72.81
250.532	66.81
250.765	82.81
250.998	88.81
251.231	72.81
251.465	65.81
251.698	83.81
251.931	77.81
252.164	89.81
252.397	71.81
252.63	73.81
252.863	80.81
253.096	83.81
253.329	74.81
253.562	78.81
253.795	77.81
254.028	78.81
254.261	84.81
254.494	78.81
254.727	86.81
254.96	70.81
255.193	77.81
255.426	93.81
255.659	81.81
255.892	70.81
256.124	75.81
256.357	79.81
256.59	79.81
256.823	90.81
257.056	97.81
257.289	80.81
257.521	88.81
257.754	69.81
257.987	74.81
258.22	78.81
258.452	87.81
258.685	90.81
258.918	79.81
259.151	81.81
259.383	86.81
259.616	85.81
259.849	87.81
260.081	75.81
260.314	83.81
260.547	61.81
260.779	85.81
261.012	81.81
261.244	73.81
261.477	88.81
261.71	89.81
261.942	97.81
262.175	96.81
262.407	79.81
262.64	70.81
262.872	82.81
263.105	77.81
263.337	91.81
263.57	78.81
263.802	81.81
264.035	72.81
264.267	87.81
264.499	89.81
264.732	85.81
264.964	79.81
265.197	67.81
265.429	71.81
265.661	72.81
265.894	75.81
266.126	79.81
266.358	72.81
266.591	81.81
266.823	89.81
267.055	82.81
267.287	76.81
267.52	79.81
267.752	77.81
267.984	80.81
268.216	78.81
268.448	74.81
268.681	83.81
268.913	91.81
269.145	82.81
269.377	88.81
269.609	88.81
269.841	86.81
270.073	88.81
270.306	68.81
270.538	81.81
270.77	77.81
271.002	78.81
271.234	80.81
271.466	75.81
271.698	88.81
271.93	93.81
272.162	84.81
272.394	82.81
272.626	81.81
272.858	65.81
273.09	89.81
273.322	87.81
273.553	86.81
273.785	81.81
274.017	85.81
274.249	73.81
274.481	78.81
274.713	93.81
274.945	86.81
275.176	90.81
275.408	91.81
275.64	85.81
275.872	81.81
276.104	87.81
276.335	89.81
276.567	87.81
276.799	95.81
277.031	90.81
277.262	90.81
277.494	81.81
277.726	74.81
277.957	72.81
278.189	69.81
278.421	73.81
278.652	85.81
278.884	82.81
279.115	82.81
279.347	100.81
279.579	94.81
279.81	87.81
280.042	90.81
280.273	90.81
280.505	95.81
280.736	81.81
280.968	85.81
281.199	89.81
281.431	71.81
281.662	94.81
281.894	91.81
282.125	88.81
282.356	107.81
282.588	118.81
282.819	120.81
283.051	90.81
283.282	91.81
283.513	82.81
283.745	81.81
283.976	84.81
284.207	84.81
284.439	85.81
284.67	97.81
284.901	89.81
285.132	78.81
285.364	85.81
285.595	75.81
285.826	79.81
286.057	73.81
286.288	79.81
286.52	79.81
286.751	78.81
286.982	68.81
287.213	100.81
287.444	91.81
287.675	82.81
287.906	89.81
288.138	79.81
288.369	88.81
288.6	111.81
288.831	95.81
289.062	97.81
289.293	84.81
289.524	88.81
289.755	63.81
289.986	88.81
290.217	85.81
290.448	80.81
290.679	89.81
290.91	90.81
291.141	73.81
291.371	83.81
291.602	81.81
291.833	85.81
292.064	96.81
292.295	90.81
292.526	85.81
292.757	73.81
292.987	87.81
293.218	89.81
293.449	92.81
293.68	84.81
293.91	79.81
294.141	92.81
294.372	81.81
294.603	79.81
294.833	79.81
295.064	82.81
295.295	83.81
295.525	91.81
295.756	94.81
295.987	95.81
296.217	129.81
296.448	106.81
296.679	93.81
296.909	98.81
297.14	87.81
297.37	77.81
297.601	79.81
297.831	88.81
298.062	76.81
298.292	75.81
298.523	85.81
298.753	85.81
298.984	86.81
299.214	93.81
299.445	93.81
299.675	82.81
299.905	98.81
300.136	77.81
300.366	85.81
300.597	82.81
300.827	73.81
301.057	91.81
301.288	95.81
301.518	83.81
301.748	82.81
301.979	87.81
302.209	87.81
302.439	81.81
302.669	84.81
302.9	84.81
303.13	103.81
303.36	114.81
303.59	94.81
303.82	84.81
304.051	100.81
304.281	76.81
304.511	90.81
304.741	80.81
304.971	96.81
305.201	73.81
305.431	101.81
305.661	86.81
305.891	82.81
306.121	105.81
306.352	81.81
306.582	84.81
306.812	92.81
307.042	94.81
307.272	98.81
307.502	96.81
307.731	94.81
307.961	87.81
308.191	81.81
308.421	85.81
308.651	103.81
308.881	101.81
309.111	81.81
309.341	84.81
309.571	104.81
309.8	79.81
310.03	98.81
310.26	100.81
310.49	98.81
310.72	107.81
310.949	101.81
311.179	80.81
311.409	90.81
311.639	93.81
311.868	86.81
312.098	84.81
312.328	95.81
312.557	103.81
312.787	88.81
313.017	82.81
313.246	101.81
313.476	96.81
313.706	91.81
313.935	90.81
314.165	89.81
314.394	93.81
314.624	95.81
314.853	81.81
315.083	100.81
315.312	100.81
315.542	81.81
315.771	97.81
316.001	95.81
316.23	75.81
316.46	93.81
316.689	77.81
316.919	100.81
317.148	97.81
317.377	82.81
317.607	102.81
317.836	85.81
318.065	96.81
318.295	98.81
318.524	88.81
318.753	87.81
318.983	91.81
319.212	82.81
319.441	99.81
319.67	107.81
319.9	79.81
320.129	90.81
320.358	97.81
320.587	82.81
320.816	88.81
321.046	83.81
321.275	94.81
321.504	104.81
321.733	93.81
321.962	99.81
322.191	103.81
322.42	98.81
322.649	99.81
322.878	94.81
323.108	97.81
323.337	94.81
323.566	116.81
323.795	155.81
324.024	171.81
324.253	305.81
324.482	642.81
324.71	1274.81
324.939	1680.81
325.168	638.81
325.397	209.81
325.626	130.81
325.855	120.81
326.084	116.81
326.313	111.81
326.542	142.81
326.77	199.81
326.999	353.81
327.228	711.81
327.457	1301.81
327.686	1019.81
327.914	301.81
328.143	195.81
328.372	171.81
328.6	135.81
328.829	104.81
329.058	116.81
329.287	127.81
329.515	118.81
329.744	108.81
329.972	126.81
330.201	178.81
330.43	214.81
330.658	151.81
330.887	130.81
331.115	115.81
331.344	99.81
331.572	82.81
331.801	93.81
332.03	96.81
332.258	94.81
332.486	87.81
332.715	94.81
332.943	88.81
333.172	92.81
333.4	110.81
333.629	117.81
333.857	132.81
334.085	133.81
334.314	182.81
334.542	266.81
334.771	231.81
334.999	123.81
335.227	91.81
335.455	112.81
335.684	85.81
335.912	87.81
336.14	102.81
336.369	98.81
336.597	110.81
336.825	102.81
337.053	90.81
337.281	91.81
337.51	88.81
337.738	103.81
337.966	111.81
338.194	89.81
338.422	94.81
338.65	96.81
338.878	95.81
339.106	79.81
339.334	95.81
339.562	93.81
339.79	96.81
340.018	83.81
340.246	91.81
340.474	96.81
340.702	85.81
340.93	84.81
341.158	96.81
341.386	91.81
341.614	99.81
341.842	89.81
342.07	83.81
342.298	101.81
342.526	87.81
342.754	89.81
342.981	78.81
343.209	97.81
343.437	101.81
343.665	89.81
343.893	85.81
344.12	96.81
344.348	87.81
344.576	79.81
344.804	87.81
345.031	81.81
345.259	91.81
345.487	83.81
345.714	81.81
345.942	89.81
346.17	94.81
346.397	83.81
346.625	78.81
346.853	80.81
347.08	84.81
347.308	82.81
347.535	89.81
347.763	92.81
347.99	85.81
348.218	98.81
348.445	100.81
348.673	92.81
348.9	109.81
349.128	105.81
349.355	87.81
349.583	93.81
349.81	109.81
350.037	94.81
350.265	100.81
350.492	94.81
350.72	101.81
350.947	98.81
351.174	103.81
351.402	96.81
351.629	105.81
351.856	101.81
352.083	91.81
352.311	114.81
352.538	102.81
352.765	110.81
352.992	98.81
353.22	105.81
353.447	98.81
353.674	107.81
353.901	100.81
354.128	86.81
354.355	105.81
354.583	94.81
354.81	100.81
355.037	105.81
355.264	93.81
355.491	89.81
355.718	87.81
355.945	83.81
356.172	91.81
356.399	77.81
356.626	93.81
356.853	86.81
357.08	93.81
357.307	90.81
357.534	91.81
357.761	75.81
357.988	74.81
358.215	89.81
358.441	95.81
358.668	89.81
358.895	94.81
359.122	87.81
359.349	77.81
359.576	86.81
359.802	88.81
360.029	94.81
360.256	86.81
360.483	87.81
360.709	80.81
360.936	95.81
361.163	86.81
361.39	83.81
361.616	94.81
361.843	92.81
362.07	92.81
362.296	95.81
362.523	86.81
362.749	90.81
362.976	84.81
363.203	91.81
363.429	82.81
363.656	100.81
363.882	77.81
364.109	88.81
364.335	102.81
364.562	87.81
364.788	102.81
365.015	105.81
365.241	97.81
365.468	99.81
365.694	89.81
365.92	101.81
366.147	71.81
366.373	88.81
366.599	81.81
366.826	91.81
367.052	86.81
367.278	83.81
367.505	94.81
367.731	74.81
367.957	89.81
368.184	103.81
368.41	95.81
368.636	102.81
368.862	123.81
369.089	99.81
369.315	82.81
369.541	70.81
369.767	100.81
369.993	89.81
370.219	84.81
370.445	84.81
370.672	65.81
370.898	77.81
371.124	66.81
371.35	84.81
371.576	95.81
371.802	87.81
372.028	86.81
372.254	99.81
372.48	90.81
372.706	76.81
372.932	83.81
373.158	93.81
373.384	79.81
373.61	93.81
373.835	86.81
374.061	75.81
374.287	89.81
374.513	86.81
374.739	74.81
374.965	81.81
375.191	95.81
375.416	80.81
375.642	93.81
375.868	90.81
376.094	92.81
376.319	77.81
376.545	72.81
376.771	77.81
376.997	89.81
377.222	83.81
377.448	95.81
377.674	79.81
377.899	108.81
378.125	89.81
378.35	77.81
378.576	91.81
378.802	104.81
379.027	88.81
379.253	106.81
379.478	85.81
379.704	92.81
379.929	106.81
380.155	81.81
380.38	88.81
380.606	96.81
380.831	102.81
381.057	98.81
381.282	99.81
381.507	89.81
381.733	84.81
381.958	96.81
382.184	90.81
382.409	103.81
382.634	91.81
382.86	101.81
383.085	86.81
383.31	90.81
383.535	97.81
383.761	93.81
383.986	98.81
384.211	102.81
384.436	90.81
384.662	96.81
384.887	113.81
385.112	101.81
385.337	91.81
385.562	100.81
385.787	117.81
386.013	113.81
386.238	97.81
386.463	95.81
386.688	107.81
386.913	99.81
387.138	111.81
387.363	99.81
387.588	108.81
387.813	91.81
388.038	105.81
388.263	102.81
388.488	100.81
388.713	95.81
388.938	92.81
389.163	94.81
389.387	94.81
389.612	93.81
389.837	80.81
390.062	106.81
390.287	78.81
390.512	79.81
390.736	71.81
390.961	95.81
391.186	72.81
391.411	99.81
391.636	86.81
391.86	82.81
392.085	74.81
392.31	74.81
392.534	74.81
392.759	87.81
392.984	89.81
393.208	96.81
393.433	98.81
393.658	95.81
393.882	75.81
394.107	98.81
394.331	79.81
394.556	87.81
394.78	96.81
395.005	93.81
395.229	81.81
395.454	85.81
395.678	78.81
395.903	98.81
396.127	93.81
396.352	84.81
396.576	88.81
396.801	88.81
397.025	102.81
397.249	90.81
397.474	86.81
397.698	89.81
397.922	86.81
398.147	91.81
398.371	81.81
398.595	91.81
398.82	83.81
399.044	82.81
399.268	82.81
399.492	83.81
399.717	86.81
399.941	91.81
400.165	71.81
400.389	85.81
400.613	83.81
400.837	79.81
401.062	85.81
401.286	93.81
401.51	81.81
401.734	93.81
401.958	95.81
402.182	121.81
402.406	147.81
402.63	104.81
402.854	83.81
403.078	96.81
403.302	98.81
403.526	73.81
403.75	80.81
403.974	82.81
404.198	80.81
404.422	72.81
404.645	89.81
404.869	88.81
405.093	94.81
405.317	89.81
405.541	86.81
405.765	83.81
405.988	112.81
406.212	127.81
406.436	177.81
406.66	126.81
406.883	103.81
407.107	91.81
407.331	78.81
407.555	101.81
407.778	93.81
408.002	69.81
408.226	79.81
408.449	105.81
408.673	93.81
408.896	80.81
409.12	88.81
409.344	78.81
409.567	88.81
409.791	79.81
410.014	91.81
410.238	80.81
410.461	95.81
410.685	103.81
410.908	87.81
411.132	106.81
411.355	88.81
411.578	87.81
411.802	83.81
412.025	79.81
412.249	103.81
412.472	86.81
412.695	107.81
412.919	90.81
413.142	85.81
413.365	88.81
413.589	82.81
413.812	89.81
414.035	75.81
414.258	88.81
414.482	74.81
414.705	80.81
414.928	75.81
415.151	79.81
415.374	88.81
415.597	96.81
415.821	78.81
416.044	87.81
416.267	73.81
416.49	80.81
416.713	100.81
416.936	92.81
417.159	92.81
417.382	82.81
417.605	75.81
417.828	81.81
418.051	83.81
418.274	81.81
418.497	94.81
418.72	90.81
418.943	99.81
419.166	96.81
419.389	88.81
419.611	89.81
419.834	81.81
420.057	98.81
420.28	85.81
420.503	78.81
420.726	93.81
420.948	66.81
421.171	85.81
421.394	99.81
421.617	92.81
421.839	83.81
422.062	81.81
422.285	88.81
422.507	94.81
422.73	90.81
422.953	103.81
423.175	86.81
423.398	89.81
423.621	79.81
423.843	77.81
424.066	80.81
424.288	88.81
424.511	86.81
424.733	102.81
424.956	106.81
425.178	97.81
425.401	97.81
425.623	93.81
425.846	87.81
426.068	81.81
426.291	93.81
426.513	81.81
426.735	92.81
426.958	100.81
427.18	81.81
427.402	116.81
427.625	163.81
427.847	123.81
428.069	109.81
428.292	79.81
428.514	92.81
428.736	88.81
428.958	86.81
429.181	83.81
429.403	85.81
429.625	88.81
429.847	84.81
430.069	94.81
430.292	81.81
430.514	77.81
430.736	68.81
430.958	80.81
431.18	88.81
431.402	88.81
431.624	81.81
431.846	89.81
432.068	88.81
432.29	81.81
432.512	99.81
432.734	87.81
432.956	86.81
433.178	93.81
433.4	98.81
433.622	92.81
433.844	84.81
434.066	85.81
434.287	98.81
434.509	89.81
434.731	87.81
434.953	81.81
435.175	78.81
435.397	89.81
435.618	90.81
435.84	92.81
436.062	103.81
436.284	114.81
436.505	102.81
436.727	86.81
436.949	91.81
437.17	97.81
437.392	94.81
437.614	86.81
437.835	91.81
438.057	103.81
438.278	101.81
438.5	84.81
438.721	96.81
438.943	94.81
439.165	87.81
439.386	83.81
439.608	80.81
439.829	88.81
440.05	116.81
440.272	110.81
440.493	85.81
440.715	85.81
440.936	86.81
441.158	89.81
441.379	77.81
441.6	79.81
441.822	98.81
442.043	93.81
442.264	81.81
442.486	97.81
442.707	80.81
442.928	89.81
443.149	113.81
443.371	103.81
443.592	96.81
443.813	110.81
444.034	97.81
444.255	94.81
444.476	94.81
444.698	82.81
444.919	81.81
445.14	133.81
445.361	108.81
445.582	124.81
445.803	102.81
446.024	98.81
446.245	117.81
446.466	112.81
446.687	83.81
446.908	78.81
447.129	90.81
447.35	81.81
447.571	88.81
447.792	88.81
448.013	88.81
448.234	84.81
448.455	95.81
448.675	111.81
448.896	104.81
449.117	83.81
449.338	99.81
449.559	110.81
449.779	111.81
450	85.81
450.221	68.81
450.442	83.81
450.662	93.81
450.883	106.81
451.104	99.81
451.324	78.81
451.545	81.81
451.766	73.81
451.986	80.81
452.207	89.81
452.428	89.81
452.648	78.81
452.869	99.81
453.089	106.81
453.31	90.81
453.53	96.81
453.751	91.81
453.971	89.81
454.192	94.81
454.412	87.81
454.633	78.81
454.853	89.81
455.073	91.81
455.294	77.81
455.514	94.81
455.734	80.81
455.955	86.81
456.175	77.81
456.395	78.81
456.616	91.81
456.836	79.81
457.056	81.81
457.276	75.81
457.497	86.81
457.717	75.81
457.937	86.81
458.157	82.81
458.377	82.81
458.598	95.81
458.818	127.81
459.038	132.81
459.258	105.81
459.478	75.81
459.698	86.81
459.918	85.81
460.138	85.81
460.358	88.81
460.578	101.81
460.798	71.81
461.018	84.81
461.238	77.81
461.458	75.81
461.678	83.81
461.898	81.81
462.118	83.81
462.338	97.81
462.558	84.81
462.777	93.81
462.997	70.81
463.217	81.81
463.437	73.81
463.657	90.81
463.876	81.81
464.096	78.81
464.316	90.81
464.536	83.81
464.755	95.81
464.975	109.81
465.195	141.81
465.414	134.81
465.634	83.81
465.854	79.81
466.073	65.81
466.293	91.81
466.512	76.81
466.732	73.81
466.951	93.81
467.171	97.81
467.391	80.81
467.61	97.81
467.829	92.81
468.049	129.81
468.268	156.81
468.488	87.81
468.707	70.81
468.927	91.81
469.146	89.81
469.365	106.81
469.585	95.81
469.804	91.81
470.023	89.81
470.243	95.81
470.462	82.81
470.681	93.81
470.901	70.81
471.12	97.81
471.339	81.81
471.558	87.81
471.777	99.81
471.997	117.81
472.216	199.81
472.435	320.81
472.654	113.81
472.873	81.81
473.092	77.81
473.311	103.81
473.53	93.81
473.749	94.81
473.968	88.81
474.187	90.81
474.406	93.81
474.625	89.81
474.844	104.81
475.063	88.81
475.282	75.81
475.501	89.81
475.72	82.81
475.939	78.81
476.158	103.81
476.377	78.81
476.596	88.81
476.814	82.81
477.033	93.81
477.252	91.81
477.471	79.81
477.69	102.81
477.908	85.81
478.127	67.81
478.346	87.81
478.564	83.81
478.783	81.81
479.002	83.81
479.22	80.81
479.439	74.81
479.658	79.81
479.876	92.81
480.095	83.81
480.313	89.81
480.532	106.81
480.751	103.81
480.969	184.81
481.188	549.81
481.406	351.81
481.624	112.81
481.843	103.81
482.061	89.81
482.28	86.81
482.498	77.81
482.717	85.81
482.935	84.81
483.153	91.81
483.372	80.81
483.59	86.81
483.808	95.81
484.027	97.81
484.245	93.81
484.463	92.81
484.681	93.81
484.9	91.81
485.118	93.81
485.336	83.81
485.554	94.81
485.772	94.81
485.99	93.81
486.209	93.81
486.427	99.81
486.645	99.81
486.863	106.81
487.081	96.81
487.299	96.81
487.517	91.81
487.735	91.81
487.953	92.81
488.171	86.81
488.389	73.81
488.607	92.81
488.825	77.81
489.043	89.81
489.261	98.81
489.479	94.81
489.696	95.81
489.914	82.81
490.132	84.81
490.35	84.81
490.568	96.81
490.786	85.81
491.003	82.81
491.221	89.81
491.439	92.81
491.657	104.81
491.874	87.81
492.092	92.81
492.31	87.81
492.527	79.81
492.745	78.81
492.963	90.81
493.18	87.81
493.398	88.81
493.615	88.81
493.833	89.81
494.05	95.81
494.268	92.81
494.485	88.81
494.703	72.81
494.92	92.81
495.138	83.81
495.355	86.81
495.573	70.81
495.79	89.81
496.008	88.81
496.225	78.81
496.442	70.81
496.66	90.81
496.877	97.81
497.094	94.81
497.312	91.81
497.529	79.81
497.746	90.81
497.963	95.81
498.181	87.81
498.398	95.81
498.615	103.81
498.832	106.81
499.049	87.81
499.267	81.81
499.484	85.81
499.701	95.81
499.918	86.81
500.135	82.81
500.352	87.81
500.569	78.81
500.786	95.81
501.003	72.81
501.22	81.81
501.437	90.81
501.654	85.81
501.871	81.81
502.088	88.81
502.305	89.81
502.522	91.81
502.739	99.81
502.956	93.81
503.172	78.81
503.389	84.81
503.606	101.81
503.823	72.81
504.04	87.81
504.256	82.81
504.473	87.81
504.69	86.81
504.907	86.81
505.123	73.81
505.34	88.81
505.557	82.81
505.773	82.81
505.99	102.81
506.207	74.81
506.423	97.81
506.64	79.81
506.856	83.81
507.073	87.81
507.289	91.81
507.506	94.81
507.722	104.81
507.939	105.81
508.155	91.81
508.372	86.81
508.588	88.81
508.805	103.81
509.021	104.81
509.238	99.81
509.454	87.81
509.67	90.81
509.887	101.81
510.103	118.81
510.319	187.81
510.536	596.81
510.752	1799.81
510.968	492.81
511.184	136.81
511.401	98.81
511.617	96.81
511.833	91.81
512.049	100.81
512.265	78.81
512.481	88.81
512.698	83.81
512.914	94.81
513.13	93.81
513.346	92.81
513.562	89.81
513.778	83.81
513.994	89.81
514.21	102.81
514.426	90.81
514.642	119.81
514.858	115.81
515.074	139.81
515.29	374.81
515.506	1102.81
515.721	414.81
515.937	134.81
516.153	76.81
516.369	90.81
516.585	91.81
516.801	81.81
517.016	91.81
