Data from Circ_1983_H10_HRD10591_00056.txt Node
Date: Wed Jan 03 12:26:56 EST 2024
User: Yrep
Spectrometer: HR+D1059
Trigger mode: 1
Integration Time (sec): 1.000000E-1
Scans to average: 1
Electric dark correction enabled: true
Nonlinearity correction enabled: false
Boxcar width: 0
XAxis mode: Wavelengths
Number of Pixels in Spectrum: 2048
>>>>>Begin Spectral Data<<<<<
223.165	-27.38
223.4	-27.38
223.635	-27.38
223.869	-11.38
224.104	-3.38
224.338	-26.38
224.573	-17.38
224.808	-20.38
225.042	-12.38
225.277	0.62
225.511	10.62
225.746	-9.38
225.98	14.62
226.215	15.62
226.449	15.62
226.683	17.62
226.918	19.62
227.152	33.62
227.387	22.62
227.621	42.62
227.856	34.62
228.09	43.62
228.324	43.62
228.559	40.62
228.793	63.62
229.027	61.62
229.262	63.62
229.496	61.62
229.73	66.62
229.964	70.62
230.199	74.62
230.433	82.62
230.667	98.62
230.901	73.62
231.136	81.62
231.37	81.62
231.604	73.62
231.838	78.62
232.072	78.62
232.306	72.62
232.541	79.62
232.775	70.62
233.009	84.62
233.243	87.62
233.477	86.62
233.711	80.62
233.945	85.62
234.179	88.62
234.413	82.62
234.647	75.62
234.881	77.62
235.115	88.62
235.349	89.62
235.583	68.62
235.817	81.62
236.051	77.62
236.285	76.62
236.519	82.62
236.753	69.62
236.987	63.62
237.221	77.62
237.455	79.62
237.689	70.62
237.922	75.62
238.156	77.62
238.39	78.62
238.624	66.62
238.858	73.62
239.091	79.62
239.325	92.62
239.559	83.62
239.793	73.62
240.027	72.62
240.26	86.62
240.494	77.62
240.728	79.62
240.961	61.62
241.195	77.62
241.429	74.62
241.662	72.62
241.896	71.62
242.13	65.62
242.363	71.62
242.597	82.62
242.83	63.62
243.064	89.62
243.298	69.62
243.531	81.62
243.765	80.62
243.998	71.62
244.232	77.62
244.465	74.62
244.699	71.62
244.932	75.62
245.166	70.62
245.399	67.62
245.633	63.62
245.866	73.62
246.099	71.62
246.333	67.62
246.566	74.62
246.8	73.62
247.033	87.62
247.266	85.62
247.5	79.62
247.733	74.62
247.966	92.62
248.2	79.62
248.433	69.62
248.666	66.62
248.899	81.62
249.133	98.62
249.366	96.62
249.599	93.62
249.832	86.62
250.066	77.62
250.299	70.62
250.532	55.62
250.765	83.62
250.998	74.62
251.231	74.62
251.465	77.62
251.698	73.62
251.931	70.62
252.164	74.62
252.397	81.62
252.63	69.62
252.863	93.62
253.096	58.62
253.329	93.62
253.562	96.62
253.795	73.62
254.028	79.62
254.261	73.62
254.494	78.62
254.727	82.62
254.96	97.62
255.193	73.62
255.426	89.62
255.659	84.62
255.892	73.62
256.124	93.62
256.357	72.62
256.59	95.62
256.823	82.62
257.056	97.62
257.289	90.62
257.521	83.62
257.754	81.62
257.987	86.62
258.22	72.62
258.452	67.62
258.685	74.62
258.918	91.62
259.151	83.62
259.383	88.62
259.616	83.62
259.849	84.62
260.081	77.62
260.314	85.62
260.547	78.62
260.779	86.62
261.012	72.62
261.244	88.62
261.477	86.62
261.71	87.62
261.942	104.62
262.175	96.62
262.407	81.62
262.64	72.62
262.872	71.62
263.105	81.62
263.337	69.62
263.57	90.62
263.802	84.62
264.035	93.62
264.267	98.62
264.499	72.62
264.732	93.62
264.964	85.62
265.197	64.62
265.429	70.62
265.661	75.62
265.894	77.62
266.126	81.62
266.358	85.62
266.591	88.62
266.823	82.62
267.055	79.62
267.287	87.62
267.52	70.62
267.752	90.62
267.984	70.62
268.216	84.62
268.448	76.62
268.681	73.62
268.913	98.62
269.145	90.62
269.377	95.62
269.609	76.62
269.841	83.62
270.073	83.62
270.306	78.62
270.538	82.62
270.77	85.62
271.002	82.62
271.234	93.62
271.466	93.62
271.698	84.62
271.93	75.62
272.162	87.62
272.394	72.62
272.626	91.62
272.858	78.62
273.09	93.62
273.322	79.62
273.553	79.62
273.785	82.62
274.017	86.62
274.249	91.62
274.481	82.62
274.713	91.62
274.945	78.62
275.176	74.62
275.408	78.62
275.64	90.62
275.872	85.62
276.104	84.62
276.335	80.62
276.567	85.62
276.799	102.62
277.031	81.62
277.262	82.62
277.494	101.62
277.726	73.62
277.957	81.62
278.189	77.62
278.421	80.62
278.652	89.62
278.884	80.62
279.115	80.62
279.347	83.62
279.579	80.62
279.81	79.62
280.042	95.62
280.273	86.62
280.505	99.62
280.736	74.62
280.968	87.62
281.199	71.62
281.431	88.62
281.662	91.62
281.894	79.62
282.125	91.62
282.356	104.62
282.588	130.62
282.819	108.62
283.051	80.62
283.282	87.62
283.513	75.62
283.745	90.62
283.976	92.62
284.207	76.62
284.439	95.62
284.67	81.62
284.901	81.62
285.132	81.62
285.364	88.62
285.595	93.62
285.826	97.62
286.057	97.62
286.288	78.62
286.52	88.62
286.751	87.62
286.982	82.62
287.213	92.62
287.444	90.62
287.675	82.62
287.906	91.62
288.138	90.62
288.369	75.62
288.6	91.62
288.831	99.62
289.062	92.62
289.293	94.62
289.524	78.62
289.755	86.62
289.986	77.62
290.217	95.62
290.448	83.62
290.679	80.62
290.91	80.62
291.141	95.62
291.371	89.62
291.602	88.62
291.833	79.62
292.064	83.62
292.295	96.62
292.526	66.62
292.757	89.62
292.987	102.62
293.218	85.62
293.449	82.62
293.68	93.62
293.91	87.62
294.141	86.62
294.372	93.62
294.603	93.62
294.833	75.62
295.064	79.62
295.295	85.62
295.525	100.62
295.756	109.62
295.987	97.62
296.217	120.62
296.448	106.62
296.679	84.62
296.909	78.62
297.14	87.62
297.37	86.62
297.601	83.62
297.831	90.62
298.062	95.62
298.292	89.62
298.523	93.62
298.753	87.62
298.984	73.62
299.214	79.62
299.445	91.62
299.675	95.62
299.905	84.62
300.136	99.62
300.366	86.62
300.597	82.62
300.827	103.62
301.057	92.62
301.288	99.62
301.518	85.62
301.748	77.62
301.979	104.62
302.209	92.62
302.439	70.62
302.669	83.62
302.9	84.62
303.13	86.62
303.36	82.62
303.59	72.62
303.82	91.62
304.051	84.62
304.281	87.62
304.511	85.62
304.741	80.62
304.971	98.62
305.201	82.62
305.431	89.62
305.661	94.62
305.891	82.62
306.121	100.62
306.352	100.62
306.582	98.62
306.812	87.62
307.042	82.62
307.272	77.62
307.502	93.62
307.731	93.62
307.961	99.62
308.191	79.62
308.421	94.62
308.651	78.62
308.881	95.62
309.111	94.62
309.341	97.62
309.571	95.62
309.8	84.62
310.03	94.62
310.26	102.62
310.49	86.62
310.72	87.62
310.949	104.62
311.179	100.62
311.409	93.62
311.639	89.62
311.868	91.62
312.098	89.62
312.328	96.62
312.557	94.62
312.787	103.62
313.017	93.62
313.246	84.62
313.476	78.62
313.706	86.62
313.935	88.62
314.165	105.62
314.394	105.62
314.624	74.62
314.853	85.62
315.083	94.62
315.312	107.62
315.542	97.62
315.771	72.62
316.001	102.62
316.23	100.62
316.46	86.62
316.689	82.62
316.919	97.62
317.148	91.62
317.377	91.62
317.607	92.62
317.836	91.62
318.065	88.62
318.295	80.62
318.524	96.62
318.753	98.62
318.983	95.62
319.212	97.62
319.441	105.62
319.67	87.62
319.9	81.62
320.129	83.62
320.358	87.62
320.587	91.62
320.816	83.62
321.046	94.62
321.275	86.62
321.504	97.62
321.733	94.62
321.962	92.62
322.191	87.62
322.42	98.62
322.649	104.62
322.878	101.62
323.108	112.62
323.337	107.62
323.566	109.62
323.795	141.62
324.024	173.62
324.253	303.62
324.482	619.62
324.71	1226.62
324.939	1568.62
325.168	603.62
325.397	193.62
325.626	129.62
325.855	112.62
326.084	112.62
326.313	112.62
326.542	136.62
326.77	182.62
326.999	335.62
327.228	711.62
327.457	1207.62
327.686	1003.62
327.914	295.62
328.143	153.62
328.372	160.62
328.6	132.62
328.829	119.62
329.058	106.62
329.287	112.62
329.515	104.62
329.744	106.62
329.972	120.62
330.201	166.62
330.43	192.62
330.658	135.62
330.887	121.62
331.115	118.62
331.344	103.62
331.572	89.62
331.801	86.62
332.03	102.62
332.258	101.62
332.486	80.62
332.715	84.62
332.943	90.62
333.172	91.62
333.4	101.62
333.629	102.62
333.857	104.62
334.085	128.62
334.314	160.62
334.542	220.62
334.771	213.62
334.999	111.62
335.227	88.62
335.455	93.62
335.684	101.62
335.912	103.62
336.14	96.62
336.369	93.62
336.597	96.62
336.825	81.62
337.053	97.62
337.281	101.62
337.51	89.62
337.738	94.62
337.966	77.62
338.194	91.62
338.422	96.62
338.65	96.62
338.878	89.62
339.106	87.62
339.334	89.62
339.562	73.62
339.79	77.62
340.018	80.62
340.246	82.62
340.474	85.62
340.702	95.62
340.93	82.62
341.158	78.62
341.386	90.62
341.614	72.62
341.842	81.62
342.07	77.62
342.298	83.62
342.526	97.62
342.754	89.62
342.981	81.62
343.209	93.62
343.437	79.62
343.665	99.62
343.893	83.62
344.12	86.62
344.348	87.62
344.576	90.62
344.804	89.62
345.031	99.62
345.259	88.62
345.487	86.62
345.714	87.62
345.942	100.62
346.17	98.62
346.397	82.62
346.625	87.62
346.853	90.62
347.08	92.62
347.308	90.62
347.535	102.62
347.763	82.62
347.99	94.62
348.218	90.62
348.445	94.62
348.673	93.62
348.9	79.62
349.128	97.62
349.355	87.62
349.583	91.62
349.81	93.62
350.037	90.62
350.265	100.62
350.492	94.62
350.72	96.62
350.947	91.62
351.174	106.62
351.402	102.62
351.629	85.62
351.856	104.62
352.083	99.62
352.311	95.62
352.538	102.62
352.765	95.62
352.992	104.62
353.22	91.62
353.447	107.62
353.674	110.62
353.901	113.62
354.128	90.62
354.355	81.62
354.583	94.62
354.81	90.62
355.037	89.62
355.264	88.62
355.491	94.62
355.718	93.62
355.945	102.62
356.172	97.62
356.399	97.62
356.626	91.62
356.853	90.62
357.08	93.62
357.307	102.62
357.534	103.62
357.761	93.62
357.988	85.62
358.215	97.62
358.441	89.62
358.668	86.62
358.895	86.62
359.122	76.62
359.349	67.62
359.576	99.62
359.802	73.62
360.029	98.62
360.256	100.62
360.483	98.62
360.709	90.62
360.936	97.62
361.163	82.62
361.39	85.62
361.616	90.62
361.843	80.62
362.07	86.62
362.296	82.62
362.523	85.62
362.749	80.62
362.976	94.62
363.203	104.62
363.429	96.62
363.656	84.62
363.882	90.62
364.109	84.62
364.335	94.62
364.562	82.62
364.788	89.62
365.015	99.62
365.241	77.62
365.468	86.62
365.694	84.62
365.92	96.62
366.147	96.62
366.373	85.62
366.599	92.62
366.826	71.62
367.052	89.62
367.278	77.62
367.505	88.62
367.731	100.62
367.957	89.62
368.184	98.62
368.41	101.62
368.636	87.62
368.862	109.62
369.089	97.62
369.315	99.62
369.541	78.62
369.767	98.62
369.993	72.62
370.219	89.62
370.445	81.62
370.672	78.62
370.898	79.62
371.124	69.62
371.35	56.62
371.576	85.62
371.802	87.62
372.028	77.62
372.254	91.62
372.48	87.62
372.706	94.62
372.932	88.62
373.158	79.62
373.384	98.62
373.61	93.62
373.835	85.62
374.061	80.62
374.287	92.62
374.513	94.62
374.739	93.62
374.965	72.62
375.191	82.62
375.416	87.62
375.642	83.62
375.868	98.62
376.094	85.62
376.319	89.62
376.545	79.62
376.771	89.62
376.997	101.62
377.222	92.62
377.448	89.62
377.674	77.62
377.899	81.62
378.125	82.62
378.35	97.62
378.576	85.62
378.802	94.62
379.027	87.62
379.253	74.62
379.478	79.62
379.704	94.62
379.929	90.62
380.155	87.62
380.38	93.62
380.606	85.62
380.831	102.62
381.057	89.62
381.282	84.62
381.507	93.62
381.733	97.62
381.958	88.62
382.184	98.62
382.409	95.62
382.634	110.62
382.86	101.62
383.085	109.62
383.31	103.62
383.535	101.62
383.761	81.62
383.986	106.62
384.211	105.62
384.436	83.62
384.662	103.62
384.887	111.62
385.112	109.62
385.337	115.62
385.562	98.62
385.787	82.62
386.013	94.62
386.238	104.62
386.463	98.62
386.688	107.62
386.913	115.62
387.138	108.62
387.363	89.62
387.588	109.62
387.813	97.62
388.038	106.62
388.263	112.62
388.488	105.62
388.713	95.62
388.938	91.62
389.163	87.62
389.387	90.62
389.612	102.62
389.837	92.62
390.062	81.62
390.287	105.62
390.512	93.62
390.736	99.62
390.961	97.62
391.186	87.62
391.411	79.62
391.636	73.62
391.86	87.62
392.085	86.62
392.31	85.62
392.534	81.62
392.759	81.62
392.984	88.62
393.208	97.62
393.433	102.62
393.658	99.62
393.882	97.62
394.107	87.62
394.331	69.62
394.556	77.62
394.78	86.62
395.005	83.62
395.229	80.62
395.454	84.62
395.678	72.62
395.903	82.62
396.127	89.62
396.352	91.62
396.576	88.62
396.801	93.62
397.025	89.62
397.249	89.62
397.474	84.62
397.698	89.62
397.922	84.62
398.147	98.62
398.371	72.62
398.595	89.62
398.82	101.62
399.044	85.62
399.268	91.62
399.492	82.62
399.717	85.62
399.941	95.62
400.165	94.62
400.389	86.62
400.613	90.62
400.837	77.62
401.062	90.62
401.286	84.62
401.51	81.62
401.734	79.62
401.958	95.62
402.182	99.62
402.406	133.62
402.63	114.62
402.854	86.62
403.078	79.62
403.302	81.62
403.526	89.62
403.75	87.62
403.974	86.62
404.198	90.62
404.422	78.62
404.645	83.62
404.869	86.62
405.093	75.62
405.317	82.62
405.541	101.62
405.765	105.62
405.988	106.62
406.212	143.62
406.436	169.62
406.66	117.62
406.883	91.62
407.107	84.62
407.331	81.62
407.555	85.62
407.778	89.62
408.002	86.62
408.226	77.62
408.449	83.62
408.673	77.62
408.896	78.62
409.12	73.62
409.344	80.62
409.567	79.62
409.791	99.62
410.014	98.62
410.238	84.62
410.461	85.62
410.685	82.62
410.908	84.62
411.132	92.62
411.355	94.62
411.578	80.62
411.802	80.62
412.025	73.62
412.249	95.62
412.472	72.62
412.695	101.62
412.919	100.62
413.142	66.62
413.365	89.62
413.589	75.62
413.812	83.62
414.035	86.62
414.258	98.62
414.482	104.62
414.705	85.62
414.928	78.62
415.151	81.62
415.374	96.62
415.597	83.62
415.821	77.62
416.044	80.62
416.267	91.62
416.49	79.62
416.713	83.62
416.936	85.62
417.159	79.62
417.382	78.62
417.605	89.62
417.828	91.62
418.051	94.62
418.274	97.62
418.497	89.62
418.72	75.62
418.943	89.62
419.166	85.62
419.389	108.62
419.611	90.62
419.834	84.62
420.057	90.62
420.28	99.62
420.503	93.62
420.726	81.62
420.948	88.62
421.171	100.62
421.394	88.62
421.617	96.62
421.839	96.62
422.062	90.62
422.285	97.62
422.507	83.62
422.73	99.62
422.953	102.62
423.175	104.62
423.398	89.62
423.621	110.62
423.843	93.62
424.066	87.62
424.288	71.62
424.511	86.62
424.733	89.62
424.956	94.62
425.178	81.62
425.401	86.62
425.623	94.62
425.846	107.62
426.068	80.62
426.291	90.62
426.513	97.62
426.735	78.62
426.958	83.62
427.18	82.62
427.402	106.62
427.625	132.62
427.847	134.62
428.069	107.62
428.292	100.62
428.514	88.62
428.736	88.62
428.958	85.62
429.181	88.62
429.403	85.62
429.625	81.62
429.847	73.62
430.069	90.62
430.292	67.62
430.514	75.62
430.736	77.62
430.958	87.62
431.18	81.62
431.402	95.62
431.624	71.62
431.846	99.62
432.068	91.62
432.29	80.62
432.512	84.62
432.734	91.62
432.956	83.62
433.178	89.62
433.4	83.62
433.622	99.62
433.844	93.62
434.066	99.62
434.287	84.62
434.509	95.62
434.731	82.62
434.953	87.62
435.175	87.62
435.397	81.62
435.618	92.62
435.84	98.62
436.062	107.62
436.284	95.62
436.505	87.62
436.727	93.62
436.949	74.62
437.17	81.62
437.392	83.62
437.614	69.62
437.835	97.62
438.057	94.62
438.278	105.62
438.5	97.62
438.721	100.62
438.943	96.62
439.165	89.62
439.386	83.62
439.608	78.62
439.829	101.62
440.05	104.62
440.272	112.62
440.493	68.62
440.715	73.62
440.936	90.62
441.158	93.62
441.379	80.62
441.6	85.62
441.822	85.62
442.043	93.62
442.264	83.62
442.486	86.62
442.707	71.62
442.928	104.62
443.149	111.62
443.371	106.62
443.592	95.62
443.813	98.62
444.034	96.62
444.255	95.62
444.476	89.62
444.698	88.62
444.919	97.62
445.14	120.62
445.361	123.62
445.582	107.62
445.803	118.62
446.024	117.62
446.245	118.62
446.466	98.62
446.687	75.62
446.908	70.62
447.129	92.62
447.35	101.62
447.571	82.62
447.792	85.62
448.013	95.62
448.234	105.62
448.455	95.62
448.675	112.62
448.896	87.62
449.117	90.62
449.338	91.62
449.559	105.62
449.779	116.62
450	95.62
450.221	88.62
450.442	74.62
450.662	81.62
450.883	99.62
451.104	91.62
451.324	98.62
451.545	93.62
451.766	94.62
451.986	81.62
452.207	85.62
452.428	99.62
452.648	94.62
452.869	98.62
453.089	105.62
453.31	106.62
453.53	97.62
453.751	96.62
453.971	96.62
454.192	110.62
454.412	91.62
454.633	100.62
454.853	81.62
455.073	89.62
455.294	78.62
455.514	82.62
455.734	81.62
455.955	77.62
456.175	70.62
456.395	95.62
456.616	87.62
456.836	77.62
457.056	81.62
457.276	90.62
457.497	78.62
457.717	110.62
457.937	94.62
458.157	70.62
458.377	68.62
458.598	93.62
458.818	127.62
459.038	131.62
459.258	111.62
459.478	77.62
459.698	81.62
459.918	83.62
460.138	85.62
460.358	88.62
460.578	111.62
460.798	98.62
461.018	78.62
461.238	80.62
461.458	84.62
461.678	80.62
461.898	86.62
462.118	85.62
462.338	99.62
462.558	75.62
462.777	79.62
462.997	94.62
463.217	77.62
463.437	84.62
463.657	82.62
463.876	107.62
464.096	74.62
464.316	89.62
464.536	89.62
464.755	81.62
464.975	100.62
465.195	134.62
465.414	130.62
465.634	92.62
465.854	81.62
466.073	85.62
466.293	97.62
466.512	106.62
466.732	71.62
466.951	88.62
467.171	88.62
467.391	97.62
467.61	92.62
467.829	103.62
468.049	116.62
468.268	145.62
468.488	99.62
468.707	77.62
468.927	75.62
469.146	87.62
469.365	88.62
469.585	86.62
469.804	84.62
470.023	82.62
470.243	81.62
470.462	95.62
470.681	98.62
470.901	90.62
471.12	94.62
471.339	85.62
471.558	82.62
471.777	80.62
471.997	118.62
472.216	157.62
472.435	287.62
472.654	125.62
472.873	94.62
473.092	72.62
473.311	82.62
473.53	69.62
473.749	79.62
473.968	85.62
474.187	108.62
474.406	69.62
474.625	79.62
474.844	87.62
475.063	90.62
475.282	100.62
475.501	84.62
475.72	94.62
475.939	77.62
476.158	90.62
476.377	72.62
476.596	81.62
476.814	80.62
477.033	79.62
477.252	84.62
477.471	87.62
477.69	97.62
477.908	79.62
478.127	69.62
478.346	90.62
478.564	83.62
478.783	89.62
479.002	94.62
479.22	83.62
479.439	102.62
479.658	90.62
479.876	93.62
480.095	76.62
480.313	93.62
480.532	88.62
480.751	111.62
480.969	179.62
481.188	465.62
481.406	305.62
481.624	111.62
481.843	90.62
482.061	94.62
482.28	77.62
482.498	94.62
482.717	89.62
482.935	93.62
483.153	107.62
483.372	87.62
483.59	102.62
483.808	99.62
484.027	87.62
484.245	83.62
484.463	102.62
484.681	74.62
484.9	89.62
485.118	92.62
485.336	99.62
485.554	88.62
485.772	101.62
485.99	101.62
486.209	111.62
486.427	107.62
486.645	93.62
486.863	93.62
487.081	90.62
487.299	84.62
487.517	85.62
487.735	96.62
487.953	84.62
488.171	74.62
488.389	90.62
488.607	97.62
488.825	87.62
489.043	93.62
489.261	99.62
489.479	82.62
489.696	97.62
489.914	74.62
490.132	86.62
490.35	90.62
490.568	97.62
490.786	108.62
491.003	92.62
491.221	82.62
491.439	86.62
491.657	70.62
491.874	96.62
492.092	65.62
492.31	93.62
492.527	87.62
492.745	83.62
492.963	94.62
493.18	101.62
493.398	85.62
493.615	102.62
493.833	89.62
494.05	90.62
494.268	82.62
494.485	85.62
494.703	82.62
494.92	91.62
495.138	90.62
495.355	87.62
495.573	82.62
495.79	85.62
496.008	78.62
496.225	90.62
496.442	93.62
496.66	101.62
496.877	101.62
497.094	101.62
497.312	93.62
497.529	84.62
497.746	95.62
497.963	85.62
498.181	89.62
498.398	97.62
498.615	115.62
498.832	90.62
499.049	80.62
499.267	94.62
499.484	89.62
499.701	102.62
499.918	89.62
500.135	79.62
500.352	102.62
500.569	81.62
500.786	85.62
501.003	88.62
501.22	87.62
501.437	88.62
501.654	94.62
501.871	92.62
502.088	87.62
502.305	88.62
502.522	86.62
502.739	74.62
502.956	82.62
503.172	84.62
503.389	94.62
503.606	80.62
503.823	83.62
504.04	91.62
504.256	83.62
504.473	78.62
504.69	98.62
504.907	101.62
505.123	75.62
505.34	75.62
505.557	89.62
505.773	102.62
505.99	88.62
506.207	87.62
506.423	81.62
506.64	103.62
506.856	91.62
507.073	85.62
507.289	93.62
507.506	91.62
507.722	106.62
507.939	88.62
508.155	91.62
508.372	87.62
508.588	89.62
508.805	86.62
509.021	97.62
509.238	93.62
509.454	85.62
509.67	103.62
509.887	100.62
510.103	116.62
510.319	166.62
510.536	574.62
510.752	1721.62
510.968	499.62
511.184	149.62
511.401	98.62
511.617	95.62
511.833	90.62
512.049	74.62
512.265	79.62
512.481	83.62
512.698	88.62
512.914	84.62
513.13	99.62
513.346	81.62
513.562	90.62
513.778	95.62
513.994	78.62
514.21	92.62
514.426	101.62
514.642	110.62
514.858	117.62
515.074	124.62
515.29	320.62
515.506	1000.62
515.721	358.62
515.937	132.62
516.153	99.62
516.369	111.62
516.585	87.62
516.801	99.62
