Data from Circ_1983_H10_HRD10591_00087.txt Node
Date: Wed Jan 03 12:27:02 EST 2024
User: Yrep
Spectrometer: HR+D1059
Trigger mode: 1
Integration Time (sec): 1.000000E-1
Scans to average: 1
Electric dark correction enabled: true
Nonlinearity correction enabled: false
Boxcar width: 0
XAxis mode: Wavelengths
Number of Pixels in Spectrum: 2048
>>>>>Begin Spectral Data<<<<<
223.165	-27
223.4	-27
223.635	-27
223.869	-19
224.104	-20
224.338	-32
224.573	-17
224.808	-7
225.042	-10
225.277	-3
225.511	-7
225.746	18
225.98	0
226.215	8
226.449	31
226.683	27
226.918	26
227.152	32
227.387	31
227.621	38
227.856	44
228.09	56
228.324	52
228.559	61
228.793	63
229.027	61
229.262	80
229.496	70
229.73	75
229.964	75
230.199	69
230.433	70
230.667	74
230.901	82
231.136	86
231.37	69
231.604	72
231.838	63
232.072	68
232.306	68
232.541	78
232.775	93
233.009	85
233.243	85
233.477	81
233.711	71
233.945	78
234.179	82
234.413	69
234.647	84
234.881	83
235.115	85
235.349	87
235.583	82
235.817	67
236.051	86
236.285	84
236.519	75
236.753	84
236.987	75
237.221	91
237.455	80
237.689	80
237.922	74
238.156	71
238.39	74
238.624	74
238.858	95
239.091	80
239.325	71
239.559	88
239.793	82
240.027	79
240.26	68
240.494	72
240.728	70
240.961	81
241.195	80
241.429	85
241.662	72
241.896	78
242.13	88
242.363	73
242.597	67
242.83	75
243.064	75
243.298	82
243.531	80
243.765	90
243.998	70
244.232	66
244.465	66
244.699	82
244.932	76
245.166	67
245.399	64
245.633	81
245.866	62
246.099	63
246.333	74
246.566	83
246.8	74
247.033	60
247.266	75
247.5	86
247.733	84
247.966	80
248.2	79
248.433	90
248.666	81
248.899	80
249.133	85
249.366	92
249.599	91
249.832	60
250.066	72
250.299	85
250.532	74
250.765	70
250.998	79
251.231	72
251.465	75
251.698	80
251.931	85
252.164	75
252.397	82
252.63	78
252.863	72
253.096	70
253.329	87
253.562	99
253.795	81
254.028	71
254.261	70
254.494	83
254.727	81
254.96	75
255.193	84
255.426	86
255.659	74
255.892	74
256.124	67
256.357	82
256.59	82
256.823	92
257.056	97
257.289	84
257.521	87
257.754	82
257.987	78
258.22	88
258.452	83
258.685	84
258.918	83
259.151	74
259.383	91
259.616	98
259.849	86
260.081	70
260.314	75
260.547	88
260.779	85
261.012	81
261.244	75
261.477	90
261.71	98
261.942	94
262.175	98
262.407	87
262.64	78
262.872	78
263.105	95
263.337	92
263.57	93
263.802	85
264.035	76
264.267	76
264.499	83
264.732	70
264.964	86
265.197	96
265.429	81
265.661	75
265.894	82
266.126	88
266.358	88
266.591	68
266.823	73
267.055	79
267.287	73
267.52	83
267.752	90
267.984	75
268.216	85
268.448	68
268.681	72
268.913	86
269.145	89
269.377	85
269.609	75
269.841	94
270.073	75
270.306	81
270.538	71
270.77	78
271.002	84
271.234	86
271.466	91
271.698	86
271.93	84
272.162	89
272.394	82
272.626	76
272.858	70
273.09	92
273.322	86
273.553	93
273.785	81
274.017	90
274.249	90
274.481	91
274.713	87
274.945	83
275.176	99
275.408	99
275.64	105
275.872	92
276.104	70
276.335	87
276.567	94
276.799	121
277.031	91
277.262	98
277.494	76
277.726	82
277.957	80
278.189	86
278.421	88
278.652	97
278.884	84
279.115	95
279.347	89
279.579	89
279.81	80
280.042	88
280.273	96
280.505	103
280.736	85
280.968	75
281.199	86
281.431	91
281.662	78
281.894	80
282.125	92
282.356	99
282.588	126
282.819	104
283.051	82
283.282	82
283.513	88
283.745	87
283.976	93
284.207	90
284.439	83
284.67	82
284.901	90
285.132	78
285.364	73
285.595	78
285.826	86
286.057	99
286.288	90
286.52	74
286.751	75
286.982	88
287.213	81
287.444	84
287.675	86
287.906	85
288.138	89
288.369	97
288.6	83
288.831	93
289.062	81
289.293	72
289.524	91
289.755	91
289.986	78
290.217	83
290.448	98
290.679	72
290.91	94
291.141	83
291.371	78
291.602	96
291.833	92
292.064	94
292.295	76
292.526	90
292.757	75
292.987	80
293.218	86
293.449	88
293.68	83
293.91	93
294.141	98
294.372	98
294.603	82
294.833	58
295.064	90
295.295	93
295.525	95
295.756	91
295.987	104
296.217	122
296.448	116
296.679	90
296.909	97
297.14	90
297.37	86
297.601	96
297.831	76
298.062	82
298.292	86
298.523	87
298.753	75
298.984	83
299.214	83
299.445	91
299.675	87
299.905	99
300.136	95
300.366	96
300.597	80
300.827	93
301.057	95
301.288	84
301.518	102
301.748	85
301.979	89
302.209	88
302.439	100
302.669	109
302.9	75
303.13	81
303.36	86
303.59	99
303.82	100
304.051	91
304.281	100
304.511	91
304.741	82
304.971	92
305.201	89
305.431	87
305.661	99
305.891	88
306.121	81
306.352	98
306.582	106
306.812	107
307.042	88
307.272	113
307.502	92
307.731	104
307.961	106
308.191	101
308.421	90
308.651	88
308.881	99
309.111	100
309.341	93
309.571	99
309.8	95
310.03	108
310.26	94
310.49	82
310.72	98
310.949	92
311.179	98
311.409	96
311.639	99
311.868	118
312.098	103
312.328	84
312.557	86
312.787	92
313.017	95
313.246	87
313.476	86
313.706	82
313.935	101
314.165	100
314.394	93
314.624	90
314.853	94
315.083	92
315.312	92
315.542	100
315.771	88
316.001	88
316.23	98
316.46	85
316.689	92
316.919	94
317.148	84
317.377	81
317.607	97
317.836	91
318.065	85
318.295	83
318.524	74
318.753	120
318.983	84
319.212	108
319.441	103
319.67	95
319.9	91
320.129	89
320.358	105
320.587	92
320.816	104
321.046	96
321.275	95
321.504	85
321.733	89
321.962	98
322.191	99
322.42	95
322.649	100
322.878	112
323.108	99
323.337	114
323.566	111
323.795	135
324.024	171
324.253	315
324.482	633
324.71	1243
324.939	1648
325.168	634
325.397	196
325.626	128
325.855	108
326.084	112
326.313	113
326.542	127
326.77	192
326.999	350
327.228	703
327.457	1257
327.686	1008
327.914	300
328.143	199
328.372	184
328.6	141
328.829	105
329.058	116
329.287	106
329.515	107
329.744	97
329.972	150
330.201	227
330.43	262
330.658	160
330.887	145
331.115	111
331.344	106
331.572	105
331.801	111
332.03	99
332.258	99
332.486	102
332.715	97
332.943	92
333.172	89
333.4	100
333.629	97
333.857	106
334.085	139
334.314	214
334.542	331
334.771	310
334.999	138
335.227	106
335.455	78
335.684	100
335.912	105
336.14	89
336.369	85
336.597	94
336.825	105
337.053	98
337.281	84
337.51	90
337.738	92
337.966	90
338.194	102
338.422	90
338.65	104
338.878	97
339.106	86
339.334	89
339.562	95
339.79	95
340.018	82
340.246	86
340.474	89
340.702	93
340.93	90
341.158	88
341.386	89
341.614	96
341.842	98
342.07	91
342.298	88
342.526	87
342.754	98
342.981	79
343.209	92
343.437	95
343.665	85
343.893	94
344.12	88
344.348	85
344.576	85
344.804	81
345.031	80
345.259	98
345.487	91
345.714	100
345.942	88
346.17	89
346.397	88
346.625	98
346.853	90
347.08	82
347.308	85
347.535	98
347.763	92
347.99	98
348.218	104
348.445	105
348.673	101
348.9	99
349.128	97
349.355	96
349.583	86
349.81	77
350.037	86
350.265	85
350.492	100
350.72	103
350.947	102
351.174	103
351.402	101
351.629	98
351.856	75
352.083	104
352.311	107
352.538	114
352.765	93
352.992	99
353.22	116
353.447	95
353.674	104
353.901	90
354.128	94
354.355	87
354.583	94
354.81	96
355.037	89
355.264	101
355.491	97
355.718	96
355.945	81
356.172	90
356.399	89
356.626	89
356.853	89
357.08	87
357.307	83
357.534	92
357.761	89
357.988	89
358.215	90
358.441	103
358.668	83
358.895	85
359.122	96
359.349	98
359.576	97
359.802	89
360.029	99
360.256	100
360.483	98
360.709	97
360.936	83
361.163	89
361.39	92
361.616	82
361.843	91
362.07	94
362.296	91
362.523	92
362.749	99
362.976	90
363.203	95
363.429	88
363.656	94
363.882	78
364.109	90
364.335	95
364.562	74
364.788	94
365.015	102
365.241	96
365.468	94
365.694	106
365.92	85
366.147	85
366.373	94
366.599	78
366.826	72
367.052	92
367.278	82
367.505	93
367.731	88
367.957	85
368.184	84
368.41	92
368.636	120
368.862	113
369.089	98
369.315	90
369.541	86
369.767	101
369.993	86
370.219	98
370.445	95
370.672	88
370.898	99
371.124	75
371.35	87
371.576	76
371.802	91
372.028	84
372.254	74
372.48	85
372.706	88
372.932	68
373.158	91
373.384	89
373.61	103
373.835	94
374.061	95
374.287	72
374.513	84
374.739	90
374.965	100
375.191	80
375.416	90
375.642	74
375.868	91
376.094	74
376.319	79
376.545	94
376.771	73
376.997	102
377.222	93
377.448	83
377.674	75
377.899	87
378.125	82
378.35	90
378.576	74
378.802	85
379.027	96
379.253	86
379.478	83
379.704	86
379.929	80
380.155	91
380.38	80
380.606	90
380.831	97
381.057	98
381.282	103
381.507	101
381.733	100
381.958	98
382.184	88
382.409	94
382.634	94
382.86	100
383.085	96
383.31	87
383.535	95
383.761	95
383.986	82
384.211	82
384.436	94
384.662	99
384.887	105
385.112	103
385.337	102
385.562	99
385.787	96
386.013	100
386.238	107
386.463	103
386.688	116
386.913	89
387.138	100
387.363	95
387.588	94
387.813	104
388.038	97
388.263	109
388.488	107
388.713	86
388.938	100
389.163	89
389.387	83
389.612	92
389.837	78
390.062	97
390.287	90
390.512	94
390.736	89
390.961	89
391.186	84
391.411	77
391.636	84
391.86	83
392.085	75
392.31	95
392.534	76
392.759	106
392.984	83
393.208	82
393.433	89
393.658	91
393.882	81
394.107	80
394.331	104
394.556	64
394.78	89
395.005	89
395.229	95
395.454	94
395.678	97
395.903	79
396.127	82
396.352	66
396.576	79
396.801	89
397.025	95
397.249	85
397.474	88
397.698	95
397.922	59
398.147	83
398.371	74
398.595	85
398.82	82
399.044	76
399.268	68
399.492	84
399.717	79
399.941	87
400.165	86
400.389	82
400.613	89
400.837	87
401.062	74
401.286	73
401.51	88
401.734	88
401.958	100
402.182	108
402.406	129
402.63	107
402.854	98
403.078	95
403.302	84
403.526	95
403.75	81
403.974	96
404.198	87
404.422	76
404.645	88
404.869	82
405.093	84
405.317	96
405.541	119
405.765	87
405.988	108
406.212	138
406.436	178
406.66	121
406.883	93
407.107	89
407.331	95
407.555	66
407.778	84
408.002	93
408.226	88
408.449	91
408.673	83
408.896	81
409.12	86
409.344	96
409.567	88
409.791	89
410.014	92
410.238	92
410.461	89
410.685	93
410.908	88
411.132	108
411.355	79
411.578	92
411.802	94
412.025	85
412.249	91
412.472	87
412.695	106
412.919	94
413.142	86
413.365	88
413.589	95
413.812	72
414.035	97
414.258	101
414.482	100
414.705	91
414.928	81
415.151	82
415.374	88
415.597	81
415.821	87
416.044	88
416.267	103
416.49	87
416.713	85
416.936	82
417.159	96
417.382	86
417.605	91
417.828	90
418.051	80
418.274	93
418.497	86
418.72	76
418.943	88
419.166	82
419.389	86
419.611	82
419.834	89
420.057	100
420.28	86
420.503	79
420.726	90
420.948	87
421.171	81
421.394	90
421.617	79
421.839	79
422.062	97
422.285	84
422.507	96
422.73	98
422.953	92
423.175	102
423.398	79
423.621	80
423.843	84
424.066	90
424.288	79
424.511	93
424.733	89
424.956	98
425.178	98
425.401	87
425.623	94
425.846	85
426.068	98
426.291	82
426.513	85
426.735	103
426.958	92
427.18	88
427.402	138
427.625	152
427.847	131
428.069	119
428.292	78
428.514	85
428.736	80
428.958	82
429.181	77
429.403	73
429.625	91
429.847	94
430.069	93
430.292	84
430.514	94
430.736	101
430.958	92
431.18	73
431.402	73
431.624	87
431.846	79
432.068	91
432.29	82
432.512	96
432.734	86
432.956	89
433.178	88
433.4	81
433.622	86
433.844	85
434.066	87
434.287	70
434.509	74
434.731	85
434.953	82
435.175	89
435.397	82
435.618	91
435.84	94
436.062	111
436.284	118
436.505	99
436.727	98
436.949	84
437.17	94
437.392	80
437.614	107
437.835	104
438.057	107
438.278	103
438.5	112
438.721	102
438.943	87
439.165	85
439.386	78
439.608	92
439.829	91
440.05	110
440.272	125
440.493	94
440.715	85
440.936	86
441.158	85
441.379	71
441.6	92
441.822	111
442.043	90
442.264	94
442.486	93
442.707	107
442.928	79
443.149	109
443.371	111
443.592	107
443.813	95
444.034	89
444.255	93
444.476	82
444.698	78
444.919	79
445.14	116
445.361	117
445.582	106
445.803	115
446.024	103
446.245	131
446.466	93
446.687	91
446.908	79
447.129	90
447.35	75
447.571	83
447.792	96
448.013	93
448.234	101
448.455	90
448.675	108
448.896	110
449.117	108
449.338	95
449.559	98
449.779	108
450	85
450.221	90
450.442	71
450.662	107
450.883	83
451.104	99
451.324	89
451.545	96
451.766	93
451.986	88
452.207	76
452.428	81
452.648	92
452.869	99
453.089	103
453.31	119
453.53	81
453.751	87
453.971	103
454.192	102
454.412	88
454.633	79
454.853	81
455.073	87
455.294	94
455.514	97
455.734	81
455.955	90
456.175	83
456.395	90
456.616	84
456.836	82
457.056	74
457.276	86
457.497	68
457.717	88
457.937	90
458.157	82
458.377	91
458.598	90
458.818	131
459.038	139
459.258	106
459.478	98
459.698	84
459.918	96
460.138	74
460.358	91
460.578	78
460.798	107
461.018	91
461.238	90
461.458	87
461.678	87
461.898	91
462.118	84
462.338	77
462.558	87
462.777	82
462.997	85
463.217	96
463.437	83
463.657	85
463.876	85
464.096	99
464.316	86
464.536	83
464.755	84
464.975	95
465.195	149
465.414	137
465.634	82
465.854	99
466.073	84
466.293	80
466.512	78
466.732	85
466.951	90
467.171	83
467.391	90
467.61	105
467.829	104
468.049	164
468.268	182
468.488	104
468.707	89
468.927	87
469.146	88
469.365	98
469.585	101
469.804	85
470.023	84
470.243	95
470.462	97
470.681	94
470.901	91
471.12	84
471.339	86
471.558	106
471.777	99
471.997	123
472.216	240
472.435	422
472.654	158
472.873	106
473.092	91
473.311	79
473.53	74
473.749	86
473.968	87
474.187	80
474.406	80
474.625	92
474.844	84
475.063	83
475.282	95
475.501	79
475.72	102
475.939	75
476.158	81
476.377	79
476.596	76
476.814	80
477.033	88
477.252	99
477.471	74
477.69	78
477.908	93
478.127	99
478.346	92
478.564	85
478.783	86
479.002	94
479.22	94
479.439	98
479.658	101
479.876	90
480.095	92
480.313	91
480.532	97
480.751	121
480.969	224
481.188	713
481.406	442
481.624	131
481.843	97
482.061	82
482.28	92
482.498	82
482.717	92
482.935	96
483.153	92
483.372	95
483.59	95
483.808	103
484.027	87
484.245	75
484.463	96
484.681	97
484.9	77
485.118	92
485.336	91
485.554	89
485.772	97
485.99	105
486.209	101
486.427	105
486.645	90
486.863	117
487.081	99
487.299	86
487.517	83
487.735	94
487.953	92
488.171	93
488.389	92
488.607	82
488.825	90
489.043	75
489.261	105
489.479	85
489.696	93
489.914	87
490.132	81
490.35	104
490.568	94
490.786	85
491.003	93
491.221	82
491.439	83
491.657	87
491.874	79
492.092	91
492.31	85
492.527	87
492.745	91
492.963	74
493.18	87
493.398	88
493.615	92
493.833	90
494.05	88
494.268	95
494.485	89
494.703	90
494.92	86
495.138	84
495.355	82
495.573	104
495.79	96
496.008	97
496.225	89
496.442	99
496.66	96
496.877	83
497.094	87
497.312	82
497.529	98
497.746	75
497.963	99
498.181	98
498.398	99
498.615	94
498.832	98
499.049	98
499.267	89
499.484	82
499.701	100
499.918	91
500.135	97
500.352	86
500.569	93
500.786	94
501.003	78
501.22	80
501.437	81
501.654	104
501.871	95
502.088	84
502.305	107
502.522	86
502.739	88
502.956	95
503.172	90
503.389	80
503.606	99
503.823	94
504.04	89
504.256	92
504.473	88
504.69	89
504.907	104
505.123	85
505.34	105
505.557	84
505.773	100
505.99	87
506.207	95
506.423	87
506.64	82
506.856	80
507.073	94
507.289	97
507.506	95
507.722	98
507.939	89
508.155	95
508.372	97
508.588	94
508.805	103
509.021	85
509.238	90
509.454	87
509.67	92
509.887	101
510.103	120
510.319	176
510.536	605
510.752	1876
510.968	510
511.184	124
511.401	107
511.617	96
511.833	86
512.049	75
512.265	90
512.481	93
512.698	104
512.914	108
513.13	101
513.346	81
513.562	98
513.778	103
513.994	74
514.21	81
514.426	100
514.642	104
514.858	101
515.074	153
515.29	371
515.506	1102
515.721	432
515.937	150
516.153	102
516.369	90
516.585	94
516.801	98
517.016	104
517.232	82
517.448	86
517.664	87
517.879	100
518.095	89
518.311	93
518.527	76
518.742	84
518.958	89
519.173	94
519.389	86
519.605	66
519.82	100
520.036	108
520.251	115
520.467	108
520.682	109
520.898	94
521.113	116
521.329	142
521.544	172
521.76	454
521.975	1837
522.19	1094
522.406	260
522.621	106
522.836	103
523.052	96
523.267	81
523.482	90
523.698	90
523.913	104
524.128	100
524.343	102
524.559	97
524.774	89
524.989	82
525.204	80
525.419	84
525.634	88
525.849	84
526.064	78
526.28	90
526.495	102
526.71	87
526.925	88
527.14	80
527.355	70
527.57	88
527.785	91
527.999	96
528.214	81
528.429	83
528.644	96
528.859	105
529.074	106
529.289	124
529.503	152
529.718	105
529.933	90
530.148	88
530.363	83
530.577	94
530.792	95
531.007	90
531.221	90
531.436	88
531.651	107
531.865	89
532.08	102
532.295	105
532.509	93
532.724	82
532.938	100
533.153	93
533.367	86
533.582	89
533.796	88
534.011	84
534.225	86
534.44	98
534.654	83
534.868	75
535.083	89
535.297	104
535.511	100
535.726	93
535.94	98
536.154	92
536.369	81
536.583	74
536.797	90
537.011	83
537.225	79
537.44	76
537.654	90
537.868	87
538.082	81
538.296	83
538.51	103
538.724	82
538.938	99
539.153	77
539.367	113
539.581	93
539.795	81
540.009	91
540.222	88
540.436	95
540.65	86
540.864	95
541.078	81
541.292	92
541.506	84
541.72	83
541.934	88
542.147	84
542.361	91
542.575	92
542.789	95
543.002	81
543.216	92
543.43	85
543.644	91
543.857	90
544.071	88
544.285	103
544.498	91
544.712	96
544.925	78
545.139	94
545.352	80
545.566	99
545.779	90
545.993	84
546.206	95
546.42	99
546.633	86
546.847	101
547.06	82
547.274	101
547.487	94
547.7	92
547.914	81
548.127	79
548.34	71
548.554	90
548.767	82
548.98	88
549.193	87
549.407	82
549.62	95
549.833	98
550.046	77
550.259	89
550.473	91
550.686	72
550.899	70
551.112	86
551.325	82
551.538	89
551.751	97
551.964	77
552.177	86
552.39	87
552.603	95
552.816	91
553.029	94
553.242	92
553.455	105
553.667	96
553.88	101
554.093	88
554.306	78
554.519	91
554.732	100
554.944	96
555.157	92
555.37	73
555.583	87
555.795	91
556.008	72
556.221	84
556.433	84
556.646	87
556.859	75
557.071	88
557.284	76
557.496	96
557.709	79
557.921	104
558.134	98
558.346	94
558.559	85
558.771	92
558.984	65
559.196	88
559.409	80
559.621	87
559.833	80
560.046	84
560.258	80
560.47	87
560.683	92
560.895	88
561.107	89
561.32	86
561.532	84
561.744	82
561.956	106
562.168	77
562.381	84
562.593	85
562.805	90
563.017	94
563.229	92
563.441	96
563.653	86
563.865	100
564.077	73
564.289	98
564.501	90
564.713	97
564.925	98
565.137	103
565.349	104
565.561	84
565.773	81
565.985	82
566.197	85
566.408	81
566.62	86
566.832	85
567.044	82
567.255	92
567.467	78
567.679	91
567.891	100
568.102	88
568.314	100
568.526	84
568.737	90
568.949	75
569.161	84
569.372	97
569.584	82
569.795	98
570.007	107
570.218	186
570.43	108
570.641	93
570.853	82
571.064	76
571.276	95
571.487	91
571.698	109
571.91	87
572.121	85
572.333	94
572.544	71
572.755	74
572.966	92
573.178	99
573.389	91
573.6	88
573.811	72
574.023	80
574.234	84
574.445	80
574.656	80
574.867	89
575.078	74
575.289	81
575.501	98
575.712	100
575.923	85
576.134	92
576.345	76
576.556	84
576.767	93
576.978	90
577.188	108
577.399	96
577.61	98
577.821	84
578.032	108
578.243	206
578.454	583
578.665	176
578.875	97
579.086	84
579.297	96
579.508	84
579.718	71
579.929	78
580.14	83
580.35	80
580.561	89
580.772	70
580.982	78
581.193	87
581.403	96
581.614	74
581.825	82
582.035	78
582.246	91
582.456	99
582.667	84
582.877	84
583.087	92
583.298	100
583.508	89
583.719	94
583.929	93
584.139	93
584.35	81
584.56	95
584.77	82
584.981	86
585.191	95
585.401	90
585.611	95
