Data from Circ_1983_H10_HRD10591_00011.txt Node
Date: Wed Jan 03 12:26:47 EST 2024
User: Yrep
Spectrometer: HR+D1059
Trigger mode: 1
Integration Time (sec): 1.000000E-1
Scans to average: 1
Electric dark correction enabled: true
Nonlinearity correction enabled: false
Boxcar width: 0
XAxis mode: Wavelengths
Number of Pixels in Spectrum: 2048
>>>>>Begin Spectral Data<<<<<
223.165	-8.31
223.4	-8.31
223.635	-8.31
223.869	-18.31
224.104	-4.31
224.338	-22.31
224.573	-7.31
224.808	-10.31
225.042	-29.31
225.277	-14.31
225.511	-6.31
225.746	7.69
225.98	19.69
226.215	1.69
226.449	20.69
226.683	24.69
226.918	20.69
227.152	25.69
227.387	33.69
227.621	41.69
227.856	35.69
228.09	49.69
228.324	43.69
228.559	54.69
228.793	56.69
229.027	58.69
229.262	59.69
229.496	86.69
229.73	88.69
229.964	79.69
230.199	69.69
230.433	81.69
230.667	79.69
230.901	90.69
231.136	77.69
231.37	74.69
231.604	73.69
231.838	85.69
232.072	76.69
232.306	66.69
232.541	75.69
232.775	78.69
233.009	89.69
233.243	84.69
233.477	85.69
233.711	83.69
233.945	73.69
234.179	74.69
234.413	87.69
234.647	81.69
234.881	78.69
235.115	74.69
235.349	83.69
235.583	83.69
235.817	86.69
236.051	81.69
236.285	85.69
236.519	54.69
236.753	74.69
236.987	63.69
237.221	79.69
237.455	75.69
237.689	80.69
237.922	74.69
238.156	77.69
238.39	85.69
238.624	74.69
238.858	74.69
239.091	83.69
239.325	84.69
239.559	73.69
239.793	68.69
240.027	81.69
240.26	84.69
240.494	73.69
240.728	58.69
240.961	74.69
241.195	76.69
241.429	68.69
241.662	67.69
241.896	71.69
242.13	66.69
242.363	75.69
242.597	68.69
242.83	76.69
243.064	73.69
243.298	63.69
243.531	82.69
243.765	74.69
243.998	81.69
244.232	83.69
244.465	83.69
244.699	66.69
244.932	79.69
245.166	66.69
245.399	68.69
245.633	82.69
245.866	81.69
246.099	73.69
246.333	89.69
246.566	83.69
246.8	77.69
247.033	66.69
247.266	82.69
247.5	80.69
247.733	75.69
247.966	85.69
248.2	79.69
248.433	85.69
248.666	87.69
248.899	75.69
249.133	90.69
249.366	113.69
249.599	98.69
249.832	82.69
250.066	101.69
250.299	88.69
250.532	76.69
250.765	85.69
250.998	87.69
251.231	83.69
251.465	69.69
251.698	67.69
251.931	79.69
252.164	63.69
252.397	76.69
252.63	95.69
252.863	79.69
253.096	69.69
253.329	79.69
253.562	89.69
253.795	84.69
254.028	76.69
254.261	84.69
254.494	75.69
254.727	79.69
254.96	74.69
255.193	67.69
255.426	81.69
255.659	70.69
255.892	83.69
256.124	70.69
256.357	79.69
256.59	93.69
256.823	75.69
257.056	92.69
257.289	83.69
257.521	90.69
257.754	97.69
257.987	81.69
258.22	79.69
258.452	83.69
258.685	87.69
258.918	85.69
259.151	87.69
259.383	79.69
259.616	68.69
259.849	85.69
260.081	73.69
260.314	86.69
260.547	83.69
260.779	79.69
261.012	89.69
261.244	85.69
261.477	83.69
261.71	92.69
261.942	99.69
262.175	106.69
262.407	86.69
262.64	77.69
262.872	73.69
263.105	72.69
263.337	86.69
263.57	86.69
263.802	83.69
264.035	85.69
264.267	68.69
264.499	85.69
264.732	81.69
264.964	90.69
265.197	85.69
265.429	79.69
265.661	76.69
265.894	97.69
266.126	68.69
266.358	74.69
266.591	82.69
266.823	88.69
267.055	85.69
267.287	88.69
267.52	81.69
267.752	83.69
267.984	88.69
268.216	77.69
268.448	71.69
268.681	83.69
268.913	81.69
269.145	86.69
269.377	75.69
269.609	91.69
269.841	74.69
270.073	77.69
270.306	87.69
270.538	76.69
270.77	97.69
271.002	84.69
271.234	75.69
271.466	83.69
271.698	73.69
271.93	79.69
272.162	85.69
272.394	95.69
272.626	88.69
272.858	88.69
273.09	93.69
273.322	86.69
273.553	83.69
273.785	71.69
274.017	91.69
274.249	87.69
274.481	87.69
274.713	93.69
274.945	82.69
275.176	83.69
275.408	91.69
275.64	85.69
275.872	77.69
276.104	87.69
276.335	79.69
276.567	87.69
276.799	93.69
277.031	104.69
277.262	103.69
277.494	82.69
277.726	81.69
277.957	88.69
278.189	78.69
278.421	81.69
278.652	87.69
278.884	83.69
279.115	83.69
279.347	81.69
279.579	83.69
279.81	69.69
280.042	85.69
280.273	86.69
280.505	93.69
280.736	83.69
280.968	89.69
281.199	82.69
281.431	73.69
281.662	79.69
281.894	84.69
282.125	87.69
282.356	111.69
282.588	128.69
282.819	96.69
283.051	92.69
283.282	80.69
283.513	82.69
283.745	79.69
283.976	77.69
284.207	92.69
284.439	87.69
284.67	91.69
284.901	83.69
285.132	95.69
285.364	80.69
285.595	79.69
285.826	88.69
286.057	87.69
286.288	66.69
286.52	91.69
286.751	97.69
286.982	90.69
287.213	87.69
287.444	91.69
287.675	85.69
287.906	84.69
288.138	105.69
288.369	85.69
288.6	67.69
288.831	93.69
289.062	92.69
289.293	81.69
289.524	104.69
289.755	91.69
289.986	92.69
290.217	98.69
290.448	98.69
290.679	97.69
290.91	91.69
291.141	86.69
291.371	104.69
291.602	83.69
291.833	84.69
292.064	82.69
292.295	85.69
292.526	76.69
292.757	91.69
292.987	89.69
293.218	83.69
293.449	83.69
293.68	84.69
293.91	89.69
294.141	87.69
294.372	84.69
294.603	93.69
294.833	86.69
295.064	89.69
295.295	98.69
295.525	93.69
295.756	101.69
295.987	100.69
296.217	130.69
296.448	109.69
296.679	86.69
296.909	98.69
297.14	101.69
297.37	89.69
297.601	71.69
297.831	85.69
298.062	99.69
298.292	95.69
298.523	86.69
298.753	74.69
298.984	87.69
299.214	97.69
299.445	89.69
299.675	91.69
299.905	80.69
300.136	83.69
300.366	83.69
300.597	81.69
300.827	71.69
301.057	104.69
301.288	106.69
301.518	91.69
301.748	99.69
301.979	99.69
302.209	92.69
302.439	76.69
302.669	85.69
302.9	84.69
303.13	86.69
303.36	83.69
303.59	88.69
303.82	97.69
304.051	81.69
304.281	92.69
304.511	88.69
304.741	93.69
304.971	77.69
305.201	98.69
305.431	83.69
305.661	87.69
305.891	87.69
306.121	80.69
306.352	106.69
306.582	96.69
306.812	85.69
307.042	88.69
307.272	105.69
307.502	100.69
307.731	90.69
307.961	96.69
308.191	89.69
308.421	91.69
308.651	85.69
308.881	83.69
309.111	87.69
309.341	89.69
309.571	93.69
309.8	97.69
310.03	87.69
310.26	103.69
310.49	90.69
310.72	104.69
310.949	101.69
311.179	93.69
311.409	83.69
311.639	99.69
311.868	91.69
312.098	100.69
312.328	92.69
312.557	89.69
312.787	98.69
313.017	96.69
313.246	89.69
313.476	85.69
313.706	92.69
313.935	92.69
314.165	98.69
314.394	103.69
314.624	96.69
314.853	96.69
315.083	101.69
315.312	99.69
315.542	90.69
315.771	91.69
316.001	95.69
316.23	91.69
316.46	94.69
316.689	80.69
316.919	95.69
317.148	83.69
317.377	92.69
317.607	89.69
317.836	98.69
318.065	87.69
318.295	83.69
318.524	81.69
318.753	90.69
318.983	95.69
319.212	89.69
319.441	92.69
319.67	103.69
319.9	83.69
320.129	91.69
320.358	89.69
320.587	81.69
320.816	89.69
321.046	99.69
321.275	90.69
321.504	92.69
321.733	98.69
321.962	95.69
322.191	103.69
322.42	103.69
322.649	84.69
322.878	107.69
323.108	110.69
323.337	124.69
323.566	119.69
323.795	139.69
324.024	184.69
324.253	313.69
324.482	659.69
324.71	1354.69
324.939	1708.69
325.168	635.69
325.397	212.69
325.626	151.69
325.855	128.69
326.084	113.69
326.313	124.69
326.542	125.69
326.77	187.69
326.999	389.69
327.228	755.69
327.457	1340.69
327.686	1071.69
327.914	296.69
328.143	167.69
328.372	132.69
328.6	113.69
328.829	105.69
329.058	131.69
329.287	108.69
329.515	116.69
329.744	105.69
329.972	109.69
330.201	117.69
330.43	130.69
330.658	120.69
330.887	108.69
331.115	121.69
331.344	115.69
331.572	103.69
331.801	105.69
332.03	101.69
332.258	103.69
332.486	113.69
332.715	88.69
332.943	88.69
333.172	98.69
333.4	91.69
333.629	100.69
333.857	104.69
334.085	118.69
334.314	123.69
334.542	132.69
334.771	135.69
334.999	101.69
335.227	80.69
335.455	88.69
335.684	90.69
335.912	100.69
336.14	121.69
336.369	94.69
336.597	91.69
336.825	95.69
337.053	95.69
337.281	87.69
337.51	87.69
337.738	93.69
337.966	86.69
338.194	93.69
338.422	92.69
338.65	81.69
338.878	91.69
339.106	97.69
339.334	96.69
339.562	89.69
339.79	101.69
340.018	99.69
340.246	96.69
340.474	89.69
340.702	81.69
340.93	106.69
341.158	87.69
341.386	102.69
341.614	99.69
341.842	101.69
342.07	89.69
342.298	93.69
342.526	93.69
342.754	87.69
342.981	83.69
343.209	103.69
343.437	87.69
343.665	100.69
343.893	77.69
344.12	80.69
344.348	88.69
344.576	89.69
344.804	84.69
345.031	97.69
345.259	88.69
345.487	84.69
345.714	93.69
345.942	103.69
346.17	94.69
346.397	82.69
346.625	91.69
346.853	92.69
347.08	98.69
347.308	100.69
347.535	107.69
347.763	106.69
347.99	92.69
348.218	94.69
348.445	99.69
348.673	91.69
348.9	98.69
349.128	91.69
349.355	92.69
349.583	96.69
349.81	88.69
350.037	88.69
350.265	102.69
350.492	89.69
350.72	88.69
350.947	104.69
351.174	106.69
351.402	107.69
351.629	103.69
351.856	108.69
352.083	95.69
352.311	92.69
352.538	108.69
352.765	113.69
352.992	96.69
353.22	117.69
353.447	99.69
353.674	93.69
353.901	106.69
354.128	96.69
354.355	99.69
354.583	99.69
354.81	114.69
355.037	105.69
355.264	107.69
355.491	100.69
355.718	110.69
355.945	102.69
356.172	89.69
356.399	103.69
356.626	91.69
356.853	85.69
357.08	96.69
357.307	106.69
357.534	79.69
357.761	113.69
357.988	101.69
358.215	119.69
358.441	99.69
358.668	104.69
358.895	81.69
359.122	91.69
359.349	89.69
359.576	88.69
359.802	95.69
360.029	108.69
360.256	102.69
360.483	92.69
360.709	95.69
360.936	95.69
361.163	91.69
361.39	98.69
361.616	105.69
361.843	108.69
362.07	93.69
362.296	96.69
362.523	85.69
362.749	93.69
362.976	94.69
363.203	92.69
363.429	102.69
363.656	88.69
363.882	96.69
364.109	102.69
364.335	101.69
364.562	95.69
364.788	96.69
365.015	85.69
365.241	87.69
365.468	100.69
365.694	111.69
365.92	97.69
366.147	92.69
366.373	106.69
366.599	84.69
366.826	73.69
367.052	87.69
367.278	112.69
367.505	83.69
367.731	98.69
367.957	87.69
368.184	93.69
368.41	84.69
368.636	105.69
368.862	92.69
369.089	97.69
369.315	95.69
369.541	97.69
369.767	88.69
369.993	96.69
370.219	94.69
370.445	96.69
370.672	104.69
370.898	81.69
371.124	91.69
371.35	96.69
371.576	93.69
371.802	91.69
372.028	94.69
372.254	86.69
372.48	87.69
372.706	90.69
372.932	93.69
373.158	104.69
373.384	100.69
373.61	97.69
373.835	98.69
374.061	79.69
374.287	99.69
374.513	99.69
374.739	97.69
374.965	89.69
375.191	94.69
375.416	92.69
375.642	97.69
375.868	96.69
376.094	91.69
376.319	79.69
376.545	91.69
376.771	97.69
376.997	84.69
377.222	92.69
377.448	91.69
377.674	96.69
377.899	90.69
378.125	104.69
378.35	109.69
378.576	95.69
378.802	96.69
379.027	90.69
379.253	95.69
379.478	91.69
379.704	95.69
379.929	96.69
380.155	100.69
380.38	107.69
380.606	109.69
380.831	105.69
381.057	100.69
381.282	109.69
381.507	95.69
381.733	105.69
381.958	98.69
382.184	107.69
382.409	109.69
382.634	107.69
382.86	117.69
383.085	109.69
383.31	106.69
383.535	96.69
383.761	122.69
383.986	115.69
384.211	108.69
384.436	103.69
384.662	115.69
384.887	118.69
385.112	107.69
385.337	116.69
385.562	127.69
385.787	118.69
386.013	130.69
386.238	135.69
386.463	120.69
386.688	120.69
386.913	127.69
387.138	147.69
387.363	125.69
387.588	111.69
387.813	121.69
388.038	135.69
388.263	138.69
388.488	132.69
388.713	115.69
388.938	91.69
389.163	105.69
389.387	95.69
389.612	84.69
389.837	71.69
390.062	95.69
390.287	95.69
390.512	102.69
390.736	75.69
390.961	92.69
391.186	84.69
391.411	96.69
391.636	96.69
391.86	93.69
392.085	76.69
392.31	107.69
392.534	75.69
392.759	87.69
392.984	109.69
393.208	136.69
393.433	172.69
393.658	150.69
393.882	96.69
394.107	89.69
394.331	93.69
394.556	79.69
394.78	91.69
395.005	86.69
395.229	88.69
395.454	82.69
395.678	109.69
395.903	93.69
396.127	105.69
396.352	103.69
396.576	104.69
396.801	122.69
397.025	132.69
397.249	90.69
397.474	107.69
397.698	94.69
397.922	83.69
398.147	75.69
398.371	77.69
398.595	90.69
398.82	92.69
399.044	100.69
399.268	97.69
399.492	87.69
399.717	87.69
399.941	98.69
400.165	82.69
400.389	94.69
400.613	91.69
400.837	83.69
401.062	86.69
401.286	87.69
401.51	96.69
401.734	79.69
401.958	89.69
402.182	107.69
402.406	126.69
402.63	107.69
402.854	96.69
403.078	95.69
403.302	77.69
403.526	79.69
403.75	72.69
403.974	100.69
404.198	85.69
404.422	89.69
404.645	94.69
404.869	80.69
405.093	103.69
405.317	87.69
405.541	95.69
405.765	103.69
405.988	106.69
406.212	134.69
406.436	189.69
406.66	129.69
406.883	94.69
407.107	82.69
407.331	98.69
407.555	101.69
407.778	83.69
408.002	80.69
408.226	91.69
408.449	91.69
408.673	108.69
408.896	76.69
409.12	92.69
409.344	100.69
409.567	99.69
409.791	97.69
410.014	95.69
410.238	91.69
410.461	102.69
410.685	89.69
410.908	88.69
411.132	109.69
411.355	101.69
411.578	101.69
411.802	94.69
412.025	83.69
412.249	95.69
412.472	94.69
412.695	92.69
412.919	91.69
413.142	96.69
413.365	91.69
413.589	82.69
413.812	88.69
414.035	88.69
414.258	112.69
414.482	104.69
414.705	92.69
414.928	98.69
415.151	101.69
415.374	86.69
415.597	96.69
415.821	88.69
416.044	79.69
416.267	84.69
416.49	83.69
416.713	89.69
416.936	83.69
417.159	89.69
417.382	79.69
417.605	105.69
417.828	103.69
418.051	97.69
418.274	83.69
418.497	97.69
418.72	77.69
418.943	95.69
419.166	99.69
419.389	99.69
419.611	87.69
419.834	86.69
420.057	90.69
420.28	82.69
420.503	88.69
420.726	89.69
420.948	72.69
421.171	76.69
421.394	82.69
421.617	98.69
421.839	96.69
422.062	100.69
422.285	91.69
422.507	96.69
422.73	107.69
422.953	88.69
423.175	91.69
423.398	79.69
423.621	93.69
423.843	85.69
424.066	81.69
424.288	84.69
424.511	82.69
424.733	96.69
424.956	100.69
425.178	98.69
425.401	96.69
425.623	96.69
425.846	88.69
426.068	84.69
426.291	88.69
426.513	104.69
426.735	98.69
426.958	101.69
427.18	91.69
427.402	120.69
427.625	149.69
427.847	109.69
428.069	103.69
428.292	98.69
428.514	99.69
428.736	81.69
428.958	80.69
429.181	83.69
429.403	89.69
429.625	90.69
429.847	89.69
430.069	98.69
430.292	91.69
430.514	77.69
430.736	93.69
430.958	104.69
431.18	88.69
431.402	79.69
431.624	76.69
431.846	104.69
432.068	84.69
432.29	90.69
432.512	90.69
432.734	95.69
432.956	88.69
433.178	85.69
433.4	93.69
433.622	95.69
433.844	87.69
434.066	98.69
434.287	100.69
434.509	90.69
434.731	87.69
434.953	81.69
435.175	81.69
435.397	82.69
435.618	81.69
435.84	95.69
436.062	108.69
436.284	103.69
436.505	92.69
436.727	106.69
436.949	93.69
437.17	89.69
437.392	86.69
437.614	88.69
437.835	101.69
438.057	110.69
438.278	93.69
438.5	91.69
438.721	116.69
438.943	89.69
439.165	83.69
439.386	80.69
439.608	92.69
439.829	106.69
440.05	100.69
440.272	106.69
440.493	91.69
440.715	89.69
440.936	93.69
441.158	93.69
441.379	90.69
441.6	87.69
441.822	95.69
442.043	88.69
442.264	93.69
442.486	103.69
442.707	107.69
442.928	101.69
443.149	122.69
443.371	104.69
443.592	103.69
443.813	92.69
444.034	96.69
444.255	83.69
444.476	91.69
444.698	91.69
444.919	93.69
445.14	146.69
445.361	112.69
445.582	121.69
445.803	119.69
446.024	114.69
446.245	125.69
446.466	108.69
446.687	97.69
446.908	84.69
447.129	83.69
447.35	86.69
447.571	87.69
447.792	89.69
448.013	81.69
448.234	77.69
448.455	90.69
448.675	102.69
448.896	102.69
449.117	96.69
449.338	102.69
449.559	109.69
449.779	119.69
450	99.69
450.221	81.69
450.442	91.69
450.662	98.69
450.883	113.69
451.104	88.69
451.324	91.69
451.545	84.69
451.766	81.69
451.986	84.69
452.207	92.69
452.428	92.69
452.648	96.69
452.869	107.69
453.089	96.69
453.31	93.69
453.53	74.69
453.751	87.69
453.971	91.69
454.192	102.69
454.412	99.69
454.633	83.69
454.853	71.69
455.073	93.69
455.294	88.69
455.514	93.69
455.734	86.69
455.955	65.69
456.175	89.69
456.395	81.69
456.616	102.69
456.836	93.69
457.056	68.69
457.276	85.69
457.497	76.69
457.717	73.69
457.937	87.69
458.157	74.69
458.377	81.69
458.598	107.69
458.818	117.69
459.038	125.69
459.258	96.69
459.478	96.69
459.698	82.69
459.918	92.69
460.138	95.69
460.358	79.69
460.578	91.69
460.798	71.69
461.018	88.69
461.238	90.69
461.458	84.69
461.678	88.69
461.898	103.69
462.118	81.69
462.338	84.69
462.558	100.69
462.777	91.69
462.997	83.69
463.217	84.69
463.437	87.69
463.657	89.69
463.876	89.69
464.096	95.69
464.316	88.69
464.536	93.69
464.755	99.69
464.975	97.69
465.195	137.69
465.414	130.69
465.634	101.69
465.854	85.69
466.073	81.69
466.293	89.69
466.512	83.69
466.732	77.69
466.951	96.69
467.171	89.69
467.391	109.69
467.61	95.69
467.829	89.69
468.049	109.69
468.268	104.69
468.488	94.69
468.707	83.69
468.927	77.69
469.146	94.69
469.365	87.69
469.585	83.69
469.804	69.69
470.023	87.69
470.243	81.69
470.462	83.69
470.681	113.69
470.901	94.69
471.12	89.69
471.339	75.69
471.558	90.69
471.777	99.69
471.997	77.69
472.216	114.69
472.435	149.69
472.654	89.69
472.873	85.69
473.092	90.69
473.311	93.69
473.53	84.69
473.749	101.69
473.968	91.69
474.187	95.69
474.406	83.69
474.625	79.69
474.844	84.69
475.063	69.69
475.282	97.69
475.501	74.69
475.72	83.69
475.939	76.69
476.158	76.69
476.377	74.69
476.596	74.69
476.814	91.69
477.033	92.69
477.252	89.69
477.471	83.69
477.69	98.69
477.908	85.69
478.127	88.69
478.346	79.69
478.564	94.69
478.783	74.69
479.002	95.69
479.22	88.69
479.439	100.69
479.658	87.69
479.876	91.69
480.095	88.69
480.313	93.69
480.532	89.69
480.751	92.69
480.969	124.69
481.188	190.69
481.406	181.69
481.624	85.69
481.843	105.69
482.061	97.69
482.28	84.69
482.498	91.69
482.717	76.69
482.935	76.69
483.153	95.69
483.372	86.69
483.59	92.69
483.808	99.69
484.027	91.69
484.245	81.69
484.463	106.69
484.681	89.69
484.9	85.69
485.118	78.69
485.336	91.69
485.554	100.69
485.772	92.69
485.99	115.69
486.209	94.69
486.427	111.69
486.645	97.69
486.863	119.69
487.081	100.69
487.299	92.69
487.517	85.69
487.735	94.69
487.953	87.69
488.171	94.69
488.389	83.69
488.607	94.69
488.825	89.69
489.043	95.69
489.261	89.69
489.479	109.69
489.696	103.69
489.914	93.69
490.132	82.69
490.35	97.69
490.568	83.69
490.786	88.69
491.003	85.69
491.221	82.69
491.439	87.69
491.657	90.69
491.874	96.69
492.092	98.69
492.31	103.69
492.527	75.69
492.745	80.69
492.963	92.69
493.18	110.69
493.398	91.69
493.615	101.69
493.833	91.69
494.05	102.69
494.268	93.69
494.485	90.69
494.703	97.69
494.92	95.69
495.138	94.69
495.355	95.69
495.573	93.69
495.79	104.69
496.008	84.69
496.225	91.69
496.442	95.69
496.66	113.69
496.877	93.69
497.094	86.69
497.312	99.69
497.529	84.69
497.746	85.69
497.963	87.69
498.181	85.69
498.398	91.69
498.615	84.69
498.832	101.69
499.049	93.69
499.267	83.69
499.484	92.69
499.701	90.69
499.918	79.69
500.135	91.69
500.352	72.69
500.569	79.69
500.786	102.69
501.003	98.69
501.22	88.69
501.437	86.69
501.654	82.69
501.871	87.69
502.088	101.69
502.305	107.69
502.522	84.69
502.739	93.69
502.956	96.69
503.172	90.69
503.389	95.69
503.606	99.69
503.823	83.69
504.04	71.69
504.256	92.69
504.473	93.69
504.69	89.69
504.907	101.69
505.123	76.69
505.34	79.69
505.557	99.69
505.773	87.69
505.99	88.69
506.207	84.69
506.423	92.69
506.64	85.69
506.856	99.69
507.073	84.69
507.289	75.69
507.506	89.69
507.722	104.69
507.939	102.69
508.155	87.69
508.372	95.69
508.588	96.69
508.805	95.69
509.021	91.69
509.238	98.69
509.454	91.69
509.67	106.69
509.887	97.69
510.103	118.69
510.319	177.69
510.536	567.69
510.752	1751.69
510.968	522.69
511.184	120.69
511.401	102.69
511.617	100.69
511.833	100.69
512.049	91.69
512.265	87.69
512.481	92.69
512.698	88.69
512.914	61.69
513.13	97.69
513.346	83.69
513.562	89.69
513.778	102.69
513.994	74.69
514.21	96.69
514.426	100.69
514.642	117.69
514.858	125.69
515.074	134.69
515.29	346.69
515.506	1049.69
515.721	399.69
