Data from Circ_1983_H10_HRD10591_00080.txt Node
Date: Wed Jan 03 12:27:00 EST 2024
User: Yrep
Spectrometer: HR+D1059
Trigger mode: 1
Integration Time (sec): 1.000000E-1
Scans to average: 1
Electric dark correction enabled: true
Nonlinearity correction enabled: false
Boxcar width: 0
XAxis mode: Wavelengths
Number of Pixels in Spectrum: 2048
>>>>>Begin Spectral Data<<<<<
223.165	-7.19
223.4	-7.19
223.635	-7.19
223.869	-20.19
224.104	-22.19
224.338	-1.19
224.573	-8.19
224.808	-14.19
225.042	-20.19
225.277	-7.19
225.511	-7.19
225.746	-4.19
225.98	8.81
226.215	16.81
226.449	11.81
226.683	10.81
226.918	30.81
227.152	32.81
227.387	27.81
227.621	36.81
227.856	41.81
228.09	52.81
228.324	44.81
228.559	71.81
228.793	162.81
229.027	442.81
229.262	478.81
229.496	568.81
229.73	724.81
229.964	726.81
230.199	526.81
230.433	454.81
230.667	464.81
230.901	467.81
231.136	432.81
231.37	454.81
231.604	442.81
231.838	452.81
232.072	460.81
232.306	464.81
232.541	484.81
232.775	485.81
233.009	481.81
233.243	489.81
233.477	493.81
233.711	500.81
233.945	505.81
234.179	511.81
234.413	532.81
234.647	524.81
234.881	518.81
235.115	524.81
235.349	546.81
235.583	577.81
235.817	613.81
236.051	608.81
236.285	603.81
236.519	608.81
236.753	676.81
236.987	853.81
237.221	1256.81
237.455	1350.81
237.689	810.81
237.922	718.81
238.156	708.81
238.39	668.81
238.624	658.81
238.858	656.81
239.091	661.81
239.325	666.81
239.559	681.81
239.793	710.81
240.027	766.81
240.26	886.81
240.494	931.81
240.728	952.81
240.961	869.81
241.195	816.81
241.429	800.81
241.662	786.81
241.896	809.81
242.13	793.81
242.363	816.81
242.597	845.81
242.83	863.81
243.064	862.81
243.298	882.81
243.531	856.81
243.765	885.81
243.998	904.81
244.232	883.81
244.465	894.81
244.699	930.81
244.932	947.81
245.166	908.81
245.399	952.81
245.633	914.81
245.866	948.81
246.099	962.81
246.333	973.81
246.566	1036.81
246.8	1017.81
247.033	1064.81
247.266	1079.81
247.5	1142.81
247.733	1164.81
247.966	1172.81
248.2	1159.81
248.433	1189.81
248.666	1276.81
248.899	1366.81
249.133	1452.81
249.366	1468.81
249.599	1367.81
249.832	1332.81
250.066	1396.81
250.299	1653.81
250.532	2003.81
250.765	2100.81
250.998	1993.81
251.231	1813.81
251.465	1586.81
251.698	1536.81
251.931	1470.81
252.164	1465.81
252.397	1505.81
252.63	1503.81
252.863	1595.81
253.096	1678.81
253.329	1765.81
253.562	1669.81
253.795	1621.81
254.028	1598.81
254.261	1673.81
254.494	1832.81
254.727	2104.81
254.96	2180.81
255.193	2019.81
255.426	1948.81
255.659	2046.81
255.892	2574.81
256.124	3138.81
256.357	2875.81
256.59	2362.81
256.823	2037.81
257.056	1820.81
257.289	1778.81
257.521	1751.81
257.754	1687.81
257.987	1683.81
258.22	1652.81
258.452	1652.81
258.685	1606.81
258.918	1639.81
259.151	1712.81
259.383	1714.81
259.616	1721.81
259.849	1781.81
260.081	1965.81
260.314	2117.81
260.547	2003.81
260.779	1852.81
261.012	1823.81
261.244	1764.81
261.477	1740.81
261.71	1757.81
261.942	1736.81
262.175	1775.81
262.407	1714.81
262.64	1670.81
262.872	1734.81
263.105	1626.81
263.337	1716.81
263.57	1702.81
263.802	1754.81
264.035	1735.81
264.267	1709.81
264.499	1729.81
264.732	1712.81
264.964	1765.81
265.197	1767.81
265.429	1768.81
265.661	1792.81
265.894	1794.81
266.126	1810.81
266.358	1872.81
266.591	1828.81
266.823	1921.81
267.055	1893.81
267.287	1935.81
267.52	1902.81
267.752	1841.81
267.984	1905.81
268.216	1970.81
268.448	1948.81
268.681	2007.81
268.913	2132.81
269.145	2319.81
269.377	2377.81
269.609	2302.81
269.841	2244.81
270.073	2376.81
270.306	2608.81
270.538	2754.81
270.77	2622.81
271.002	2447.81
271.234	2429.81
271.466	2527.81
271.698	2633.81
271.93	2666.81
272.162	2718.81
272.394	2615.81
272.626	2458.81
272.858	2389.81
273.09	2290.81
273.322	2254.81
273.553	2247.81
273.785	2266.81
274.017	2270.81
274.249	2313.81
274.481	2291.81
274.713	2313.81
274.945	2349.81
275.176	2300.81
275.408	2328.81
275.64	2332.81
275.872	2337.81
276.104	2378.81
276.335	2362.81
276.567	2466.81
276.799	2647.81
277.031	2813.81
277.262	2945.81
277.494	2810.81
277.726	2685.81
277.957	2540.81
278.189	2537.81
278.421	2497.81
278.652	2480.81
278.884	2443.81
279.115	2472.81
279.347	2511.81
279.579	2497.81
279.81	2493.81
280.042	2556.81
280.273	2629.81
280.505	2581.81
280.736	2577.81
280.968	2527.81
281.199	2502.81
281.431	2564.81
281.662	2580.81
281.894	2567.81
282.125	2613.81
282.356	2737.81
282.588	2785.81
282.819	2718.81
283.051	2661.81
283.282	2604.81
283.513	2653.81
283.745	2706.81
283.976	2732.81
284.207	2722.81
284.439	2688.81
284.67	2670.81
284.901	2679.81
285.132	2705.81
285.364	2665.81
285.595	2735.81
285.826	2735.81
286.057	2752.81
286.288	2747.81
286.52	2800.81
286.751	2785.81
286.982	2789.81
287.213	2840.81
287.444	2874.81
287.675	2962.81
287.906	2938.81
288.138	2975.81
288.369	2970.81
288.6	2941.81
288.831	2940.81
289.062	2932.81
289.293	2960.81
289.524	2947.81
289.755	2933.81
289.986	2888.81
290.217	2889.81
290.448	2867.81
290.679	2887.81
290.91	2893.81
291.141	2934.81
291.371	2918.81
291.602	2888.81
291.833	2854.81
292.064	2902.81
292.295	2920.81
292.526	2911.81
292.757	2903.81
292.987	2874.81
293.218	2875.81
293.449	2856.81
293.68	2910.81
293.91	2923.81
294.141	2886.81
294.372	2858.81
294.603	2924.81
294.833	2965.81
295.064	2973.81
295.295	2996.81
295.525	2968.81
295.756	2998.81
295.987	3079.81
296.217	3171.81
296.448	3168.81
296.679	3061.81
296.909	2996.81
297.14	3039.81
297.37	3077.81
297.601	3134.81
297.831	3097.81
298.062	3110.81
298.292	3145.81
298.523	3200.81
298.753	3228.81
298.984	3149.81
299.214	3155.81
299.445	3216.81
299.675	3128.81
299.905	3230.81
300.136	3178.81
300.366	3251.81
300.597	3222.81
300.827	3338.81
301.057	3432.81
301.288	3416.81
301.518	3366.81
301.748	3402.81
301.979	3494.81
302.209	3454.81
302.439	3431.81
302.669	3388.81
302.9	3414.81
303.13	3358.81
303.36	3407.81
303.59	3451.81
303.82	3456.81
304.051	3471.81
304.281	3453.81
304.511	3380.81
304.741	3422.81
304.971	3405.81
305.201	3388.81
305.431	3347.81
305.661	3344.81
305.891	3352.81
306.121	3324.81
306.352	3425.81
306.582	3337.81
306.812	3310.81
307.042	3396.81
307.272	3365.81
307.502	3457.81
307.731	3411.81
307.961	3394.81
308.191	3350.81
308.421	3348.81
308.651	3380.81
308.881	3361.81
309.111	3464.81
309.341	3417.81
309.571	3483.81
309.8	3523.81
310.03	3599.81
310.26	3664.81
310.49	3592.81
310.72	3707.81
310.949	3674.81
311.179	3726.81
311.409	3661.81
311.639	3669.81
311.868	3650.81
312.098	3655.81
312.328	3779.81
312.557	3868.81
312.787	3942.81
313.017	3898.81
313.246	3825.81
313.476	3703.81
313.706	3820.81
313.935	3909.81
314.165	3963.81
314.394	3943.81
314.624	3960.81
314.853	3914.81
315.083	3832.81
315.312	3760.81
315.542	3798.81
315.771	3795.81
316.001	3712.81
316.23	3763.81
316.46	3721.81
316.689	3764.81
316.919	3812.81
317.148	3862.81
317.377	3839.81
317.607	3800.81
317.836	3786.81
318.065	3727.81
318.295	3733.81
318.524	3761.81
318.753	3810.81
318.983	3776.81
319.212	3717.81
319.441	3836.81
319.67	3782.81
319.9	3760.81
320.129	3744.81
320.358	3759.81
320.587	3796.81
320.816	3868.81
321.046	3886.81
321.275	3913.81
321.504	3987.81
321.733	3905.81
321.962	3976.81
322.191	4051.81
322.42	4163.81
322.649	4213.81
322.878	4204.81
323.108	4304.81
323.337	4497.81
323.566	4610.81
323.795	4903.81
324.024	5349.81
324.253	6689.81
324.482	9711.81
324.71	14248.81
324.939	15626.81
325.168	10790.81
325.397	6141.81
325.626	5128.81
325.855	4763.81
326.084	4805.81
326.313	4832.81
326.542	4911.81
326.77	5426.81
326.999	6616.81
327.228	9452.81
327.457	13383.81
327.686	12503.81
327.914	7206.81
328.143	6322.81
328.372	6269.81
328.6	5705.81
328.829	5564.81
329.058	5680.81
329.287	5668.81
329.515	5517.81
329.744	5693.81
329.972	6376.81
330.201	7233.81
330.43	7671.81
330.658	6694.81
330.887	6272.81
331.115	5740.81
331.344	5391.81
331.572	5279.81
331.801	5288.81
332.03	5270.81
332.258	5302.81
332.486	5398.81
332.715	5493.81
332.943	5764.81
333.172	5879.81
333.4	6169.81
333.629	6470.81
333.857	6873.81
334.085	7521.81
334.314	8452.81
334.542	9745.81
334.771	9186.81
334.999	6950.81
335.227	6176.81
335.455	5876.81
335.684	5592.81
335.912	5423.81
336.14	5296.81
336.369	5229.81
336.597	5236.81
336.825	5172.81
337.053	5147.81
337.281	4972.81
337.51	4912.81
337.738	4935.81
337.966	4868.81
338.194	4814.81
338.422	4757.81
338.65	4737.81
338.878	4693.81
339.106	4692.81
339.334	4635.81
339.562	4552.81
339.79	4449.81
340.018	4522.81
340.246	4489.81
340.474	4544.81
340.702	4550.81
340.93	4502.81
341.158	4517.81
341.386	4485.81
341.614	4482.81
341.842	4493.81
342.07	4369.81
342.298	4365.81
342.526	4365.81
342.754	4361.81
342.981	4434.81
343.209	4584.81
343.437	4760.81
343.665	4979.81
343.893	5283.81
344.12	5192.81
344.348	5042.81
344.576	4877.81
344.804	4754.81
345.031	4654.81
345.259	4649.81
345.487	4520.81
345.714	4386.81
345.942	4344.81
346.17	4286.81
346.397	4237.81
346.625	4245.81
346.853	4244.81
347.08	4260.81
347.308	4295.81
347.535	4375.81
347.763	4394.81
347.99	4278.81
348.218	4330.81
348.445	4342.81
348.673	4272.81
348.9	4226.81
349.128	4194.81
349.355	4124.81
349.583	4185.81
349.81	4132.81
350.037	4149.81
350.265	4088.81
350.492	4119.81
350.72	4159.81
350.947	4183.81
351.174	4208.81
351.402	4280.81
351.629	4200.81
351.856	4225.81
352.083	4245.81
352.311	4264.81
352.538	4278.81
352.765	4208.81
352.992	4154.81
353.22	4111.81
353.447	4073.81
353.674	4034.81
353.901	4022.81
354.128	4085.81
354.355	4042.81
354.583	4077.81
354.81	4065.81
355.037	4060.81
355.264	4033.81
355.491	4021.81
355.718	4065.81
355.945	4048.81
356.172	4017.81
356.399	4045.81
356.626	3998.81
356.853	3986.81
357.08	4017.81
357.307	4023.81
357.534	4048.81
357.761	4038.81
357.988	4058.81
358.215	4096.81
358.441	4070.81
358.668	4096.81
358.895	4077.81
359.122	4123.81
359.349	4179.81
359.576	4304.81
359.802	4469.81
360.029	4540.81
360.256	4544.81
360.483	4439.81
360.709	4245.81
360.936	4262.81
361.163	4277.81
361.39	4272.81
361.616	4200.81
361.843	4228.81
362.07	4230.81
362.296	4233.81
362.523	4221.81
362.749	4258.81
362.976	4207.81
363.203	4165.81
363.429	4118.81
363.656	4219.81
363.882	4128.81
364.109	4160.81
364.335	4085.81
364.562	4092.81
364.788	4101.81
365.015	4160.81
365.241	4104.81
365.468	4095.81
365.694	4178.81
365.92	4164.81
366.147	4126.81
366.373	4121.81
366.599	4162.81
366.826	4032.81
367.052	4052.81
367.278	4108.81
367.505	4215.81
367.731	4217.81
367.957	4123.81
368.184	4224.81
368.41	4306.81
368.636	4334.81
368.862	4310.81
369.089	4263.81
369.315	4227.81
369.541	4228.81
369.767	4241.81
369.993	4254.81
370.219	4292.81
370.445	4256.81
370.672	4311.81
370.898	4355.81
371.124	4347.81
371.35	4418.81
371.576	4370.81
371.802	4402.81
372.028	4302.81
372.254	4348.81
372.48	4451.81
372.706	4544.81
372.932	4618.81
373.158	4554.81
373.384	4516.81
373.61	4388.81
373.835	4433.81
374.061	4472.81
374.287	4470.81
374.513	4633.81
374.739	4654.81
374.965	4846.81
375.191	4856.81
375.416	4726.81
375.642	4607.81
375.868	4570.81
376.094	4489.81
376.319	4456.81
376.545	4449.81
376.771	4437.81
376.997	4398.81
377.222	4370.81
377.448	4359.81
377.674	4382.81
377.899	4382.81
378.125	4365.81
378.35	4343.81
378.576	4386.81
378.802	4319.81
379.027	4382.81
379.253	4335.81
379.478	4348.81
379.704	4366.81
379.929	4378.81
380.155	4381.81
380.38	4378.81
380.606	4409.81
380.831	4384.81
381.057	4400.81
381.282	4439.81
381.507	4443.81
381.733	4487.81
381.958	4492.81
382.184	4546.81
382.409	4578.81
382.634	4667.81
382.86	4676.81
383.085	4665.81
383.31	4749.81
383.535	4792.81
383.761	4896.81
383.986	4925.81
384.211	5035.81
384.436	5160.81
384.662	5218.81
384.887	5205.81
385.112	5228.81
385.337	5353.81
385.562	5388.81
385.787	5304.81
386.013	5388.81
386.238	5399.81
386.463	5340.81
386.688	5391.81
386.913	5204.81
387.138	5187.81
387.363	5264.81
387.588	5194.81
387.813	5265.81
388.038	5256.81
388.263	5241.81
388.488	5343.81
388.713	5276.81
388.938	5210.81
389.163	5206.81
389.387	5218.81
389.612	5118.81
389.837	5236.81
390.062	5103.81
390.287	5140.81
390.512	5129.81
390.736	5252.81
390.961	5404.81
391.186	5438.81
391.411	5533.81
391.636	5664.81
391.86	5873.81
392.085	5942.81
392.31	5795.81
392.534	5689.81
392.759	5542.81
392.984	5559.81
393.208	5443.81
393.433	5536.81
393.658	5423.81
393.882	5456.81
394.107	5495.81
394.331	5500.81
394.556	5524.81
394.78	5554.81
395.005	5688.81
395.229	5637.81
395.454	5785.81
395.678	5917.81
395.903	5880.81
396.127	5996.81
396.352	5830.81
396.576	5539.81
396.801	5552.81
397.025	5708.81
397.249	5838.81
397.474	5918.81
397.698	5921.81
397.922	6016.81
398.147	6110.81
398.371	6271.81
398.595	6442.81
398.82	6775.81
399.044	7262.81
399.268	7894.81
399.492	9193.81
399.717	9785.81
399.941	9514.81
400.165	8808.81
400.389	8122.81
400.613	7394.81
400.837	6984.81
401.062	6786.81
401.286	6652.81
401.51	6608.81
401.734	6648.81
401.958	6813.81
402.182	6767.81
402.406	6999.81
402.63	6953.81
402.854	7165.81
403.078	7273.81
403.302	7348.81
403.526	7464.81
403.75	7546.81
403.974	7586.81
404.198	7614.81
404.422	7758.81
404.645	7769.81
404.869	7935.81
405.093	8381.81
405.317	8840.81
405.541	8721.81
405.765	7917.81
405.988	7572.81
406.212	7714.81
406.436	7794.81
406.66	7891.81
406.883	7882.81
407.107	8435.81
407.331	8935.81
407.555	9464.81
407.778	9126.81
408.002	8303.81
408.226	8018.81
408.449	7990.81
408.673	7815.81
408.896	7829.81
409.12	8025.81
409.344	7636.81
409.567	7233.81
409.791	7248.81
410.014	7192.81
410.238	7150.81
410.461	7170.81
410.685	7208.81
410.908	7282.81
411.132	7440.81
411.355	7503.81
411.578	7117.81
411.802	7020.81
412.025	7185.81
412.249	7540.81
412.472	7952.81
412.695	8454.81
412.919	7839.81
413.142	7415.81
413.365	7138.81
413.589	6979.81
413.812	6752.81
414.035	6695.81
414.258	6701.81
414.482	6683.81
414.705	6714.81
414.928	6688.81
415.151	6633.81
415.374	6612.81
415.597	6465.81
415.821	6446.81
416.044	6510.81
416.267	6521.81
416.49	6382.81
416.713	6364.81
416.936	6444.81
417.159	6590.81
417.382	6638.81
417.605	6649.81
417.828	6746.81
418.051	6864.81
418.274	6648.81
418.497	6511.81
418.72	6714.81
418.943	6663.81
419.166	7137.81
419.389	7565.81
419.611	7477.81
419.834	7303.81
420.057	7336.81
420.28	7474.81
420.503	7294.81
420.726	7168.81
420.948	7177.81
421.171	7288.81
421.394	7288.81
421.617	6714.81
421.839	6850.81
422.062	6828.81
422.285	6982.81
422.507	7588.81
422.73	8030.81
422.953	7449.81
423.175	7013.81
423.398	7115.81
423.621	7166.81
423.843	7404.81
424.066	7264.81
424.288	7228.81
424.511	7482.81
424.733	7805.81
424.956	8148.81
425.178	7704.81
425.401	7882.81
425.623	7663.81
425.846	6855.81
426.068	6708.81
426.291	6550.81
426.513	6547.81
426.735	6692.81
426.958	7100.81
427.18	7779.81
427.402	8950.81
427.625	9125.81
427.847	8132.81
428.069	7855.81
428.292	6929.81
428.514	6316.81
428.736	6046.81
428.958	6142.81
429.181	5895.81
429.403	5833.81
429.625	6065.81
429.847	6313.81
430.069	6812.81
430.292	6381.81
430.514	5908.81
430.736	5912.81
430.958	5788.81
431.18	5770.81
431.402	5797.81
431.624	5805.81
431.846	5829.81
432.068	5893.81
432.29	5919.81
432.512	5856.81
432.734	5902.81
432.956	5835.81
433.178	5878.81
433.4	5826.81
433.622	5864.81
433.844	5906.81
434.066	5926.81
434.287	6019.81
434.509	6279.81
434.731	6371.81
434.953	6504.81
435.175	6640.81
435.397	6785.81
435.618	6562.81
435.84	6933.81
436.062	7702.81
436.284	7611.81
436.505	6486.81
436.727	6242.81
436.949	5924.81
437.17	5917.81
437.392	5851.81
437.614	5966.81
437.835	6247.81
438.057	7152.81
438.278	7780.81
438.5	7618.81
438.721	8543.81
438.943	7454.81
439.165	6396.81
439.386	6239.81
439.608	6263.81
439.829	6299.81
440.05	6633.81
440.272	6900.81
440.493	6298.81
440.715	6137.81
440.936	6124.81
441.158	6184.81
441.379	6357.81
441.6	6611.81
441.822	6877.81
442.043	7319.81
442.264	7874.81
442.486	7548.81
442.707	6900.81
442.928	6699.81
443.149	6896.81
443.371	7064.81
443.592	7556.81
443.813	8474.81
444.034	8487.81
444.255	7432.81
444.476	7422.81
444.698	7606.81
444.919	7732.81
445.14	7409.81
445.361	7259.81
445.582	7328.81
445.803	7863.81
446.024	8376.81
446.245	8042.81
446.466	7268.81
446.687	6449.81
446.908	6180.81
447.129	5835.81
447.35	5720.81
447.571	5620.81
447.792	5547.81
448.013	5650.81
448.234	5766.81
448.455	6449.81
448.675	7522.81
448.896	7956.81
449.117	6515.81
449.338	6818.81
449.559	7981.81
449.779	8084.81
450	6357.81
450.221	5655.81
450.442	5521.81
450.662	5498.81
450.883	5528.81
451.104	5588.81
451.324	5481.81
451.545	5332.81
451.766	5294.81
451.986	5153.81
452.207	5047.81
452.428	5084.81
452.648	5128.81
452.869	5100.81
453.089	5188.81
453.31	5265.81
453.53	5115.81
453.751	5113.81
453.971	5122.81
454.192	5196.81
454.412	4924.81
454.633	4928.81
454.853	4914.81
455.073	4971.81
455.294	5315.81
455.514	5799.81
455.734	5285.81
455.955	4845.81
456.175	4744.81
456.395	4722.81
456.616	4720.81
456.836	4706.81
457.056	4665.81
457.276	4656.81
457.497	4782.81
457.717	4739.81
457.937	4795.81
458.157	4933.81
458.377	5004.81
458.598	5368.81
458.818	5878.81
459.038	6543.81
459.258	6510.81
459.478	5924.81
459.698	5840.81
459.918	5953.81
460.138	6200.81
460.358	6415.81
460.578	6427.81
460.798	6393.81
461.018	6432.81
461.238	6322.81
461.458	6294.81
461.678	6300.81
461.898	6436.81
462.118	6489.81
462.338	6782.81
462.558	7008.81
462.777	7220.81
462.997	7833.81
463.217	8272.81
463.437	8153.81
463.657	7532.81
463.876	7267.81
464.096	7330.81
464.316	7268.81
464.536	7293.81
464.755	7040.81
464.975	6942.81
465.195	6990.81
465.414	6893.81
465.634	6287.81
465.854	5885.81
466.073	5688.81
466.293	5564.81
466.512	5450.81
466.732	5271.81
466.951	5342.81
467.171	5345.81
467.391	5455.81
467.61	5452.81
467.829	5445.81
468.049	5663.81
468.268	5818.81
468.488	5443.81
468.707	5279.81
468.927	5199.81
469.146	5214.81
469.365	5207.81
469.585	5181.81
469.804	5432.81
470.023	5584.81
470.243	5479.81
470.462	5606.81
470.681	5821.81
470.901	5659.81
471.12	5450.81
471.339	5493.81
471.558	5464.81
471.777	5395.81
471.997	5566.81
472.216	6186.81
472.435	7608.81
472.654	6465.81
472.873	5782.81
473.092	5494.81
473.311	5376.81
473.53	5365.81
473.749	5455.81
473.968	5820.81
474.187	6671.81
474.406	6272.81
474.625	5516.81
474.844	5266.81
475.063	5192.81
475.282	5212.81
475.501	5213.81
475.72	5313.81
475.939	5314.81
476.158	5383.81
476.377	5350.81
476.596	5290.81
476.814	5516.81
477.033	5500.81
477.252	5614.81
477.471	5774.81
477.69	5905.81
477.908	5934.81
478.127	6179.81
478.346	6224.81
478.564	6249.81
478.783	6360.81
479.002	6551.81
479.22	6448.81
479.439	6616.81
479.658	6654.81
479.876	6780.81
480.095	7017.81
480.313	7498.81
480.532	7420.81
480.751	7545.81
480.969	8164.81
481.188	10743.81
481.406	10568.81
481.624	8226.81
481.843	7420.81
482.061	6949.81
482.28	6634.81
482.498	6460.81
482.717	6414.81
482.935	6325.81
483.153	6287.81
483.372	6225.81
483.59	6155.81
483.808	6114.81
484.027	6213.81
484.245	6240.81
484.463	6285.81
484.681	6410.81
484.9	6398.81
485.118	6399.81
485.336	6408.81
485.554	6558.81
485.772	6597.81
485.99	6567.81
486.209	6634.81
486.427	6650.81
486.645	6733.81
486.863	6772.81
487.081	6720.81
487.299	6692.81
487.517	6617.81
487.735	6645.81
487.953	6648.81
