Data from Circ_1983_H10_HRD10591_00086.txt Node
Date: Wed Jan 03 12:27:02 EST 2024
User: Yrep
Spectrometer: HR+D1059
Trigger mode: 1
Integration Time (sec): 1.000000E-1
Scans to average: 1
Electric dark correction enabled: true
Nonlinearity correction enabled: false
Boxcar width: 0
XAxis mode: Wavelengths
Number of Pixels in Spectrum: 2048
>>>>>Begin Spectral Data<<<<<
223.165	-24.19
223.4	-24.19
223.635	-24.19
223.869	-23.19
224.104	1.81
224.338	-8.19
224.573	-35.19
224.808	-7.19
225.042	-15.19
225.277	2.81
225.511	-11.19
225.746	-10.19
225.98	-3.19
226.215	16.81
226.449	17.81
226.683	15.81
226.918	38.81
227.152	43.81
227.387	31.81
227.621	41.81
227.856	54.81
228.09	35.81
228.324	40.81
228.559	63.81
228.793	66.81
229.027	51.81
229.262	71.81
229.496	65.81
229.73	86.81
229.964	72.81
230.199	63.81
230.433	66.81
230.667	76.81
230.901	65.81
231.136	87.81
231.37	90.81
231.604	64.81
231.838	81.81
232.072	84.81
232.306	85.81
232.541	89.81
232.775	81.81
233.009	81.81
233.243	73.81
233.477	79.81
233.711	72.81
233.945	91.81
234.179	69.81
234.413	91.81
234.647	85.81
234.881	83.81
235.115	79.81
235.349	86.81
235.583	93.81
235.817	79.81
236.051	81.81
236.285	76.81
236.519	79.81
236.753	75.81
236.987	85.81
237.221	92.81
237.455	81.81
237.689	80.81
237.922	76.81
238.156	91.81
238.39	82.81
238.624	74.81
238.858	75.81
239.091	69.81
239.325	79.81
239.559	80.81
239.793	68.81
240.027	83.81
240.26	92.81
240.494	83.81
240.728	80.81
240.961	82.81
241.195	68.81
241.429	67.81
241.662	92.81
241.896	72.81
242.13	77.81
242.363	74.81
242.597	79.81
242.83	59.81
243.064	95.81
243.298	90.81
243.531	68.81
243.765	79.81
243.998	67.81
244.232	87.81
244.465	79.81
244.699	62.81
244.932	77.81
245.166	79.81
245.399	75.81
245.633	83.81
245.866	93.81
246.099	81.81
246.333	70.81
246.566	69.81
246.8	85.81
247.033	88.81
247.266	71.81
247.5	65.81
247.733	68.81
247.966	84.81
248.2	84.81
248.433	83.81
248.666	77.81
248.899	83.81
249.133	84.81
249.366	87.81
249.599	102.81
249.832	74.81
250.066	75.81
250.299	89.81
250.532	83.81
250.765	62.81
250.998	70.81
251.231	64.81
251.465	71.81
251.698	83.81
251.931	81.81
252.164	72.81
252.397	79.81
252.63	77.81
252.863	76.81
253.096	69.81
253.329	73.81
253.562	93.81
253.795	93.81
254.028	89.81
254.261	83.81
254.494	70.81
254.727	79.81
254.96	62.81
255.193	73.81
255.426	71.81
255.659	71.81
255.892	100.81
256.124	87.81
256.357	87.81
256.59	87.81
256.823	76.81
257.056	67.81
257.289	90.81
257.521	89.81
257.754	81.81
257.987	88.81
258.22	83.81
258.452	85.81
258.685	85.81
258.918	80.81
259.151	72.81
259.383	65.81
259.616	78.81
259.849	70.81
260.081	83.81
260.314	81.81
260.547	92.81
260.779	82.81
261.012	89.81
261.244	93.81
261.477	85.81
261.71	91.81
261.942	112.81
262.175	98.81
262.407	82.81
262.64	87.81
262.872	87.81
263.105	91.81
263.337	85.81
263.57	82.81
263.802	89.81
264.035	97.81
264.267	103.81
264.499	81.81
264.732	91.81
264.964	91.81
265.197	83.81
265.429	92.81
265.661	96.81
265.894	85.81
266.126	85.81
266.358	81.81
266.591	92.81
266.823	70.81
267.055	80.81
267.287	81.81
267.52	91.81
267.752	84.81
267.984	90.81
268.216	91.81
268.448	96.81
268.681	79.81
268.913	92.81
269.145	79.81
269.377	84.81
269.609	77.81
269.841	80.81
270.073	77.81
270.306	85.81
270.538	75.81
270.77	87.81
271.002	85.81
271.234	68.81
271.466	84.81
271.698	85.81
271.93	85.81
272.162	100.81
272.394	92.81
272.626	84.81
272.858	85.81
273.09	77.81
273.322	65.81
273.553	102.81
273.785	87.81
274.017	88.81
274.249	84.81
274.481	84.81
274.713	85.81
274.945	95.81
275.176	83.81
275.408	85.81
275.64	82.81
275.872	83.81
276.104	89.81
276.335	96.81
276.567	101.81
276.799	101.81
277.031	106.81
277.262	112.81
277.494	87.81
277.726	105.81
277.957	91.81
278.189	95.81
278.421	67.81
278.652	74.81
278.884	82.81
279.115	83.81
279.347	81.81
279.579	85.81
279.81	100.81
280.042	101.81
280.273	112.81
280.505	72.81
280.736	84.81
280.968	81.81
281.199	84.81
281.431	73.81
281.662	78.81
281.894	82.81
282.125	90.81
282.356	107.81
282.588	123.81
282.819	109.81
283.051	85.81
283.282	84.81
283.513	96.81
283.745	75.81
283.976	82.81
284.207	83.81
284.439	70.81
284.67	81.81
284.901	88.81
285.132	82.81
285.364	104.81
285.595	95.81
285.826	90.81
286.057	94.81
286.288	87.81
286.52	83.81
286.751	85.81
286.982	99.81
287.213	96.81
287.444	82.81
287.675	73.81
287.906	93.81
288.138	94.81
288.369	89.81
288.6	86.81
288.831	88.81
289.062	89.81
289.293	86.81
289.524	92.81
289.755	90.81
289.986	83.81
290.217	84.81
290.448	90.81
290.679	89.81
290.91	82.81
291.141	83.81
291.371	69.81
291.602	83.81
291.833	94.81
292.064	87.81
292.295	92.81
292.526	88.81
292.757	96.81
292.987	83.81
293.218	81.81
293.449	89.81
293.68	105.81
293.91	73.81
294.141	88.81
294.372	83.81
294.603	86.81
294.833	96.81
295.064	99.81
295.295	94.81
295.525	92.81
295.756	91.81
295.987	106.81
296.217	123.81
296.448	106.81
296.679	100.81
296.909	92.81
297.14	83.81
297.37	84.81
297.601	89.81
297.831	76.81
298.062	90.81
298.292	92.81
298.523	88.81
298.753	89.81
298.984	76.81
299.214	86.81
299.445	88.81
299.675	95.81
299.905	89.81
300.136	92.81
300.366	94.81
300.597	97.81
300.827	86.81
301.057	95.81
301.288	100.81
301.518	95.81
301.748	84.81
301.979	103.81
302.209	98.81
302.439	89.81
302.669	87.81
302.9	95.81
303.13	93.81
303.36	100.81
303.59	97.81
303.82	112.81
304.051	98.81
304.281	86.81
304.511	94.81
304.741	88.81
304.971	103.81
305.201	92.81
305.431	79.81
305.661	92.81
305.891	92.81
306.121	114.81
306.352	99.81
306.582	95.81
306.812	81.81
307.042	87.81
307.272	90.81
307.502	99.81
307.731	118.81
307.961	99.81
308.191	92.81
308.421	99.81
308.651	85.81
308.881	100.81
309.111	89.81
309.341	109.81
309.571	105.81
309.8	90.81
310.03	102.81
310.26	92.81
310.49	80.81
310.72	97.81
310.949	90.81
311.179	88.81
311.409	91.81
311.639	96.81
311.868	89.81
312.098	89.81
312.328	96.81
312.557	83.81
312.787	82.81
313.017	93.81
313.246	108.81
313.476	99.81
313.706	96.81
313.935	95.81
314.165	99.81
314.394	101.81
314.624	89.81
314.853	89.81
315.083	96.81
315.312	88.81
315.542	96.81
315.771	93.81
316.001	75.81
316.23	89.81
316.46	100.81
316.689	81.81
316.919	89.81
317.148	101.81
317.377	84.81
317.607	91.81
317.836	85.81
318.065	92.81
318.295	79.81
318.524	79.81
318.753	85.81
318.983	92.81
319.212	99.81
319.441	95.81
319.67	115.81
319.9	90.81
320.129	95.81
320.358	98.81
320.587	84.81
320.816	90.81
321.046	87.81
321.275	89.81
321.504	96.81
321.733	89.81
321.962	97.81
322.191	79.81
322.42	99.81
322.649	94.81
322.878	105.81
323.108	106.81
323.337	107.81
323.566	112.81
323.795	124.81
324.024	172.81
324.253	303.81
324.482	659.81
324.71	1255.81
324.939	1664.81
325.168	618.81
325.397	201.81
325.626	128.81
325.855	120.81
326.084	103.81
326.313	122.81
326.542	122.81
326.77	186.81
326.999	351.81
327.228	731.81
327.457	1246.81
327.686	1002.81
327.914	313.81
328.143	206.81
328.372	192.81
328.6	151.81
328.829	111.81
329.058	125.81
329.287	127.81
329.515	110.81
329.744	124.81
329.972	146.81
330.201	233.81
330.43	259.81
330.658	173.81
330.887	116.81
331.115	112.81
331.344	98.81
331.572	92.81
331.801	116.81
332.03	92.81
332.258	104.81
332.486	85.81
332.715	90.81
332.943	92.81
333.172	99.81
333.4	95.81
333.629	105.81
333.857	124.81
334.085	152.81
334.314	220.81
334.542	338.81
334.771	320.81
334.999	138.81
335.227	92.81
335.455	94.81
335.684	107.81
335.912	103.81
336.14	106.81
336.369	83.81
336.597	73.81
336.825	88.81
337.053	93.81
337.281	97.81
337.51	91.81
337.738	106.81
337.966	91.81
338.194	98.81
338.422	89.81
338.65	83.81
338.878	96.81
339.106	105.81
339.334	100.81
339.562	85.81
339.79	83.81
340.018	89.81
340.246	72.81
340.474	77.81
340.702	82.81
340.93	100.81
341.158	94.81
341.386	91.81
341.614	91.81
341.842	99.81
342.07	83.81
342.298	90.81
342.526	72.81
342.754	95.81
342.981	94.81
343.209	97.81
343.437	95.81
343.665	92.81
343.893	90.81
344.12	93.81
344.348	80.81
344.576	87.81
344.804	101.81
345.031	113.81
345.259	95.81
345.487	101.81
345.714	96.81
345.942	80.81
346.17	84.81
346.397	85.81
346.625	97.81
346.853	97.81
347.08	85.81
347.308	93.81
347.535	83.81
347.763	102.81
347.99	113.81
348.218	101.81
348.445	93.81
348.673	79.81
348.9	95.81
349.128	87.81
349.355	92.81
349.583	119.81
349.81	82.81
350.037	92.81
350.265	98.81
350.492	99.81
350.72	104.81
350.947	92.81
351.174	103.81
351.402	102.81
351.629	104.81
351.856	106.81
352.083	111.81
352.311	103.81
352.538	100.81
352.765	111.81
352.992	121.81
353.22	114.81
353.447	93.81
353.674	107.81
353.901	92.81
354.128	94.81
354.355	95.81
354.583	103.81
354.81	93.81
355.037	102.81
355.264	89.81
355.491	97.81
355.718	104.81
355.945	95.81
356.172	100.81
356.399	89.81
356.626	90.81
356.853	101.81
357.08	96.81
357.307	95.81
357.534	102.81
357.761	106.81
357.988	98.81
358.215	84.81
358.441	72.81
358.668	86.81
358.895	83.81
359.122	89.81
359.349	82.81
359.576	87.81
359.802	111.81
360.029	98.81
360.256	100.81
360.483	90.81
360.709	80.81
360.936	95.81
361.163	101.81
361.39	82.81
361.616	96.81
361.843	93.81
362.07	103.81
362.296	76.81
362.523	92.81
362.749	89.81
362.976	91.81
363.203	95.81
363.429	95.81
363.656	101.81
363.882	102.81
364.109	92.81
364.335	97.81
364.562	74.81
364.788	84.81
365.015	103.81
365.241	103.81
365.468	112.81
365.694	92.81
365.92	110.81
366.147	96.81
366.373	70.81
366.599	89.81
366.826	84.81
367.052	95.81
367.278	81.81
367.505	88.81
367.731	92.81
367.957	93.81
368.184	89.81
368.41	87.81
368.636	102.81
368.862	116.81
369.089	98.81
369.315	105.81
369.541	105.81
369.767	91.81
369.993	93.81
370.219	112.81
370.445	105.81
370.672	67.81
370.898	89.81
371.124	90.81
371.35	88.81
371.576	90.81
371.802	76.81
372.028	76.81
372.254	95.81
372.48	97.81
372.706	77.81
372.932	87.81
373.158	76.81
373.384	93.81
373.61	94.81
373.835	90.81
374.061	94.81
374.287	109.81
374.513	99.81
374.739	94.81
374.965	89.81
375.191	85.81
375.416	81.81
375.642	89.81
375.868	93.81
376.094	99.81
376.319	100.81
376.545	85.81
376.771	85.81
376.997	90.81
377.222	85.81
377.448	79.81
377.674	101.81
377.899	91.81
378.125	88.81
378.35	90.81
378.576	81.81
378.802	97.81
379.027	89.81
379.253	93.81
379.478	96.81
379.704	97.81
379.929	101.81
380.155	96.81
380.38	87.81
380.606	94.81
380.831	84.81
381.057	100.81
381.282	92.81
381.507	95.81
381.733	99.81
381.958	96.81
382.184	97.81
382.409	91.81
382.634	108.81
382.86	101.81
383.085	93.81
383.31	91.81
383.535	91.81
383.761	96.81
383.986	101.81
384.211	96.81
384.436	106.81
384.662	88.81
384.887	100.81
385.112	99.81
385.337	95.81
385.562	101.81
385.787	111.81
386.013	103.81
386.238	121.81
386.463	98.81
386.688	107.81
386.913	82.81
387.138	115.81
387.363	97.81
387.588	111.81
387.813	99.81
388.038	100.81
388.263	122.81
388.488	104.81
388.713	105.81
388.938	86.81
389.163	89.81
389.387	83.81
389.612	96.81
389.837	77.81
390.062	98.81
390.287	83.81
390.512	87.81
390.736	87.81
390.961	72.81
391.186	84.81
391.411	81.81
391.636	107.81
391.86	84.81
392.085	89.81
392.31	89.81
392.534	87.81
392.759	82.81
392.984	98.81
393.208	93.81
393.433	103.81
393.658	84.81
393.882	87.81
394.107	85.81
394.331	79.81
394.556	82.81
394.78	80.81
395.005	89.81
395.229	89.81
395.454	96.81
395.678	89.81
395.903	85.81
396.127	90.81
396.352	81.81
396.576	90.81
396.801	103.81
397.025	91.81
397.249	87.81
397.474	87.81
397.698	74.81
397.922	76.81
398.147	91.81
398.371	80.81
398.595	101.81
398.82	82.81
399.044	85.81
399.268	94.81
399.492	87.81
399.717	88.81
399.941	96.81
400.165	88.81
400.389	81.81
400.613	92.81
400.837	103.81
401.062	87.81
401.286	88.81
401.51	104.81
401.734	106.81
401.958	94.81
402.182	116.81
402.406	132.81
402.63	95.81
402.854	91.81
403.078	82.81
403.302	87.81
403.526	89.81
403.75	83.81
403.974	85.81
404.198	96.81
404.422	72.81
404.645	88.81
404.869	72.81
405.093	92.81
405.317	103.81
405.541	97.81
405.765	92.81
405.988	117.81
406.212	148.81
406.436	194.81
406.66	130.81
406.883	93.81
407.107	89.81
407.331	87.81
407.555	86.81
407.778	107.81
408.002	88.81
408.226	103.81
408.449	92.81
408.673	81.81
408.896	99.81
409.12	87.81
409.344	91.81
409.567	103.81
409.791	80.81
410.014	105.81
410.238	85.81
410.461	87.81
410.685	86.81
410.908	81.81
411.132	109.81
411.355	80.81
411.578	97.81
411.802	98.81
412.025	85.81
412.249	84.81
412.472	97.81
412.695	93.81
412.919	83.81
413.142	83.81
413.365	98.81
413.589	89.81
413.812	87.81
414.035	82.81
414.258	97.81
414.482	87.81
414.705	91.81
414.928	93.81
415.151	88.81
415.374	99.81
415.597	95.81
415.821	94.81
416.044	88.81
416.267	88.81
416.49	81.81
416.713	92.81
416.936	73.81
417.159	95.81
417.382	88.81
417.605	74.81
417.828	83.81
418.051	91.81
418.274	104.81
418.497	100.81
418.72	94.81
418.943	89.81
419.166	90.81
419.389	87.81
419.611	88.81
419.834	71.81
420.057	91.81
420.28	88.81
420.503	66.81
420.726	79.81
420.948	86.81
421.171	87.81
421.394	106.81
421.617	97.81
421.839	72.81
422.062	72.81
422.285	97.81
422.507	104.81
422.73	90.81
422.953	94.81
423.175	96.81
423.398	91.81
423.621	95.81
423.843	83.81
424.066	89.81
424.288	99.81
424.511	83.81
424.733	100.81
424.956	89.81
425.178	95.81
425.401	84.81
425.623	96.81
425.846	87.81
426.068	93.81
426.291	83.81
426.513	72.81
426.735	97.81
426.958	98.81
427.18	97.81
427.402	119.81
427.625	151.81
427.847	130.81
428.069	133.81
428.292	97.81
428.514	79.81
428.736	87.81
428.958	68.81
429.181	91.81
429.403	93.81
429.625	86.81
429.847	89.81
430.069	97.81
430.292	83.81
430.514	92.81
430.736	81.81
430.958	75.81
431.18	83.81
431.402	78.81
431.624	76.81
431.846	81.81
432.068	91.81
432.29	78.81
432.512	86.81
432.734	87.81
432.956	101.81
433.178	104.81
433.4	98.81
433.622	73.81
433.844	83.81
434.066	86.81
434.287	90.81
434.509	91.81
434.731	93.81
434.953	87.81
435.175	83.81
435.397	83.81
435.618	76.81
435.84	100.81
436.062	119.81
436.284	99.81
436.505	99.81
436.727	91.81
436.949	85.81
437.17	105.81
437.392	98.81
437.614	87.81
437.835	100.81
438.057	114.81
438.278	87.81
438.5	105.81
438.721	112.81
438.943	99.81
439.165	88.81
439.386	97.81
439.608	91.81
439.829	108.81
440.05	123.81
440.272	112.81
440.493	72.81
440.715	86.81
440.936	83.81
441.158	88.81
441.379	85.81
441.6	103.81
441.822	83.81
442.043	101.81
442.264	89.81
442.486	91.81
442.707	91.81
442.928	96.81
443.149	120.81
443.371	120.81
443.592	87.81
443.813	83.81
444.034	90.81
444.255	91.81
444.476	71.81
444.698	80.81
444.919	84.81
445.14	144.81
445.361	120.81
445.582	103.81
445.803	128.81
446.024	118.81
446.245	122.81
446.466	108.81
446.687	92.81
446.908	92.81
447.129	86.81
447.35	97.81
447.571	73.81
447.792	96.81
448.013	89.81
448.234	99.81
448.455	105.81
448.675	109.81
448.896	115.81
449.117	105.81
449.338	84.81
449.559	117.81
449.779	117.81
450	104.81
450.221	93.81
450.442	83.81
450.662	85.81
450.883	100.81
451.104	100.81
451.324	89.81
451.545	84.81
451.766	90.81
451.986	97.81
452.207	82.81
452.428	79.81
452.648	99.81
452.869	94.81
453.089	109.81
453.31	112.81
453.53	99.81
453.751	84.81
453.971	100.81
454.192	99.81
454.412	71.81
454.633	88.81
454.853	91.81
455.073	99.81
455.294	87.81
455.514	98.81
455.734	85.81
455.955	91.81
456.175	89.81
456.395	93.81
456.616	76.81
456.836	85.81
457.056	72.81
457.276	87.81
457.497	69.81
457.717	89.81
457.937	91.81
458.157	80.81
458.377	88.81
458.598	89.81
458.818	134.81
459.038	136.81
459.258	114.81
459.478	79.81
459.698	83.81
459.918	92.81
460.138	95.81
460.358	98.81
460.578	85.81
460.798	96.81
461.018	83.81
461.238	91.81
461.458	92.81
461.678	83.81
461.898	88.81
462.118	88.81
462.338	95.81
462.558	77.81
462.777	78.81
462.997	83.81
463.217	89.81
463.437	92.81
463.657	69.81
463.876	72.81
464.096	81.81
464.316	92.81
464.536	97.81
464.755	106.81
464.975	94.81
465.195	126.81
465.414	139.81
465.634	86.81
465.854	82.81
466.073	92.81
466.293	83.81
466.512	87.81
466.732	90.81
466.951	90.81
467.171	91.81
467.391	83.81
467.61	114.81
467.829	106.81
468.049	169.81
468.268	176.81
468.488	98.81
468.707	78.81
468.927	71.81
469.146	92.81
469.365	79.81
469.585	84.81
469.804	88.81
470.023	86.81
470.243	82.81
470.462	106.81
470.681	88.81
470.901	98.81
471.12	89.81
471.339	76.81
471.558	90.81
471.777	108.81
471.997	136.81
472.216	243.81
472.435	433.81
472.654	155.81
472.873	95.81
473.092	99.81
473.311	97.81
473.53	91.81
473.749	93.81
473.968	89.81
474.187	108.81
474.406	82.81
474.625	85.81
474.844	73.81
475.063	77.81
475.282	85.81
475.501	89.81
475.72	100.81
475.939	102.81
476.158	94.81
476.377	81.81
476.596	93.81
476.814	89.81
477.033	89.81
477.252	91.81
477.471	89.81
477.69	84.81
477.908	79.81
478.127	86.81
478.346	84.81
478.564	94.81
478.783	91.81
479.002	93.81
479.22	97.81
479.439	106.81
479.658	98.81
479.876	110.81
480.095	104.81
480.313	92.81
480.532	86.81
480.751	129.81
480.969	236.81
481.188	750.81
481.406	448.81
481.624	132.81
481.843	84.81
482.061	89.81
482.28	90.81
482.498	100.81
482.717	75.81
482.935	87.81
483.153	96.81
483.372	85.81
483.59	79.81
483.808	83.81
484.027	95.81
484.245	96.81
484.463	99.81
484.681	85.81
484.9	80.81
485.118	106.81
485.336	92.81
485.554	98.81
485.772	110.81
485.99	108.81
486.209	89.81
486.427	97.81
486.645	99.81
486.863	98.81
487.081	110.81
487.299	98.81
487.517	97.81
487.735	99.81
487.953	86.81
488.171	83.81
488.389	99.81
488.607	100.81
488.825	95.81
489.043	78.81
489.261	96.81
489.479	88.81
489.696	88.81
489.914	87.81
490.132	87.81
490.35	88.81
490.568	80.81
490.786	82.81
491.003	88.81
491.221	103.81
491.439	92.81
491.657	87.81
491.874	95.81
492.092	90.81
492.31	84.81
492.527	86.81
492.745	87.81
492.963	88.81
493.18	92.81
493.398	91.81
493.615	103.81
493.833	79.81
494.05	96.81
494.268	83.81
494.485	80.81
494.703	90.81
494.92	96.81
495.138	97.81
495.355	74.81
495.573	87.81
495.79	87.81
496.008	81.81
496.225	69.81
496.442	89.81
496.66	103.81
496.877	99.81
497.094	96.81
497.312	68.81
497.529	83.81
497.746	93.81
497.963	91.81
498.181	92.81
498.398	102.81
498.615	105.81
498.832	100.81
499.049	90.81
499.267	85.81
499.484	88.81
499.701	81.81
499.918	83.81
500.135	96.81
500.352	88.81
500.569	92.81
500.786	93.81
501.003	99.81
501.22	95.81
501.437	82.81
501.654	99.81
501.871	109.81
502.088	90.81
502.305	98.81
502.522	93.81
502.739	82.81
502.956	101.81
503.172	90.81
503.389	83.81
503.606	94.81
503.823	89.81
504.04	93.81
504.256	91.81
504.473	93.81
504.69	92.81
504.907	89.81
505.123	77.81
505.34	97.81
505.557	85.81
505.773	76.81
505.99	80.81
506.207	85.81
506.423	73.81
506.64	87.81
506.856	87.81
507.073	85.81
507.289	73.81
507.506	96.81
507.722	98.81
507.939	117.81
508.155	91.81
508.372	80.81
508.588	87.81
508.805	104.81
509.021	94.81
509.238	93.81
509.454	93.81
509.67	108.81
509.887	97.81
510.103	130.81
510.319	191.81
510.536	642.81
510.752	1955.81
510.968	555.81
511.184	132.81
511.401	93.81
511.617	95.81
511.833	85.81
512.049	85.81
512.265	96.81
512.481	81.81
512.698	86.81
512.914	79.81
513.13	104.81
513.346	104.81
513.562	117.81
513.778	86.81
513.994	90.81
514.21	119.81
514.426	117.81
514.642	126.81
514.858	117.81
515.074	144.81
515.29	356.81
515.506	1170.81
515.721	427.81
515.937	134.81
516.153	101.81
