Data from Circ_1983_H10_HRD10591_00019.txt Node
Date: Wed Jan 03 12:26:48 EST 2024
User: Yrep
Spectrometer: HR+D1059
Trigger mode: 1
Integration Time (sec): 1.000000E-1
Scans to average: 1
Electric dark correction enabled: true
Nonlinearity correction enabled: false
Boxcar width: 0
XAxis mode: Wavelengths
Number of Pixels in Spectrum: 2048
>>>>>Begin Spectral Data<<<<<
223.165	-21
223.4	-21
223.635	-21
223.869	-28
224.104	-28
224.338	-18
224.573	-12
224.808	-18
225.042	-9
225.277	1
225.511	-3
225.746	1
225.98	11
226.215	25
226.449	18
226.683	23
226.918	24
227.152	34
227.387	32
227.621	45
227.856	50
228.09	32
228.324	54
228.559	50
228.793	58
229.027	64
229.262	62
229.496	66
229.73	86
229.964	81
230.199	91
230.433	61
230.667	81
230.901	60
231.136	80
231.37	97
231.604	75
231.838	72
232.072	78
232.306	70
232.541	80
232.775	84
233.009	78
233.243	78
233.477	76
233.711	74
233.945	76
234.179	96
234.413	90
234.647	83
234.881	75
235.115	77
235.349	83
235.583	81
235.817	81
236.051	89
236.285	71
236.519	67
236.753	87
236.987	86
237.221	72
237.455	77
237.689	66
237.922	69
238.156	85
238.39	89
238.624	72
238.858	74
239.091	82
239.325	87
239.559	84
239.793	94
240.027	84
240.26	81
240.494	77
240.728	76
240.961	77
241.195	94
241.429	76
241.662	83
241.896	73
242.13	90
242.363	75
242.597	80
242.83	86
243.064	74
243.298	80
243.531	78
243.765	80
243.998	88
244.232	86
244.465	81
244.699	88
244.932	73
245.166	59
245.399	81
245.633	81
245.866	79
246.099	82
246.333	82
246.566	70
246.8	69
247.033	69
247.266	75
247.5	73
247.733	71
247.966	83
248.2	62
248.433	76
248.666	69
248.899	76
249.133	75
249.366	100
249.599	97
249.832	89
250.066	61
250.299	74
250.532	85
250.765	88
250.998	83
251.231	76
251.465	88
251.698	84
251.931	83
252.164	93
252.397	89
252.63	90
252.863	90
253.096	69
253.329	76
253.562	86
253.795	87
254.028	70
254.261	70
254.494	84
254.727	80
254.96	68
255.193	88
255.426	74
255.659	67
255.892	82
256.124	80
256.357	82
256.59	82
256.823	93
257.056	74
257.289	80
257.521	95
257.754	91
257.987	75
258.22	76
258.452	74
258.685	76
258.918	64
259.151	92
259.383	88
259.616	92
259.849	70
260.081	94
260.314	85
260.547	73
260.779	76
261.012	82
261.244	83
261.477	90
261.71	93
261.942	103
262.175	104
262.407	102
262.64	97
262.872	82
263.105	80
263.337	80
263.57	83
263.802	80
264.035	69
264.267	77
264.499	82
264.732	81
264.964	74
265.197	93
265.429	80
265.661	77
265.894	86
266.126	89
266.358	90
266.591	94
266.823	81
267.055	66
267.287	86
267.52	71
267.752	100
267.984	93
268.216	91
268.448	77
268.681	80
268.913	76
269.145	84
269.377	85
269.609	89
269.841	79
270.073	77
270.306	80
270.538	103
270.77	96
271.002	79
271.234	77
271.466	96
271.698	77
271.93	81
272.162	80
272.394	88
272.626	88
272.858	77
273.09	75
273.322	78
273.553	80
273.785	88
274.017	85
274.249	88
274.481	84
274.713	83
274.945	92
275.176	93
275.408	76
275.64	85
275.872	99
276.104	88
276.335	86
276.567	105
276.799	104
277.031	92
277.262	93
277.494	78
277.726	91
277.957	90
278.189	70
278.421	80
278.652	72
278.884	76
279.115	93
279.347	88
279.579	89
279.81	86
280.042	87
280.273	100
280.505	85
280.736	101
280.968	85
281.199	85
281.431	69
281.662	84
281.894	83
282.125	96
282.356	123
282.588	106
282.819	97
283.051	94
283.282	94
283.513	91
283.745	96
283.976	79
284.207	82
284.439	77
284.67	81
284.901	84
285.132	82
285.364	85
285.595	84
285.826	77
286.057	98
286.288	91
286.52	86
286.751	87
286.982	80
287.213	89
287.444	79
287.675	88
287.906	112
288.138	93
288.369	105
288.6	94
288.831	92
289.062	94
289.293	71
289.524	87
289.755	101
289.986	82
290.217	90
290.448	88
290.679	91
290.91	79
291.141	81
291.371	87
291.602	84
291.833	80
292.064	94
292.295	78
292.526	84
292.757	86
292.987	106
293.218	88
293.449	104
293.68	76
293.91	96
294.141	80
294.372	92
294.603	82
294.833	78
295.064	92
295.295	98
295.525	91
295.756	96
295.987	108
296.217	107
296.448	124
296.679	97
296.909	91
297.14	72
297.37	93
297.601	84
297.831	95
298.062	86
298.292	95
298.523	85
298.753	88
298.984	108
299.214	83
299.445	94
299.675	76
299.905	82
300.136	90
300.366	87
300.597	85
300.827	90
301.057	99
301.288	88
301.518	92
301.748	101
301.979	107
302.209	96
302.439	91
302.669	88
302.9	77
303.13	88
303.36	95
303.59	107
303.82	107
304.051	100
304.281	87
304.511	97
304.741	79
304.971	78
305.201	114
305.431	83
305.661	82
305.891	84
306.121	96
306.352	92
306.582	99
306.812	100
307.042	77
307.272	91
307.502	97
307.731	85
307.961	91
308.191	93
308.421	92
308.651	81
308.881	97
309.111	70
309.341	93
309.571	85
309.8	108
310.03	90
310.26	103
310.49	101
310.72	105
310.949	94
311.179	99
311.409	100
311.639	100
311.868	82
312.098	85
312.328	92
312.557	93
312.787	98
313.017	93
313.246	109
313.476	83
313.706	93
313.935	108
314.165	95
314.394	96
314.624	96
314.853	87
315.083	91
315.312	93
315.542	75
315.771	110
316.001	69
316.23	91
316.46	100
316.689	88
316.919	76
317.148	94
317.377	89
317.607	98
317.836	89
318.065	97
318.295	94
318.524	96
318.753	95
318.983	92
319.212	88
319.441	94
319.67	99
319.9	101
320.129	102
320.358	94
320.587	90
320.816	85
321.046	102
321.275	83
321.504	89
321.733	94
321.962	82
322.191	88
322.42	87
322.649	105
322.878	111
323.108	110
323.337	115
323.566	125
323.795	137
324.024	184
324.253	333
324.482	658
324.71	1354
324.939	1789
325.168	657
325.397	218
325.626	131
325.855	104
326.084	105
326.313	115
326.542	146
326.77	199
326.999	396
327.228	769
327.457	1368
327.686	1112
327.914	318
328.143	178
328.372	145
328.6	121
328.829	100
329.058	128
329.287	121
329.515	115
329.744	100
329.972	98
330.201	120
330.43	144
330.658	116
330.887	121
331.115	98
331.344	99
331.572	91
331.801	96
332.03	100
332.258	100
332.486	98
332.715	96
332.943	114
333.172	92
333.4	96
333.629	101
333.857	109
334.085	110
334.314	124
334.542	140
334.771	148
334.999	100
335.227	94
335.455	98
335.684	100
335.912	99
336.14	82
336.369	105
336.597	101
336.825	99
337.053	90
337.281	95
337.51	92
337.738	91
337.966	91
338.194	80
338.422	102
338.65	89
338.878	92
339.106	97
339.334	95
339.562	96
339.79	93
340.018	104
340.246	92
340.474	93
340.702	97
340.93	85
341.158	87
341.386	96
341.614	108
341.842	87
342.07	89
342.298	87
342.526	81
342.754	82
342.981	101
343.209	92
343.437	110
343.665	97
343.893	93
344.12	88
344.348	90
344.576	84
344.804	89
345.031	99
345.259	100
345.487	94
345.714	96
345.942	85
346.17	105
346.397	96
346.625	99
346.853	89
347.08	95
347.308	106
347.535	104
347.763	101
347.99	86
348.218	105
348.445	114
348.673	92
348.9	105
349.128	104
349.355	100
349.583	101
349.81	104
350.037	92
350.265	98
350.492	106
350.72	90
350.947	98
351.174	110
351.402	113
351.629	96
351.856	91
352.083	100
352.311	108
352.538	107
352.765	111
352.992	107
353.22	113
353.447	101
353.674	104
353.901	112
354.128	108
354.355	95
354.583	90
354.81	88
355.037	114
355.264	95
355.491	98
355.718	98
355.945	91
356.172	97
356.399	109
356.626	102
356.853	98
357.08	100
357.307	102
357.534	93
357.761	98
357.988	109
358.215	96
358.441	94
358.668	115
358.895	106
359.122	82
359.349	108
359.576	91
359.802	96
360.029	98
360.256	105
360.483	94
360.709	84
360.936	94
361.163	103
361.39	101
361.616	88
361.843	101
362.07	94
362.296	95
362.523	94
362.749	90
362.976	91
363.203	89
363.429	92
363.656	102
363.882	84
364.109	93
364.335	98
364.562	92
364.788	98
365.015	108
365.241	100
365.468	116
365.694	93
365.92	92
366.147	101
366.373	81
366.599	80
366.826	92
367.052	90
367.278	98
367.505	89
367.731	91
367.957	91
368.184	101
368.41	91
368.636	108
368.862	116
369.089	106
369.315	95
369.541	93
369.767	88
369.993	97
370.219	93
370.445	81
370.672	80
370.898	82
371.124	102
371.35	105
371.576	76
371.802	86
372.028	97
372.254	90
372.48	84
372.706	90
372.932	92
373.158	111
373.384	96
373.61	88
373.835	87
374.061	87
374.287	93
374.513	85
374.739	73
374.965	100
375.191	89
375.416	84
375.642	91
375.868	93
376.094	99
376.319	104
376.545	89
376.771	98
376.997	99
377.222	99
377.448	88
377.674	93
377.899	83
378.125	97
378.35	99
378.576	102
378.802	93
379.027	106
379.253	95
379.478	93
379.704	82
379.929	98
380.155	101
380.38	96
380.606	104
380.831	94
381.057	96
381.282	101
381.507	114
381.733	100
381.958	97
382.184	88
382.409	97
382.634	104
382.86	116
383.085	104
383.31	107
383.535	102
383.761	108
383.986	82
384.211	100
384.436	95
384.662	103
384.887	105
385.112	105
385.337	106
385.562	131
385.787	113
386.013	111
386.238	123
386.463	132
386.688	112
386.913	124
387.138	116
387.363	117
387.588	101
387.813	125
388.038	118
388.263	116
388.488	126
388.713	99
388.938	98
389.163	90
389.387	91
389.612	96
389.837	93
390.062	97
390.287	90
390.512	90
390.736	88
390.961	101
391.186	94
391.411	97
391.636	101
391.86	91
392.085	88
392.31	82
392.534	86
392.759	92
392.984	93
393.208	111
393.433	171
393.658	129
393.882	85
394.107	103
394.331	100
394.556	91
394.78	81
395.005	82
395.229	94
395.454	87
395.678	92
395.903	93
396.127	90
396.352	88
396.576	94
396.801	108
397.025	121
397.249	99
397.474	91
397.698	76
397.922	88
398.147	87
398.371	82
398.595	74
398.82	81
399.044	98
399.268	78
399.492	82
399.717	84
399.941	92
400.165	81
400.389	93
400.613	78
400.837	91
401.062	80
401.286	82
401.51	100
401.734	87
401.958	85
402.182	118
402.406	129
402.63	108
402.854	84
403.078	84
403.302	75
403.526	80
403.75	84
403.974	88
404.198	75
404.422	94
404.645	72
404.869	80
405.093	108
405.317	107
405.541	93
405.765	94
405.988	104
406.212	133
406.436	196
406.66	107
406.883	100
407.107	83
407.331	103
407.555	88
407.778	100
408.002	84
408.226	86
408.449	94
408.673	100
408.896	110
409.12	102
409.344	91
409.567	75
409.791	86
410.014	93
410.238	87
410.461	86
410.685	82
410.908	99
411.132	110
411.355	103
411.578	93
411.802	75
412.025	81
412.249	97
412.472	95
412.695	91
412.919	94
413.142	92
413.365	99
413.589	85
413.812	99
414.035	101
414.258	97
414.482	104
414.705	93
414.928	103
415.151	98
415.374	95
415.597	92
415.821	86
416.044	91
416.267	85
416.49	90
416.713	95
416.936	101
417.159	94
417.382	73
417.605	96
417.828	93
418.051	84
418.274	90
418.497	96
418.72	88
418.943	88
419.166	96
419.389	108
419.611	89
419.834	94
420.057	82
420.28	93
420.503	89
420.726	96
420.948	86
421.171	108
421.394	94
421.617	89
421.839	104
422.062	92
422.285	73
422.507	104
422.73	109
422.953	86
423.175	80
423.398	91
423.621	92
423.843	102
424.066	94
424.288	89
424.511	85
424.733	99
424.956	104
425.178	100
425.401	99
425.623	93
425.846	89
426.068	93
426.291	105
426.513	96
426.735	109
426.958	98
427.18	105
427.402	128
427.625	149
427.847	111
428.069	114
428.292	99
428.514	86
428.736	95
428.958	84
429.181	69
429.403	89
429.625	92
429.847	88
430.069	86
430.292	88
430.514	88
430.736	79
430.958	91
431.18	104
431.402	85
431.624	98
431.846	80
432.068	75
432.29	99
432.512	82
432.734	91
432.956	84
433.178	101
433.4	101
433.622	99
433.844	96
434.066	101
434.287	77
434.509	80
434.731	96
434.953	90
435.175	77
435.397	85
435.618	84
435.84	120
436.062	116
436.284	105
436.505	93
436.727	93
436.949	87
437.17	84
437.392	93
437.614	99
437.835	82
438.057	109
438.278	104
438.5	86
438.721	100
438.943	89
439.165	92
439.386	80
439.608	83
439.829	90
440.05	111
440.272	122
440.493	112
440.715	98
440.936	99
441.158	104
441.379	84
441.6	85
441.822	80
442.043	91
442.264	107
442.486	96
442.707	89
442.928	97
443.149	104
443.371	117
443.592	105
443.813	107
444.034	109
444.255	82
444.476	89
444.698	95
444.919	91
445.14	139
445.361	122
445.582	99
445.803	110
446.024	124
446.245	106
446.466	100
446.687	98
446.908	86
447.129	71
447.35	80
447.571	72
447.792	93
448.013	94
448.234	114
448.455	102
448.675	105
448.896	107
449.117	114
449.338	104
449.559	112
449.779	110
450	90
450.221	103
450.442	100
450.662	105
450.883	106
451.104	112
451.324	85
451.545	90
451.766	87
451.986	77
452.207	97
452.428	88
452.648	95
452.869	93
453.089	115
453.31	97
453.53	101
453.751	85
453.971	95
454.192	120
454.412	104
454.633	76
454.853	84
455.073	90
455.294	83
455.514	109
455.734	91
455.955	104
456.175	82
456.395	86
456.616	80
456.836	84
457.056	95
457.276	82
457.497	77
457.717	90
457.937	93
458.157	93
458.377	81
458.598	91
458.818	132
459.038	120
459.258	109
459.478	86
459.698	84
459.918	101
460.138	88
460.358	84
460.578	76
460.798	87
461.018	81
461.238	87
461.458	85
461.678	86
461.898	96
462.118	84
462.338	94
462.558	107
462.777	80
462.997	84
463.217	98
463.437	97
463.657	100
463.876	85
464.096	72
464.316	102
464.536	66
464.755	94
464.975	104
465.195	116
465.414	125
465.634	99
465.854	94
466.073	95
466.293	94
466.512	95
466.732	96
466.951	94
467.171	79
467.391	88
467.61	102
467.829	107
468.049	100
468.268	110
468.488	70
468.707	86
468.927	92
469.146	94
469.365	94
469.585	77
469.804	88
470.023	81
470.243	93
470.462	97
470.681	107
470.901	84
471.12	74
471.339	82
471.558	96
471.777	89
471.997	95
472.216	126
472.435	166
472.654	108
472.873	89
473.092	102
473.311	90
473.53	90
473.749	100
473.968	96
474.187	86
474.406	89
474.625	89
474.844	92
475.063	92
475.282	84
475.501	96
475.72	99
475.939	76
476.158	102
476.377	80
476.596	97
476.814	86
477.033	86
477.252	86
477.471	93
477.69	85
477.908	86
478.127	84
478.346	73
478.564	85
478.783	91
479.002	74
479.22	94
479.439	87
479.658	93
479.876	95
480.095	91
480.313	91
480.532	91
480.751	97
480.969	136
481.188	264
481.406	191
481.624	105
481.843	85
482.061	86
482.28	90
482.498	105
482.717	101
482.935	86
483.153	81
483.372	101
483.59	87
483.808	84
484.027	87
484.245	89
484.463	90
484.681	89
484.9	90
485.118	102
485.336	106
485.554	91
485.772	104
485.99	101
486.209	108
486.427	106
486.645	106
486.863	110
487.081	101
487.299	106
487.517	93
487.735	80
487.953	107
488.171	97
488.389	112
488.607	102
488.825	98
489.043	108
489.261	99
489.479	85
489.696	91
489.914	104
490.132	88
490.35	69
490.568	84
490.786	95
491.003	76
491.221	85
491.439	86
491.657	94
491.874	87
492.092	80
492.31	89
492.527	89
492.745	93
492.963	88
493.18	84
493.398	93
493.615	81
493.833	93
494.05	84
494.268	90
494.485	93
494.703	92
494.92	85
495.138	98
495.355	90
495.573	93
495.79	98
496.008	89
496.225	77
496.442	91
496.66	93
496.877	94
497.094	93
497.312	73
497.529	89
497.746	102
497.963	100
498.181	92
498.398	101
498.615	103
498.832	91
499.049	89
499.267	90
499.484	82
499.701	93
499.918	94
500.135	98
500.352	84
500.569	78
500.786	89
501.003	99
501.22	79
501.437	98
501.654	87
501.871	110
502.088	84
502.305	90
502.522	89
502.739	89
502.956	81
503.172	76
503.389	92
503.606	76
503.823	80
504.04	101
504.256	80
504.473	81
504.69	101
504.907	96
505.123	91
505.34	88
505.557	106
505.773	101
505.99	81
506.207	99
506.423	109
506.64	88
506.856	86
507.073	69
507.289	98
507.506	88
507.722	103
507.939	105
508.155	95
508.372	92
508.588	89
508.805	85
509.021	101
509.238	97
509.454	105
509.67	101
509.887	105
510.103	125
510.319	159
510.536	588
510.752	1762
510.968	516
511.184	133
511.401	100
511.617	94
511.833	96
512.049	98
512.265	91
512.481	97
512.698	97
512.914	93
513.13	98
513.346	97
513.562	93
513.778	97
513.994	84
514.21	92
514.426	101
514.642	116
514.858	100
515.074	152
515.29	340
515.506	1053
515.721	406
515.937	145
516.153	108
516.369	96
516.585	88
516.801	85
517.016	86
517.232	94
517.448	89
517.664	102
517.879	97
518.095	89
518.311	89
518.527	95
518.742	102
518.958	77
519.173	72
519.389	93
519.605	102
519.82	85
520.036	108
520.251	122
520.467	110
520.682	90
520.898	106
521.113	116
521.329	122
521.544	174
521.76	416
521.975	1766
522.19	1033
522.406	217
522.621	118
522.836	106
523.052	102
523.267	102
523.482	92
523.698	104
523.913	109
524.128	102
524.343	88
524.559	86
524.774	82
524.989	88
525.204	99
525.419	100
525.634	95
525.849	78
526.064	90
526.28	92
526.495	98
526.71	88
526.925	103
527.14	96
527.355	96
527.57	97
527.785	68
527.999	100
528.214	92
528.429	83
528.644	96
528.859	98
529.074	91
529.289	115
529.503	149
529.718	103
529.933	87
530.148	88
530.363	91
530.577	82
530.792	96
531.007	78
531.221	87
531.436	82
531.651	78
531.865	89
532.08	90
532.295	90
532.509	85
532.724	91
532.938	91
533.153	105
533.367	86
533.582	98
533.796	105
534.011	95
534.225	90
534.44	100
534.654	100
534.868	99
535.083	97
535.297	91
535.511	107
535.726	101
535.94	103
536.154	86
536.369	82
536.583	96
536.797	86
537.011	88
537.225	94
537.44	80
537.654	92
537.868	84
538.082	99
538.296	89
538.51	74
538.724	80
538.938	93
539.153	103
539.367	94
539.581	97
539.795	83
540.009	90
540.222	98
540.436	94
540.65	91
540.864	87
541.078	77
541.292	94
541.506	94
541.72	95
541.934	86
542.147	88
542.361	92
542.575	101
542.789	84
543.002	70
543.216	87
543.43	103
543.644	101
543.857	101
544.071	105
544.285	107
544.498	85
544.712	82
544.925	89
545.139	80
545.352	77
545.566	76
545.779	88
545.993	89
546.206	101
546.42	87
546.633	81
546.847	87
547.06	100
547.274	86
547.487	82
547.7	85
547.914	87
548.127	96
548.34	81
548.554	80
548.767	96
548.98	86
549.193	83
549.407	98
549.62	93
549.833	98
550.046	84
550.259	75
550.473	92
550.686	105
550.899	70
551.112	82
551.325	80
551.538	96
551.751	93
551.964	89
552.177	88
552.39	74
552.603	84
552.816	84
553.029	98
553.242	93
553.455	100
553.667	98
553.88	97
554.093	66
554.306	106
554.519	88
554.732	85
554.944	92
555.157	91
555.37	93
555.583	100
555.795	97
556.008	84
556.221	81
556.433	94
556.646	86
556.859	90
557.071	89
557.284	98
557.496	108
557.709	96
557.921	91
558.134	100
558.346	96
558.559	100
558.771	87
558.984	90
559.196	88
559.409	91
559.621	81
559.833	90
560.046	89
560.258	91
560.47	74
560.683	90
560.895	92
561.107	86
561.32	76
561.532	75
561.744	89
561.956	93
562.168	93
562.381	81
562.593	89
562.805	83
563.017	97
563.229	94
563.441	96
563.653	95
563.865	83
564.077	73
564.289	88
564.501	82
564.713	87
564.925	105
565.137	108
565.349	80
565.561	75
565.773	89
565.985	90
566.197	96
566.408	93
566.62	71
566.832	87
567.044	80
567.255	80
567.467	75
567.679	77
567.891	86
568.102	93
568.314	90
568.526	94
568.737	86
568.949	84
569.161	73
569.372	75
569.584	82
569.795	100
570.007	113
570.218	215
570.43	109
570.641	78
570.853	93
571.064	98
571.276	82
571.487	77
571.698	90
571.91	94
572.121	91
572.333	79
572.544	81
572.755	89
572.966	74
573.178	80
573.389	84
573.6	79
573.811	75
574.023	98
574.234	96
574.445	87
574.656	75
574.867	80
575.078	86
575.289	89
575.501	93
575.712	87
575.923	92
576.134	93
576.345	76
576.556	92
576.767	102
576.978	99
577.188	83
577.399	96
577.61	77
577.821	94
578.032	100
578.243	221
578.454	566
578.665	168
578.875	104
579.086	83
579.297	74
579.508	88
579.718	98
579.929	73
580.14	100
580.35	80
580.561	85
580.772	73
580.982	87
581.193	82
581.403	95
581.614	93
581.825	78
582.035	88
582.246	72
582.456	68
582.667	92
582.877	78
583.087	95
583.298	92
583.508	89
583.719	97
