Data from Circ_1983_H10_HRD10591_00079.txt Node
Date: Wed Jan 03 12:27:00 EST 2024
User: Yrep
Spectrometer: HR+D1059
Trigger mode: 1
Integration Time (sec): 1.000000E-1
Scans to average: 1
Electric dark correction enabled: true
Nonlinearity correction enabled: false
Boxcar width: 0
XAxis mode: Wavelengths
Number of Pixels in Spectrum: 2048
>>>>>Begin Spectral Data<<<<<
223.165	-27.75
223.4	-27.75
223.635	-27.75
223.869	-18.75
224.104	-14.75
224.338	-4.75
224.573	-20.75
224.808	-14.75
225.042	-6.75
225.277	4.25
225.511	3.25
225.746	6.25
225.98	18.25
226.215	-1.75
226.449	6.25
226.683	11.25
226.918	33.25
227.152	27.25
227.387	25.25
227.621	37.25
227.856	51.25
228.09	51.25
228.324	50.25
228.559	55.25
228.793	60.25
229.027	55.25
229.262	70.25
229.496	78.25
229.73	64.25
229.964	78.25
230.199	80.25
230.433	66.25
230.667	70.25
230.901	78.25
231.136	71.25
231.37	82.25
231.604	80.25
231.838	90.25
232.072	82.25
232.306	71.25
232.541	87.25
232.775	70.25
233.009	68.25
233.243	67.25
233.477	72.25
233.711	80.25
233.945	77.25
234.179	89.25
234.413	89.25
234.647	74.25
234.881	69.25
235.115	67.25
235.349	82.25
235.583	85.25
235.817	79.25
236.051	84.25
236.285	92.25
236.519	80.25
236.753	70.25
236.987	75.25
237.221	78.25
237.455	78.25
237.689	79.25
237.922	70.25
238.156	78.25
238.39	80.25
238.624	87.25
238.858	85.25
239.091	68.25
239.325	87.25
239.559	67.25
239.793	89.25
240.027	62.25
240.26	86.25
240.494	71.25
240.728	88.25
240.961	75.25
241.195	78.25
241.429	94.25
241.662	72.25
241.896	71.25
242.13	69.25
242.363	80.25
242.597	85.25
242.83	82.25
243.064	78.25
243.298	75.25
243.531	71.25
243.765	85.25
243.998	70.25
244.232	81.25
244.465	61.25
244.699	75.25
244.932	88.25
245.166	76.25
245.399	90.25
245.633	86.25
245.866	84.25
246.099	69.25
246.333	87.25
246.566	82.25
246.8	87.25
247.033	88.25
247.266	85.25
247.5	59.25
247.733	89.25
247.966	65.25
248.2	101.25
248.433	84.25
248.666	75.25
248.899	78.25
249.133	78.25
249.366	92.25
249.599	103.25
249.832	80.25
250.066	67.25
250.299	75.25
250.532	90.25
250.765	89.25
250.998	76.25
251.231	78.25
251.465	74.25
251.698	83.25
251.931	62.25
252.164	75.25
252.397	82.25
252.63	89.25
252.863	68.25
253.096	66.25
253.329	76.25
253.562	65.25
253.795	63.25
254.028	92.25
254.261	92.25
254.494	86.25
254.727	87.25
254.96	72.25
255.193	78.25
255.426	76.25
255.659	86.25
255.892	65.25
256.124	86.25
256.357	66.25
256.59	82.25
256.823	84.25
257.056	89.25
257.289	87.25
257.521	105.25
257.754	86.25
257.987	88.25
258.22	75.25
258.452	91.25
258.685	76.25
258.918	88.25
259.151	94.25
259.383	82.25
259.616	86.25
259.849	92.25
260.081	69.25
260.314	94.25
260.547	75.25
260.779	84.25
261.012	71.25
261.244	84.25
261.477	89.25
261.71	76.25
261.942	108.25
262.175	103.25
262.407	72.25
262.64	72.25
262.872	73.25
263.105	92.25
263.337	87.25
263.57	82.25
263.802	89.25
264.035	82.25
264.267	75.25
264.499	86.25
264.732	86.25
264.964	85.25
265.197	83.25
265.429	94.25
265.661	91.25
265.894	85.25
266.126	67.25
266.358	83.25
266.591	83.25
266.823	84.25
267.055	91.25
267.287	79.25
267.52	67.25
267.752	85.25
267.984	91.25
268.216	92.25
268.448	85.25
268.681	80.25
268.913	81.25
269.145	72.25
269.377	91.25
269.609	88.25
269.841	96.25
270.073	67.25
270.306	97.25
270.538	80.25
270.77	79.25
271.002	87.25
271.234	83.25
271.466	89.25
271.698	90.25
271.93	90.25
272.162	86.25
272.394	84.25
272.626	85.25
272.858	87.25
273.09	86.25
273.322	89.25
273.553	82.25
273.785	90.25
274.017	88.25
274.249	74.25
274.481	91.25
274.713	78.25
274.945	78.25
275.176	87.25
275.408	90.25
275.64	89.25
275.872	79.25
276.104	89.25
276.335	71.25
276.567	85.25
276.799	98.25
277.031	91.25
277.262	95.25
277.494	87.25
277.726	88.25
277.957	87.25
278.189	84.25
278.421	80.25
278.652	89.25
278.884	83.25
279.115	86.25
279.347	81.25
279.579	87.25
279.81	82.25
280.042	107.25
280.273	99.25
280.505	98.25
280.736	79.25
280.968	73.25
281.199	89.25
281.431	93.25
281.662	90.25
281.894	92.25
282.125	100.25
282.356	110.25
282.588	100.25
282.819	96.25
283.051	90.25
283.282	89.25
283.513	91.25
283.745	88.25
283.976	73.25
284.207	78.25
284.439	93.25
284.67	88.25
284.901	84.25
285.132	93.25
285.364	96.25
285.595	87.25
285.826	87.25
286.057	84.25
286.288	75.25
286.52	79.25
286.751	94.25
286.982	92.25
287.213	90.25
287.444	94.25
287.675	87.25
287.906	82.25
288.138	89.25
288.369	88.25
288.6	87.25
288.831	67.25
289.062	78.25
289.293	86.25
289.524	86.25
289.755	83.25
289.986	80.25
290.217	78.25
290.448	85.25
290.679	87.25
290.91	83.25
291.141	84.25
291.371	84.25
291.602	84.25
291.833	75.25
292.064	83.25
292.295	89.25
292.526	73.25
292.757	97.25
292.987	90.25
293.218	82.25
293.449	90.25
293.68	90.25
293.91	95.25
294.141	83.25
294.372	103.25
294.603	84.25
294.833	88.25
295.064	80.25
295.295	81.25
295.525	95.25
295.756	89.25
295.987	113.25
296.217	118.25
296.448	116.25
296.679	87.25
296.909	90.25
297.14	86.25
297.37	102.25
297.601	89.25
297.831	91.25
298.062	91.25
298.292	75.25
298.523	82.25
298.753	82.25
298.984	87.25
299.214	91.25
299.445	81.25
299.675	96.25
299.905	88.25
300.136	91.25
300.366	84.25
300.597	95.25
300.827	76.25
301.057	94.25
301.288	94.25
301.518	89.25
301.748	90.25
301.979	95.25
302.209	83.25
302.439	85.25
302.669	86.25
302.9	91.25
303.13	98.25
303.36	92.25
303.59	88.25
303.82	102.25
304.051	97.25
304.281	92.25
304.511	87.25
304.741	88.25
304.971	79.25
305.201	95.25
305.431	87.25
305.661	95.25
305.891	96.25
306.121	70.25
306.352	94.25
306.582	93.25
306.812	84.25
307.042	92.25
307.272	116.25
307.502	106.25
307.731	100.25
307.961	95.25
308.191	87.25
308.421	83.25
308.651	98.25
308.881	100.25
309.111	83.25
309.341	96.25
309.571	87.25
309.8	105.25
310.03	93.25
310.26	115.25
310.49	85.25
310.72	96.25
310.949	101.25
311.179	101.25
311.409	91.25
311.639	101.25
311.868	100.25
312.098	87.25
312.328	103.25
312.557	86.25
312.787	97.25
313.017	93.25
313.246	83.25
313.476	82.25
313.706	78.25
313.935	100.25
314.165	103.25
314.394	97.25
314.624	82.25
314.853	90.25
315.083	96.25
315.312	100.25
315.542	83.25
315.771	107.25
316.001	91.25
316.23	76.25
316.46	70.25
316.689	78.25
316.919	86.25
317.148	96.25
317.377	90.25
317.607	86.25
317.836	91.25
318.065	107.25
318.295	73.25
318.524	83.25
318.753	89.25
318.983	86.25
319.212	91.25
319.441	107.25
319.67	93.25
319.9	86.25
320.129	81.25
320.358	87.25
320.587	91.25
320.816	93.25
321.046	108.25
321.275	109.25
321.504	95.25
321.733	88.25
321.962	111.25
322.191	98.25
322.42	97.25
322.649	103.25
322.878	117.25
323.108	100.25
323.337	94.25
323.566	119.25
323.795	132.25
324.024	161.25
324.253	296.25
324.482	607.25
324.71	1234.25
324.939	1575.25
325.168	584.25
325.397	183.25
325.626	119.25
325.855	112.25
326.084	99.25
326.313	104.25
326.542	131.25
326.77	181.25
326.999	336.25
327.228	696.25
327.457	1252.25
327.686	1008.25
327.914	300.25
328.143	180.25
328.372	176.25
328.6	118.25
328.829	98.25
329.058	107.25
329.287	110.25
329.515	92.25
329.744	116.25
329.972	135.25
330.201	190.25
330.43	233.25
330.658	166.25
330.887	139.25
331.115	126.25
331.344	84.25
331.572	113.25
331.801	115.25
332.03	100.25
332.258	102.25
332.486	106.25
332.715	96.25
332.943	96.25
333.172	95.25
333.4	97.25
333.629	113.25
333.857	115.25
334.085	136.25
334.314	170.25
334.542	280.25
334.771	282.25
334.999	145.25
335.227	107.25
335.455	97.25
335.684	107.25
335.912	102.25
336.14	96.25
336.369	86.25
336.597	100.25
336.825	101.25
337.053	89.25
337.281	95.25
337.51	99.25
337.738	89.25
337.966	81.25
338.194	92.25
338.422	94.25
338.65	91.25
338.878	83.25
339.106	96.25
339.334	89.25
339.562	86.25
339.79	80.25
340.018	68.25
340.246	82.25
340.474	88.25
340.702	88.25
340.93	86.25
341.158	89.25
341.386	94.25
341.614	93.25
341.842	83.25
342.07	82.25
342.298	87.25
342.526	74.25
342.754	86.25
342.981	90.25
343.209	85.25
343.437	89.25
343.665	99.25
343.893	84.25
344.12	80.25
344.348	93.25
344.576	87.25
344.804	88.25
345.031	90.25
345.259	85.25
345.487	96.25
345.714	115.25
345.942	84.25
346.17	98.25
346.397	88.25
346.625	91.25
346.853	91.25
347.08	81.25
347.308	103.25
347.535	109.25
347.763	95.25
347.99	96.25
348.218	93.25
348.445	89.25
348.673	99.25
348.9	105.25
349.128	86.25
349.355	96.25
349.583	90.25
349.81	84.25
350.037	98.25
350.265	86.25
350.492	74.25
350.72	80.25
350.947	109.25
351.174	101.25
351.402	100.25
351.629	102.25
351.856	96.25
352.083	89.25
352.311	96.25
352.538	105.25
352.765	103.25
352.992	96.25
353.22	104.25
353.447	99.25
353.674	104.25
353.901	83.25
354.128	95.25
354.355	91.25
354.583	97.25
354.81	85.25
355.037	85.25
355.264	102.25
355.491	105.25
355.718	87.25
355.945	88.25
356.172	102.25
356.399	97.25
356.626	97.25
356.853	100.25
357.08	82.25
357.307	88.25
357.534	90.25
357.761	91.25
357.988	87.25
358.215	103.25
358.441	110.25
358.668	99.25
358.895	79.25
359.122	93.25
359.349	98.25
359.576	98.25
359.802	74.25
360.029	106.25
360.256	105.25
360.483	92.25
360.709	100.25
360.936	98.25
361.163	95.25
361.39	101.25
361.616	99.25
361.843	89.25
362.07	97.25
362.296	73.25
362.523	83.25
362.749	104.25
362.976	89.25
363.203	89.25
363.429	79.25
363.656	92.25
363.882	104.25
364.109	99.25
364.335	88.25
364.562	94.25
364.788	83.25
365.015	94.25
365.241	90.25
365.468	109.25
365.694	94.25
365.92	82.25
366.147	94.25
366.373	76.25
366.599	76.25
366.826	99.25
367.052	73.25
367.278	86.25
367.505	91.25
367.731	89.25
367.957	94.25
368.184	90.25
368.41	96.25
368.636	75.25
368.862	112.25
369.089	99.25
369.315	102.25
369.541	90.25
369.767	91.25
369.993	84.25
370.219	77.25
370.445	82.25
370.672	94.25
370.898	76.25
371.124	90.25
371.35	75.25
371.576	83.25
371.802	82.25
372.028	89.25
372.254	71.25
372.48	84.25
372.706	80.25
372.932	80.25
373.158	92.25
373.384	95.25
373.61	95.25
373.835	97.25
374.061	97.25
374.287	90.25
374.513	88.25
374.739	99.25
374.965	100.25
375.191	96.25
375.416	68.25
375.642	90.25
375.868	103.25
376.094	93.25
376.319	96.25
376.545	80.25
376.771	87.25
376.997	87.25
377.222	102.25
377.448	98.25
377.674	89.25
377.899	80.25
378.125	90.25
378.35	81.25
378.576	86.25
378.802	99.25
379.027	67.25
379.253	89.25
379.478	85.25
379.704	99.25
379.929	99.25
380.155	91.25
380.38	97.25
380.606	96.25
380.831	103.25
381.057	100.25
381.282	103.25
381.507	91.25
381.733	91.25
381.958	95.25
382.184	86.25
382.409	78.25
382.634	100.25
382.86	95.25
383.085	82.25
383.31	91.25
383.535	88.25
383.761	96.25
383.986	105.25
384.211	99.25
384.436	91.25
384.662	93.25
384.887	103.25
385.112	94.25
385.337	94.25
385.562	107.25
385.787	111.25
386.013	100.25
386.238	112.25
386.463	102.25
386.688	108.25
386.913	103.25
387.138	107.25
387.363	121.25
387.588	103.25
387.813	103.25
388.038	99.25
388.263	89.25
388.488	107.25
388.713	91.25
388.938	91.25
389.163	89.25
389.387	93.25
389.612	93.25
389.837	84.25
390.062	81.25
390.287	95.25
390.512	86.25
390.736	90.25
390.961	81.25
391.186	95.25
391.411	102.25
391.636	90.25
391.86	89.25
392.085	77.25
392.31	93.25
392.534	88.25
392.759	84.25
392.984	96.25
393.208	85.25
393.433	92.25
393.658	89.25
393.882	79.25
394.107	84.25
394.331	92.25
394.556	83.25
394.78	74.25
395.005	88.25
395.229	64.25
395.454	94.25
395.678	84.25
395.903	89.25
396.127	82.25
396.352	81.25
396.576	88.25
396.801	96.25
397.025	104.25
397.249	76.25
397.474	79.25
397.698	84.25
397.922	84.25
398.147	83.25
398.371	96.25
398.595	96.25
398.82	94.25
399.044	91.25
399.268	74.25
399.492	84.25
399.717	82.25
399.941	89.25
400.165	80.25
400.389	91.25
400.613	73.25
400.837	92.25
401.062	68.25
401.286	92.25
401.51	82.25
401.734	83.25
401.958	110.25
402.182	100.25
402.406	144.25
402.63	108.25
402.854	89.25
403.078	99.25
403.302	77.25
403.526	75.25
403.75	103.25
403.974	85.25
404.198	74.25
404.422	89.25
404.645	84.25
404.869	85.25
405.093	84.25
405.317	83.25
405.541	96.25
405.765	87.25
405.988	95.25
406.212	149.25
406.436	184.25
406.66	122.25
406.883	82.25
407.107	94.25
407.331	84.25
407.555	75.25
407.778	111.25
408.002	86.25
408.226	86.25
408.449	92.25
408.673	79.25
408.896	87.25
409.12	92.25
409.344	96.25
409.567	98.25
409.791	105.25
410.014	106.25
410.238	88.25
410.461	86.25
410.685	94.25
410.908	85.25
411.132	104.25
411.355	92.25
411.578	98.25
411.802	83.25
412.025	83.25
412.249	81.25
412.472	90.25
412.695	89.25
412.919	84.25
413.142	89.25
413.365	80.25
413.589	75.25
413.812	99.25
414.035	97.25
414.258	76.25
414.482	98.25
414.705	92.25
414.928	96.25
415.151	87.25
415.374	84.25
415.597	72.25
415.821	78.25
416.044	88.25
416.267	99.25
416.49	95.25
416.713	92.25
416.936	90.25
417.159	78.25
417.382	94.25
417.605	96.25
417.828	82.25
418.051	86.25
418.274	83.25
418.497	82.25
418.72	81.25
418.943	77.25
419.166	96.25
419.389	73.25
419.611	88.25
419.834	81.25
420.057	94.25
420.28	83.25
420.503	85.25
420.726	94.25
420.948	76.25
421.171	94.25
421.394	85.25
421.617	90.25
421.839	91.25
422.062	93.25
422.285	86.25
422.507	105.25
422.73	97.25
422.953	96.25
423.175	91.25
423.398	98.25
423.621	86.25
423.843	96.25
424.066	79.25
424.288	65.25
424.511	93.25
424.733	99.25
424.956	103.25
425.178	84.25
425.401	82.25
425.623	95.25
425.846	100.25
426.068	86.25
426.291	90.25
426.513	91.25
426.735	87.25
426.958	95.25
427.18	92.25
427.402	115.25
427.625	137.25
427.847	121.25
428.069	119.25
428.292	85.25
428.514	87.25
428.736	86.25
428.958	81.25
429.181	88.25
429.403	91.25
429.625	80.25
429.847	98.25
430.069	90.25
430.292	88.25
430.514	73.25
430.736	90.25
430.958	84.25
431.18	74.25
431.402	81.25
431.624	83.25
431.846	84.25
432.068	87.25
432.29	92.25
432.512	86.25
432.734	89.25
432.956	90.25
433.178	91.25
433.4	86.25
433.622	93.25
433.844	87.25
434.066	84.25
434.287	87.25
434.509	96.25
434.731	91.25
434.953	81.25
435.175	75.25
435.397	97.25
435.618	97.25
435.84	97.25
436.062	108.25
436.284	101.25
436.505	92.25
436.727	78.25
436.949	73.25
437.17	112.25
437.392	94.25
437.614	83.25
437.835	103.25
438.057	107.25
438.278	108.25
438.5	90.25
438.721	105.25
438.943	105.25
439.165	75.25
439.386	91.25
439.608	78.25
439.829	107.25
440.05	103.25
440.272	118.25
440.493	89.25
440.715	79.25
440.936	85.25
441.158	99.25
441.379	100.25
441.6	89.25
441.822	91.25
442.043	89.25
442.264	96.25
442.486	90.25
442.707	106.25
442.928	108.25
443.149	130.25
443.371	110.25
443.592	103.25
443.813	107.25
444.034	103.25
444.255	91.25
444.476	86.25
444.698	82.25
444.919	102.25
445.14	126.25
445.361	116.25
445.582	102.25
445.803	117.25
446.024	106.25
446.245	114.25
446.466	95.25
446.687	82.25
446.908	85.25
447.129	89.25
447.35	84.25
447.571	88.25
447.792	87.25
448.013	80.25
448.234	87.25
448.455	100.25
448.675	103.25
448.896	107.25
449.117	91.25
449.338	88.25
449.559	111.25
449.779	125.25
450	84.25
450.221	85.25
450.442	91.25
450.662	95.25
450.883	97.25
451.104	96.25
451.324	85.25
451.545	85.25
451.766	92.25
451.986	79.25
452.207	101.25
452.428	82.25
452.648	96.25
452.869	98.25
453.089	97.25
453.31	98.25
453.53	105.25
453.751	78.25
453.971	99.25
454.192	87.25
454.412	87.25
454.633	82.25
454.853	94.25
455.073	82.25
455.294	90.25
455.514	100.25
455.734	88.25
455.955	80.25
456.175	86.25
456.395	96.25
456.616	72.25
456.836	83.25
457.056	84.25
457.276	101.25
457.497	84.25
457.717	74.25
457.937	93.25
458.157	84.25
458.377	99.25
458.598	108.25
458.818	113.25
459.038	136.25
459.258	94.25
459.478	78.25
459.698	79.25
459.918	90.25
460.138	81.25
460.358	68.25
460.578	84.25
460.798	98.25
461.018	72.25
461.238	75.25
461.458	84.25
461.678	84.25
461.898	79.25
462.118	94.25
462.338	81.25
462.558	89.25
462.777	89.25
462.997	100.25
463.217	89.25
463.437	72.25
463.657	90.25
463.876	82.25
464.096	78.25
464.316	98.25
464.536	98.25
464.755	88.25
464.975	88.25
465.195	154.25
465.414	129.25
465.634	88.25
465.854	73.25
466.073	88.25
466.293	82.25
466.512	89.25
466.732	76.25
466.951	83.25
467.171	92.25
467.391	88.25
467.61	105.25
467.829	102.25
468.049	132.25
468.268	172.25
468.488	79.25
468.707	82.25
468.927	102.25
469.146	99.25
469.365	88.25
469.585	97.25
469.804	87.25
470.023	88.25
470.243	87.25
470.462	101.25
470.681	104.25
470.901	99.25
471.12	81.25
471.339	81.25
471.558	89.25
471.777	94.25
471.997	113.25
472.216	211.25
472.435	352.25
472.654	134.25
472.873	95.25
473.092	96.25
473.311	79.25
473.53	91.25
473.749	75.25
473.968	106.25
474.187	104.25
474.406	86.25
474.625	84.25
474.844	80.25
475.063	75.25
475.282	84.25
475.501	97.25
475.72	90.25
475.939	90.25
476.158	82.25
476.377	79.25
476.596	88.25
476.814	112.25
477.033	81.25
477.252	79.25
477.471	89.25
477.69	88.25
477.908	86.25
478.127	85.25
478.346	87.25
478.564	92.25
478.783	92.25
479.002	94.25
479.22	99.25
479.439	103.25
479.658	87.25
479.876	92.25
480.095	96.25
480.313	86.25
480.532	107.25
480.751	113.25
480.969	219.25
481.188	613.25
481.406	367.25
481.624	127.25
481.843	94.25
482.061	79.25
482.28	92.25
482.498	96.25
482.717	88.25
482.935	84.25
483.153	81.25
483.372	97.25
483.59	76.25
483.808	76.25
484.027	98.25
484.245	74.25
484.463	88.25
484.681	103.25
484.9	91.25
485.118	92.25
485.336	93.25
485.554	86.25
485.772	91.25
485.99	105.25
486.209	99.25
486.427	107.25
486.645	91.25
486.863	106.25
487.081	104.25
487.299	98.25
487.517	89.25
487.735	86.25
487.953	100.25
488.171	88.25
488.389	91.25
488.607	107.25
488.825	85.25
489.043	88.25
489.261	90.25
489.479	73.25
489.696	90.25
489.914	107.25
490.132	89.25
490.35	80.25
490.568	86.25
490.786	98.25
491.003	91.25
491.221	95.25
491.439	76.25
491.657	91.25
491.874	86.25
492.092	91.25
492.31	99.25
492.527	87.25
492.745	87.25
492.963	87.25
493.18	79.25
493.398	93.25
493.615	93.25
493.833	92.25
494.05	90.25
494.268	92.25
494.485	95.25
494.703	88.25
494.92	92.25
495.138	74.25
495.355	90.25
495.573	93.25
495.79	92.25
496.008	89.25
496.225	82.25
496.442	85.25
496.66	101.25
496.877	87.25
497.094	94.25
497.312	91.25
497.529	95.25
497.746	85.25
497.963	87.25
498.181	82.25
498.398	94.25
498.615	102.25
498.832	110.25
499.049	87.25
499.267	95.25
499.484	83.25
499.701	70.25
499.918	103.25
500.135	86.25
500.352	86.25
500.569	92.25
500.786	91.25
501.003	84.25
501.22	90.25
501.437	87.25
501.654	88.25
501.871	100.25
502.088	103.25
502.305	89.25
502.522	91.25
502.739	97.25
502.956	90.25
503.172	86.25
503.389	88.25
503.606	113.25
503.823	89.25
504.04	96.25
504.256	79.25
504.473	82.25
504.69	81.25
504.907	95.25
505.123	87.25
505.34	87.25
505.557	79.25
505.773	89.25
505.99	102.25
506.207	85.25
506.423	96.25
506.64	98.25
506.856	90.25
507.073	82.25
507.289	94.25
507.506	92.25
507.722	102.25
507.939	110.25
508.155	80.25
508.372	90.25
508.588	87.25
508.805	92.25
509.021	91.25
509.238	90.25
509.454	95.25
509.67	98.25
509.887	106.25
510.103	113.25
510.319	186.25
510.536	557.25
510.752	1708.25
510.968	475.25
511.184	140.25
511.401	99.25
511.617	89.25
511.833	86.25
512.049	95.25
512.265	88.25
512.481	96.25
512.698	98.25
512.914	86.25
513.13	94.25
513.346	95.25
513.562	94.25
513.778	106.25
513.994	96.25
514.21	90.25
514.426	118.25
514.642	110.25
514.858	115.25
515.074	123.25
515.29	328.25
515.506	999.25
515.721	379.25
515.937	131.25
516.153	91.25
516.369	97.25
516.585	86.25
