Data from Circ_1983_H10_HRD10591_00031.txt Node
Date: Wed Jan 03 12:26:51 EST 2024
User: Yrep
Spectrometer: HR+D1059
Trigger mode: 1
Integration Time (sec): 1.000000E-1
Scans to average: 1
Electric dark correction enabled: true
Nonlinearity correction enabled: false
Boxcar width: 0
XAxis mode: Wavelengths
Number of Pixels in Spectrum: 2048
>>>>>Begin Spectral Data<<<<<
223.165	-28.31
223.4	-28.31
223.635	-28.31
223.869	-13.31
224.104	-31.31
224.338	-15.31
224.573	-20.31
224.808	-8.31
225.042	-16.31
225.277	-3.31
225.511	-5.31
225.746	4.69
225.98	16.69
226.215	22.69
226.449	17.69
226.683	24.69
226.918	25.69
227.152	29.69
227.387	39.69
227.621	32.69
227.856	43.69
228.09	69.69
228.324	47.69
228.559	55.69
228.793	65.69
229.027	65.69
229.262	71.69
229.496	70.69
229.73	79.69
229.964	76.69
230.199	83.69
230.433	68.69
230.667	67.69
230.901	76.69
231.136	83.69
231.37	79.69
231.604	73.69
231.838	93.69
232.072	80.69
232.306	99.69
232.541	76.69
232.775	83.69
233.009	73.69
233.243	83.69
233.477	75.69
233.711	85.69
233.945	81.69
234.179	87.69
234.413	91.69
234.647	85.69
234.881	70.69
235.115	89.69
235.349	77.69
235.583	85.69
235.817	85.69
236.051	67.69
236.285	89.69
236.519	79.69
236.753	78.69
236.987	84.69
237.221	89.69
237.455	95.69
237.689	78.69
237.922	74.69
238.156	65.69
238.39	84.69
238.624	80.69
238.858	81.69
239.091	85.69
239.325	68.69
239.559	88.69
239.793	58.69
240.027	72.69
240.26	74.69
240.494	70.69
240.728	89.69
240.961	88.69
241.195	76.69
241.429	83.69
241.662	81.69
241.896	86.69
242.13	83.69
242.363	75.69
242.597	79.69
242.83	89.69
243.064	80.69
243.298	83.69
243.531	89.69
243.765	87.69
243.998	77.69
244.232	75.69
244.465	84.69
244.699	87.69
244.932	103.69
245.166	75.69
245.399	76.69
245.633	71.69
245.866	90.69
246.099	88.69
246.333	78.69
246.566	83.69
246.8	77.69
247.033	79.69
247.266	78.69
247.5	78.69
247.733	78.69
247.966	77.69
248.2	67.69
248.433	77.69
248.666	72.69
248.899	83.69
249.133	83.69
249.366	92.69
249.599	91.69
249.832	85.69
250.066	78.69
250.299	87.69
250.532	75.69
250.765	86.69
250.998	88.69
251.231	91.69
251.465	87.69
251.698	83.69
251.931	88.69
252.164	88.69
252.397	94.69
252.63	86.69
252.863	76.69
253.096	78.69
253.329	78.69
253.562	83.69
253.795	84.69
254.028	86.69
254.261	83.69
254.494	70.69
254.727	78.69
254.96	79.69
255.193	96.69
255.426	96.69
255.659	86.69
255.892	83.69
256.124	90.69
256.357	81.69
256.59	79.69
256.823	75.69
257.056	81.69
257.289	75.69
257.521	63.69
257.754	90.69
257.987	70.69
258.22	76.69
258.452	79.69
258.685	80.69
258.918	85.69
259.151	83.69
259.383	85.69
259.616	80.69
259.849	79.69
260.081	86.69
260.314	79.69
260.547	92.69
260.779	87.69
261.012	95.69
261.244	97.69
261.477	86.69
261.71	91.69
261.942	109.69
262.175	118.69
262.407	86.69
262.64	94.69
262.872	91.69
263.105	100.69
263.337	100.69
263.57	91.69
263.802	81.69
264.035	89.69
264.267	90.69
264.499	81.69
264.732	80.69
264.964	87.69
265.197	79.69
265.429	94.69
265.661	89.69
265.894	85.69
266.126	80.69
266.358	73.69
266.591	79.69
266.823	80.69
267.055	77.69
267.287	93.69
267.52	89.69
267.752	94.69
267.984	85.69
268.216	89.69
268.448	95.69
268.681	87.69
268.913	97.69
269.145	79.69
269.377	88.69
269.609	77.69
269.841	75.69
270.073	91.69
270.306	78.69
270.538	81.69
270.77	83.69
271.002	80.69
271.234	83.69
271.466	92.69
271.698	84.69
271.93	76.69
272.162	76.69
272.394	96.69
272.626	99.69
272.858	91.69
273.09	87.69
273.322	89.69
273.553	87.69
273.785	98.69
274.017	96.69
274.249	82.69
274.481	89.69
274.713	89.69
274.945	81.69
275.176	68.69
275.408	103.69
275.64	94.69
275.872	92.69
276.104	77.69
276.335	94.69
276.567	90.69
276.799	94.69
277.031	102.69
277.262	93.69
277.494	91.69
277.726	86.69
277.957	88.69
278.189	75.69
278.421	83.69
278.652	101.69
278.884	81.69
279.115	82.69
279.347	85.69
279.579	84.69
279.81	100.69
280.042	105.69
280.273	93.69
280.505	92.69
280.736	66.69
280.968	98.69
281.199	89.69
281.431	92.69
281.662	80.69
281.894	92.69
282.125	103.69
282.356	108.69
282.588	127.69
282.819	109.69
283.051	96.69
283.282	83.69
283.513	91.69
283.745	96.69
283.976	85.69
284.207	91.69
284.439	81.69
284.67	93.69
284.901	79.69
285.132	93.69
285.364	88.69
285.595	94.69
285.826	81.69
286.057	97.69
286.288	84.69
286.52	95.69
286.751	85.69
286.982	88.69
287.213	91.69
287.444	98.69
287.675	91.69
287.906	78.69
288.138	97.69
288.369	92.69
288.6	102.69
288.831	80.69
289.062	76.69
289.293	106.69
289.524	91.69
289.755	86.69
289.986	90.69
290.217	96.69
290.448	75.69
290.679	98.69
290.91	83.69
291.141	86.69
291.371	96.69
291.602	74.69
291.833	84.69
292.064	91.69
292.295	89.69
292.526	92.69
292.757	78.69
292.987	105.69
293.218	91.69
293.449	87.69
293.68	87.69
293.91	91.69
294.141	96.69
294.372	103.69
294.603	98.69
294.833	100.69
295.064	90.69
295.295	92.69
295.525	81.69
295.756	98.69
295.987	106.69
296.217	139.69
296.448	120.69
296.679	91.69
296.909	96.69
297.14	94.69
297.37	88.69
297.601	86.69
297.831	104.69
298.062	109.69
298.292	95.69
298.523	104.69
298.753	91.69
298.984	77.69
299.214	91.69
299.445	95.69
299.675	97.69
299.905	89.69
300.136	97.69
300.366	96.69
300.597	100.69
300.827	88.69
301.057	97.69
301.288	98.69
301.518	103.69
301.748	101.69
301.979	94.69
302.209	90.69
302.439	87.69
302.669	94.69
302.9	91.69
303.13	77.69
303.36	106.69
303.59	105.69
303.82	106.69
304.051	104.69
304.281	92.69
304.511	105.69
304.741	99.69
304.971	89.69
305.201	99.69
305.431	105.69
305.661	105.69
305.891	95.69
306.121	101.69
306.352	112.69
306.582	108.69
306.812	99.69
307.042	99.69
307.272	93.69
307.502	89.69
307.731	95.69
307.961	92.69
308.191	87.69
308.421	111.69
308.651	84.69
308.881	107.69
309.111	101.69
309.341	103.69
309.571	99.69
309.8	99.69
310.03	103.69
310.26	98.69
310.49	100.69
310.72	93.69
310.949	81.69
311.179	104.69
311.409	93.69
311.639	103.69
311.868	95.69
312.098	100.69
312.328	89.69
312.557	108.69
312.787	99.69
313.017	91.69
313.246	101.69
313.476	103.69
313.706	101.69
313.935	105.69
314.165	103.69
314.394	102.69
314.624	108.69
314.853	85.69
315.083	91.69
315.312	91.69
315.542	88.69
315.771	90.69
316.001	113.69
316.23	88.69
316.46	98.69
316.689	83.69
316.919	86.69
317.148	105.69
317.377	89.69
317.607	113.69
317.836	104.69
318.065	98.69
318.295	86.69
318.524	99.69
318.753	94.69
318.983	80.69
319.212	97.69
319.441	108.69
319.67	114.69
319.9	101.69
320.129	96.69
320.358	110.69
320.587	107.69
320.816	101.69
321.046	105.69
321.275	75.69
321.504	85.69
321.733	93.69
321.962	107.69
322.191	101.69
322.42	92.69
322.649	106.69
322.878	106.69
323.108	114.69
323.337	115.69
323.566	114.69
323.795	132.69
324.024	159.69
324.253	311.69
324.482	658.69
324.71	1265.69
324.939	1609.69
325.168	630.69
325.397	195.69
325.626	127.69
325.855	116.69
326.084	116.69
326.313	125.69
326.542	139.69
326.77	193.69
326.999	360.69
327.228	719.69
327.457	1268.69
327.686	1047.69
327.914	302.69
328.143	186.69
328.372	157.69
328.6	110.69
328.829	113.69
329.058	106.69
329.287	121.69
329.515	101.69
329.744	113.69
329.972	134.69
330.201	142.69
330.43	165.69
330.658	143.69
330.887	125.69
331.115	119.69
331.344	108.69
331.572	112.69
331.801	102.69
332.03	92.69
332.258	93.69
332.486	84.69
332.715	86.69
332.943	99.69
333.172	99.69
333.4	115.69
333.629	101.69
333.857	116.69
334.085	134.69
334.314	150.69
334.542	200.69
334.771	214.69
334.999	111.69
335.227	95.69
335.455	99.69
335.684	101.69
335.912	101.69
336.14	110.69
336.369	89.69
336.597	91.69
336.825	97.69
337.053	101.69
337.281	103.69
337.51	106.69
337.738	88.69
337.966	100.69
338.194	88.69
338.422	91.69
338.65	99.69
338.878	101.69
339.106	94.69
339.334	91.69
339.562	69.69
339.79	95.69
340.018	99.69
340.246	96.69
340.474	90.69
340.702	99.69
340.93	106.69
341.158	94.69
341.386	100.69
341.614	99.69
341.842	108.69
342.07	96.69
342.298	96.69
342.526	97.69
342.754	101.69
342.981	99.69
343.209	85.69
343.437	107.69
343.665	91.69
343.893	96.69
344.12	97.69
344.348	92.69
344.576	93.69
344.804	88.69
345.031	98.69
345.259	89.69
345.487	85.69
345.714	90.69
345.942	92.69
346.17	83.69
346.397	100.69
346.625	99.69
346.853	85.69
347.08	96.69
347.308	93.69
347.535	94.69
347.763	90.69
347.99	94.69
348.218	101.69
348.445	100.69
348.673	103.69
348.9	90.69
349.128	92.69
349.355	96.69
349.583	87.69
349.81	103.69
350.037	101.69
350.265	89.69
350.492	107.69
350.72	87.69
350.947	102.69
351.174	107.69
351.402	108.69
351.629	99.69
351.856	103.69
352.083	99.69
352.311	94.69
352.538	100.69
352.765	99.69
352.992	110.69
353.22	105.69
353.447	99.69
353.674	108.69
353.901	101.69
354.128	102.69
354.355	105.69
354.583	98.69
354.81	100.69
355.037	94.69
355.264	101.69
355.491	96.69
355.718	83.69
355.945	89.69
356.172	95.69
356.399	95.69
356.626	112.69
356.853	98.69
357.08	100.69
357.307	92.69
357.534	102.69
357.761	97.69
357.988	105.69
358.215	107.69
358.441	104.69
358.668	92.69
358.895	94.69
359.122	84.69
359.349	88.69
359.576	91.69
359.802	110.69
360.029	111.69
360.256	100.69
360.483	95.69
360.709	73.69
360.936	112.69
361.163	89.69
361.39	100.69
361.616	100.69
361.843	88.69
362.07	99.69
362.296	91.69
362.523	95.69
362.749	93.69
362.976	92.69
363.203	101.69
363.429	75.69
363.656	83.69
363.882	103.69
364.109	101.69
364.335	95.69
364.562	99.69
364.788	95.69
365.015	97.69
365.241	97.69
365.468	103.69
365.694	89.69
365.92	87.69
366.147	84.69
366.373	102.69
366.599	100.69
366.826	81.69
367.052	98.69
367.278	103.69
367.505	93.69
367.731	96.69
367.957	87.69
368.184	96.69
368.41	89.69
368.636	116.69
368.862	112.69
369.089	104.69
369.315	103.69
369.541	99.69
369.767	86.69
369.993	94.69
370.219	85.69
370.445	87.69
370.672	105.69
370.898	80.69
371.124	108.69
371.35	92.69
371.576	96.69
371.802	87.69
372.028	89.69
372.254	110.69
372.48	89.69
372.706	80.69
372.932	107.69
373.158	98.69
373.384	107.69
373.61	89.69
373.835	89.69
374.061	86.69
374.287	92.69
374.513	93.69
374.739	99.69
374.965	91.69
375.191	88.69
375.416	96.69
375.642	100.69
375.868	91.69
376.094	86.69
376.319	93.69
376.545	104.69
376.771	87.69
376.997	101.69
377.222	93.69
377.448	92.69
377.674	94.69
377.899	101.69
378.125	91.69
378.35	83.69
378.576	92.69
378.802	98.69
379.027	96.69
379.253	84.69
379.478	91.69
379.704	91.69
379.929	110.69
380.155	103.69
380.38	101.69
380.606	112.69
380.831	100.69
381.057	92.69
381.282	96.69
381.507	113.69
381.733	99.69
381.958	88.69
382.184	97.69
382.409	103.69
382.634	111.69
382.86	119.69
383.085	110.69
383.31	96.69
383.535	104.69
383.761	95.69
383.986	112.69
384.211	104.69
384.436	94.69
384.662	104.69
384.887	124.69
385.112	99.69
385.337	111.69
385.562	108.69
385.787	116.69
386.013	108.69
386.238	107.69
386.463	102.69
386.688	131.69
386.913	100.69
387.138	109.69
387.363	109.69
387.588	104.69
387.813	109.69
388.038	105.69
388.263	116.69
388.488	120.69
388.713	104.69
388.938	93.69
389.163	92.69
389.387	103.69
389.612	83.69
389.837	90.69
390.062	99.69
390.287	102.69
390.512	97.69
390.736	99.69
390.961	107.69
391.186	108.69
391.411	84.69
391.636	94.69
391.86	94.69
392.085	87.69
392.31	91.69
392.534	96.69
392.759	90.69
392.984	99.69
393.208	105.69
393.433	127.69
393.658	122.69
393.882	96.69
394.107	94.69
394.331	112.69
394.556	97.69
394.78	95.69
395.005	77.69
395.229	85.69
395.454	102.69
395.678	91.69
395.903	77.69
396.127	99.69
396.352	93.69
396.576	88.69
396.801	106.69
397.025	112.69
397.249	94.69
397.474	95.69
397.698	79.69
397.922	92.69
398.147	87.69
398.371	91.69
398.595	92.69
398.82	78.69
399.044	86.69
399.268	87.69
399.492	96.69
399.717	86.69
399.941	95.69
400.165	88.69
400.389	73.69
400.613	91.69
400.837	81.69
401.062	94.69
401.286	101.69
401.51	103.69
401.734	86.69
401.958	79.69
402.182	123.69
402.406	140.69
402.63	105.69
402.854	85.69
403.078	109.69
403.302	104.69
403.526	92.69
403.75	92.69
403.974	79.69
404.198	87.69
404.422	84.69
404.645	100.69
404.869	83.69
405.093	91.69
405.317	92.69
405.541	103.69
405.765	81.69
405.988	107.69
406.212	138.69
406.436	192.69
406.66	147.69
406.883	103.69
407.107	97.69
407.331	106.69
407.555	88.69
407.778	99.69
408.002	100.69
408.226	100.69
408.449	102.69
408.673	86.69
408.896	95.69
409.12	79.69
409.344	94.69
409.567	95.69
409.791	89.69
410.014	100.69
410.238	90.69
410.461	97.69
410.685	87.69
410.908	95.69
411.132	122.69
411.355	99.69
411.578	96.69
411.802	85.69
412.025	81.69
412.249	92.69
412.472	91.69
412.695	95.69
412.919	94.69
413.142	89.69
413.365	90.69
413.589	96.69
413.812	86.69
414.035	79.69
414.258	79.69
414.482	80.69
414.705	96.69
414.928	97.69
415.151	84.69
415.374	113.69
415.597	80.69
415.821	89.69
416.044	101.69
416.267	106.69
416.49	99.69
416.713	98.69
416.936	107.69
417.159	95.69
417.382	109.69
417.605	95.69
417.828	93.69
418.051	89.69
418.274	92.69
418.497	81.69
418.72	91.69
418.943	101.69
419.166	87.69
419.389	95.69
419.611	95.69
419.834	98.69
420.057	87.69
420.28	79.69
420.503	96.69
420.726	83.69
420.948	89.69
421.171	93.69
421.394	89.69
421.617	95.69
421.839	84.69
422.062	97.69
422.285	104.69
422.507	92.69
422.73	119.69
422.953	119.69
423.175	95.69
423.398	74.69
423.621	92.69
423.843	99.69
424.066	70.69
424.288	92.69
424.511	118.69
424.733	90.69
424.956	113.69
425.178	99.69
425.401	95.69
425.623	87.69
425.846	98.69
426.068	115.69
426.291	98.69
426.513	102.69
426.735	90.69
426.958	100.69
427.18	99.69
427.402	128.69
427.625	129.69
427.847	97.69
428.069	104.69
428.292	94.69
428.514	93.69
428.736	85.69
428.958	91.69
429.181	95.69
429.403	92.69
429.625	87.69
429.847	98.69
430.069	90.69
430.292	96.69
430.514	78.69
430.736	89.69
430.958	83.69
431.18	93.69
431.402	101.69
431.624	85.69
431.846	91.69
432.068	81.69
432.29	95.69
432.512	105.69
432.734	90.69
432.956	93.69
433.178	100.69
433.4	106.69
433.622	79.69
433.844	88.69
434.066	94.69
434.287	106.69
434.509	85.69
434.731	76.69
434.953	100.69
435.175	97.69
435.397	95.69
435.618	105.69
435.84	92.69
436.062	99.69
436.284	95.69
436.505	93.69
436.727	101.69
436.949	88.69
437.17	84.69
437.392	88.69
437.614	86.69
437.835	97.69
438.057	104.69
438.278	106.69
438.5	89.69
438.721	110.69
438.943	97.69
439.165	93.69
439.386	86.69
439.608	87.69
439.829	98.69
440.05	113.69
440.272	132.69
440.493	101.69
440.715	102.69
440.936	90.69
441.158	88.69
441.379	84.69
441.6	86.69
441.822	104.69
442.043	95.69
442.264	84.69
442.486	92.69
442.707	83.69
442.928	107.69
443.149	120.69
443.371	120.69
443.592	92.69
443.813	101.69
444.034	101.69
444.255	97.69
444.476	92.69
444.698	87.69
444.919	96.69
445.14	128.69
445.361	113.69
445.582	106.69
445.803	103.69
446.024	105.69
446.245	116.69
446.466	85.69
446.687	67.69
446.908	97.69
447.129	93.69
447.35	80.69
447.571	99.69
447.792	87.69
448.013	77.69
448.234	102.69
448.455	89.69
448.675	110.69
448.896	121.69
449.117	89.69
449.338	111.69
449.559	99.69
449.779	109.69
450	103.69
450.221	96.69
450.442	81.69
450.662	88.69
450.883	111.69
451.104	108.69
451.324	95.69
451.545	87.69
451.766	108.69
451.986	109.69
452.207	94.69
452.428	94.69
452.648	94.69
452.869	97.69
453.089	107.69
453.31	102.69
453.53	93.69
453.751	99.69
453.971	91.69
454.192	104.69
454.412	94.69
454.633	87.69
454.853	96.69
455.073	90.69
455.294	92.69
455.514	97.69
455.734	90.69
455.955	87.69
456.175	84.69
456.395	89.69
456.616	86.69
456.836	100.69
457.056	73.69
457.276	83.69
457.497	85.69
457.717	94.69
457.937	90.69
458.157	87.69
458.377	114.69
458.598	113.69
458.818	128.69
459.038	142.69
459.258	115.69
459.478	85.69
459.698	92.69
459.918	89.69
460.138	80.69
460.358	101.69
460.578	87.69
460.798	96.69
461.018	101.69
461.238	96.69
461.458	88.69
461.678	87.69
461.898	92.69
462.118	79.69
462.338	74.69
462.558	82.69
462.777	84.69
462.997	85.69
463.217	112.69
463.437	92.69
463.657	94.69
463.876	96.69
464.096	88.69
464.316	109.69
464.536	101.69
464.755	90.69
464.975	95.69
465.195	154.69
465.414	137.69
465.634	89.69
465.854	85.69
466.073	92.69
466.293	91.69
466.512	85.69
466.732	80.69
466.951	86.69
467.171	83.69
467.391	89.69
467.61	109.69
467.829	99.69
468.049	115.69
468.268	113.69
468.488	88.69
468.707	90.69
468.927	92.69
469.146	92.69
469.365	98.69
469.585	102.69
469.804	103.69
470.023	92.69
470.243	83.69
470.462	105.69
470.681	91.69
470.901	87.69
471.12	90.69
471.339	101.69
471.558	85.69
471.777	88.69
471.997	110.69
472.216	170.69
472.435	229.69
472.654	128.69
472.873	104.69
473.092	87.69
473.311	102.69
473.53	88.69
473.749	97.69
473.968	94.69
474.187	95.69
474.406	103.69
474.625	75.69
474.844	105.69
475.063	88.69
475.282	95.69
475.501	88.69
475.72	88.69
475.939	85.69
476.158	101.69
476.377	94.69
476.596	93.69
476.814	95.69
477.033	95.69
477.252	119.69
477.471	92.69
477.69	91.69
477.908	106.69
478.127	84.69
478.346	93.69
478.564	96.69
478.783	101.69
479.002	88.69
479.22	107.69
479.439	95.69
479.658	103.69
479.876	91.69
480.095	89.69
480.313	90.69
480.532	91.69
480.751	116.69
480.969	157.69
481.188	373.69
481.406	260.69
481.624	111.69
481.843	100.69
482.061	97.69
482.28	88.69
482.498	89.69
482.717	100.69
482.935	103.69
483.153	93.69
483.372	84.69
483.59	89.69
483.808	88.69
484.027	93.69
484.245	97.69
484.463	93.69
484.681	104.69
484.9	98.69
485.118	91.69
485.336	102.69
485.554	97.69
485.772	99.69
485.99	114.69
486.209	119.69
486.427	113.69
486.645	107.69
486.863	108.69
487.081	109.69
487.299	104.69
487.517	96.69
487.735	112.69
487.953	100.69
488.171	99.69
488.389	101.69
488.607	89.69
488.825	84.69
489.043	93.69
489.261	88.69
489.479	113.69
489.696	88.69
489.914	104.69
490.132	92.69
490.35	88.69
490.568	80.69
490.786	71.69
491.003	100.69
491.221	79.69
491.439	106.69
491.657	93.69
491.874	89.69
492.092	95.69
492.31	104.69
492.527	96.69
492.745	93.69
492.963	103.69
493.18	100.69
493.398	87.69
493.615	88.69
493.833	93.69
494.05	104.69
494.268	99.69
494.485	98.69
494.703	98.69
494.92	97.69
495.138	97.69
495.355	84.69
495.573	104.69
495.79	86.69
496.008	89.69
496.225	86.69
496.442	115.69
496.66	89.69
496.877	97.69
497.094	113.69
497.312	95.69
497.529	82.69
497.746	95.69
497.963	94.69
498.181	102.69
498.398	93.69
498.615	104.69
498.832	103.69
499.049	92.69
499.267	89.69
499.484	97.69
499.701	99.69
499.918	94.69
500.135	94.69
500.352	87.69
500.569	91.69
500.786	93.69
501.003	81.69
501.22	103.69
501.437	78.69
501.654	86.69
501.871	89.69
502.088	97.69
502.305	81.69
502.522	68.69
502.739	85.69
502.956	96.69
503.172	96.69
503.389	93.69
503.606	100.69
503.823	107.69
504.04	97.69
504.256	95.69
504.473	104.69
504.69	91.69
504.907	102.69
505.123	80.69
505.34	99.69
505.557	97.69
505.773	92.69
505.99	96.69
506.207	84.69
506.423	100.69
506.64	89.69
506.856	87.69
507.073	109.69
507.289	100.69
507.506	100.69
507.722	103.69
507.939	85.69
508.155	98.69
508.372	92.69
508.588	93.69
508.805	104.69
509.021	101.69
509.238	104.69
509.454	92.69
509.67	105.69
509.887	108.69
510.103	121.69
510.319	179.69
510.536	595.69
510.752	1810.69
510.968	516.69
511.184	155.69
511.401	114.69
511.617	97.69
511.833	89.69
512.049	97.69
512.265	95.69
512.481	91.69
512.698	93.69
512.914	98.69
513.13	101.69
513.346	101.69
513.562	96.69
513.778	113.69
513.994	103.69
514.21	107.69
514.426	115.69
