Data from Circ_1983_H10_HRD10591_00046.txt Node
Date: Wed Jan 03 12:26:54 EST 2024
User: Yrep
Spectrometer: HR+D1059
Trigger mode: 1
Integration Time (sec): 1.000000E-1
Scans to average: 1
Electric dark correction enabled: true
Nonlinearity correction enabled: false
Boxcar width: 0
XAxis mode: Wavelengths
Number of Pixels in Spectrum: 2048
>>>>>Begin Spectral Data<<<<<
223.165	-21.75
223.4	-21.75
223.635	-21.75
223.869	-17.75
224.104	-20.75
224.338	-10.75
224.573	-12.75
224.808	-15.75
225.042	-19.75
225.277	-13.75
225.511	11.25
225.746	11.25
225.98	13.25
226.215	4.25
226.449	17.25
226.683	22.25
226.918	33.25
227.152	20.25
227.387	32.25
227.621	34.25
227.856	36.25
228.09	53.25
228.324	67.25
228.559	62.25
228.793	76.25
229.027	56.25
229.262	57.25
229.496	81.25
229.73	85.25
229.964	70.25
230.199	81.25
230.433	74.25
230.667	82.25
230.901	93.25
231.136	82.25
231.37	81.25
231.604	86.25
231.838	80.25
232.072	75.25
232.306	87.25
232.541	76.25
232.775	91.25
233.009	96.25
233.243	80.25
233.477	87.25
233.711	82.25
233.945	90.25
234.179	81.25
234.413	75.25
234.647	82.25
234.881	75.25
235.115	78.25
235.349	89.25
235.583	79.25
235.817	85.25
236.051	71.25
236.285	92.25
236.519	78.25
236.753	79.25
236.987	73.25
237.221	70.25
237.455	98.25
237.689	97.25
237.922	80.25
238.156	98.25
238.39	81.25
238.624	77.25
238.858	68.25
239.091	85.25
239.325	70.25
239.559	75.25
239.793	84.25
240.027	79.25
240.26	65.25
240.494	81.25
240.728	73.25
240.961	77.25
241.195	74.25
241.429	65.25
241.662	76.25
241.896	76.25
242.13	82.25
242.363	88.25
242.597	88.25
242.83	69.25
243.064	75.25
243.298	85.25
243.531	74.25
243.765	85.25
243.998	81.25
244.232	86.25
244.465	85.25
244.699	87.25
244.932	84.25
245.166	95.25
245.399	81.25
245.633	97.25
245.866	75.25
246.099	78.25
246.333	53.25
246.566	84.25
246.8	89.25
247.033	91.25
247.266	95.25
247.5	84.25
247.733	78.25
247.966	91.25
248.2	66.25
248.433	74.25
248.666	85.25
248.899	75.25
249.133	73.25
249.366	97.25
249.599	75.25
249.832	77.25
250.066	90.25
250.299	75.25
250.532	89.25
250.765	85.25
250.998	74.25
251.231	70.25
251.465	78.25
251.698	70.25
251.931	68.25
252.164	82.25
252.397	85.25
252.63	77.25
252.863	82.25
253.096	67.25
253.329	90.25
253.562	70.25
253.795	85.25
254.028	81.25
254.261	78.25
254.494	97.25
254.727	76.25
254.96	81.25
255.193	75.25
255.426	81.25
255.659	78.25
255.892	77.25
256.124	89.25
256.357	79.25
256.59	78.25
256.823	85.25
257.056	107.25
257.289	84.25
257.521	95.25
257.754	70.25
257.987	91.25
258.22	81.25
258.452	70.25
258.685	85.25
258.918	89.25
259.151	74.25
259.383	95.25
259.616	94.25
259.849	66.25
260.081	70.25
260.314	89.25
260.547	78.25
260.779	88.25
261.012	89.25
261.244	95.25
261.477	86.25
261.71	85.25
261.942	90.25
262.175	97.25
262.407	84.25
262.64	86.25
262.872	90.25
263.105	96.25
263.337	78.25
263.57	86.25
263.802	78.25
264.035	76.25
264.267	69.25
264.499	94.25
264.732	73.25
264.964	85.25
265.197	85.25
265.429	88.25
265.661	84.25
265.894	83.25
266.126	92.25
266.358	84.25
266.591	82.25
266.823	85.25
267.055	81.25
267.287	94.25
267.52	95.25
267.752	88.25
267.984	97.25
268.216	95.25
268.448	82.25
268.681	70.25
268.913	88.25
269.145	69.25
269.377	92.25
269.609	97.25
269.841	84.25
270.073	85.25
270.306	71.25
270.538	93.25
270.77	69.25
271.002	83.25
271.234	110.25
271.466	86.25
271.698	83.25
271.93	88.25
272.162	94.25
272.394	82.25
272.626	73.25
272.858	81.25
273.09	82.25
273.322	77.25
273.553	63.25
273.785	85.25
274.017	81.25
274.249	84.25
274.481	89.25
274.713	92.25
274.945	95.25
275.176	89.25
275.408	99.25
275.64	101.25
275.872	92.25
276.104	79.25
276.335	95.25
276.567	106.25
276.799	101.25
277.031	89.25
277.262	91.25
277.494	90.25
277.726	90.25
277.957	92.25
278.189	89.25
278.421	91.25
278.652	92.25
278.884	81.25
279.115	93.25
279.347	89.25
279.579	69.25
279.81	94.25
280.042	101.25
280.273	103.25
280.505	83.25
280.736	92.25
280.968	89.25
281.199	84.25
281.431	89.25
281.662	99.25
281.894	85.25
282.125	91.25
282.356	107.25
282.588	117.25
282.819	110.25
283.051	95.25
283.282	89.25
283.513	77.25
283.745	93.25
283.976	89.25
284.207	103.25
284.439	89.25
284.67	85.25
284.901	85.25
285.132	82.25
285.364	93.25
285.595	86.25
285.826	95.25
286.057	94.25
286.288	90.25
286.52	82.25
286.751	71.25
286.982	90.25
287.213	78.25
287.444	97.25
287.675	102.25
287.906	91.25
288.138	77.25
288.369	87.25
288.6	91.25
288.831	87.25
289.062	90.25
289.293	81.25
289.524	85.25
289.755	90.25
289.986	99.25
290.217	91.25
290.448	85.25
290.679	78.25
290.91	97.25
291.141	76.25
291.371	79.25
291.602	101.25
291.833	83.25
292.064	77.25
292.295	81.25
292.526	91.25
292.757	96.25
292.987	86.25
293.218	95.25
293.449	99.25
293.68	93.25
293.91	85.25
294.141	92.25
294.372	94.25
294.603	94.25
294.833	97.25
295.064	89.25
295.295	82.25
295.525	82.25
295.756	86.25
295.987	100.25
296.217	125.25
296.448	107.25
296.679	87.25
296.909	93.25
297.14	78.25
297.37	89.25
297.601	90.25
297.831	100.25
298.062	97.25
298.292	88.25
298.523	97.25
298.753	75.25
298.984	77.25
299.214	87.25
299.445	83.25
299.675	87.25
299.905	94.25
300.136	101.25
300.366	89.25
300.597	85.25
300.827	86.25
301.057	87.25
301.288	103.25
301.518	93.25
301.748	96.25
301.979	100.25
302.209	97.25
302.439	97.25
302.669	87.25
302.9	79.25
303.13	91.25
303.36	96.25
303.59	100.25
303.82	105.25
304.051	83.25
304.281	95.25
304.511	87.25
304.741	90.25
304.971	71.25
305.201	94.25
305.431	74.25
305.661	99.25
305.891	106.25
306.121	94.25
306.352	83.25
306.582	93.25
306.812	101.25
307.042	87.25
307.272	97.25
307.502	101.25
307.731	108.25
307.961	103.25
308.191	110.25
308.421	98.25
308.651	94.25
308.881	97.25
309.111	65.25
309.341	85.25
309.571	97.25
309.8	96.25
310.03	90.25
310.26	91.25
310.49	103.25
310.72	106.25
310.949	121.25
311.179	86.25
311.409	101.25
311.639	100.25
311.868	98.25
312.098	94.25
312.328	88.25
312.557	98.25
312.787	94.25
313.017	100.25
313.246	98.25
313.476	99.25
313.706	91.25
313.935	104.25
314.165	94.25
314.394	87.25
314.624	87.25
314.853	88.25
315.083	83.25
315.312	109.25
315.542	101.25
315.771	101.25
316.001	94.25
316.23	79.25
316.46	89.25
316.689	98.25
316.919	99.25
317.148	94.25
317.377	93.25
317.607	90.25
317.836	116.25
318.065	91.25
318.295	69.25
318.524	88.25
318.753	88.25
318.983	87.25
319.212	92.25
319.441	81.25
319.67	97.25
319.9	92.25
320.129	92.25
320.358	94.25
320.587	97.25
320.816	89.25
321.046	101.25
321.275	105.25
321.504	88.25
321.733	96.25
321.962	100.25
322.191	94.25
322.42	98.25
322.649	121.25
322.878	109.25
323.108	103.25
323.337	117.25
323.566	109.25
323.795	124.25
324.024	166.25
324.253	283.25
324.482	603.25
324.71	1177.25
324.939	1534.25
325.168	569.25
325.397	205.25
325.626	150.25
325.855	121.25
326.084	126.25
326.313	116.25
326.542	133.25
326.77	175.25
326.999	360.25
327.228	679.25
327.457	1237.25
327.686	1009.25
327.914	295.25
328.143	187.25
328.372	147.25
328.6	125.25
328.829	123.25
329.058	107.25
329.287	108.25
329.515	123.25
329.744	121.25
329.972	108.25
330.201	164.25
330.43	193.25
330.658	150.25
330.887	117.25
331.115	103.25
331.344	93.25
331.572	95.25
331.801	108.25
332.03	101.25
332.258	90.25
332.486	92.25
332.715	103.25
332.943	91.25
333.172	93.25
333.4	75.25
333.629	107.25
333.857	107.25
334.085	111.25
334.314	162.25
334.542	224.25
334.771	202.25
334.999	114.25
335.227	105.25
335.455	79.25
335.684	105.25
335.912	92.25
336.14	90.25
336.369	110.25
336.597	101.25
336.825	88.25
337.053	88.25
337.281	85.25
337.51	90.25
337.738	95.25
337.966	86.25
338.194	91.25
338.422	101.25
338.65	99.25
338.878	101.25
339.106	81.25
339.334	78.25
339.562	98.25
339.79	93.25
340.018	105.25
340.246	92.25
340.474	85.25
340.702	95.25
340.93	82.25
341.158	96.25
341.386	93.25
341.614	99.25
341.842	92.25
342.07	91.25
342.298	95.25
342.526	87.25
342.754	98.25
342.981	90.25
343.209	86.25
343.437	118.25
343.665	97.25
343.893	77.25
344.12	85.25
344.348	91.25
344.576	88.25
344.804	109.25
345.031	98.25
345.259	85.25
345.487	97.25
345.714	99.25
345.942	100.25
346.17	92.25
346.397	93.25
346.625	91.25
346.853	88.25
347.08	90.25
347.308	93.25
347.535	92.25
347.763	98.25
347.99	93.25
348.218	107.25
348.445	102.25
348.673	101.25
348.9	94.25
349.128	89.25
349.355	95.25
349.583	78.25
349.81	85.25
350.037	86.25
350.265	89.25
350.492	98.25
350.72	96.25
350.947	89.25
351.174	98.25
351.402	121.25
351.629	94.25
351.856	89.25
352.083	92.25
352.311	114.25
352.538	99.25
352.765	104.25
352.992	97.25
353.22	121.25
353.447	88.25
353.674	97.25
353.901	88.25
354.128	101.25
354.355	104.25
354.583	95.25
354.81	88.25
355.037	99.25
355.264	96.25
355.491	88.25
355.718	93.25
355.945	91.25
356.172	87.25
356.399	89.25
356.626	98.25
356.853	89.25
357.08	85.25
357.307	106.25
357.534	84.25
357.761	99.25
357.988	97.25
358.215	107.25
358.441	111.25
358.668	120.25
358.895	93.25
359.122	101.25
359.349	93.25
359.576	79.25
359.802	82.25
360.029	106.25
360.256	107.25
360.483	85.25
360.709	79.25
360.936	99.25
361.163	95.25
361.39	96.25
361.616	92.25
361.843	103.25
362.07	100.25
362.296	102.25
362.523	73.25
362.749	89.25
362.976	87.25
363.203	101.25
363.429	101.25
363.656	83.25
363.882	79.25
364.109	75.25
364.335	84.25
364.562	95.25
364.788	98.25
365.015	83.25
365.241	83.25
365.468	91.25
365.694	109.25
365.92	109.25
366.147	85.25
366.373	97.25
366.599	96.25
366.826	101.25
367.052	91.25
367.278	77.25
367.505	87.25
367.731	81.25
367.957	77.25
368.184	94.25
368.41	101.25
368.636	105.25
368.862	111.25
369.089	102.25
369.315	82.25
369.541	86.25
369.767	84.25
369.993	93.25
370.219	109.25
370.445	77.25
370.672	91.25
370.898	86.25
371.124	85.25
371.35	87.25
371.576	81.25
371.802	91.25
372.028	82.25
372.254	86.25
372.48	84.25
372.706	82.25
372.932	95.25
373.158	85.25
373.384	90.25
373.61	90.25
373.835	101.25
374.061	99.25
374.287	104.25
374.513	100.25
374.739	106.25
374.965	89.25
375.191	89.25
375.416	80.25
375.642	91.25
375.868	92.25
376.094	98.25
376.319	89.25
376.545	92.25
376.771	90.25
376.997	99.25
377.222	94.25
377.448	79.25
377.674	75.25
377.899	97.25
378.125	97.25
378.35	94.25
378.576	101.25
378.802	87.25
379.027	87.25
379.253	101.25
379.478	77.25
379.704	94.25
379.929	92.25
380.155	78.25
380.38	96.25
380.606	102.25
380.831	101.25
381.057	95.25
381.282	100.25
381.507	102.25
381.733	110.25
381.958	109.25
382.184	99.25
382.409	112.25
382.634	92.25
382.86	96.25
383.085	92.25
383.31	97.25
383.535	82.25
383.761	102.25
383.986	108.25
384.211	101.25
384.436	83.25
384.662	103.25
384.887	115.25
385.112	100.25
385.337	108.25
385.562	106.25
385.787	113.25
386.013	101.25
386.238	110.25
386.463	106.25
386.688	101.25
386.913	111.25
387.138	106.25
387.363	96.25
387.588	111.25
387.813	96.25
388.038	115.25
388.263	115.25
388.488	117.25
388.713	107.25
388.938	97.25
389.163	85.25
389.387	98.25
389.612	110.25
389.837	90.25
390.062	89.25
390.287	94.25
390.512	85.25
390.736	89.25
390.961	86.25
391.186	98.25
391.411	109.25
391.636	85.25
391.86	99.25
392.085	94.25
392.31	78.25
392.534	95.25
392.759	85.25
392.984	99.25
393.208	104.25
393.433	109.25
393.658	93.25
393.882	90.25
394.107	85.25
394.331	98.25
394.556	81.25
394.78	85.25
395.005	97.25
395.229	86.25
395.454	88.25
395.678	89.25
395.903	78.25
396.127	101.25
396.352	92.25
396.576	83.25
396.801	98.25
397.025	90.25
397.249	82.25
397.474	102.25
397.698	77.25
397.922	103.25
398.147	88.25
398.371	78.25
398.595	85.25
398.82	91.25
399.044	78.25
399.268	97.25
399.492	85.25
399.717	87.25
399.941	86.25
400.165	89.25
400.389	81.25
400.613	88.25
400.837	86.25
401.062	79.25
401.286	90.25
401.51	92.25
401.734	97.25
401.958	102.25
402.182	115.25
402.406	135.25
402.63	105.25
402.854	81.25
403.078	84.25
403.302	98.25
403.526	90.25
403.75	102.25
403.974	90.25
404.198	79.25
404.422	85.25
404.645	107.25
404.869	77.25
405.093	97.25
405.317	94.25
405.541	94.25
405.765	93.25
405.988	109.25
406.212	142.25
406.436	176.25
406.66	124.25
406.883	101.25
407.107	88.25
407.331	85.25
407.555	96.25
407.778	90.25
408.002	92.25
408.226	89.25
408.449	109.25
408.673	95.25
408.896	99.25
409.12	88.25
409.344	101.25
409.567	86.25
409.791	86.25
410.014	99.25
410.238	103.25
410.461	102.25
410.685	89.25
410.908	91.25
411.132	106.25
411.355	97.25
411.578	84.25
411.802	85.25
412.025	99.25
412.249	92.25
412.472	95.25
412.695	109.25
412.919	92.25
413.142	91.25
413.365	98.25
413.589	88.25
413.812	86.25
414.035	85.25
414.258	99.25
414.482	81.25
414.705	98.25
414.928	85.25
415.151	94.25
415.374	97.25
415.597	93.25
415.821	107.25
416.044	97.25
416.267	93.25
416.49	87.25
416.713	82.25
416.936	86.25
417.159	86.25
417.382	100.25
417.605	94.25
417.828	99.25
418.051	97.25
418.274	100.25
418.497	95.25
418.72	89.25
418.943	95.25
419.166	90.25
419.389	93.25
419.611	93.25
419.834	84.25
420.057	89.25
420.28	87.25
420.503	93.25
420.726	96.25
420.948	94.25
421.171	89.25
421.394	93.25
421.617	94.25
421.839	78.25
422.062	79.25
422.285	91.25
422.507	106.25
422.73	97.25
422.953	85.25
423.175	76.25
423.398	82.25
423.621	102.25
423.843	82.25
424.066	96.25
424.288	72.25
424.511	92.25
424.733	96.25
424.956	99.25
425.178	105.25
425.401	84.25
425.623	90.25
425.846	87.25
426.068	101.25
426.291	85.25
426.513	95.25
426.735	82.25
426.958	89.25
427.18	104.25
427.402	123.25
427.625	154.25
427.847	120.25
428.069	121.25
428.292	86.25
428.514	78.25
428.736	77.25
428.958	77.25
429.181	88.25
429.403	91.25
429.625	84.25
429.847	102.25
430.069	82.25
430.292	95.25
430.514	83.25
430.736	86.25
430.958	86.25
431.18	71.25
431.402	77.25
431.624	77.25
431.846	87.25
432.068	89.25
432.29	96.25
432.512	96.25
432.734	94.25
432.956	90.25
433.178	87.25
433.4	105.25
433.622	84.25
433.844	74.25
434.066	88.25
434.287	98.25
434.509	99.25
434.731	91.25
434.953	92.25
435.175	89.25
435.397	92.25
435.618	83.25
435.84	91.25
436.062	101.25
436.284	102.25
436.505	83.25
436.727	93.25
436.949	101.25
437.17	97.25
437.392	94.25
437.614	85.25
437.835	110.25
438.057	108.25
438.278	94.25
438.5	100.25
438.721	93.25
438.943	101.25
439.165	88.25
439.386	89.25
439.608	92.25
439.829	87.25
440.05	101.25
440.272	115.25
440.493	79.25
440.715	94.25
440.936	93.25
441.158	86.25
441.379	97.25
441.6	101.25
441.822	91.25
442.043	92.25
442.264	91.25
442.486	101.25
442.707	100.25
442.928	97.25
443.149	123.25
443.371	116.25
443.592	117.25
443.813	108.25
444.034	92.25
444.255	83.25
444.476	72.25
444.698	85.25
444.919	85.25
445.14	139.25
445.361	124.25
445.582	109.25
445.803	117.25
446.024	115.25
446.245	120.25
446.466	87.25
446.687	91.25
446.908	91.25
447.129	90.25
447.35	85.25
447.571	101.25
447.792	99.25
448.013	104.25
448.234	99.25
448.455	93.25
448.675	91.25
448.896	99.25
449.117	89.25
449.338	104.25
449.559	116.25
449.779	109.25
450	90.25
450.221	99.25
450.442	83.25
450.662	98.25
450.883	105.25
451.104	89.25
451.324	83.25
451.545	95.25
451.766	94.25
451.986	82.25
452.207	90.25
452.428	98.25
452.648	90.25
452.869	99.25
453.089	111.25
453.31	109.25
453.53	91.25
453.751	95.25
453.971	99.25
454.192	100.25
454.412	104.25
454.633	87.25
454.853	98.25
455.073	101.25
455.294	87.25
455.514	91.25
455.734	90.25
455.955	89.25
456.175	84.25
456.395	75.25
456.616	79.25
456.836	94.25
457.056	78.25
457.276	89.25
457.497	85.25
457.717	66.25
457.937	86.25
458.157	93.25
458.377	94.25
458.598	108.25
458.818	121.25
459.038	124.25
459.258	90.25
459.478	85.25
459.698	70.25
459.918	89.25
460.138	91.25
460.358	89.25
460.578	98.25
460.798	94.25
461.018	84.25
461.238	82.25
461.458	96.25
461.678	75.25
461.898	87.25
462.118	91.25
462.338	81.25
462.558	91.25
462.777	88.25
462.997	91.25
463.217	85.25
463.437	83.25
463.657	84.25
463.876	89.25
464.096	97.25
464.316	93.25
464.536	97.25
464.755	90.25
464.975	99.25
465.195	121.25
465.414	119.25
465.634	90.25
465.854	75.25
466.073	74.25
466.293	84.25
466.512	95.25
466.732	81.25
466.951	79.25
467.171	98.25
467.391	97.25
467.61	107.25
467.829	95.25
468.049	118.25
468.268	134.25
468.488	100.25
468.707	92.25
468.927	85.25
469.146	88.25
469.365	86.25
469.585	93.25
469.804	88.25
470.023	79.25
470.243	90.25
470.462	101.25
470.681	118.25
470.901	100.25
471.12	89.25
471.339	74.25
471.558	92.25
471.777	95.25
471.997	99.25
472.216	156.25
472.435	267.25
472.654	124.25
472.873	100.25
473.092	81.25
473.311	92.25
473.53	86.25
473.749	92.25
473.968	82.25
474.187	92.25
474.406	101.25
474.625	102.25
474.844	81.25
475.063	81.25
475.282	75.25
475.501	87.25
475.72	91.25
475.939	92.25
476.158	97.25
476.377	89.25
476.596	99.25
476.814	78.25
477.033	93.25
477.252	101.25
477.471	85.25
477.69	97.25
477.908	97.25
478.127	77.25
478.346	89.25
478.564	86.25
478.783	97.25
479.002	76.25
479.22	78.25
479.439	97.25
479.658	100.25
479.876	84.25
480.095	90.25
480.313	93.25
480.532	101.25
480.751	110.25
480.969	172.25
481.188	442.25
481.406	275.25
481.624	113.25
481.843	79.25
482.061	99.25
482.28	84.25
482.498	81.25
482.717	84.25
482.935	87.25
483.153	99.25
483.372	92.25
483.59	90.25
483.808	93.25
484.027	87.25
484.245	100.25
484.463	83.25
484.681	91.25
484.9	92.25
485.118	96.25
485.336	84.25
485.554	108.25
485.772	90.25
485.99	92.25
486.209	102.25
486.427	99.25
486.645	102.25
486.863	115.25
487.081	83.25
487.299	95.25
487.517	81.25
487.735	91.25
487.953	91.25
488.171	108.25
488.389	95.25
488.607	102.25
488.825	90.25
489.043	85.25
489.261	89.25
489.479	89.25
489.696	106.25
489.914	90.25
490.132	94.25
490.35	83.25
490.568	87.25
490.786	95.25
491.003	95.25
491.221	98.25
491.439	97.25
491.657	86.25
491.874	98.25
492.092	91.25
492.31	90.25
492.527	73.25
492.745	88.25
492.963	78.25
493.18	91.25
493.398	89.25
493.615	86.25
493.833	93.25
494.05	94.25
494.268	104.25
494.485	85.25
494.703	89.25
494.92	89.25
495.138	83.25
495.355	86.25
495.573	88.25
495.79	83.25
496.008	108.25
496.225	92.25
496.442	82.25
496.66	89.25
496.877	91.25
497.094	86.25
497.312	83.25
497.529	102.25
497.746	81.25
497.963	91.25
498.181	90.25
498.398	88.25
498.615	105.25
498.832	98.25
499.049	96.25
499.267	89.25
499.484	92.25
499.701	98.25
499.918	89.25
500.135	100.25
500.352	70.25
500.569	87.25
500.786	99.25
501.003	92.25
501.22	109.25
501.437	105.25
501.654	91.25
501.871	111.25
502.088	98.25
502.305	97.25
502.522	96.25
502.739	90.25
502.956	89.25
503.172	87.25
503.389	93.25
503.606	100.25
503.823	96.25
504.04	83.25
504.256	91.25
504.473	109.25
504.69	75.25
504.907	87.25
505.123	81.25
505.34	91.25
505.557	77.25
505.773	91.25
505.99	95.25
506.207	102.25
506.423	77.25
506.64	95.25
506.856	86.25
507.073	91.25
507.289	86.25
507.506	95.25
507.722	94.25
507.939	89.25
508.155	80.25
508.372	87.25
508.588	81.25
508.805	67.25
509.021	95.25
509.238	70.25
509.454	107.25
509.67	105.25
509.887	97.25
510.103	110.25
510.319	185.25
510.536	541.25
510.752	1621.25
510.968	448.25
511.184	130.25
511.401	102.25
511.617	103.25
511.833	104.25
512.049	97.25
512.265	86.25
512.481	96.25
512.698	75.25
512.914	91.25
513.13	97.25
513.346	87.25
513.562	94.25
513.778	89.25
513.994	99.25
514.21	106.25
514.426	94.25
514.642	112.25
514.858	91.25
515.074	132.25
515.29	307.25
515.506	941.25
515.721	357.25
515.937	127.25
