Data from Circ_1983_H10_HRD10591_00098.txt Node
Date: Wed Jan 03 12:27:04 EST 2024
User: Yrep
Spectrometer: HR+D1059
Trigger mode: 1
Integration Time (sec): 1.000000E-1
Scans to average: 1
Electric dark correction enabled: true
Nonlinearity correction enabled: false
Boxcar width: 0
XAxis mode: Wavelengths
Number of Pixels in Spectrum: 2048
>>>>>Begin Spectral Data<<<<<
223.165	-3.88
223.4	-3.88
223.635	-3.88
223.869	-8.88
224.104	-14.88
224.338	-23.88
224.573	-31.88
224.808	-12.88
225.042	-8.88
225.277	4.12
225.511	-1.88
225.746	-4.88
225.98	7.12
226.215	0.12
226.449	20.12
226.683	19.12
226.918	24.12
227.152	37.12
227.387	30.12
227.621	31.12
227.856	55.12
228.09	31.12
228.324	60.12
228.559	74.12
228.793	65.12
229.027	62.12
229.262	63.12
229.496	57.12
229.73	64.12
229.964	73.12
230.199	71.12
230.433	85.12
230.667	86.12
230.901	82.12
231.136	83.12
231.37	84.12
231.604	76.12
231.838	74.12
232.072	83.12
232.306	78.12
232.541	82.12
232.775	72.12
233.009	76.12
233.243	82.12
233.477	72.12
233.711	75.12
233.945	89.12
234.179	73.12
234.413	69.12
234.647	90.12
234.881	88.12
235.115	72.12
235.349	84.12
235.583	74.12
235.817	77.12
236.051	66.12
236.285	89.12
236.519	83.12
236.753	73.12
236.987	81.12
237.221	82.12
237.455	73.12
237.689	76.12
237.922	81.12
238.156	72.12
238.39	72.12
238.624	92.12
238.858	79.12
239.091	61.12
239.325	74.12
239.559	94.12
239.793	86.12
240.027	87.12
240.26	74.12
240.494	67.12
240.728	73.12
240.961	72.12
241.195	70.12
241.429	85.12
241.662	89.12
241.896	55.12
242.13	74.12
242.363	72.12
242.597	75.12
242.83	62.12
243.064	79.12
243.298	74.12
243.531	75.12
243.765	88.12
243.998	76.12
244.232	75.12
244.465	80.12
244.699	83.12
244.932	73.12
245.166	59.12
245.399	66.12
245.633	75.12
245.866	73.12
246.099	67.12
246.333	89.12
246.566	74.12
246.8	83.12
247.033	85.12
247.266	85.12
247.5	74.12
247.733	84.12
247.966	70.12
248.2	71.12
248.433	87.12
248.666	78.12
248.899	79.12
249.133	85.12
249.366	104.12
249.599	88.12
249.832	93.12
250.066	75.12
250.299	87.12
250.532	76.12
250.765	79.12
250.998	73.12
251.231	88.12
251.465	81.12
251.698	68.12
251.931	83.12
252.164	93.12
252.397	84.12
252.63	90.12
252.863	79.12
253.096	79.12
253.329	82.12
253.562	84.12
253.795	72.12
254.028	76.12
254.261	76.12
254.494	64.12
254.727	83.12
254.96	79.12
255.193	76.12
255.426	89.12
255.659	88.12
255.892	87.12
256.124	76.12
256.357	79.12
256.59	87.12
256.823	74.12
257.056	91.12
257.289	72.12
257.521	86.12
257.754	96.12
257.987	84.12
258.22	77.12
258.452	85.12
258.685	75.12
258.918	79.12
259.151	93.12
259.383	89.12
259.616	84.12
259.849	75.12
260.081	75.12
260.314	80.12
260.547	79.12
260.779	67.12
261.012	88.12
261.244	87.12
261.477	92.12
261.71	89.12
261.942	108.12
262.175	103.12
262.407	79.12
262.64	80.12
262.872	87.12
263.105	73.12
263.337	87.12
263.57	74.12
263.802	84.12
264.035	87.12
264.267	72.12
264.499	77.12
264.732	87.12
264.964	89.12
265.197	89.12
265.429	63.12
265.661	74.12
265.894	90.12
266.126	88.12
266.358	85.12
266.591	68.12
266.823	79.12
267.055	79.12
267.287	86.12
267.52	71.12
267.752	86.12
267.984	75.12
268.216	83.12
268.448	99.12
268.681	98.12
268.913	87.12
269.145	78.12
269.377	80.12
269.609	86.12
269.841	80.12
270.073	96.12
270.306	89.12
270.538	85.12
270.77	77.12
271.002	79.12
271.234	91.12
271.466	78.12
271.698	94.12
271.93	64.12
272.162	83.12
272.394	87.12
272.626	85.12
272.858	87.12
273.09	84.12
273.322	89.12
273.553	87.12
273.785	95.12
274.017	93.12
274.249	74.12
274.481	93.12
274.713	99.12
274.945	82.12
275.176	85.12
275.408	90.12
275.64	86.12
275.872	83.12
276.104	92.12
276.335	82.12
276.567	81.12
276.799	117.12
277.031	81.12
277.262	108.12
277.494	98.12
277.726	97.12
277.957	83.12
278.189	87.12
278.421	80.12
278.652	90.12
278.884	86.12
279.115	84.12
279.347	90.12
279.579	71.12
279.81	92.12
280.042	92.12
280.273	105.12
280.505	88.12
280.736	74.12
280.968	74.12
281.199	92.12
281.431	92.12
281.662	92.12
281.894	86.12
282.125	96.12
282.356	117.12
282.588	132.12
282.819	100.12
283.051	92.12
283.282	95.12
283.513	95.12
283.745	98.12
283.976	87.12
284.207	88.12
284.439	89.12
284.67	85.12
284.901	81.12
285.132	86.12
285.364	93.12
285.595	91.12
285.826	84.12
286.057	92.12
286.288	90.12
286.52	81.12
286.751	95.12
286.982	96.12
287.213	71.12
287.444	79.12
287.675	90.12
287.906	87.12
288.138	72.12
288.369	88.12
288.6	89.12
288.831	102.12
289.062	84.12
289.293	100.12
289.524	93.12
289.755	91.12
289.986	82.12
290.217	98.12
290.448	100.12
290.679	87.12
290.91	94.12
291.141	85.12
291.371	96.12
291.602	81.12
291.833	90.12
292.064	83.12
292.295	92.12
292.526	93.12
292.757	93.12
292.987	95.12
293.218	87.12
293.449	89.12
293.68	86.12
293.91	83.12
294.141	102.12
294.372	97.12
294.603	89.12
294.833	92.12
295.064	76.12
295.295	78.12
295.525	87.12
295.756	102.12
295.987	108.12
296.217	119.12
296.448	115.12
296.679	93.12
296.909	102.12
297.14	92.12
297.37	92.12
297.601	91.12
297.831	92.12
298.062	108.12
298.292	91.12
298.523	85.12
298.753	83.12
298.984	94.12
299.214	94.12
299.445	87.12
299.675	100.12
299.905	99.12
300.136	89.12
300.366	92.12
300.597	100.12
300.827	92.12
301.057	88.12
301.288	100.12
301.518	97.12
301.748	89.12
301.979	107.12
302.209	101.12
302.439	97.12
302.669	95.12
302.9	100.12
303.13	94.12
303.36	85.12
303.59	93.12
303.82	90.12
304.051	91.12
304.281	93.12
304.511	91.12
304.741	86.12
304.971	86.12
305.201	87.12
305.431	108.12
305.661	81.12
305.891	114.12
306.121	94.12
306.352	104.12
306.582	105.12
306.812	120.12
307.042	92.12
307.272	100.12
307.502	117.12
307.731	117.12
307.961	86.12
308.191	85.12
308.421	95.12
308.651	86.12
308.881	104.12
309.111	99.12
309.341	99.12
309.571	105.12
309.8	90.12
310.03	95.12
310.26	104.12
310.49	101.12
310.72	107.12
310.949	107.12
311.179	76.12
311.409	87.12
311.639	103.12
311.868	80.12
312.098	96.12
312.328	90.12
312.557	104.12
312.787	109.12
313.017	102.12
313.246	95.12
313.476	76.12
313.706	95.12
313.935	81.12
314.165	96.12
314.394	91.12
314.624	99.12
314.853	98.12
315.083	93.12
315.312	100.12
315.542	89.12
315.771	100.12
316.001	94.12
316.23	97.12
316.46	89.12
316.689	101.12
316.919	87.12
317.148	95.12
317.377	113.12
317.607	91.12
317.836	109.12
318.065	87.12
318.295	93.12
318.524	84.12
318.753	88.12
318.983	95.12
319.212	106.12
319.441	109.12
319.67	93.12
319.9	81.12
320.129	87.12
320.358	97.12
320.587	94.12
320.816	97.12
321.046	90.12
321.275	87.12
321.504	108.12
321.733	77.12
321.962	95.12
322.191	113.12
322.42	109.12
322.649	110.12
322.878	104.12
323.108	96.12
323.337	113.12
323.566	121.12
323.795	141.12
324.024	159.12
324.253	323.12
324.482	659.12
324.71	1304.12
324.939	1708.12
325.168	616.12
325.397	208.12
325.626	147.12
325.855	121.12
326.084	121.12
326.313	120.12
326.542	127.12
326.77	201.12
326.999	341.12
327.228	727.12
327.457	1335.12
327.686	1044.12
327.914	309.12
328.143	207.12
328.372	196.12
328.6	137.12
328.829	116.12
329.058	120.12
329.287	123.12
329.515	111.12
329.744	121.12
329.972	165.12
330.201	204.12
330.43	293.12
330.658	172.12
330.887	133.12
331.115	121.12
331.344	92.12
331.572	108.12
331.801	103.12
332.03	103.12
332.258	98.12
332.486	99.12
332.715	97.12
332.943	101.12
333.172	105.12
333.4	107.12
333.629	101.12
333.857	121.12
334.085	158.12
334.314	211.12
334.542	359.12
334.771	315.12
334.999	132.12
335.227	125.12
335.455	108.12
335.684	95.12
335.912	99.12
336.14	102.12
336.369	90.12
336.597	96.12
336.825	112.12
337.053	108.12
337.281	102.12
337.51	86.12
337.738	93.12
337.966	91.12
338.194	107.12
338.422	97.12
338.65	97.12
338.878	98.12
339.106	88.12
339.334	91.12
339.562	93.12
339.79	104.12
340.018	85.12
340.246	88.12
340.474	88.12
340.702	96.12
340.93	90.12
341.158	79.12
341.386	97.12
341.614	93.12
341.842	94.12
342.07	88.12
342.298	95.12
342.526	88.12
342.754	94.12
342.981	85.12
343.209	106.12
343.437	90.12
343.665	97.12
343.893	86.12
344.12	79.12
344.348	84.12
344.576	94.12
344.804	88.12
345.031	95.12
345.259	85.12
345.487	105.12
345.714	98.12
345.942	97.12
346.17	91.12
346.397	99.12
346.625	111.12
346.853	85.12
347.08	89.12
347.308	99.12
347.535	97.12
347.763	91.12
347.99	81.12
348.218	95.12
348.445	106.12
348.673	94.12
348.9	98.12
349.128	86.12
349.355	89.12
349.583	95.12
349.81	94.12
350.037	91.12
350.265	95.12
350.492	89.12
350.72	91.12
350.947	96.12
351.174	104.12
351.402	105.12
351.629	90.12
351.856	80.12
352.083	98.12
352.311	101.12
352.538	119.12
352.765	95.12
352.992	101.12
353.22	107.12
353.447	97.12
353.674	84.12
353.901	99.12
354.128	88.12
354.355	107.12
354.583	111.12
354.81	93.12
355.037	95.12
355.264	103.12
355.491	96.12
355.718	100.12
355.945	89.12
356.172	94.12
356.399	87.12
356.626	95.12
356.853	98.12
357.08	101.12
357.307	96.12
357.534	81.12
357.761	95.12
357.988	90.12
358.215	103.12
358.441	103.12
358.668	110.12
358.895	102.12
359.122	76.12
359.349	103.12
359.576	99.12
359.802	81.12
360.029	108.12
360.256	107.12
360.483	104.12
360.709	95.12
360.936	90.12
361.163	98.12
361.39	89.12
361.616	97.12
361.843	92.12
362.07	73.12
362.296	100.12
362.523	92.12
362.749	85.12
362.976	91.12
363.203	95.12
363.429	83.12
363.656	94.12
363.882	85.12
364.109	92.12
364.335	86.12
364.562	82.12
364.788	95.12
365.015	78.12
365.241	100.12
365.468	103.12
365.694	101.12
365.92	92.12
366.147	94.12
366.373	88.12
366.599	76.12
366.826	77.12
367.052	80.12
367.278	83.12
367.505	97.12
367.731	95.12
367.957	98.12
368.184	82.12
368.41	108.12
368.636	101.12
368.862	116.12
369.089	101.12
369.315	92.12
369.541	85.12
369.767	91.12
369.993	75.12
370.219	84.12
370.445	85.12
370.672	89.12
370.898	96.12
371.124	77.12
371.35	97.12
371.576	98.12
371.802	92.12
372.028	81.12
372.254	90.12
372.48	81.12
372.706	83.12
372.932	93.12
373.158	90.12
373.384	87.12
373.61	75.12
373.835	77.12
374.061	81.12
374.287	79.12
374.513	74.12
374.739	89.12
374.965	89.12
375.191	92.12
375.416	105.12
375.642	106.12
375.868	86.12
376.094	90.12
376.319	76.12
376.545	97.12
376.771	89.12
376.997	89.12
377.222	82.12
377.448	91.12
377.674	95.12
377.899	85.12
378.125	91.12
378.35	91.12
378.576	89.12
378.802	83.12
379.027	85.12
379.253	93.12
379.478	92.12
379.704	93.12
379.929	88.12
380.155	85.12
380.38	124.12
380.606	83.12
380.831	98.12
381.057	98.12
381.282	102.12
381.507	97.12
381.733	103.12
381.958	95.12
382.184	99.12
382.409	98.12
382.634	87.12
382.86	102.12
383.085	94.12
383.31	115.12
383.535	104.12
383.761	91.12
383.986	101.12
384.211	85.12
384.436	100.12
384.662	91.12
384.887	109.12
385.112	107.12
385.337	104.12
385.562	104.12
385.787	97.12
386.013	116.12
386.238	115.12
386.463	100.12
386.688	115.12
386.913	101.12
387.138	103.12
387.363	100.12
387.588	106.12
387.813	110.12
388.038	99.12
388.263	103.12
388.488	105.12
388.713	99.12
388.938	88.12
389.163	87.12
389.387	90.12
389.612	88.12
389.837	99.12
390.062	91.12
390.287	93.12
390.512	99.12
390.736	89.12
390.961	94.12
391.186	100.12
391.411	95.12
391.636	79.12
391.86	69.12
392.085	89.12
392.31	87.12
392.534	96.12
392.759	98.12
392.984	85.12
393.208	86.12
393.433	96.12
393.658	101.12
393.882	87.12
394.107	72.12
394.331	89.12
394.556	101.12
394.78	100.12
395.005	92.12
395.229	89.12
395.454	73.12
395.678	83.12
395.903	81.12
396.127	95.12
396.352	84.12
396.576	87.12
396.801	79.12
397.025	103.12
397.249	71.12
397.474	86.12
397.698	96.12
397.922	89.12
398.147	91.12
398.371	84.12
398.595	81.12
398.82	98.12
399.044	83.12
399.268	84.12
399.492	84.12
399.717	92.12
399.941	86.12
400.165	97.12
400.389	85.12
400.613	97.12
400.837	61.12
401.062	83.12
401.286	71.12
401.51	73.12
401.734	84.12
401.958	87.12
402.182	112.12
402.406	139.12
402.63	115.12
402.854	83.12
403.078	98.12
403.302	87.12
403.526	83.12
403.75	87.12
403.974	88.12
404.198	84.12
404.422	92.12
404.645	88.12
404.869	92.12
405.093	81.12
405.317	101.12
405.541	101.12
405.765	85.12
405.988	111.12
406.212	139.12
406.436	181.12
406.66	129.12
406.883	85.12
407.107	92.12
407.331	97.12
407.555	102.12
407.778	96.12
408.002	79.12
408.226	83.12
408.449	107.12
408.673	99.12
408.896	88.12
409.12	107.12
409.344	88.12
409.567	84.12
409.791	75.12
410.014	105.12
410.238	101.12
410.461	104.12
410.685	89.12
410.908	102.12
411.132	100.12
411.355	92.12
411.578	75.12
411.802	89.12
412.025	106.12
412.249	79.12
412.472	87.12
412.695	98.12
412.919	86.12
413.142	91.12
413.365	91.12
413.589	76.12
413.812	82.12
414.035	88.12
414.258	95.12
414.482	99.12
414.705	86.12
414.928	81.12
415.151	96.12
415.374	93.12
415.597	92.12
415.821	84.12
416.044	86.12
416.267	83.12
416.49	92.12
416.713	84.12
416.936	97.12
417.159	81.12
417.382	88.12
417.605	77.12
417.828	89.12
418.051	89.12
418.274	106.12
418.497	91.12
418.72	75.12
418.943	94.12
419.166	79.12
419.389	96.12
419.611	81.12
419.834	84.12
420.057	86.12
420.28	95.12
420.503	92.12
420.726	88.12
420.948	87.12
421.171	101.12
421.394	91.12
421.617	69.12
421.839	89.12
422.062	92.12
422.285	96.12
422.507	104.12
422.73	79.12
422.953	94.12
423.175	91.12
423.398	91.12
423.621	83.12
423.843	86.12
424.066	85.12
424.288	93.12
424.511	87.12
424.733	92.12
424.956	84.12
425.178	97.12
425.401	91.12
425.623	99.12
425.846	105.12
426.068	85.12
426.291	84.12
426.513	96.12
426.735	94.12
426.958	92.12
427.18	84.12
427.402	131.12
427.625	145.12
427.847	135.12
428.069	136.12
428.292	96.12
428.514	89.12
428.736	88.12
428.958	82.12
429.181	76.12
429.403	91.12
429.625	83.12
429.847	89.12
430.069	105.12
430.292	87.12
430.514	91.12
430.736	100.12
430.958	81.12
431.18	86.12
431.402	81.12
431.624	73.12
431.846	88.12
432.068	99.12
432.29	92.12
432.512	89.12
432.734	95.12
432.956	80.12
433.178	89.12
433.4	93.12
433.622	99.12
433.844	80.12
434.066	92.12
434.287	95.12
434.509	89.12
434.731	87.12
434.953	100.12
435.175	77.12
435.397	89.12
435.618	97.12
435.84	88.12
436.062	108.12
436.284	99.12
436.505	83.12
436.727	98.12
436.949	90.12
437.17	97.12
437.392	90.12
437.614	79.12
437.835	87.12
438.057	101.12
438.278	112.12
438.5	97.12
438.721	117.12
438.943	87.12
439.165	79.12
439.386	82.12
439.608	79.12
439.829	102.12
440.05	114.12
440.272	119.12
440.493	92.12
440.715	90.12
440.936	95.12
441.158	68.12
441.379	84.12
441.6	90.12
441.822	85.12
442.043	75.12
442.264	102.12
442.486	87.12
442.707	85.12
442.928	97.12
443.149	114.12
443.371	117.12
443.592	109.12
443.813	115.12
444.034	103.12
444.255	109.12
444.476	84.12
444.698	73.12
444.919	73.12
445.14	116.12
445.361	113.12
445.582	100.12
445.803	116.12
446.024	114.12
446.245	113.12
446.466	103.12
446.687	102.12
446.908	88.12
447.129	98.12
447.35	84.12
447.571	89.12
447.792	97.12
448.013	93.12
448.234	102.12
448.455	107.12
448.675	102.12
448.896	103.12
449.117	92.12
449.338	107.12
449.559	116.12
449.779	109.12
450	79.12
450.221	79.12
450.442	95.12
450.662	98.12
450.883	96.12
451.104	105.12
451.324	89.12
451.545	77.12
451.766	74.12
451.986	85.12
452.207	86.12
452.428	91.12
452.648	91.12
452.869	85.12
453.089	107.12
453.31	109.12
453.53	87.12
453.751	88.12
453.971	108.12
454.192	101.12
454.412	85.12
454.633	90.12
454.853	77.12
455.073	91.12
455.294	79.12
455.514	90.12
455.734	83.12
455.955	82.12
456.175	72.12
456.395	81.12
456.616	97.12
456.836	89.12
457.056	79.12
457.276	77.12
457.497	84.12
457.717	72.12
457.937	84.12
458.157	95.12
458.377	77.12
458.598	103.12
458.818	124.12
459.038	127.12
459.258	99.12
459.478	84.12
459.698	93.12
459.918	83.12
460.138	81.12
460.358	83.12
460.578	63.12
460.798	84.12
461.018	99.12
461.238	98.12
461.458	86.12
461.678	82.12
461.898	91.12
462.118	85.12
462.338	81.12
462.558	88.12
462.777	83.12
462.997	93.12
463.217	80.12
463.437	93.12
463.657	78.12
463.876	81.12
464.096	85.12
464.316	88.12
464.536	77.12
464.755	89.12
464.975	97.12
465.195	139.12
465.414	125.12
465.634	85.12
465.854	92.12
466.073	83.12
466.293	96.12
466.512	93.12
466.732	82.12
466.951	77.12
467.171	83.12
467.391	108.12
467.61	105.12
467.829	115.12
468.049	142.12
468.268	198.12
468.488	104.12
468.707	85.12
468.927	85.12
469.146	92.12
469.365	84.12
469.585	78.12
469.804	103.12
470.023	81.12
470.243	90.12
470.462	99.12
470.681	106.12
470.901	104.12
471.12	96.12
471.339	87.12
471.558	95.12
471.777	87.12
471.997	122.12
472.216	248.12
472.435	484.12
472.654	154.12
472.873	97.12
473.092	89.12
473.311	87.12
473.53	76.12
473.749	91.12
473.968	110.12
474.187	95.12
474.406	84.12
474.625	81.12
474.844	87.12
475.063	79.12
475.282	86.12
475.501	72.12
475.72	84.12
475.939	76.12
476.158	75.12
476.377	74.12
476.596	91.12
476.814	99.12
477.033	83.12
477.252	88.12
477.471	89.12
477.69	88.12
477.908	102.12
478.127	74.12
478.346	101.12
478.564	81.12
478.783	89.12
479.002	87.12
479.22	94.12
479.439	104.12
479.658	104.12
479.876	100.12
480.095	86.12
480.313	88.12
480.532	116.12
480.751	134.12
480.969	266.12
481.188	803.12
481.406	467.12
481.624	131.12
481.843	75.12
482.061	81.12
482.28	87.12
482.498	89.12
482.717	91.12
482.935	79.12
483.153	78.12
483.372	89.12
483.59	82.12
483.808	90.12
484.027	109.12
484.245	98.12
484.463	88.12
484.681	99.12
484.9	88.12
485.118	103.12
485.336	85.12
485.554	94.12
485.772	95.12
485.99	93.12
486.209	106.12
486.427	97.12
486.645	102.12
486.863	109.12
487.081	100.12
487.299	89.12
487.517	77.12
487.735	84.12
487.953	97.12
488.171	91.12
488.389	87.12
488.607	88.12
488.825	88.12
489.043	85.12
489.261	86.12
489.479	90.12
489.696	90.12
489.914	82.12
490.132	92.12
490.35	81.12
490.568	97.12
490.786	90.12
491.003	92.12
491.221	97.12
491.439	91.12
491.657	100.12
491.874	87.12
492.092	80.12
492.31	95.12
492.527	87.12
492.745	100.12
492.963	99.12
493.18	81.12
493.398	81.12
493.615	98.12
493.833	98.12
494.05	104.12
494.268	85.12
494.485	81.12
494.703	85.12
494.92	100.12
495.138	73.12
495.355	87.12
495.573	95.12
495.79	95.12
496.008	89.12
496.225	90.12
496.442	88.12
496.66	89.12
496.877	95.12
497.094	87.12
497.312	97.12
497.529	99.12
497.746	73.12
497.963	80.12
498.181	97.12
498.398	99.12
498.615	105.12
498.832	84.12
499.049	84.12
499.267	83.12
499.484	96.12
499.701	72.12
499.918	90.12
500.135	93.12
500.352	77.12
500.569	86.12
500.786	96.12
501.003	75.12
501.22	89.12
501.437	92.12
501.654	88.12
501.871	105.12
502.088	84.12
502.305	95.12
502.522	85.12
502.739	91.12
502.956	89.12
503.172	88.12
503.389	89.12
503.606	104.12
503.823	101.12
504.04	86.12
504.256	91.12
504.473	81.12
504.69	85.12
504.907	98.12
505.123	98.12
505.34	91.12
505.557	79.12
505.773	103.12
505.99	77.12
506.207	80.12
506.423	89.12
506.64	82.12
506.856	94.12
507.073	89.12
507.289	87.12
507.506	102.12
507.722	109.12
507.939	101.12
508.155	90.12
508.372	103.12
508.588	101.12
508.805	96.12
509.021	95.12
509.238	96.12
509.454	89.12
509.67	99.12
509.887	100.12
510.103	107.12
510.319	182.12
510.536	612.12
510.752	1813.12
510.968	525.12
511.184	141.12
511.401	103.12
511.617	87.12
511.833	87.12
512.049	96.12
512.265	88.12
512.481	89.12
512.698	88.12
512.914	89.12
513.13	91.12
513.346	84.12
513.562	93.12
513.778	95.12
513.994	89.12
514.21	95.12
514.426	100.12
514.642	121.12
514.858	115.12
515.074	142.12
515.29	355.12
515.506	1109.12
515.721	425.12
515.937	126.12
