Data from Circ_1983_H10_HRD10591_00071.txt Node
Date: Wed Jan 03 12:26:59 EST 2024
User: Yrep
Spectrometer: HR+D1059
Trigger mode: 1
Integration Time (sec): 1.000000E-1
Scans to average: 1
Electric dark correction enabled: true
Nonlinearity correction enabled: false
Boxcar width: 0
XAxis mode: Wavelengths
Number of Pixels in Spectrum: 2048
>>>>>Begin Spectral Data<<<<<
223.165	-19.75
223.4	-19.75
223.635	-19.75
223.869	-23.75
224.104	-8.75
224.338	-21.75
224.573	-9.75
224.808	-20.75
225.042	-7.75
225.277	-10.75
225.511	8.25
225.746	2.25
225.98	26.25
226.215	15.25
226.449	10.25
226.683	17.25
226.918	15.25
227.152	28.25
227.387	26.25
227.621	39.25
227.856	52.25
228.09	53.25
228.324	53.25
228.559	52.25
228.793	58.25
229.027	67.25
229.262	83.25
229.496	59.25
229.73	81.25
229.964	84.25
230.199	80.25
230.433	77.25
230.667	73.25
230.901	61.25
231.136	96.25
231.37	81.25
231.604	75.25
231.838	94.25
232.072	77.25
232.306	77.25
232.541	82.25
232.775	82.25
233.009	89.25
233.243	79.25
233.477	74.25
233.711	76.25
233.945	84.25
234.179	74.25
234.413	86.25
234.647	83.25
234.881	86.25
235.115	93.25
235.349	88.25
235.583	63.25
235.817	78.25
236.051	72.25
236.285	88.25
236.519	80.25
236.753	69.25
236.987	71.25
237.221	89.25
237.455	85.25
237.689	88.25
237.922	80.25
238.156	84.25
238.39	74.25
238.624	70.25
238.858	71.25
239.091	79.25
239.325	78.25
239.559	87.25
239.793	89.25
240.027	71.25
240.26	72.25
240.494	85.25
240.728	73.25
240.961	75.25
241.195	85.25
241.429	77.25
241.662	82.25
241.896	79.25
242.13	65.25
242.363	87.25
242.597	83.25
242.83	75.25
243.064	86.25
243.298	70.25
243.531	67.25
243.765	76.25
243.998	86.25
244.232	83.25
244.465	86.25
244.699	84.25
244.932	89.25
245.166	80.25
245.399	73.25
245.633	73.25
245.866	96.25
246.099	60.25
246.333	73.25
246.566	74.25
246.8	79.25
247.033	57.25
247.266	73.25
247.5	85.25
247.733	87.25
247.966	82.25
248.2	79.25
248.433	74.25
248.666	81.25
248.899	77.25
249.133	89.25
249.366	83.25
249.599	104.25
249.832	78.25
250.066	89.25
250.299	87.25
250.532	82.25
250.765	81.25
250.998	85.25
251.231	86.25
251.465	72.25
251.698	97.25
251.931	75.25
252.164	70.25
252.397	82.25
252.63	89.25
252.863	87.25
253.096	83.25
253.329	71.25
253.562	73.25
253.795	80.25
254.028	85.25
254.261	84.25
254.494	88.25
254.727	89.25
254.96	82.25
255.193	95.25
255.426	75.25
255.659	81.25
255.892	87.25
256.124	83.25
256.357	85.25
256.59	95.25
256.823	86.25
257.056	84.25
257.289	89.25
257.521	97.25
257.754	87.25
257.987	84.25
258.22	82.25
258.452	76.25
258.685	84.25
258.918	98.25
259.151	85.25
259.383	91.25
259.616	88.25
259.849	77.25
260.081	89.25
260.314	76.25
260.547	76.25
260.779	88.25
261.012	83.25
261.244	76.25
261.477	95.25
261.71	79.25
261.942	107.25
262.175	107.25
262.407	88.25
262.64	75.25
262.872	85.25
263.105	69.25
263.337	99.25
263.57	86.25
263.802	75.25
264.035	87.25
264.267	84.25
264.499	89.25
264.732	83.25
264.964	87.25
265.197	88.25
265.429	78.25
265.661	75.25
265.894	103.25
266.126	84.25
266.358	81.25
266.591	73.25
266.823	88.25
267.055	89.25
267.287	92.25
267.52	75.25
267.752	83.25
267.984	100.25
268.216	89.25
268.448	98.25
268.681	76.25
268.913	83.25
269.145	95.25
269.377	85.25
269.609	85.25
269.841	106.25
270.073	84.25
270.306	88.25
270.538	94.25
270.77	73.25
271.002	88.25
271.234	80.25
271.466	104.25
271.698	90.25
271.93	82.25
272.162	79.25
272.394	80.25
272.626	82.25
272.858	100.25
273.09	79.25
273.322	98.25
273.553	103.25
273.785	100.25
274.017	92.25
274.249	91.25
274.481	71.25
274.713	86.25
274.945	85.25
275.176	81.25
275.408	84.25
275.64	92.25
275.872	98.25
276.104	99.25
276.335	93.25
276.567	104.25
276.799	101.25
277.031	91.25
277.262	86.25
277.494	90.25
277.726	95.25
277.957	79.25
278.189	76.25
278.421	83.25
278.652	92.25
278.884	83.25
279.115	97.25
279.347	88.25
279.579	94.25
279.81	89.25
280.042	106.25
280.273	95.25
280.505	89.25
280.736	76.25
280.968	90.25
281.199	83.25
281.431	85.25
281.662	76.25
281.894	84.25
282.125	100.25
282.356	118.25
282.588	123.25
282.819	97.25
283.051	79.25
283.282	85.25
283.513	88.25
283.745	80.25
283.976	83.25
284.207	99.25
284.439	98.25
284.67	84.25
284.901	95.25
285.132	86.25
285.364	87.25
285.595	87.25
285.826	92.25
286.057	82.25
286.288	89.25
286.52	84.25
286.751	102.25
286.982	103.25
287.213	85.25
287.444	74.25
287.675	88.25
287.906	99.25
288.138	103.25
288.369	109.25
288.6	97.25
288.831	81.25
289.062	84.25
289.293	84.25
289.524	88.25
289.755	89.25
289.986	86.25
290.217	79.25
290.448	101.25
290.679	89.25
290.91	87.25
291.141	96.25
291.371	101.25
291.602	99.25
291.833	74.25
292.064	84.25
292.295	72.25
292.526	89.25
292.757	74.25
292.987	89.25
293.218	87.25
293.449	84.25
293.68	85.25
293.91	83.25
294.141	84.25
294.372	86.25
294.603	93.25
294.833	93.25
295.064	76.25
295.295	95.25
295.525	97.25
295.756	105.25
295.987	103.25
296.217	122.25
296.448	130.25
296.679	90.25
296.909	91.25
297.14	96.25
297.37	94.25
297.601	77.25
297.831	75.25
298.062	91.25
298.292	89.25
298.523	98.25
298.753	99.25
298.984	96.25
299.214	89.25
299.445	84.25
299.675	101.25
299.905	92.25
300.136	113.25
300.366	93.25
300.597	98.25
300.827	107.25
301.057	96.25
301.288	100.25
301.518	92.25
301.748	84.25
301.979	99.25
302.209	78.25
302.439	82.25
302.669	83.25
302.9	96.25
303.13	101.25
303.36	103.25
303.59	95.25
303.82	106.25
304.051	89.25
304.281	102.25
304.511	90.25
304.741	77.25
304.971	98.25
305.201	83.25
305.431	83.25
305.661	74.25
305.891	99.25
306.121	100.25
306.352	95.25
306.582	108.25
306.812	95.25
307.042	106.25
307.272	107.25
307.502	103.25
307.731	94.25
307.961	109.25
308.191	90.25
308.421	93.25
308.651	115.25
308.881	94.25
309.111	87.25
309.341	96.25
309.571	101.25
309.8	91.25
310.03	98.25
310.26	88.25
310.49	85.25
310.72	101.25
310.949	101.25
311.179	93.25
311.409	97.25
311.639	100.25
311.868	103.25
312.098	93.25
312.328	89.25
312.557	107.25
312.787	113.25
313.017	105.25
313.246	111.25
313.476	95.25
313.706	79.25
313.935	85.25
314.165	99.25
314.394	92.25
314.624	92.25
314.853	88.25
315.083	97.25
315.312	109.25
315.542	96.25
315.771	88.25
316.001	86.25
316.23	95.25
316.46	100.25
316.689	93.25
316.919	100.25
317.148	84.25
317.377	108.25
317.607	99.25
317.836	89.25
318.065	83.25
318.295	85.25
318.524	96.25
318.753	110.25
318.983	105.25
319.212	103.25
319.441	93.25
319.67	98.25
319.9	95.25
320.129	96.25
320.358	106.25
320.587	96.25
320.816	93.25
321.046	90.25
321.275	97.25
321.504	98.25
321.733	103.25
321.962	95.25
322.191	97.25
322.42	92.25
322.649	108.25
322.878	100.25
323.108	98.25
323.337	116.25
323.566	122.25
323.795	132.25
324.024	177.25
324.253	320.25
324.482	634.25
324.71	1354.25
324.939	1781.25
325.168	668.25
325.397	218.25
325.626	132.25
325.855	124.25
326.084	127.25
326.313	127.25
326.542	130.25
326.77	201.25
326.999	402.25
327.228	795.25
327.457	1394.25
327.686	1093.25
327.914	338.25
328.143	196.25
328.372	182.25
328.6	131.25
328.829	121.25
329.058	114.25
329.287	105.25
329.515	117.25
329.744	113.25
329.972	144.25
330.201	199.25
330.43	243.25
330.658	172.25
330.887	129.25
331.115	134.25
331.344	113.25
331.572	98.25
331.801	85.25
332.03	100.25
332.258	104.25
332.486	90.25
332.715	92.25
332.943	101.25
333.172	103.25
333.4	95.25
333.629	112.25
333.857	122.25
334.085	128.25
334.314	199.25
334.542	313.25
334.771	285.25
334.999	132.25
335.227	90.25
335.455	91.25
335.684	99.25
335.912	97.25
336.14	107.25
336.369	102.25
336.597	111.25
336.825	85.25
337.053	94.25
337.281	83.25
337.51	95.25
337.738	94.25
337.966	98.25
338.194	81.25
338.422	103.25
338.65	100.25
338.878	99.25
339.106	92.25
339.334	96.25
339.562	88.25
339.79	91.25
340.018	76.25
340.246	91.25
340.474	84.25
340.702	80.25
340.93	91.25
341.158	93.25
341.386	97.25
341.614	98.25
341.842	93.25
342.07	93.25
342.298	72.25
342.526	90.25
342.754	95.25
342.981	97.25
343.209	88.25
343.437	90.25
343.665	83.25
343.893	95.25
344.12	91.25
344.348	104.25
344.576	105.25
344.804	79.25
345.031	103.25
345.259	80.25
345.487	108.25
345.714	94.25
345.942	109.25
346.17	86.25
346.397	92.25
346.625	95.25
346.853	101.25
347.08	95.25
347.308	100.25
347.535	94.25
347.763	102.25
347.99	99.25
348.218	104.25
348.445	101.25
348.673	98.25
348.9	88.25
349.128	90.25
349.355	88.25
349.583	89.25
349.81	90.25
350.037	87.25
350.265	89.25
350.492	96.25
350.72	101.25
350.947	97.25
351.174	97.25
351.402	111.25
351.629	88.25
351.856	95.25
352.083	110.25
352.311	91.25
352.538	99.25
352.765	108.25
352.992	107.25
353.22	101.25
353.447	100.25
353.674	91.25
353.901	84.25
354.128	97.25
354.355	96.25
354.583	98.25
354.81	98.25
355.037	93.25
355.264	100.25
355.491	96.25
355.718	107.25
355.945	90.25
356.172	94.25
356.399	107.25
356.626	97.25
356.853	104.25
357.08	99.25
357.307	96.25
357.534	87.25
357.761	111.25
357.988	82.25
358.215	105.25
358.441	93.25
358.668	90.25
358.895	103.25
359.122	89.25
359.349	89.25
359.576	101.25
359.802	107.25
360.029	115.25
360.256	105.25
360.483	93.25
360.709	86.25
360.936	112.25
361.163	91.25
361.39	84.25
361.616	74.25
361.843	90.25
362.07	85.25
362.296	96.25
362.523	101.25
362.749	95.25
362.976	86.25
363.203	103.25
363.429	83.25
363.656	85.25
363.882	90.25
364.109	81.25
364.335	93.25
364.562	80.25
364.788	97.25
365.015	77.25
365.241	101.25
365.468	108.25
365.694	92.25
365.92	90.25
366.147	101.25
366.373	82.25
366.599	99.25
366.826	90.25
367.052	100.25
367.278	93.25
367.505	97.25
367.731	83.25
367.957	101.25
368.184	81.25
368.41	102.25
368.636	104.25
368.862	110.25
369.089	110.25
369.315	84.25
369.541	95.25
369.767	81.25
369.993	95.25
370.219	86.25
370.445	83.25
370.672	91.25
370.898	98.25
371.124	94.25
371.35	117.25
371.576	90.25
371.802	79.25
372.028	94.25
372.254	72.25
372.48	105.25
372.706	90.25
372.932	98.25
373.158	87.25
373.384	100.25
373.61	88.25
373.835	83.25
374.061	83.25
374.287	89.25
374.513	91.25
374.739	85.25
374.965	90.25
375.191	91.25
375.416	97.25
375.642	93.25
375.868	84.25
376.094	95.25
376.319	93.25
376.545	94.25
376.771	103.25
376.997	98.25
377.222	87.25
377.448	97.25
377.674	97.25
377.899	87.25
378.125	89.25
378.35	98.25
378.576	95.25
378.802	81.25
379.027	99.25
379.253	94.25
379.478	88.25
379.704	81.25
379.929	92.25
380.155	98.25
380.38	94.25
380.606	94.25
380.831	90.25
381.057	96.25
381.282	103.25
381.507	83.25
381.733	95.25
381.958	89.25
382.184	100.25
382.409	90.25
382.634	98.25
382.86	101.25
383.085	95.25
383.31	111.25
383.535	103.25
383.761	101.25
383.986	98.25
384.211	87.25
384.436	93.25
384.662	108.25
384.887	93.25
385.112	112.25
385.337	108.25
385.562	105.25
385.787	104.25
386.013	96.25
386.238	98.25
386.463	108.25
386.688	119.25
386.913	95.25
387.138	92.25
387.363	107.25
387.588	87.25
387.813	96.25
388.038	101.25
388.263	100.25
388.488	121.25
388.713	97.25
388.938	109.25
389.163	104.25
389.387	96.25
389.612	87.25
389.837	91.25
390.062	83.25
390.287	81.25
390.512	95.25
390.736	71.25
390.961	107.25
391.186	93.25
391.411	92.25
391.636	108.25
391.86	75.25
392.085	72.25
392.31	71.25
392.534	81.25
392.759	89.25
392.984	101.25
393.208	92.25
393.433	96.25
393.658	107.25
393.882	87.25
394.107	76.25
394.331	85.25
394.556	87.25
394.78	96.25
395.005	81.25
395.229	88.25
395.454	86.25
395.678	82.25
395.903	86.25
396.127	87.25
396.352	103.25
396.576	89.25
396.801	83.25
397.025	95.25
397.249	109.25
397.474	98.25
397.698	72.25
397.922	88.25
398.147	102.25
398.371	81.25
398.595	85.25
398.82	90.25
399.044	79.25
399.268	89.25
399.492	90.25
399.717	90.25
399.941	91.25
400.165	93.25
400.389	84.25
400.613	91.25
400.837	97.25
401.062	88.25
401.286	87.25
401.51	79.25
401.734	94.25
401.958	87.25
402.182	119.25
402.406	141.25
402.63	121.25
402.854	96.25
403.078	94.25
403.302	82.25
403.526	81.25
403.75	79.25
403.974	93.25
404.198	101.25
404.422	91.25
404.645	97.25
404.869	87.25
405.093	100.25
405.317	104.25
405.541	92.25
405.765	105.25
405.988	127.25
406.212	138.25
406.436	182.25
406.66	132.25
406.883	96.25
407.107	94.25
407.331	89.25
407.555	86.25
407.778	95.25
408.002	90.25
408.226	76.25
408.449	93.25
408.673	91.25
408.896	93.25
409.12	82.25
409.344	99.25
409.567	84.25
409.791	83.25
410.014	99.25
410.238	91.25
410.461	98.25
410.685	80.25
410.908	100.25
411.132	105.25
411.355	93.25
411.578	90.25
411.802	80.25
412.025	83.25
412.249	101.25
412.472	109.25
412.695	107.25
412.919	84.25
413.142	82.25
413.365	86.25
413.589	87.25
413.812	66.25
414.035	87.25
414.258	107.25
414.482	79.25
414.705	95.25
414.928	92.25
415.151	109.25
415.374	73.25
415.597	95.25
415.821	83.25
416.044	82.25
416.267	87.25
416.49	101.25
416.713	86.25
416.936	82.25
417.159	81.25
417.382	85.25
417.605	88.25
417.828	80.25
418.051	74.25
418.274	92.25
418.497	97.25
418.72	90.25
418.943	82.25
419.166	91.25
419.389	77.25
419.611	100.25
419.834	94.25
420.057	88.25
420.28	83.25
420.503	85.25
420.726	91.25
420.948	90.25
421.171	87.25
421.394	90.25
421.617	73.25
421.839	91.25
422.062	76.25
422.285	94.25
422.507	91.25
422.73	92.25
422.953	82.25
423.175	72.25
423.398	91.25
423.621	91.25
423.843	82.25
424.066	80.25
424.288	95.25
424.511	100.25
424.733	87.25
424.956	113.25
425.178	103.25
425.401	103.25
425.623	107.25
425.846	96.25
426.068	85.25
426.291	79.25
426.513	90.25
426.735	85.25
426.958	85.25
427.18	97.25
427.402	127.25
427.625	136.25
427.847	138.25
428.069	126.25
428.292	90.25
428.514	90.25
428.736	81.25
428.958	89.25
429.181	88.25
429.403	93.25
429.625	85.25
429.847	102.25
430.069	105.25
430.292	104.25
430.514	81.25
430.736	98.25
430.958	78.25
431.18	92.25
431.402	89.25
431.624	85.25
431.846	101.25
432.068	84.25
432.29	82.25
432.512	90.25
432.734	81.25
432.956	88.25
433.178	110.25
433.4	93.25
433.622	92.25
433.844	96.25
434.066	105.25
434.287	86.25
434.509	100.25
434.731	87.25
434.953	72.25
435.175	81.25
435.397	92.25
435.618	86.25
435.84	95.25
436.062	106.25
436.284	129.25
436.505	101.25
436.727	88.25
436.949	85.25
437.17	89.25
437.392	84.25
437.614	90.25
437.835	105.25
438.057	111.25
438.278	99.25
438.5	93.25
438.721	112.25
438.943	96.25
439.165	88.25
439.386	89.25
439.608	94.25
439.829	106.25
440.05	106.25
440.272	119.25
440.493	71.25
440.715	77.25
440.936	79.25
441.158	93.25
441.379	81.25
441.6	91.25
441.822	88.25
442.043	92.25
442.264	91.25
442.486	102.25
442.707	73.25
442.928	95.25
443.149	121.25
443.371	115.25
443.592	99.25
443.813	89.25
444.034	98.25
444.255	92.25
444.476	87.25
444.698	88.25
444.919	76.25
445.14	131.25
445.361	112.25
445.582	97.25
445.803	114.25
446.024	120.25
446.245	115.25
446.466	111.25
446.687	90.25
446.908	99.25
447.129	89.25
447.35	80.25
447.571	100.25
447.792	90.25
448.013	76.25
448.234	99.25
448.455	95.25
448.675	99.25
448.896	100.25
449.117	88.25
449.338	99.25
449.559	111.25
449.779	117.25
450	89.25
450.221	105.25
450.442	74.25
450.662	83.25
450.883	103.25
451.104	95.25
451.324	102.25
451.545	89.25
451.766	95.25
451.986	84.25
452.207	85.25
452.428	89.25
452.648	109.25
452.869	84.25
453.089	99.25
453.31	103.25
453.53	79.25
453.751	89.25
453.971	101.25
454.192	100.25
454.412	81.25
454.633	83.25
454.853	87.25
455.073	89.25
455.294	91.25
455.514	91.25
455.734	90.25
455.955	88.25
456.175	74.25
456.395	73.25
456.616	87.25
456.836	83.25
457.056	71.25
457.276	75.25
457.497	75.25
457.717	92.25
457.937	83.25
458.157	81.25
458.377	73.25
458.598	101.25
458.818	131.25
459.038	149.25
459.258	95.25
459.478	97.25
459.698	83.25
459.918	75.25
460.138	83.25
460.358	87.25
460.578	88.25
460.798	87.25
461.018	87.25
461.238	86.25
461.458	100.25
461.678	93.25
461.898	85.25
462.118	82.25
462.338	76.25
462.558	83.25
462.777	95.25
462.997	87.25
463.217	88.25
463.437	95.25
463.657	84.25
463.876	92.25
464.096	91.25
464.316	89.25
464.536	82.25
464.755	105.25
464.975	82.25
465.195	144.25
465.414	149.25
465.634	87.25
465.854	87.25
466.073	91.25
466.293	82.25
466.512	84.25
466.732	91.25
466.951	78.25
467.171	96.25
467.391	91.25
467.61	92.25
467.829	109.25
468.049	142.25
468.268	153.25
468.488	96.25
468.707	83.25
468.927	82.25
469.146	97.25
469.365	90.25
469.585	92.25
469.804	89.25
470.023	97.25
470.243	84.25
470.462	101.25
470.681	97.25
470.901	90.25
471.12	82.25
471.339	92.25
471.558	76.25
471.777	106.25
471.997	108.25
472.216	223.25
472.435	371.25
472.654	144.25
472.873	98.25
473.092	84.25
473.311	78.25
473.53	102.25
473.749	92.25
473.968	83.25
474.187	106.25
474.406	84.25
474.625	81.25
474.844	102.25
475.063	95.25
475.282	88.25
475.501	89.25
475.72	96.25
475.939	98.25
476.158	77.25
476.377	94.25
476.596	81.25
476.814	79.25
477.033	80.25
477.252	94.25
477.471	82.25
477.69	93.25
477.908	107.25
478.127	98.25
478.346	100.25
478.564	94.25
478.783	97.25
479.002	95.25
479.22	86.25
479.439	112.25
479.658	85.25
479.876	91.25
480.095	84.25
480.313	91.25
480.532	102.25
480.751	136.25
480.969	221.25
481.188	640.25
481.406	387.25
481.624	109.25
481.843	87.25
482.061	92.25
482.28	79.25
482.498	87.25
482.717	89.25
482.935	76.25
483.153	102.25
483.372	87.25
483.59	77.25
483.808	88.25
484.027	85.25
484.245	86.25
484.463	88.25
484.681	99.25
484.9	93.25
485.118	97.25
485.336	91.25
485.554	103.25
485.772	101.25
485.99	107.25
486.209	121.25
486.427	102.25
486.645	101.25
486.863	103.25
487.081	91.25
487.299	92.25
487.517	99.25
487.735	90.25
487.953	106.25
488.171	76.25
488.389	99.25
488.607	97.25
488.825	87.25
489.043	105.25
489.261	94.25
489.479	81.25
489.696	95.25
489.914	93.25
490.132	92.25
490.35	88.25
490.568	90.25
490.786	99.25
491.003	89.25
491.221	95.25
491.439	89.25
491.657	93.25
491.874	76.25
492.092	100.25
492.31	93.25
492.527	93.25
492.745	97.25
492.963	84.25
493.18	100.25
493.398	97.25
493.615	101.25
493.833	102.25
494.05	95.25
494.268	96.25
494.485	93.25
494.703	87.25
494.92	79.25
495.138	103.25
495.355	91.25
495.573	75.25
495.79	89.25
496.008	96.25
496.225	90.25
496.442	93.25
496.66	91.25
496.877	103.25
497.094	95.25
497.312	89.25
497.529	101.25
497.746	91.25
497.963	92.25
498.181	88.25
498.398	76.25
498.615	108.25
498.832	92.25
499.049	88.25
499.267	83.25
499.484	95.25
499.701	83.25
499.918	88.25
500.135	89.25
500.352	80.25
500.569	83.25
500.786	74.25
501.003	85.25
501.22	86.25
501.437	89.25
501.654	105.25
501.871	97.25
502.088	90.25
502.305	97.25
502.522	94.25
502.739	91.25
502.956	99.25
503.172	88.25
503.389	106.25
503.606	90.25
503.823	91.25
504.04	95.25
504.256	79.25
504.473	89.25
504.69	72.25
504.907	84.25
505.123	97.25
505.34	86.25
505.557	93.25
505.773	90.25
505.99	86.25
506.207	95.25
506.423	86.25
506.64	83.25
506.856	87.25
507.073	86.25
507.289	104.25
507.506	97.25
507.722	111.25
507.939	100.25
508.155	91.25
508.372	100.25
508.588	105.25
508.805	105.25
509.021	93.25
509.238	87.25
509.454	83.25
509.67	100.25
509.887	101.25
510.103	108.25
510.319	177.25
510.536	600.25
510.752	1828.25
510.968	513.25
511.184	131.25
511.401	107.25
511.617	109.25
511.833	79.25
512.049	95.25
512.265	89.25
512.481	79.25
512.698	101.25
512.914	99.25
513.13	85.25
513.346	88.25
513.562	98.25
513.778	95.25
513.994	101.25
514.21	113.25
514.426	109.25
514.642	115.25
514.858	107.25
515.074	141.25
515.29	361.25
515.506	1132.25
