Data from Circ_1983_H10_HRD10591_00009.txt Node
Date: Wed Jan 03 12:26:46 EST 2024
User: Yrep
Spectrometer: HR+D1059
Trigger mode: 1
Integration Time (sec): 1.000000E-1
Scans to average: 1
Electric dark correction enabled: true
Nonlinearity correction enabled: false
Boxcar width: 0
XAxis mode: Wavelengths
Number of Pixels in Spectrum: 2048
>>>>>Begin Spectral Data<<<<<
223.165	-31.12
223.4	-31.12
223.635	-31.12
223.869	-22.12
224.104	-14.12
224.338	-16.12
224.573	-7.12
224.808	-17.12
225.042	-12.12
225.277	-0.12
225.511	-17.12
225.746	13.88
225.98	9.88
226.215	13.88
226.449	11.88
226.683	40.88
226.918	24.88
227.152	21.88
227.387	38.88
227.621	21.88
227.856	39.88
228.09	54.88
228.324	56.88
228.559	57.88
228.793	55.88
229.027	66.88
229.262	68.88
229.496	78.88
229.73	84.88
229.964	73.88
230.199	56.88
230.433	62.88
230.667	88.88
230.901	79.88
231.136	100.88
231.37	81.88
231.604	68.88
231.838	85.88
232.072	88.88
232.306	91.88
232.541	92.88
232.775	85.88
233.009	84.88
233.243	86.88
233.477	72.88
233.711	73.88
233.945	84.88
234.179	62.88
234.413	80.88
234.647	75.88
234.881	86.88
235.115	88.88
235.349	77.88
235.583	65.88
235.817	73.88
236.051	74.88
236.285	63.88
236.519	68.88
236.753	77.88
236.987	75.88
237.221	82.88
237.455	80.88
237.689	66.88
237.922	76.88
238.156	71.88
238.39	68.88
238.624	71.88
238.858	78.88
239.091	74.88
239.325	87.88
239.559	80.88
239.793	84.88
240.027	86.88
240.26	67.88
240.494	73.88
240.728	78.88
240.961	83.88
241.195	82.88
241.429	84.88
241.662	72.88
241.896	72.88
242.13	83.88
242.363	62.88
242.597	65.88
242.83	84.88
243.064	82.88
243.298	79.88
243.531	76.88
243.765	73.88
243.998	73.88
244.232	86.88
244.465	71.88
244.699	88.88
244.932	71.88
245.166	73.88
245.399	80.88
245.633	78.88
245.866	75.88
246.099	82.88
246.333	73.88
246.566	81.88
246.8	71.88
247.033	71.88
247.266	67.88
247.5	77.88
247.733	82.88
247.966	79.88
248.2	75.88
248.433	80.88
248.666	79.88
248.899	70.88
249.133	78.88
249.366	87.88
249.599	95.88
249.832	73.88
250.066	82.88
250.299	71.88
250.532	80.88
250.765	77.88
250.998	78.88
251.231	67.88
251.465	75.88
251.698	79.88
251.931	84.88
252.164	75.88
252.397	82.88
252.63	78.88
252.863	78.88
253.096	88.88
253.329	85.88
253.562	88.88
253.795	83.88
254.028	90.88
254.261	91.88
254.494	64.88
254.727	88.88
254.96	72.88
255.193	87.88
255.426	92.88
255.659	82.88
255.892	85.88
256.124	75.88
256.357	88.88
256.59	77.88
256.823	84.88
257.056	76.88
257.289	68.88
257.521	69.88
257.754	84.88
257.987	76.88
258.22	80.88
258.452	73.88
258.685	78.88
258.918	75.88
259.151	82.88
259.383	84.88
259.616	83.88
259.849	86.88
260.081	85.88
260.314	87.88
260.547	78.88
260.779	70.88
261.012	83.88
261.244	86.88
261.477	84.88
261.71	95.88
261.942	95.88
262.175	106.88
262.407	82.88
262.64	71.88
262.872	88.88
263.105	79.88
263.337	80.88
263.57	81.88
263.802	84.88
264.035	82.88
264.267	86.88
264.499	90.88
264.732	74.88
264.964	81.88
265.197	84.88
265.429	88.88
265.661	88.88
265.894	82.88
266.126	80.88
266.358	82.88
266.591	63.88
266.823	84.88
267.055	76.88
267.287	80.88
267.52	86.88
267.752	81.88
267.984	99.88
268.216	78.88
268.448	81.88
268.681	92.88
268.913	85.88
269.145	95.88
269.377	84.88
269.609	76.88
269.841	86.88
270.073	97.88
270.306	90.88
270.538	96.88
270.77	91.88
271.002	89.88
271.234	81.88
271.466	88.88
271.698	87.88
271.93	96.88
272.162	84.88
272.394	79.88
272.626	75.88
272.858	65.88
273.09	72.88
273.322	92.88
273.553	91.88
273.785	81.88
274.017	87.88
274.249	83.88
274.481	88.88
274.713	95.88
274.945	86.88
275.176	84.88
275.408	94.88
275.64	73.88
275.872	97.88
276.104	88.88
276.335	83.88
276.567	98.88
276.799	88.88
277.031	96.88
277.262	92.88
277.494	87.88
277.726	88.88
277.957	79.88
278.189	71.88
278.421	89.88
278.652	84.88
278.884	84.88
279.115	89.88
279.347	86.88
279.579	78.88
279.81	83.88
280.042	70.88
280.273	94.88
280.505	86.88
280.736	81.88
280.968	75.88
281.199	90.88
281.431	99.88
281.662	83.88
281.894	81.88
282.125	95.88
282.356	115.88
282.588	137.88
282.819	104.88
283.051	102.88
283.282	85.88
283.513	79.88
283.745	85.88
283.976	75.88
284.207	91.88
284.439	95.88
284.67	86.88
284.901	80.88
285.132	94.88
285.364	81.88
285.595	88.88
285.826	84.88
286.057	80.88
286.288	84.88
286.52	92.88
286.751	90.88
286.982	86.88
287.213	85.88
287.444	92.88
287.675	84.88
287.906	92.88
288.138	83.88
288.369	90.88
288.6	85.88
288.831	77.88
289.062	84.88
289.293	80.88
289.524	99.88
289.755	98.88
289.986	88.88
290.217	102.88
290.448	96.88
290.679	86.88
290.91	83.88
291.141	78.88
291.371	86.88
291.602	77.88
291.833	86.88
292.064	84.88
292.295	91.88
292.526	89.88
292.757	99.88
292.987	96.88
293.218	71.88
293.449	74.88
293.68	85.88
293.91	82.88
294.141	83.88
294.372	96.88
294.603	92.88
294.833	94.88
295.064	92.88
295.295	100.88
295.525	99.88
295.756	102.88
295.987	107.88
296.217	130.88
296.448	115.88
296.679	96.88
296.909	99.88
297.14	85.88
297.37	97.88
297.601	90.88
297.831	89.88
298.062	85.88
298.292	88.88
298.523	92.88
298.753	98.88
298.984	91.88
299.214	85.88
299.445	87.88
299.675	86.88
299.905	86.88
300.136	84.88
300.366	69.88
300.597	99.88
300.827	89.88
301.057	95.88
301.288	93.88
301.518	102.88
301.748	97.88
301.979	111.88
302.209	82.88
302.439	90.88
302.669	90.88
302.9	93.88
303.13	81.88
303.36	87.88
303.59	91.88
303.82	100.88
304.051	95.88
304.281	91.88
304.511	98.88
304.741	74.88
304.971	76.88
305.201	102.88
305.431	84.88
305.661	94.88
305.891	79.88
306.121	102.88
306.352	93.88
306.582	86.88
306.812	80.88
307.042	97.88
307.272	94.88
307.502	100.88
307.731	83.88
307.961	82.88
308.191	84.88
308.421	94.88
308.651	91.88
308.881	91.88
309.111	88.88
309.341	97.88
309.571	79.88
309.8	94.88
310.03	90.88
310.26	99.88
310.49	99.88
310.72	88.88
310.949	100.88
311.179	108.88
311.409	83.88
311.639	100.88
311.868	105.88
312.098	96.88
312.328	88.88
312.557	91.88
312.787	101.88
313.017	107.88
313.246	94.88
313.476	84.88
313.706	100.88
313.935	80.88
314.165	102.88
314.394	82.88
314.624	92.88
314.853	92.88
315.083	98.88
315.312	106.88
315.542	94.88
315.771	90.88
316.001	88.88
316.23	84.88
316.46	79.88
316.689	104.88
316.919	95.88
317.148	86.88
317.377	95.88
317.607	84.88
317.836	79.88
318.065	89.88
318.295	93.88
318.524	88.88
318.753	82.88
318.983	100.88
319.212	96.88
319.441	94.88
319.67	94.88
319.9	97.88
320.129	89.88
320.358	86.88
320.587	93.88
320.816	100.88
321.046	99.88
321.275	99.88
321.504	85.88
321.733	89.88
321.962	88.88
322.191	100.88
322.42	94.88
322.649	99.88
322.878	115.88
323.108	113.88
323.337	124.88
323.566	102.88
323.795	123.88
324.024	164.88
324.253	334.88
324.482	626.88
324.71	1279.88
324.939	1644.88
325.168	622.88
325.397	208.88
325.626	127.88
325.855	128.88
326.084	108.88
326.313	125.88
326.542	128.88
326.77	183.88
326.999	356.88
327.228	722.88
327.457	1296.88
327.686	1049.88
327.914	282.88
328.143	178.88
328.372	139.88
328.6	105.88
328.829	99.88
329.058	118.88
329.287	116.88
329.515	89.88
329.744	104.88
329.972	105.88
330.201	110.88
330.43	129.88
330.658	132.88
330.887	121.88
331.115	105.88
331.344	106.88
331.572	99.88
331.801	103.88
332.03	104.88
332.258	85.88
332.486	89.88
332.715	97.88
332.943	96.88
333.172	83.88
333.4	95.88
333.629	92.88
333.857	111.88
334.085	102.88
334.314	107.88
334.542	144.88
334.771	129.88
334.999	106.88
335.227	106.88
335.455	102.88
335.684	108.88
335.912	92.88
336.14	94.88
336.369	107.88
336.597	93.88
336.825	89.88
337.053	98.88
337.281	98.88
337.51	86.88
337.738	94.88
337.966	88.88
338.194	95.88
338.422	84.88
338.65	107.88
338.878	96.88
339.106	94.88
339.334	93.88
339.562	95.88
339.79	97.88
340.018	92.88
340.246	94.88
340.474	92.88
340.702	98.88
340.93	86.88
341.158	88.88
341.386	83.88
341.614	87.88
341.842	99.88
342.07	101.88
342.298	91.88
342.526	85.88
342.754	96.88
342.981	90.88
343.209	94.88
343.437	97.88
343.665	72.88
343.893	91.88
344.12	91.88
344.348	81.88
344.576	80.88
344.804	75.88
345.031	86.88
345.259	95.88
345.487	100.88
345.714	103.88
345.942	89.88
346.17	75.88
346.397	83.88
346.625	87.88
346.853	84.88
347.08	91.88
347.308	90.88
347.535	98.88
347.763	92.88
347.99	92.88
348.218	100.88
348.445	89.88
348.673	97.88
348.9	91.88
349.128	82.88
349.355	103.88
349.583	96.88
349.81	103.88
350.037	97.88
350.265	99.88
350.492	107.88
350.72	89.88
350.947	103.88
351.174	102.88
351.402	95.88
351.629	87.88
351.856	90.88
352.083	94.88
352.311	100.88
352.538	100.88
352.765	105.88
352.992	110.88
353.22	88.88
353.447	107.88
353.674	114.88
353.901	96.88
354.128	103.88
354.355	96.88
354.583	96.88
354.81	95.88
355.037	102.88
355.264	99.88
355.491	105.88
355.718	103.88
355.945	91.88
356.172	105.88
356.399	90.88
356.626	102.88
356.853	90.88
357.08	91.88
357.307	95.88
357.534	80.88
357.761	99.88
357.988	94.88
358.215	106.88
358.441	107.88
358.668	89.88
358.895	97.88
359.122	87.88
359.349	107.88
359.576	101.88
359.802	90.88
360.029	97.88
360.256	99.88
360.483	95.88
360.709	95.88
360.936	79.88
361.163	83.88
361.39	86.88
361.616	92.88
361.843	74.88
362.07	106.88
362.296	90.88
362.523	90.88
362.749	95.88
362.976	98.88
363.203	92.88
363.429	106.88
363.656	83.88
363.882	80.88
364.109	88.88
364.335	96.88
364.562	93.88
364.788	83.88
365.015	92.88
365.241	104.88
365.468	101.88
365.694	86.88
365.92	92.88
366.147	92.88
366.373	91.88
366.599	86.88
366.826	83.88
367.052	95.88
367.278	92.88
367.505	84.88
367.731	111.88
367.957	86.88
368.184	96.88
368.41	87.88
368.636	103.88
368.862	116.88
369.089	109.88
369.315	89.88
369.541	84.88
369.767	85.88
369.993	90.88
370.219	79.88
370.445	86.88
370.672	75.88
370.898	84.88
371.124	85.88
371.35	77.88
371.576	96.88
371.802	89.88
372.028	91.88
372.254	75.88
372.48	92.88
372.706	82.88
372.932	86.88
373.158	100.88
373.384	105.88
373.61	104.88
373.835	90.88
374.061	89.88
374.287	84.88
374.513	106.88
374.739	88.88
374.965	97.88
375.191	78.88
375.416	92.88
375.642	82.88
375.868	97.88
376.094	93.88
376.319	79.88
376.545	85.88
376.771	97.88
376.997	91.88
377.222	103.88
377.448	105.88
377.674	90.88
377.899	89.88
378.125	94.88
378.35	81.88
378.576	86.88
378.802	97.88
379.027	99.88
379.253	101.88
379.478	97.88
379.704	90.88
379.929	103.88
380.155	106.88
380.38	86.88
380.606	95.88
380.831	92.88
381.057	98.88
381.282	102.88
381.507	103.88
381.733	88.88
381.958	99.88
382.184	116.88
382.409	98.88
382.634	110.88
382.86	120.88
383.085	123.88
383.31	112.88
383.535	102.88
383.761	99.88
383.986	119.88
384.211	119.88
384.436	102.88
384.662	119.88
384.887	117.88
385.112	123.88
385.337	145.88
385.562	136.88
385.787	123.88
386.013	114.88
386.238	129.88
386.463	134.88
386.688	139.88
386.913	117.88
387.138	131.88
387.363	111.88
387.588	100.88
387.813	115.88
388.038	126.88
388.263	149.88
388.488	138.88
388.713	98.88
388.938	108.88
389.163	94.88
389.387	91.88
389.612	87.88
389.837	92.88
390.062	87.88
390.287	89.88
390.512	91.88
390.736	98.88
390.961	74.88
391.186	104.88
391.411	82.88
391.636	100.88
391.86	98.88
392.085	91.88
392.31	68.88
392.534	85.88
392.759	101.88
392.984	108.88
393.208	129.88
393.433	166.88
393.658	137.88
393.882	92.88
394.107	73.88
394.331	78.88
394.556	87.88
394.78	93.88
395.005	96.88
395.229	82.88
395.454	82.88
395.678	91.88
395.903	76.88
396.127	74.88
396.352	82.88
396.576	90.88
396.801	112.88
397.025	122.88
397.249	102.88
397.474	83.88
397.698	90.88
397.922	75.88
398.147	84.88
398.371	73.88
398.595	68.88
398.82	83.88
399.044	88.88
399.268	91.88
399.492	86.88
399.717	95.88
399.941	94.88
400.165	91.88
400.389	84.88
400.613	80.88
400.837	87.88
401.062	89.88
401.286	77.88
401.51	86.88
401.734	97.88
401.958	101.88
402.182	108.88
402.406	124.88
402.63	100.88
402.854	81.88
403.078	90.88
403.302	95.88
403.526	82.88
403.75	86.88
403.974	83.88
404.198	86.88
404.422	102.88
404.645	86.88
404.869	88.88
405.093	90.88
405.317	102.88
405.541	114.88
405.765	102.88
405.988	104.88
406.212	152.88
406.436	165.88
406.66	136.88
406.883	98.88
407.107	93.88
407.331	93.88
407.555	94.88
407.778	90.88
408.002	81.88
408.226	86.88
408.449	81.88
408.673	88.88
408.896	91.88
409.12	86.88
409.344	86.88
409.567	78.88
409.791	85.88
410.014	94.88
410.238	119.88
410.461	99.88
410.685	102.88
410.908	82.88
411.132	106.88
411.355	77.88
411.578	94.88
411.802	88.88
412.025	91.88
412.249	91.88
412.472	89.88
412.695	109.88
412.919	94.88
413.142	87.88
413.365	93.88
413.589	83.88
413.812	82.88
414.035	101.88
414.258	91.88
414.482	86.88
414.705	83.88
414.928	103.88
415.151	82.88
415.374	103.88
415.597	106.88
415.821	81.88
416.044	100.88
416.267	87.88
416.49	78.88
416.713	94.88
416.936	97.88
417.159	105.88
417.382	80.88
417.605	94.88
417.828	94.88
418.051	115.88
418.274	93.88
418.497	84.88
418.72	92.88
418.943	82.88
419.166	94.88
419.389	96.88
419.611	99.88
419.834	84.88
420.057	93.88
420.28	73.88
420.503	92.88
420.726	98.88
420.948	85.88
421.171	85.88
421.394	98.88
421.617	92.88
421.839	85.88
422.062	88.88
422.285	96.88
422.507	102.88
422.73	105.88
422.953	107.88
423.175	89.88
423.398	96.88
423.621	76.88
423.843	78.88
424.066	82.88
424.288	88.88
424.511	91.88
424.733	102.88
424.956	102.88
425.178	84.88
425.401	100.88
425.623	94.88
425.846	83.88
426.068	96.88
426.291	88.88
426.513	100.88
426.735	93.88
426.958	79.88
427.18	88.88
427.402	118.88
427.625	139.88
427.847	115.88
428.069	103.88
428.292	93.88
428.514	99.88
428.736	78.88
428.958	78.88
429.181	95.88
429.403	64.88
429.625	74.88
429.847	90.88
430.069	75.88
430.292	95.88
430.514	85.88
430.736	75.88
430.958	82.88
431.18	78.88
431.402	82.88
431.624	95.88
431.846	90.88
432.068	84.88
432.29	94.88
432.512	97.88
432.734	84.88
432.956	78.88
433.178	96.88
433.4	93.88
433.622	90.88
433.844	79.88
434.066	97.88
434.287	100.88
434.509	91.88
434.731	98.88
434.953	82.88
435.175	94.88
435.397	96.88
435.618	99.88
435.84	86.88
436.062	100.88
436.284	96.88
436.505	100.88
436.727	108.88
436.949	95.88
437.17	83.88
437.392	76.88
437.614	100.88
437.835	96.88
438.057	109.88
438.278	95.88
438.5	97.88
438.721	102.88
438.943	90.88
439.165	82.88
439.386	81.88
439.608	88.88
439.829	98.88
440.05	110.88
440.272	109.88
440.493	91.88
440.715	88.88
440.936	79.88
441.158	86.88
441.379	89.88
441.6	76.88
441.822	88.88
442.043	75.88
442.264	112.88
442.486	102.88
442.707	98.88
442.928	107.88
443.149	120.88
443.371	109.88
443.592	97.88
443.813	104.88
444.034	84.88
444.255	86.88
444.476	92.88
444.698	90.88
444.919	88.88
445.14	132.88
445.361	111.88
445.582	104.88
445.803	115.88
446.024	114.88
446.245	118.88
446.466	97.88
446.687	69.88
446.908	99.88
447.129	91.88
447.35	92.88
447.571	79.88
447.792	86.88
448.013	97.88
448.234	82.88
448.455	83.88
448.675	98.88
448.896	100.88
449.117	91.88
449.338	90.88
449.559	115.88
449.779	113.88
450	94.88
450.221	94.88
450.442	103.88
450.662	86.88
450.883	91.88
451.104	108.88
451.324	99.88
451.545	96.88
451.766	99.88
451.986	92.88
452.207	91.88
452.428	84.88
452.648	96.88
452.869	107.88
453.089	111.88
453.31	119.88
453.53	88.88
453.751	104.88
453.971	89.88
454.192	95.88
454.412	91.88
454.633	81.88
454.853	87.88
455.073	87.88
455.294	83.88
455.514	98.88
455.734	86.88
455.955	80.88
456.175	89.88
456.395	76.88
456.616	77.88
456.836	86.88
457.056	89.88
457.276	82.88
457.497	79.88
457.717	87.88
457.937	91.88
458.157	76.88
458.377	86.88
458.598	94.88
458.818	112.88
459.038	124.88
459.258	108.88
459.478	85.88
459.698	88.88
459.918	88.88
460.138	94.88
460.358	105.88
460.578	93.88
460.798	84.88
461.018	84.88
461.238	97.88
461.458	86.88
461.678	80.88
461.898	83.88
462.118	82.88
462.338	83.88
462.558	90.88
462.777	90.88
462.997	75.88
463.217	96.88
463.437	89.88
463.657	84.88
463.876	97.88
464.096	78.88
464.316	82.88
464.536	90.88
464.755	89.88
464.975	98.88
465.195	132.88
465.414	138.88
465.634	83.88
465.854	80.88
466.073	85.88
466.293	97.88
466.512	88.88
466.732	87.88
466.951	87.88
467.171	91.88
467.391	78.88
467.61	92.88
467.829	92.88
468.049	96.88
468.268	102.88
468.488	80.88
468.707	81.88
468.927	74.88
469.146	89.88
469.365	79.88
469.585	83.88
469.804	84.88
470.023	73.88
470.243	82.88
470.462	100.88
470.681	95.88
470.901	79.88
471.12	72.88
471.339	88.88
471.558	86.88
471.777	87.88
471.997	98.88
472.216	122.88
472.435	145.88
472.654	104.88
472.873	83.88
473.092	81.88
473.311	95.88
473.53	92.88
473.749	92.88
473.968	91.88
474.187	103.88
474.406	90.88
474.625	89.88
474.844	82.88
475.063	94.88
475.282	106.88
475.501	88.88
475.72	89.88
475.939	66.88
476.158	80.88
476.377	82.88
476.596	92.88
476.814	100.88
477.033	89.88
477.252	94.88
477.471	90.88
477.69	97.88
477.908	86.88
478.127	71.88
478.346	88.88
478.564	94.88
478.783	90.88
479.002	96.88
479.22	88.88
479.439	89.88
479.658	97.88
479.876	101.88
480.095	89.88
480.313	87.88
480.532	101.88
480.751	104.88
480.969	108.88
481.188	219.88
481.406	161.88
481.624	88.88
481.843	92.88
482.061	90.88
482.28	96.88
482.498	86.88
482.717	101.88
482.935	97.88
483.153	92.88
483.372	90.88
483.59	99.88
483.808	99.88
484.027	79.88
484.245	94.88
484.463	105.88
484.681	84.88
484.9	92.88
485.118	88.88
485.336	100.88
485.554	88.88
485.772	114.88
485.99	108.88
486.209	110.88
486.427	95.88
486.645	125.88
486.863	117.88
487.081	105.88
487.299	86.88
487.517	95.88
487.735	95.88
487.953	91.88
488.171	94.88
488.389	90.88
488.607	95.88
488.825	92.88
489.043	95.88
489.261	99.88
489.479	78.88
489.696	91.88
489.914	87.88
490.132	94.88
490.35	93.88
490.568	86.88
490.786	78.88
491.003	79.88
491.221	78.88
491.439	92.88
491.657	99.88
491.874	79.88
492.092	88.88
492.31	94.88
492.527	72.88
492.745	91.88
492.963	96.88
493.18	86.88
493.398	101.88
493.615	99.88
493.833	92.88
494.05	74.88
494.268	89.88
494.485	91.88
494.703	76.88
494.92	94.88
495.138	88.88
495.355	93.88
495.573	99.88
495.79	99.88
496.008	87.88
496.225	92.88
496.442	91.88
496.66	112.88
496.877	92.88
497.094	101.88
497.312	97.88
497.529	83.88
497.746	87.88
497.963	94.88
498.181	84.88
498.398	99.88
498.615	89.88
498.832	92.88
499.049	95.88
499.267	102.88
499.484	77.88
499.701	106.88
499.918	84.88
500.135	100.88
500.352	95.88
500.569	82.88
500.786	84.88
501.003	101.88
501.22	89.88
501.437	84.88
501.654	93.88
501.871	117.88
502.088	102.88
502.305	95.88
502.522	86.88
502.739	83.88
502.956	96.88
503.172	74.88
503.389	82.88
503.606	97.88
503.823	86.88
504.04	78.88
504.256	88.88
504.473	96.88
504.69	93.88
504.907	96.88
505.123	96.88
505.34	83.88
505.557	79.88
505.773	87.88
505.99	91.88
506.207	95.88
506.423	88.88
506.64	69.88
506.856	90.88
507.073	66.88
507.289	96.88
507.506	96.88
507.722	94.88
507.939	105.88
508.155	102.88
508.372	88.88
508.588	94.88
508.805	96.88
509.021	96.88
509.238	97.88
509.454	84.88
509.67	98.88
509.887	108.88
510.103	125.88
510.319	176.88
510.536	585.88
510.752	1789.88
510.968	517.88
511.184	127.88
511.401	95.88
511.617	103.88
511.833	87.88
512.049	102.88
512.265	105.88
512.481	86.88
512.698	90.88
512.914	106.88
513.13	87.88
513.346	78.88
513.562	91.88
513.778	96.88
513.994	102.88
514.21	99.88
514.426	123.88
514.642	122.88
514.858	105.88
515.074	129.88
515.29	338.88
515.506	1059.88
515.721	414.88
515.937	121.88
