Data from Circ_1983_H10_HRD10591_00062.txt Node
Date: Wed Jan 03 12:26:57 EST 2024
User: Yrep
Spectrometer: HR+D1059
Trigger mode: 1
Integration Time (sec): 1.000000E-1
Scans to average: 1
Electric dark correction enabled: true
Nonlinearity correction enabled: false
Boxcar width: 0
XAxis mode: Wavelengths
Number of Pixels in Spectrum: 2048
>>>>>Begin Spectral Data<<<<<
223.165	-11.19
223.4	-11.19
223.635	-11.19
223.869	-16.19
224.104	-14.19
224.338	-13.19
224.573	-17.19
224.808	-17.19
225.042	-20.19
225.277	-4.19
225.511	9.81
225.746	8.81
225.98	-0.19
226.215	15.81
226.449	9.81
226.683	20.81
226.918	24.81
227.152	23.81
227.387	41.81
227.621	34.81
227.856	49.81
228.09	39.81
228.324	32.81
228.559	62.81
228.793	63.81
229.027	56.81
229.262	64.81
229.496	89.81
229.73	79.81
229.964	78.81
230.199	71.81
230.433	77.81
230.667	69.81
230.901	77.81
231.136	80.81
231.37	90.81
231.604	71.81
231.838	94.81
232.072	83.81
232.306	81.81
232.541	81.81
232.775	71.81
233.009	87.81
233.243	67.81
233.477	76.81
233.711	74.81
233.945	87.81
234.179	94.81
234.413	65.81
234.647	85.81
234.881	64.81
235.115	74.81
235.349	87.81
235.583	73.81
235.817	78.81
236.051	73.81
236.285	77.81
236.519	73.81
236.753	71.81
236.987	77.81
237.221	83.81
237.455	77.81
237.689	69.81
237.922	67.81
238.156	74.81
238.39	72.81
238.624	83.81
238.858	79.81
239.091	79.81
239.325	82.81
239.559	63.81
239.793	74.81
240.027	83.81
240.26	67.81
240.494	72.81
240.728	74.81
240.961	72.81
241.195	96.81
241.429	86.81
241.662	79.81
241.896	68.81
242.13	75.81
242.363	78.81
242.597	78.81
242.83	61.81
243.064	77.81
243.298	74.81
243.531	81.81
243.765	70.81
243.998	71.81
244.232	77.81
244.465	74.81
244.699	74.81
244.932	87.81
245.166	68.81
245.399	77.81
245.633	79.81
245.866	70.81
246.099	66.81
246.333	68.81
246.566	69.81
246.8	75.81
247.033	72.81
247.266	66.81
247.5	76.81
247.733	81.81
247.966	89.81
248.2	87.81
248.433	73.81
248.666	80.81
248.899	69.81
249.133	84.81
249.366	100.81
249.599	92.81
249.832	88.81
250.066	79.81
250.299	83.81
250.532	64.81
250.765	73.81
250.998	71.81
251.231	78.81
251.465	97.81
251.698	74.81
251.931	79.81
252.164	74.81
252.397	85.81
252.63	83.81
252.863	73.81
253.096	78.81
253.329	77.81
253.562	84.81
253.795	89.81
254.028	71.81
254.261	74.81
254.494	90.81
254.727	85.81
254.96	74.81
255.193	90.81
255.426	80.81
255.659	81.81
255.892	86.81
256.124	74.81
256.357	80.81
256.59	78.81
256.823	82.81
257.056	62.81
257.289	83.81
257.521	85.81
257.754	81.81
257.987	70.81
258.22	74.81
258.452	85.81
258.685	67.81
258.918	81.81
259.151	87.81
259.383	73.81
259.616	62.81
259.849	80.81
260.081	79.81
260.314	80.81
260.547	86.81
260.779	81.81
261.012	78.81
261.244	71.81
261.477	78.81
261.71	85.81
261.942	95.81
262.175	93.81
262.407	86.81
262.64	87.81
262.872	87.81
263.105	84.81
263.337	74.81
263.57	67.81
263.802	77.81
264.035	81.81
264.267	74.81
264.499	73.81
264.732	82.81
264.964	79.81
265.197	79.81
265.429	85.81
265.661	93.81
265.894	90.81
266.126	88.81
266.358	78.81
266.591	76.81
266.823	93.81
267.055	79.81
267.287	93.81
267.52	79.81
267.752	79.81
267.984	83.81
268.216	78.81
268.448	73.81
268.681	84.81
268.913	78.81
269.145	84.81
269.377	83.81
269.609	89.81
269.841	83.81
270.073	88.81
270.306	78.81
270.538	80.81
270.77	77.81
271.002	82.81
271.234	84.81
271.466	77.81
271.698	86.81
271.93	74.81
272.162	86.81
272.394	88.81
272.626	72.81
272.858	81.81
273.09	68.81
273.322	89.81
273.553	72.81
273.785	90.81
274.017	84.81
274.249	68.81
274.481	85.81
274.713	83.81
274.945	89.81
275.176	73.81
275.408	81.81
275.64	85.81
275.872	73.81
276.104	84.81
276.335	95.81
276.567	97.81
276.799	101.81
277.031	90.81
277.262	85.81
277.494	82.81
277.726	89.81
277.957	94.81
278.189	77.81
278.421	88.81
278.652	89.81
278.884	81.81
279.115	97.81
279.347	70.81
279.579	84.81
279.81	85.81
280.042	80.81
280.273	96.81
280.505	82.81
280.736	91.81
280.968	91.81
281.199	83.81
281.431	79.81
281.662	83.81
281.894	102.81
282.125	102.81
282.356	93.81
282.588	126.81
282.819	103.81
283.051	86.81
283.282	97.81
283.513	90.81
283.745	76.81
283.976	85.81
284.207	83.81
284.439	88.81
284.67	81.81
284.901	94.81
285.132	71.81
285.364	74.81
285.595	79.81
285.826	92.81
286.057	99.81
286.288	82.81
286.52	85.81
286.751	89.81
286.982	86.81
287.213	84.81
287.444	75.81
287.675	83.81
287.906	74.81
288.138	104.81
288.369	76.81
288.6	66.81
288.831	79.81
289.062	85.81
289.293	74.81
289.524	69.81
289.755	85.81
289.986	87.81
290.217	82.81
290.448	74.81
290.679	95.81
290.91	100.81
291.141	88.81
291.371	85.81
291.602	85.81
291.833	98.81
292.064	68.81
292.295	84.81
292.526	75.81
292.757	75.81
292.987	78.81
293.218	81.81
293.449	67.81
293.68	85.81
293.91	95.81
294.141	81.81
294.372	81.81
294.603	80.81
294.833	81.81
295.064	83.81
295.295	94.81
295.525	85.81
295.756	86.81
295.987	100.81
296.217	118.81
296.448	99.81
296.679	89.81
296.909	85.81
297.14	83.81
297.37	99.81
297.601	93.81
297.831	74.81
298.062	97.81
298.292	68.81
298.523	85.81
298.753	83.81
298.984	83.81
299.214	81.81
299.445	92.81
299.675	102.81
299.905	90.81
300.136	97.81
300.366	86.81
300.597	92.81
300.827	99.81
301.057	95.81
301.288	98.81
301.518	89.81
301.748	87.81
301.979	102.81
302.209	89.81
302.439	82.81
302.669	73.81
302.9	89.81
303.13	99.81
303.36	91.81
303.59	96.81
303.82	111.81
304.051	93.81
304.281	93.81
304.511	89.81
304.741	77.81
304.971	83.81
305.201	97.81
305.431	88.81
305.661	104.81
305.891	91.81
306.121	85.81
306.352	94.81
306.582	90.81
306.812	97.81
307.042	93.81
307.272	101.81
307.502	103.81
307.731	95.81
307.961	93.81
308.191	94.81
308.421	92.81
308.651	102.81
308.881	86.81
309.111	83.81
309.341	94.81
309.571	94.81
309.8	104.81
310.03	91.81
310.26	91.81
310.49	86.81
310.72	86.81
310.949	96.81
311.179	108.81
311.409	98.81
311.639	93.81
311.868	75.81
312.098	96.81
312.328	85.81
312.557	107.81
312.787	103.81
313.017	94.81
313.246	87.81
313.476	86.81
313.706	88.81
313.935	109.81
314.165	92.81
314.394	90.81
314.624	69.81
314.853	93.81
315.083	95.81
315.312	105.81
315.542	104.81
315.771	91.81
316.001	74.81
316.23	98.81
316.46	85.81
316.689	87.81
316.919	94.81
317.148	89.81
317.377	93.81
317.607	87.81
317.836	102.81
318.065	96.81
318.295	86.81
318.524	84.81
318.753	89.81
318.983	97.81
319.212	93.81
319.441	101.81
319.67	100.81
319.9	94.81
320.129	82.81
320.358	97.81
320.587	107.81
320.816	90.81
321.046	94.81
321.275	87.81
321.504	103.81
321.733	103.81
321.962	88.81
322.191	103.81
322.42	92.81
322.649	101.81
322.878	101.81
323.108	117.81
323.337	101.81
323.566	129.81
323.795	132.81
324.024	186.81
324.253	324.81
324.482	620.81
324.71	1255.81
324.939	1599.81
325.168	628.81
325.397	205.81
325.626	126.81
325.855	114.81
326.084	112.81
326.313	106.81
326.542	132.81
326.77	197.81
326.999	361.81
327.228	739.81
327.457	1270.81
327.686	1011.81
327.914	308.81
328.143	198.81
328.372	144.81
328.6	111.81
328.829	105.81
329.058	103.81
329.287	114.81
329.515	113.81
329.744	99.81
329.972	131.81
330.201	185.81
330.43	218.81
330.658	141.81
330.887	134.81
331.115	105.81
331.344	92.81
331.572	113.81
331.801	92.81
332.03	93.81
332.258	89.81
332.486	83.81
332.715	88.81
332.943	91.81
333.172	95.81
333.4	92.81
333.629	103.81
333.857	114.81
334.085	124.81
334.314	171.81
334.542	239.81
334.771	245.81
334.999	124.81
335.227	97.81
335.455	100.81
335.684	99.81
335.912	101.81
336.14	101.81
336.369	86.81
336.597	103.81
336.825	94.81
337.053	80.81
337.281	82.81
337.51	83.81
337.738	91.81
337.966	97.81
338.194	84.81
338.422	93.81
338.65	87.81
338.878	91.81
339.106	88.81
339.334	84.81
339.562	78.81
339.79	86.81
340.018	78.81
340.246	100.81
340.474	85.81
340.702	87.81
340.93	88.81
341.158	82.81
341.386	83.81
341.614	102.81
341.842	80.81
342.07	81.81
342.298	93.81
342.526	87.81
342.754	82.81
342.981	79.81
343.209	91.81
343.437	96.81
343.665	91.81
343.893	92.81
344.12	98.81
344.348	85.81
344.576	89.81
344.804	91.81
345.031	81.81
345.259	100.81
345.487	101.81
345.714	103.81
345.942	107.81
346.17	87.81
346.397	87.81
346.625	83.81
346.853	71.81
347.08	99.81
347.308	87.81
347.535	94.81
347.763	94.81
347.99	98.81
348.218	104.81
348.445	92.81
348.673	103.81
348.9	97.81
349.128	101.81
349.355	88.81
349.583	89.81
349.81	93.81
350.037	100.81
350.265	84.81
350.492	83.81
350.72	97.81
350.947	95.81
351.174	106.81
351.402	106.81
351.629	98.81
351.856	93.81
352.083	90.81
352.311	100.81
352.538	88.81
352.765	97.81
352.992	112.81
353.22	107.81
353.447	100.81
353.674	101.81
353.901	95.81
354.128	90.81
354.355	89.81
354.583	93.81
354.81	87.81
355.037	92.81
355.264	101.81
355.491	86.81
355.718	113.81
355.945	94.81
356.172	93.81
356.399	91.81
356.626	98.81
356.853	88.81
357.08	98.81
357.307	94.81
357.534	90.81
357.761	93.81
357.988	89.81
358.215	104.81
358.441	98.81
358.668	87.81
358.895	92.81
359.122	99.81
359.349	85.81
359.576	84.81
359.802	96.81
360.029	103.81
360.256	100.81
360.483	89.81
360.709	99.81
360.936	99.81
361.163	95.81
361.39	91.81
361.616	81.81
361.843	91.81
362.07	95.81
362.296	96.81
362.523	93.81
362.749	90.81
362.976	103.81
363.203	95.81
363.429	90.81
363.656	101.81
363.882	88.81
364.109	101.81
364.335	89.81
364.562	95.81
364.788	88.81
365.015	93.81
365.241	83.81
365.468	95.81
365.694	98.81
365.92	82.81
366.147	87.81
366.373	87.81
366.599	74.81
366.826	78.81
367.052	89.81
367.278	93.81
367.505	91.81
367.731	100.81
367.957	89.81
368.184	97.81
368.41	81.81
368.636	116.81
368.862	102.81
369.089	100.81
369.315	86.81
369.541	97.81
369.767	98.81
369.993	93.81
370.219	81.81
370.445	83.81
370.672	84.81
370.898	99.81
371.124	96.81
371.35	85.81
371.576	92.81
371.802	80.81
372.028	96.81
372.254	89.81
372.48	85.81
372.706	73.81
372.932	94.81
373.158	93.81
373.384	88.81
373.61	103.81
373.835	87.81
374.061	84.81
374.287	86.81
374.513	79.81
374.739	90.81
374.965	100.81
375.191	82.81
375.416	81.81
375.642	95.81
375.868	87.81
376.094	80.81
376.319	77.81
376.545	92.81
376.771	82.81
376.997	76.81
377.222	95.81
377.448	80.81
377.674	82.81
377.899	96.81
378.125	86.81
378.35	95.81
378.576	100.81
378.802	76.81
379.027	89.81
379.253	84.81
379.478	81.81
379.704	87.81
379.929	97.81
380.155	81.81
380.38	97.81
380.606	101.81
380.831	80.81
381.057	92.81
381.282	99.81
381.507	103.81
381.733	89.81
381.958	93.81
382.184	88.81
382.409	83.81
382.634	90.81
382.86	98.81
383.085	100.81
383.31	90.81
383.535	90.81
383.761	95.81
383.986	101.81
384.211	99.81
384.436	95.81
384.662	91.81
384.887	88.81
385.112	105.81
385.337	103.81
385.562	109.81
385.787	102.81
386.013	97.81
386.238	103.81
386.463	97.81
386.688	98.81
386.913	101.81
387.138	105.81
387.363	97.81
387.588	104.81
387.813	107.81
388.038	103.81
388.263	89.81
388.488	107.81
388.713	98.81
388.938	101.81
389.163	82.81
389.387	105.81
389.612	97.81
389.837	101.81
390.062	81.81
390.287	91.81
390.512	90.81
390.736	96.81
390.961	100.81
391.186	85.81
391.411	83.81
391.636	91.81
391.86	88.81
392.085	88.81
392.31	81.81
392.534	101.81
392.759	92.81
392.984	83.81
393.208	99.81
393.433	99.81
393.658	96.81
393.882	102.81
394.107	83.81
394.331	78.81
394.556	98.81
394.78	107.81
395.005	82.81
395.229	83.81
395.454	94.81
395.678	83.81
395.903	69.81
396.127	81.81
396.352	102.81
396.576	84.81
396.801	82.81
397.025	86.81
397.249	80.81
397.474	83.81
397.698	90.81
397.922	97.81
398.147	83.81
398.371	86.81
398.595	82.81
398.82	100.81
399.044	71.81
399.268	84.81
399.492	93.81
399.717	83.81
399.941	84.81
400.165	95.81
400.389	86.81
400.613	94.81
400.837	100.81
401.062	97.81
401.286	74.81
401.51	90.81
401.734	86.81
401.958	94.81
402.182	115.81
402.406	118.81
402.63	104.81
402.854	87.81
403.078	95.81
403.302	79.81
403.526	86.81
403.75	87.81
403.974	81.81
404.198	77.81
404.422	77.81
404.645	90.81
404.869	85.81
405.093	99.81
405.317	88.81
405.541	94.81
405.765	87.81
405.988	113.81
406.212	135.81
406.436	171.81
406.66	118.81
406.883	99.81
407.107	98.81
407.331	102.81
407.555	97.81
407.778	83.81
408.002	86.81
408.226	89.81
408.449	83.81
408.673	93.81
408.896	87.81
409.12	83.81
409.344	88.81
409.567	105.81
409.791	100.81
410.014	101.81
410.238	89.81
410.461	99.81
410.685	79.81
410.908	92.81
411.132	111.81
411.355	101.81
411.578	92.81
411.802	79.81
412.025	81.81
412.249	88.81
412.472	85.81
412.695	101.81
412.919	86.81
413.142	92.81
413.365	88.81
413.589	82.81
413.812	77.81
414.035	91.81
414.258	86.81
414.482	82.81
414.705	75.81
414.928	103.81
415.151	93.81
415.374	107.81
415.597	97.81
415.821	101.81
416.044	103.81
416.267	94.81
416.49	89.81
416.713	92.81
416.936	90.81
417.159	87.81
417.382	66.81
417.605	89.81
417.828	88.81
418.051	86.81
418.274	91.81
418.497	83.81
418.72	79.81
418.943	96.81
419.166	80.81
419.389	96.81
419.611	84.81
419.834	81.81
420.057	78.81
420.28	86.81
420.503	94.81
420.726	78.81
420.948	79.81
421.171	83.81
421.394	85.81
421.617	71.81
421.839	84.81
422.062	85.81
422.285	83.81
422.507	105.81
422.73	113.81
422.953	89.81
423.175	103.81
423.398	82.81
423.621	92.81
423.843	89.81
424.066	71.81
424.288	96.81
424.511	86.81
424.733	93.81
424.956	97.81
425.178	93.81
425.401	79.81
425.623	90.81
425.846	77.81
426.068	92.81
426.291	90.81
426.513	78.81
426.735	84.81
426.958	96.81
427.18	112.81
427.402	126.81
427.625	132.81
427.847	115.81
428.069	121.81
428.292	87.81
428.514	83.81
428.736	73.81
428.958	87.81
429.181	74.81
429.403	89.81
429.625	85.81
429.847	86.81
430.069	89.81
430.292	91.81
430.514	97.81
430.736	86.81
430.958	80.81
431.18	63.81
431.402	90.81
431.624	76.81
431.846	87.81
432.068	75.81
432.29	82.81
432.512	83.81
432.734	95.81
432.956	83.81
433.178	97.81
433.4	101.81
433.622	77.81
433.844	73.81
434.066	87.81
434.287	83.81
434.509	95.81
434.731	92.81
434.953	96.81
435.175	72.81
435.397	86.81
435.618	104.81
435.84	97.81
436.062	111.81
436.284	96.81
436.505	97.81
436.727	90.81
436.949	101.81
437.17	91.81
437.392	73.81
437.614	82.81
437.835	85.81
438.057	91.81
438.278	96.81
438.5	98.81
438.721	107.81
438.943	89.81
439.165	84.81
439.386	103.81
439.608	93.81
439.829	95.81
440.05	105.81
440.272	110.81
440.493	91.81
440.715	86.81
440.936	84.81
441.158	101.81
441.379	85.81
441.6	73.81
441.822	85.81
442.043	79.81
442.264	97.81
442.486	90.81
442.707	89.81
442.928	91.81
443.149	107.81
443.371	110.81
443.592	88.81
443.813	83.81
444.034	79.81
444.255	86.81
444.476	87.81
444.698	79.81
444.919	86.81
445.14	130.81
445.361	128.81
445.582	101.81
445.803	108.81
446.024	115.81
446.245	119.81
446.466	92.81
446.687	90.81
446.908	65.81
447.129	88.81
447.35	77.81
447.571	100.81
447.792	99.81
448.013	83.81
448.234	102.81
448.455	103.81
448.675	101.81
448.896	101.81
449.117	91.81
449.338	83.81
449.559	97.81
449.779	106.81
450	79.81
450.221	79.81
450.442	96.81
450.662	98.81
450.883	93.81
451.104	90.81
451.324	95.81
451.545	91.81
451.766	82.81
451.986	72.81
452.207	90.81
452.428	74.81
452.648	85.81
452.869	81.81
453.089	100.81
453.31	102.81
453.53	89.81
453.751	89.81
453.971	98.81
454.192	94.81
454.412	86.81
454.633	98.81
454.853	90.81
455.073	82.81
455.294	85.81
455.514	93.81
455.734	89.81
455.955	66.81
456.175	79.81
456.395	81.81
456.616	93.81
456.836	83.81
457.056	93.81
457.276	93.81
457.497	78.81
457.717	77.81
457.937	99.81
458.157	83.81
458.377	81.81
458.598	109.81
458.818	120.81
459.038	126.81
459.258	101.81
459.478	85.81
459.698	81.81
459.918	89.81
460.138	91.81
460.358	83.81
460.578	84.81
460.798	95.81
461.018	83.81
461.238	71.81
461.458	91.81
461.678	84.81
461.898	92.81
462.118	80.81
462.338	96.81
462.558	66.81
462.777	74.81
462.997	65.81
463.217	81.81
463.437	79.81
463.657	73.81
463.876	74.81
464.096	84.81
464.316	95.81
464.536	90.81
464.755	86.81
464.975	100.81
465.195	137.81
465.414	131.81
465.634	95.81
465.854	74.81
466.073	93.81
466.293	83.81
466.512	86.81
466.732	74.81
466.951	81.81
467.171	79.81
467.391	100.81
467.61	84.81
467.829	98.81
468.049	128.81
468.268	141.81
468.488	79.81
468.707	89.81
468.927	77.81
469.146	87.81
469.365	86.81
469.585	77.81
469.804	81.81
470.023	99.81
470.243	93.81
470.462	94.81
470.681	95.81
470.901	83.81
471.12	85.81
471.339	72.81
471.558	84.81
471.777	81.81
471.997	92.81
472.216	194.81
472.435	323.81
472.654	132.81
472.873	93.81
473.092	77.81
473.311	88.81
473.53	77.81
473.749	87.81
473.968	96.81
474.187	103.81
474.406	106.81
474.625	79.81
474.844	78.81
475.063	91.81
475.282	86.81
475.501	85.81
475.72	87.81
475.939	74.81
476.158	87.81
476.377	94.81
476.596	85.81
476.814	74.81
477.033	80.81
477.252	83.81
477.471	93.81
477.69	75.81
477.908	89.81
478.127	81.81
478.346	73.81
478.564	86.81
478.783	89.81
479.002	85.81
479.22	98.81
479.439	98.81
479.658	104.81
479.876	89.81
480.095	101.81
480.313	93.81
480.532	101.81
480.751	108.81
480.969	189.81
481.188	510.81
481.406	317.81
481.624	116.81
481.843	94.81
482.061	89.81
482.28	83.81
482.498	98.81
482.717	88.81
482.935	79.81
483.153	93.81
483.372	73.81
483.59	90.81
483.808	78.81
484.027	92.81
484.245	73.81
484.463	88.81
484.681	98.81
484.9	89.81
485.118	103.81
485.336	80.81
485.554	92.81
485.772	110.81
485.99	118.81
486.209	94.81
486.427	107.81
486.645	96.81
486.863	101.81
487.081	96.81
487.299	93.81
487.517	92.81
487.735	91.81
487.953	79.81
488.171	83.81
488.389	102.81
488.607	92.81
488.825	88.81
489.043	104.81
489.261	80.81
489.479	99.81
489.696	86.81
489.914	87.81
490.132	89.81
490.35	100.81
490.568	71.81
490.786	74.81
491.003	72.81
491.221	97.81
491.439	86.81
491.657	88.81
491.874	85.81
492.092	84.81
492.31	92.81
492.527	88.81
492.745	86.81
492.963	93.81
493.18	96.81
493.398	95.81
493.615	90.81
493.833	85.81
494.05	100.81
494.268	90.81
494.485	92.81
494.703	86.81
494.92	88.81
495.138	87.81
495.355	80.81
495.573	76.81
495.79	76.81
496.008	81.81
496.225	98.81
496.442	70.81
496.66	89.81
496.877	101.81
497.094	98.81
497.312	88.81
497.529	78.81
497.746	80.81
497.963	87.81
498.181	88.81
498.398	87.81
498.615	101.81
498.832	90.81
499.049	89.81
499.267	83.81
499.484	77.81
499.701	87.81
499.918	88.81
500.135	86.81
500.352	95.81
500.569	89.81
500.786	84.81
501.003	85.81
501.22	96.81
501.437	104.81
501.654	95.81
501.871	89.81
502.088	96.81
502.305	86.81
502.522	77.81
502.739	82.81
502.956	98.81
503.172	97.81
503.389	84.81
503.606	104.81
503.823	100.81
504.04	79.81
504.256	76.81
504.473	95.81
504.69	82.81
504.907	85.81
505.123	95.81
505.34	81.81
505.557	81.81
505.773	86.81
505.99	88.81
506.207	85.81
506.423	95.81
506.64	80.81
506.856	95.81
507.073	77.81
507.289	88.81
507.506	90.81
507.722	111.81
507.939	102.81
508.155	102.81
508.372	70.81
508.588	83.81
508.805	89.81
509.021	94.81
509.238	89.81
509.454	93.81
509.67	103.81
509.887	104.81
510.103	122.81
510.319	176.81
510.536	559.81
510.752	1705.81
510.968	513.81
511.184	130.81
511.401	109.81
511.617	83.81
511.833	89.81
512.049	97.81
512.265	103.81
512.481	84.81
512.698	89.81
512.914	80.81
513.13	89.81
513.346	82.81
513.562	88.81
513.778	89.81
513.994	104.81
514.21	97.81
514.426	110.81
514.642	119.81
514.858	115.81
515.074	144.81
515.29	339.81
515.506	1030.81
515.721	384.81
515.937	112.81
516.153	102.81
516.369	91.81
516.585	85.81
