Data from Circ_1983_H10_HRD10591_00028.txt Node
Date: Wed Jan 03 12:26:50 EST 2024
User: Yrep
Spectrometer: HR+D1059
Trigger mode: 1
Integration Time (sec): 1.000000E-1
Scans to average: 1
Electric dark correction enabled: true
Nonlinearity correction enabled: false
Boxcar width: 0
XAxis mode: Wavelengths
Number of Pixels in Spectrum: 2048
>>>>>Begin Spectral Data<<<<<
223.165	-18.31
223.4	-18.31
223.635	-18.31
223.869	-22.31
224.104	-20.31
224.338	-17.31
224.573	-16.31
224.808	-0.31
225.042	-1.31
225.277	-17.31
225.511	-1.31
225.746	15.69
225.98	3.69
226.215	3.69
226.449	10.69
226.683	20.69
226.918	23.69
227.152	36.69
227.387	29.69
227.621	44.69
227.856	38.69
228.09	36.69
228.324	69.69
228.559	64.69
228.793	68.69
229.027	64.69
229.262	71.69
229.496	62.69
229.73	84.69
229.964	87.69
230.199	82.69
230.433	75.69
230.667	81.69
230.901	75.69
231.136	80.69
231.37	95.69
231.604	89.69
231.838	83.69
232.072	84.69
232.306	80.69
232.541	86.69
232.775	64.69
233.009	73.69
233.243	76.69
233.477	86.69
233.711	78.69
233.945	83.69
234.179	68.69
234.413	78.69
234.647	75.69
234.881	77.69
235.115	90.69
235.349	69.69
235.583	81.69
235.817	93.69
236.051	65.69
236.285	81.69
236.519	71.69
236.753	89.69
236.987	89.69
237.221	69.69
237.455	72.69
237.689	86.69
237.922	71.69
238.156	62.69
238.39	71.69
238.624	73.69
238.858	85.69
239.091	89.69
239.325	84.69
239.559	66.69
239.793	89.69
240.027	71.69
240.26	73.69
240.494	77.69
240.728	66.69
240.961	79.69
241.195	84.69
241.429	75.69
241.662	85.69
241.896	71.69
242.13	85.69
242.363	81.69
242.597	91.69
242.83	83.69
243.064	73.69
243.298	76.69
243.531	65.69
243.765	80.69
243.998	92.69
244.232	90.69
244.465	83.69
244.699	73.69
244.932	70.69
245.166	89.69
245.399	69.69
245.633	75.69
245.866	77.69
246.099	81.69
246.333	83.69
246.566	81.69
246.8	89.69
247.033	89.69
247.266	95.69
247.5	75.69
247.733	80.69
247.966	78.69
248.2	83.69
248.433	73.69
248.666	69.69
248.899	78.69
249.133	79.69
249.366	105.69
249.599	85.69
249.832	74.69
250.066	85.69
250.299	83.69
250.532	76.69
250.765	83.69
250.998	81.69
251.231	71.69
251.465	89.69
251.698	86.69
251.931	74.69
252.164	89.69
252.397	70.69
252.63	85.69
252.863	88.69
253.096	87.69
253.329	78.69
253.562	81.69
253.795	73.69
254.028	69.69
254.261	74.69
254.494	88.69
254.727	84.69
254.96	83.69
255.193	81.69
255.426	86.69
255.659	61.69
255.892	82.69
256.124	87.69
256.357	86.69
256.59	74.69
256.823	61.69
257.056	68.69
257.289	77.69
257.521	78.69
257.754	98.69
257.987	85.69
258.22	95.69
258.452	91.69
258.685	85.69
258.918	83.69
259.151	84.69
259.383	87.69
259.616	83.69
259.849	83.69
260.081	77.69
260.314	90.69
260.547	95.69
260.779	91.69
261.012	72.69
261.244	83.69
261.477	83.69
261.71	90.69
261.942	89.69
262.175	106.69
262.407	87.69
262.64	90.69
262.872	85.69
263.105	75.69
263.337	82.69
263.57	91.69
263.802	87.69
264.035	74.69
264.267	84.69
264.499	98.69
264.732	91.69
264.964	74.69
265.197	87.69
265.429	77.69
265.661	80.69
265.894	83.69
266.126	78.69
266.358	91.69
266.591	80.69
266.823	81.69
267.055	79.69
267.287	83.69
267.52	85.69
267.752	85.69
267.984	85.69
268.216	84.69
268.448	88.69
268.681	97.69
268.913	88.69
269.145	94.69
269.377	72.69
269.609	102.69
269.841	87.69
270.073	77.69
270.306	85.69
270.538	92.69
270.77	78.69
271.002	81.69
271.234	65.69
271.466	74.69
271.698	77.69
271.93	85.69
272.162	84.69
272.394	97.69
272.626	90.69
272.858	83.69
273.09	84.69
273.322	92.69
273.553	89.69
273.785	76.69
274.017	67.69
274.249	91.69
274.481	86.69
274.713	65.69
274.945	78.69
275.176	83.69
275.408	70.69
275.64	89.69
275.872	85.69
276.104	79.69
276.335	83.69
276.567	99.69
276.799	95.69
277.031	100.69
277.262	85.69
277.494	79.69
277.726	99.69
277.957	87.69
278.189	91.69
278.421	94.69
278.652	99.69
278.884	91.69
279.115	96.69
279.347	75.69
279.579	77.69
279.81	78.69
280.042	84.69
280.273	95.69
280.505	90.69
280.736	89.69
280.968	91.69
281.199	86.69
281.431	85.69
281.662	92.69
281.894	75.69
282.125	104.69
282.356	107.69
282.588	118.69
282.819	107.69
283.051	83.69
283.282	95.69
283.513	98.69
283.745	92.69
283.976	89.69
284.207	85.69
284.439	69.69
284.67	88.69
284.901	94.69
285.132	79.69
285.364	86.69
285.595	99.69
285.826	74.69
286.057	95.69
286.288	91.69
286.52	98.69
286.751	90.69
286.982	90.69
287.213	84.69
287.444	91.69
287.675	103.69
287.906	94.69
288.138	99.69
288.369	96.69
288.6	97.69
288.831	85.69
289.062	82.69
289.293	91.69
289.524	88.69
289.755	81.69
289.986	86.69
290.217	101.69
290.448	90.69
290.679	94.69
290.91	89.69
291.141	87.69
291.371	89.69
291.602	72.69
291.833	85.69
292.064	87.69
292.295	82.69
292.526	84.69
292.757	97.69
292.987	96.69
293.218	99.69
293.449	93.69
293.68	93.69
293.91	94.69
294.141	91.69
294.372	86.69
294.603	89.69
294.833	90.69
295.064	93.69
295.295	90.69
295.525	90.69
295.756	103.69
295.987	107.69
296.217	124.69
296.448	108.69
296.679	100.69
296.909	100.69
297.14	101.69
297.37	96.69
297.601	100.69
297.831	84.69
298.062	86.69
298.292	92.69
298.523	100.69
298.753	95.69
298.984	87.69
299.214	96.69
299.445	99.69
299.675	99.69
299.905	95.69
300.136	79.69
300.366	96.69
300.597	94.69
300.827	100.69
301.057	101.69
301.288	88.69
301.518	92.69
301.748	84.69
301.979	83.69
302.209	81.69
302.439	87.69
302.669	96.69
302.9	103.69
303.13	99.69
303.36	100.69
303.59	91.69
303.82	93.69
304.051	86.69
304.281	79.69
304.511	89.69
304.741	92.69
304.971	87.69
305.201	87.69
305.431	87.69
305.661	103.69
305.891	93.69
306.121	87.69
306.352	98.69
306.582	107.69
306.812	110.69
307.042	81.69
307.272	87.69
307.502	100.69
307.731	121.69
307.961	93.69
308.191	95.69
308.421	103.69
308.651	97.69
308.881	98.69
309.111	98.69
309.341	102.69
309.571	97.69
309.8	95.69
310.03	101.69
310.26	101.69
310.49	79.69
310.72	100.69
310.949	98.69
311.179	94.69
311.409	102.69
311.639	83.69
311.868	87.69
312.098	112.69
312.328	91.69
312.557	111.69
312.787	95.69
313.017	98.69
313.246	85.69
313.476	97.69
313.706	94.69
313.935	102.69
314.165	110.69
314.394	95.69
314.624	98.69
314.853	88.69
315.083	93.69
315.312	98.69
315.542	92.69
315.771	99.69
316.001	87.69
316.23	98.69
316.46	88.69
316.689	99.69
316.919	91.69
317.148	99.69
317.377	97.69
317.607	89.69
317.836	93.69
318.065	83.69
318.295	91.69
318.524	88.69
318.753	95.69
318.983	117.69
319.212	97.69
319.441	106.69
319.67	108.69
319.9	110.69
320.129	95.69
320.358	98.69
320.587	96.69
320.816	97.69
321.046	93.69
321.275	100.69
321.504	101.69
321.733	85.69
321.962	88.69
322.191	85.69
322.42	89.69
322.649	93.69
322.878	87.69
323.108	106.69
323.337	109.69
323.566	119.69
323.795	149.69
324.024	163.69
324.253	274.69
324.482	592.69
324.71	1193.69
324.939	1553.69
325.168	593.69
325.397	202.69
325.626	129.69
325.855	131.69
326.084	129.69
326.313	98.69
326.542	120.69
326.77	181.69
326.999	342.69
327.228	667.69
327.457	1239.69
327.686	1006.69
327.914	268.69
328.143	186.69
328.372	148.69
328.6	132.69
328.829	117.69
329.058	108.69
329.287	117.69
329.515	107.69
329.744	99.69
329.972	124.69
330.201	147.69
330.43	185.69
330.658	126.69
330.887	116.69
331.115	103.69
331.344	93.69
331.572	98.69
331.801	99.69
332.03	97.69
332.258	104.69
332.486	101.69
332.715	82.69
332.943	94.69
333.172	106.69
333.4	110.69
333.629	99.69
333.857	107.69
334.085	116.69
334.314	138.69
334.542	195.69
334.771	184.69
334.999	117.69
335.227	95.69
335.455	98.69
335.684	91.69
335.912	97.69
336.14	89.69
336.369	104.69
336.597	97.69
336.825	87.69
337.053	89.69
337.281	93.69
337.51	85.69
337.738	99.69
337.966	97.69
338.194	103.69
338.422	86.69
338.65	72.69
338.878	95.69
339.106	79.69
339.334	91.69
339.562	99.69
339.79	93.69
340.018	93.69
340.246	84.69
340.474	91.69
340.702	92.69
340.93	95.69
341.158	105.69
341.386	112.69
341.614	103.69
341.842	92.69
342.07	89.69
342.298	81.69
342.526	93.69
342.754	83.69
342.981	76.69
343.209	87.69
343.437	106.69
343.665	92.69
343.893	79.69
344.12	83.69
344.348	87.69
344.576	95.69
344.804	101.69
345.031	90.69
345.259	102.69
345.487	106.69
345.714	88.69
345.942	93.69
346.17	99.69
346.397	81.69
346.625	99.69
346.853	92.69
347.08	97.69
347.308	102.69
347.535	93.69
347.763	101.69
347.99	92.69
348.218	90.69
348.445	91.69
348.673	100.69
348.9	99.69
349.128	98.69
349.355	109.69
349.583	86.69
349.81	89.69
350.037	93.69
350.265	94.69
350.492	97.69
350.72	100.69
350.947	98.69
351.174	99.69
351.402	102.69
351.629	95.69
351.856	95.69
352.083	108.69
352.311	113.69
352.538	91.69
352.765	109.69
352.992	110.69
353.22	96.69
353.447	101.69
353.674	103.69
353.901	103.69
354.128	95.69
354.355	82.69
354.583	93.69
354.81	105.69
355.037	116.69
355.264	101.69
355.491	106.69
355.718	86.69
355.945	101.69
356.172	104.69
356.399	97.69
356.626	86.69
356.853	89.69
357.08	82.69
357.307	94.69
357.534	88.69
357.761	99.69
357.988	95.69
358.215	74.69
358.441	88.69
358.668	95.69
358.895	79.69
359.122	85.69
359.349	93.69
359.576	83.69
359.802	103.69
360.029	95.69
360.256	106.69
360.483	106.69
360.709	98.69
360.936	93.69
361.163	107.69
361.39	107.69
361.616	84.69
361.843	83.69
362.07	87.69
362.296	82.69
362.523	94.69
362.749	97.69
362.976	76.69
363.203	95.69
363.429	111.69
363.656	95.69
363.882	92.69
364.109	86.69
364.335	94.69
364.562	82.69
364.788	65.69
365.015	93.69
365.241	108.69
365.468	101.69
365.694	105.69
365.92	97.69
366.147	74.69
366.373	86.69
366.599	87.69
366.826	95.69
367.052	93.69
367.278	88.69
367.505	79.69
367.731	101.69
367.957	96.69
368.184	95.69
368.41	100.69
368.636	106.69
368.862	98.69
369.089	103.69
369.315	95.69
369.541	89.69
369.767	85.69
369.993	98.69
370.219	87.69
370.445	77.69
370.672	89.69
370.898	78.69
371.124	74.69
371.35	96.69
371.576	93.69
371.802	88.69
372.028	78.69
372.254	91.69
372.48	86.69
372.706	84.69
372.932	90.69
373.158	88.69
373.384	98.69
373.61	68.69
373.835	85.69
374.061	74.69
374.287	78.69
374.513	86.69
374.739	89.69
374.965	81.69
375.191	87.69
375.416	101.69
375.642	87.69
375.868	92.69
376.094	95.69
376.319	113.69
376.545	92.69
376.771	101.69
376.997	93.69
377.222	88.69
377.448	97.69
377.674	93.69
377.899	83.69
378.125	100.69
378.35	100.69
378.576	100.69
378.802	97.69
379.027	99.69
379.253	90.69
379.478	100.69
379.704	89.69
379.929	94.69
380.155	91.69
380.38	91.69
380.606	79.69
380.831	93.69
381.057	103.69
381.282	108.69
381.507	85.69
381.733	99.69
381.958	99.69
382.184	113.69
382.409	107.69
382.634	109.69
382.86	108.69
383.085	100.69
383.31	98.69
383.535	113.69
383.761	101.69
383.986	97.69
384.211	101.69
384.436	103.69
384.662	105.69
384.887	104.69
385.112	99.69
385.337	103.69
385.562	104.69
385.787	105.69
386.013	109.69
386.238	107.69
386.463	101.69
386.688	115.69
386.913	106.69
387.138	117.69
387.363	108.69
387.588	112.69
387.813	100.69
388.038	107.69
388.263	114.69
388.488	119.69
388.713	83.69
388.938	91.69
389.163	94.69
389.387	91.69
389.612	97.69
389.837	94.69
390.062	102.69
390.287	90.69
390.512	90.69
390.736	77.69
390.961	78.69
391.186	112.69
391.411	103.69
391.636	91.69
391.86	80.69
392.085	93.69
392.31	84.69
392.534	88.69
392.759	92.69
392.984	99.69
393.208	97.69
393.433	122.69
393.658	115.69
393.882	88.69
394.107	85.69
394.331	79.69
394.556	71.69
394.78	87.69
395.005	94.69
395.229	101.69
395.454	99.69
395.678	96.69
395.903	92.69
396.127	94.69
396.352	85.69
396.576	88.69
396.801	97.69
397.025	91.69
397.249	101.69
397.474	92.69
397.698	77.69
397.922	87.69
398.147	87.69
398.371	92.69
398.595	91.69
398.82	81.69
399.044	91.69
399.268	77.69
399.492	97.69
399.717	93.69
399.941	87.69
400.165	98.69
400.389	99.69
400.613	95.69
400.837	87.69
401.062	93.69
401.286	88.69
401.51	92.69
401.734	99.69
401.958	103.69
402.182	107.69
402.406	125.69
402.63	109.69
402.854	90.69
403.078	89.69
403.302	95.69
403.526	93.69
403.75	85.69
403.974	83.69
404.198	90.69
404.422	101.69
404.645	99.69
404.869	101.69
405.093	105.69
405.317	100.69
405.541	110.69
405.765	84.69
405.988	92.69
406.212	126.69
406.436	161.69
406.66	126.69
406.883	98.69
407.107	89.69
407.331	87.69
407.555	101.69
407.778	100.69
408.002	86.69
408.226	97.69
408.449	79.69
408.673	91.69
408.896	88.69
409.12	96.69
409.344	97.69
409.567	90.69
409.791	90.69
410.014	91.69
410.238	80.69
410.461	94.69
410.685	89.69
410.908	104.69
411.132	101.69
411.355	93.69
411.578	84.69
411.802	97.69
412.025	85.69
412.249	91.69
412.472	90.69
412.695	102.69
412.919	101.69
413.142	79.69
413.365	78.69
413.589	88.69
413.812	85.69
414.035	95.69
414.258	97.69
414.482	93.69
414.705	83.69
414.928	94.69
415.151	81.69
415.374	93.69
415.597	92.69
415.821	91.69
416.044	91.69
416.267	99.69
416.49	93.69
416.713	85.69
416.936	97.69
417.159	94.69
417.382	76.69
417.605	75.69
417.828	85.69
418.051	93.69
418.274	86.69
418.497	89.69
418.72	73.69
418.943	93.69
419.166	83.69
419.389	97.69
419.611	85.69
419.834	104.69
420.057	94.69
420.28	101.69
420.503	90.69
420.726	91.69
420.948	106.69
421.171	97.69
421.394	91.69
421.617	99.69
421.839	92.69
422.062	90.69
422.285	90.69
422.507	77.69
422.73	95.69
422.953	99.69
423.175	94.69
423.398	77.69
423.621	92.69
423.843	81.69
424.066	91.69
424.288	87.69
424.511	75.69
424.733	110.69
424.956	105.69
425.178	92.69
425.401	94.69
425.623	104.69
425.846	92.69
426.068	102.69
426.291	73.69
426.513	103.69
426.735	103.69
426.958	93.69
427.18	91.69
427.402	131.69
427.625	128.69
427.847	116.69
428.069	120.69
428.292	103.69
428.514	105.69
428.736	89.69
428.958	89.69
429.181	96.69
429.403	97.69
429.625	88.69
429.847	73.69
430.069	86.69
430.292	85.69
430.514	89.69
430.736	94.69
430.958	81.69
431.18	89.69
431.402	88.69
431.624	87.69
431.846	83.69
432.068	79.69
432.29	83.69
432.512	87.69
432.734	89.69
432.956	91.69
433.178	103.69
433.4	93.69
433.622	85.69
433.844	63.69
434.066	89.69
434.287	102.69
434.509	92.69
434.731	104.69
434.953	80.69
435.175	81.69
435.397	82.69
435.618	79.69
435.84	97.69
436.062	112.69
436.284	81.69
436.505	90.69
436.727	98.69
436.949	92.69
437.17	92.69
437.392	93.69
437.614	75.69
437.835	77.69
438.057	90.69
438.278	96.69
438.5	91.69
438.721	91.69
438.943	89.69
439.165	89.69
439.386	97.69
439.608	93.69
439.829	102.69
440.05	108.69
440.272	129.69
440.493	96.69
440.715	93.69
440.936	83.69
441.158	83.69
441.379	79.69
441.6	73.69
441.822	91.69
442.043	104.69
442.264	104.69
442.486	87.69
442.707	79.69
442.928	86.69
443.149	105.69
443.371	100.69
443.592	93.69
443.813	91.69
444.034	96.69
444.255	103.69
444.476	85.69
444.698	91.69
444.919	85.69
445.14	129.69
445.361	110.69
445.582	117.69
445.803	117.69
446.024	106.69
446.245	108.69
446.466	110.69
446.687	87.69
446.908	82.69
447.129	86.69
447.35	90.69
447.571	87.69
447.792	97.69
448.013	102.69
448.234	109.69
448.455	94.69
448.675	94.69
448.896	97.69
449.117	102.69
449.338	91.69
449.559	113.69
449.779	111.69
450	97.69
450.221	97.69
450.442	62.69
450.662	71.69
450.883	100.69
451.104	107.69
451.324	94.69
451.545	94.69
451.766	87.69
451.986	79.69
452.207	89.69
452.428	97.69
452.648	107.69
452.869	94.69
453.089	101.69
453.31	108.69
453.53	91.69
453.751	92.69
453.971	98.69
454.192	95.69
454.412	93.69
454.633	100.69
454.853	79.69
455.073	59.69
455.294	89.69
455.514	93.69
455.734	95.69
455.955	88.69
456.175	91.69
456.395	100.69
456.616	94.69
456.836	104.69
457.056	81.69
457.276	86.69
457.497	91.69
457.717	97.69
457.937	91.69
458.157	98.69
458.377	81.69
458.598	100.69
458.818	119.69
459.038	137.69
459.258	97.69
459.478	71.69
459.698	95.69
459.918	87.69
460.138	85.69
460.358	91.69
460.578	88.69
460.798	94.69
461.018	94.69
461.238	68.69
461.458	93.69
461.678	89.69
461.898	90.69
462.118	95.69
462.338	94.69
462.558	95.69
462.777	101.69
462.997	81.69
463.217	76.69
463.437	73.69
463.657	90.69
463.876	93.69
464.096	76.69
464.316	78.69
464.536	90.69
464.755	81.69
464.975	94.69
465.195	125.69
465.414	124.69
465.634	98.69
465.854	75.69
466.073	102.69
466.293	84.69
466.512	86.69
466.732	106.69
466.951	90.69
467.171	95.69
467.391	91.69
467.61	104.69
467.829	99.69
468.049	111.69
468.268	142.69
468.488	100.69
468.707	85.69
468.927	87.69
469.146	82.69
469.365	79.69
469.585	103.69
469.804	84.69
470.023	82.69
470.243	86.69
470.462	89.69
470.681	106.69
470.901	66.69
471.12	72.69
471.339	83.69
471.558	85.69
471.777	90.69
471.997	99.69
472.216	151.69
472.435	242.69
472.654	122.69
472.873	90.69
473.092	85.69
473.311	95.69
473.53	105.69
473.749	74.69
473.968	88.69
474.187	94.69
474.406	95.69
474.625	83.69
474.844	101.69
475.063	83.69
475.282	90.69
475.501	82.69
475.72	77.69
475.939	93.69
476.158	92.69
476.377	73.69
476.596	89.69
476.814	75.69
477.033	77.69
477.252	100.69
477.471	86.69
477.69	87.69
477.908	89.69
478.127	95.69
478.346	89.69
478.564	83.69
478.783	92.69
479.002	93.69
479.22	101.69
479.439	96.69
479.658	106.69
479.876	98.69
480.095	94.69
480.313	94.69
480.532	90.69
480.751	95.69
480.969	158.69
481.188	362.69
481.406	252.69
481.624	114.69
481.843	103.69
482.061	98.69
482.28	86.69
482.498	82.69
482.717	86.69
482.935	99.69
483.153	105.69
483.372	90.69
483.59	93.69
483.808	83.69
484.027	97.69
484.245	98.69
484.463	88.69
484.681	101.69
484.9	90.69
485.118	85.69
485.336	97.69
485.554	97.69
485.772	96.69
485.99	96.69
486.209	94.69
486.427	113.69
486.645	112.69
486.863	97.69
487.081	106.69
487.299	114.69
487.517	86.69
487.735	83.69
487.953	83.69
488.171	86.69
488.389	109.69
488.607	86.69
488.825	86.69
489.043	83.69
489.261	95.69
489.479	79.69
489.696	92.69
489.914	105.69
490.132	75.69
490.35	96.69
490.568	89.69
490.786	85.69
491.003	93.69
491.221	98.69
491.439	78.69
491.657	93.69
491.874	91.69
492.092	94.69
492.31	103.69
492.527	83.69
492.745	99.69
492.963	90.69
493.18	98.69
493.398	98.69
493.615	93.69
493.833	89.69
494.05	93.69
494.268	87.69
494.485	94.69
494.703	85.69
494.92	79.69
495.138	89.69
495.355	97.69
495.573	82.69
495.79	104.69
496.008	95.69
496.225	87.69
496.442	96.69
496.66	90.69
496.877	92.69
497.094	103.69
497.312	98.69
497.529	69.69
497.746	87.69
497.963	99.69
498.181	95.69
498.398	95.69
498.615	97.69
498.832	106.69
499.049	99.69
499.267	89.69
499.484	96.69
499.701	93.69
499.918	83.69
500.135	84.69
500.352	74.69
500.569	79.69
500.786	85.69
501.003	94.69
501.22	81.69
501.437	86.69
501.654	93.69
501.871	98.69
502.088	90.69
502.305	88.69
502.522	85.69
502.739	85.69
502.956	90.69
503.172	91.69
503.389	93.69
503.606	83.69
503.823	107.69
504.04	94.69
504.256	96.69
504.473	96.69
504.69	87.69
504.907	91.69
505.123	93.69
505.34	100.69
505.557	98.69
505.773	85.69
505.99	90.69
506.207	100.69
506.423	81.69
506.64	76.69
506.856	90.69
507.073	97.69
507.289	93.69
507.506	100.69
507.722	106.69
507.939	98.69
508.155	103.69
508.372	99.69
508.588	78.69
508.805	97.69
509.021	102.69
509.238	103.69
509.454	95.69
509.67	107.69
509.887	106.69
510.103	123.69
510.319	181.69
510.536	547.69
510.752	1665.69
510.968	480.69
511.184	131.69
511.401	102.69
511.617	87.69
511.833	98.69
512.049	95.69
512.265	87.69
512.481	84.69
512.698	87.69
512.914	99.69
513.13	88.69
513.346	76.69
513.562	94.69
513.778	98.69
513.994	98.69
514.21	92.69
514.426	112.69
514.642	110.69
514.858	109.69
515.074	133.69
515.29	321.69
515.506	1002.69
515.721	395.69
