Data from Circ_1983_H10_HRD10591_00038.txt Node
Date: Wed Jan 03 12:26:52 EST 2024
User: Yrep
Spectrometer: HR+D1059
Trigger mode: 1
Integration Time (sec): 1.000000E-1
Scans to average: 1
Electric dark correction enabled: true
Nonlinearity correction enabled: false
Boxcar width: 0
XAxis mode: Wavelengths
Number of Pixels in Spectrum: 2048
>>>>>Begin Spectral Data<<<<<
223.165	-26.12
223.4	-26.12
223.635	-26.12
223.869	-15.12
224.104	-28.12
224.338	-19.12
224.573	-7.12
224.808	-8.12
225.042	-17.12
225.277	-16.12
225.511	6.88
225.746	2.88
225.98	11.88
226.215	11.88
226.449	20.88
226.683	19.88
226.918	27.88
227.152	34.88
227.387	42.88
227.621	42.88
227.856	60.88
228.09	48.88
228.324	60.88
228.559	52.88
228.793	65.88
229.027	58.88
229.262	65.88
229.496	61.88
229.73	72.88
229.964	82.88
230.199	77.88
230.433	72.88
230.667	76.88
230.901	65.88
231.136	83.88
231.37	73.88
231.604	77.88
231.838	89.88
232.072	73.88
232.306	67.88
232.541	75.88
232.775	74.88
233.009	93.88
233.243	78.88
233.477	73.88
233.711	88.88
233.945	77.88
234.179	80.88
234.413	78.88
234.647	64.88
234.881	84.88
235.115	72.88
235.349	70.88
235.583	83.88
235.817	79.88
236.051	64.88
236.285	64.88
236.519	81.88
236.753	82.88
236.987	74.88
237.221	84.88
237.455	79.88
237.689	74.88
237.922	70.88
238.156	73.88
238.39	76.88
238.624	76.88
238.858	84.88
239.091	71.88
239.325	71.88
239.559	71.88
239.793	86.88
240.027	98.88
240.26	75.88
240.494	79.88
240.728	77.88
240.961	80.88
241.195	82.88
241.429	84.88
241.662	72.88
241.896	74.88
242.13	82.88
242.363	82.88
242.597	73.88
242.83	75.88
243.064	73.88
243.298	74.88
243.531	76.88
243.765	84.88
243.998	73.88
244.232	87.88
244.465	88.88
244.699	79.88
244.932	87.88
245.166	78.88
245.399	70.88
245.633	65.88
245.866	73.88
246.099	86.88
246.333	68.88
246.566	80.88
246.8	63.88
247.033	68.88
247.266	79.88
247.5	80.88
247.733	81.88
247.966	62.88
248.2	93.88
248.433	72.88
248.666	85.88
248.899	89.88
249.133	82.88
249.366	74.88
249.599	100.88
249.832	87.88
250.066	80.88
250.299	96.88
250.532	86.88
250.765	84.88
250.998	84.88
251.231	74.88
251.465	77.88
251.698	77.88
251.931	90.88
252.164	74.88
252.397	72.88
252.63	93.88
252.863	87.88
253.096	89.88
253.329	74.88
253.562	77.88
253.795	83.88
254.028	104.88
254.261	86.88
254.494	79.88
254.727	93.88
254.96	73.88
255.193	78.88
255.426	77.88
255.659	87.88
255.892	100.88
256.124	80.88
256.357	77.88
256.59	85.88
256.823	77.88
257.056	88.88
257.289	87.88
257.521	90.88
257.754	69.88
257.987	84.88
258.22	76.88
258.452	77.88
258.685	89.88
258.918	88.88
259.151	84.88
259.383	87.88
259.616	70.88
259.849	80.88
260.081	86.88
260.314	80.88
260.547	88.88
260.779	82.88
261.012	87.88
261.244	75.88
261.477	89.88
261.71	90.88
261.942	103.88
262.175	108.88
262.407	102.88
262.64	93.88
262.872	82.88
263.105	88.88
263.337	88.88
263.57	90.88
263.802	100.88
264.035	79.88
264.267	73.88
264.499	82.88
264.732	91.88
264.964	96.88
265.197	84.88
265.429	82.88
265.661	93.88
265.894	73.88
266.126	89.88
266.358	92.88
266.591	92.88
266.823	71.88
267.055	90.88
267.287	75.88
267.52	80.88
267.752	68.88
267.984	86.88
268.216	92.88
268.448	82.88
268.681	81.88
268.913	73.88
269.145	80.88
269.377	96.88
269.609	84.88
269.841	75.88
270.073	82.88
270.306	80.88
270.538	82.88
270.77	75.88
271.002	72.88
271.234	84.88
271.466	77.88
271.698	88.88
271.93	91.88
272.162	96.88
272.394	91.88
272.626	77.88
272.858	80.88
273.09	75.88
273.322	83.88
273.553	82.88
273.785	81.88
274.017	87.88
274.249	81.88
274.481	84.88
274.713	99.88
274.945	100.88
275.176	90.88
275.408	85.88
275.64	87.88
275.872	84.88
276.104	85.88
276.335	101.88
276.567	98.88
276.799	104.88
277.031	94.88
277.262	78.88
277.494	92.88
277.726	76.88
277.957	79.88
278.189	73.88
278.421	94.88
278.652	88.88
278.884	66.88
279.115	91.88
279.347	96.88
279.579	88.88
279.81	90.88
280.042	99.88
280.273	84.88
280.505	92.88
280.736	76.88
280.968	102.88
281.199	84.88
281.431	93.88
281.662	81.88
281.894	72.88
282.125	91.88
282.356	98.88
282.588	119.88
282.819	93.88
283.051	92.88
283.282	84.88
283.513	85.88
283.745	90.88
283.976	86.88
284.207	97.88
284.439	92.88
284.67	88.88
284.901	85.88
285.132	76.88
285.364	100.88
285.595	86.88
285.826	90.88
286.057	83.88
286.288	82.88
286.52	86.88
286.751	90.88
286.982	82.88
287.213	83.88
287.444	82.88
287.675	95.88
287.906	101.88
288.138	78.88
288.369	89.88
288.6	92.88
288.831	87.88
289.062	89.88
289.293	89.88
289.524	77.88
289.755	94.88
289.986	80.88
290.217	84.88
290.448	82.88
290.679	80.88
290.91	84.88
291.141	78.88
291.371	88.88
291.602	83.88
291.833	88.88
292.064	86.88
292.295	93.88
292.526	92.88
292.757	95.88
292.987	84.88
293.218	84.88
293.449	93.88
293.68	96.88
293.91	98.88
294.141	80.88
294.372	84.88
294.603	102.88
294.833	75.88
295.064	100.88
295.295	94.88
295.525	102.88
295.756	113.88
295.987	105.88
296.217	117.88
296.448	111.88
296.679	91.88
296.909	97.88
297.14	101.88
297.37	95.88
297.601	89.88
297.831	96.88
298.062	100.88
298.292	96.88
298.523	96.88
298.753	90.88
298.984	85.88
299.214	85.88
299.445	106.88
299.675	93.88
299.905	86.88
300.136	76.88
300.366	86.88
300.597	90.88
300.827	85.88
301.057	107.88
301.288	104.88
301.518	84.88
301.748	88.88
301.979	104.88
302.209	97.88
302.439	82.88
302.669	75.88
302.9	92.88
303.13	82.88
303.36	85.88
303.59	96.88
303.82	93.88
304.051	91.88
304.281	86.88
304.511	96.88
304.741	100.88
304.971	88.88
305.201	76.88
305.431	97.88
305.661	109.88
305.891	82.88
306.121	94.88
306.352	97.88
306.582	103.88
306.812	105.88
307.042	100.88
307.272	97.88
307.502	98.88
307.731	105.88
307.961	99.88
308.191	86.88
308.421	92.88
308.651	110.88
308.881	102.88
309.111	96.88
309.341	86.88
309.571	92.88
309.8	94.88
310.03	100.88
310.26	108.88
310.49	85.88
310.72	82.88
310.949	107.88
311.179	105.88
311.409	85.88
311.639	100.88
311.868	85.88
312.098	87.88
312.328	99.88
312.557	94.88
312.787	103.88
313.017	98.88
313.246	97.88
313.476	92.88
313.706	68.88
313.935	93.88
314.165	88.88
314.394	99.88
314.624	105.88
314.853	88.88
315.083	102.88
315.312	78.88
315.542	92.88
315.771	93.88
316.001	88.88
316.23	82.88
316.46	85.88
316.689	74.88
316.919	88.88
317.148	88.88
317.377	102.88
317.607	85.88
317.836	92.88
318.065	104.88
318.295	80.88
318.524	86.88
318.753	95.88
318.983	98.88
319.212	99.88
319.441	110.88
319.67	101.88
319.9	94.88
320.129	92.88
320.358	93.88
320.587	87.88
320.816	101.88
321.046	93.88
321.275	87.88
321.504	94.88
321.733	98.88
321.962	101.88
322.191	106.88
322.42	100.88
322.649	105.88
322.878	107.88
323.108	115.88
323.337	135.88
323.566	116.88
323.795	135.88
324.024	197.88
324.253	318.88
324.482	635.88
324.71	1352.88
324.939	1786.88
325.168	689.88
325.397	216.88
325.626	141.88
325.855	125.88
326.084	115.88
326.313	121.88
326.542	146.88
326.77	201.88
326.999	398.88
327.228	789.88
327.457	1410.88
327.686	1122.88
327.914	333.88
328.143	190.88
328.372	155.88
328.6	129.88
328.829	112.88
329.058	123.88
329.287	123.88
329.515	121.88
329.744	116.88
329.972	125.88
330.201	168.88
330.43	195.88
330.658	142.88
330.887	120.88
331.115	102.88
331.344	101.88
331.572	100.88
331.801	100.88
332.03	96.88
332.258	108.88
332.486	88.88
332.715	92.88
332.943	94.88
333.172	101.88
333.4	102.88
333.629	126.88
333.857	104.88
334.085	128.88
334.314	175.88
334.542	224.88
334.771	225.88
334.999	125.88
335.227	107.88
335.455	108.88
335.684	101.88
335.912	104.88
336.14	94.88
336.369	104.88
336.597	90.88
336.825	90.88
337.053	90.88
337.281	86.88
337.51	102.88
337.738	90.88
337.966	99.88
338.194	104.88
338.422	104.88
338.65	98.88
338.878	95.88
339.106	94.88
339.334	83.88
339.562	81.88
339.79	94.88
340.018	88.88
340.246	88.88
340.474	91.88
340.702	101.88
340.93	93.88
341.158	106.88
341.386	94.88
341.614	97.88
341.842	101.88
342.07	96.88
342.298	88.88
342.526	91.88
342.754	88.88
342.981	94.88
343.209	85.88
343.437	92.88
343.665	96.88
343.893	97.88
344.12	113.88
344.348	81.88
344.576	82.88
344.804	89.88
345.031	93.88
345.259	105.88
345.487	100.88
345.714	84.88
345.942	86.88
346.17	100.88
346.397	84.88
346.625	92.88
346.853	88.88
347.08	83.88
347.308	100.88
347.535	98.88
347.763	107.88
347.99	86.88
348.218	82.88
348.445	106.88
348.673	102.88
348.9	93.88
349.128	92.88
349.355	81.88
349.583	96.88
349.81	107.88
350.037	96.88
350.265	100.88
350.492	101.88
350.72	86.88
350.947	106.88
351.174	110.88
351.402	123.88
351.629	88.88
351.856	107.88
352.083	118.88
352.311	107.88
352.538	101.88
352.765	114.88
352.992	106.88
353.22	107.88
353.447	92.88
353.674	110.88
353.901	104.88
354.128	99.88
354.355	100.88
354.583	98.88
354.81	105.88
355.037	110.88
355.264	97.88
355.491	88.88
355.718	91.88
355.945	102.88
356.172	108.88
356.399	97.88
356.626	85.88
356.853	90.88
357.08	88.88
357.307	102.88
357.534	101.88
357.761	86.88
357.988	82.88
358.215	96.88
358.441	101.88
358.668	103.88
358.895	102.88
359.122	92.88
359.349	86.88
359.576	88.88
359.802	105.88
360.029	108.88
360.256	105.88
360.483	96.88
360.709	74.88
360.936	88.88
361.163	97.88
361.39	95.88
361.616	89.88
361.843	101.88
362.07	104.88
362.296	87.88
362.523	97.88
362.749	106.88
362.976	93.88
363.203	89.88
363.429	101.88
363.656	92.88
363.882	85.88
364.109	103.88
364.335	98.88
364.562	90.88
364.788	84.88
365.015	83.88
365.241	101.88
365.468	100.88
365.694	103.88
365.92	95.88
366.147	96.88
366.373	82.88
366.599	86.88
366.826	102.88
367.052	88.88
367.278	102.88
367.505	105.88
367.731	104.88
367.957	90.88
368.184	95.88
368.41	99.88
368.636	108.88
368.862	121.88
369.089	93.88
369.315	97.88
369.541	92.88
369.767	86.88
369.993	97.88
370.219	87.88
370.445	68.88
370.672	78.88
370.898	94.88
371.124	83.88
371.35	88.88
371.576	91.88
371.802	81.88
372.028	91.88
372.254	104.88
372.48	84.88
372.706	94.88
372.932	98.88
373.158	90.88
373.384	92.88
373.61	89.88
373.835	99.88
374.061	98.88
374.287	105.88
374.513	77.88
374.739	99.88
374.965	89.88
375.191	94.88
375.416	105.88
375.642	101.88
375.868	86.88
376.094	98.88
376.319	106.88
376.545	101.88
376.771	98.88
376.997	95.88
377.222	91.88
377.448	96.88
377.674	106.88
377.899	92.88
378.125	101.88
378.35	99.88
378.576	90.88
378.802	92.88
379.027	99.88
379.253	83.88
379.478	81.88
379.704	97.88
379.929	90.88
380.155	86.88
380.38	85.88
380.606	97.88
380.831	102.88
381.057	103.88
381.282	97.88
381.507	96.88
381.733	106.88
381.958	103.88
382.184	110.88
382.409	112.88
382.634	100.88
382.86	107.88
383.085	105.88
383.31	104.88
383.535	93.88
383.761	94.88
383.986	98.88
384.211	85.88
384.436	106.88
384.662	110.88
384.887	108.88
385.112	105.88
385.337	107.88
385.562	96.88
385.787	104.88
386.013	111.88
386.238	124.88
386.463	116.88
386.688	108.88
386.913	107.88
387.138	97.88
387.363	104.88
387.588	111.88
387.813	96.88
388.038	110.88
388.263	125.88
388.488	116.88
388.713	105.88
388.938	94.88
389.163	100.88
389.387	95.88
389.612	101.88
389.837	111.88
390.062	104.88
390.287	90.88
390.512	97.88
390.736	100.88
390.961	84.88
391.186	92.88
391.411	101.88
391.636	97.88
391.86	101.88
392.085	83.88
392.31	88.88
392.534	88.88
392.759	89.88
392.984	104.88
393.208	109.88
393.433	107.88
393.658	116.88
393.882	82.88
394.107	88.88
394.331	96.88
394.556	91.88
394.78	86.88
395.005	82.88
395.229	90.88
395.454	76.88
395.678	109.88
395.903	100.88
396.127	88.88
396.352	84.88
396.576	91.88
396.801	101.88
397.025	103.88
397.249	96.88
397.474	103.88
397.698	86.88
397.922	94.88
398.147	80.88
398.371	98.88
398.595	90.88
398.82	92.88
399.044	101.88
399.268	84.88
399.492	98.88
399.717	77.88
399.941	94.88
400.165	90.88
400.389	77.88
400.613	84.88
400.837	94.88
401.062	79.88
401.286	97.88
401.51	84.88
401.734	100.88
401.958	90.88
402.182	119.88
402.406	149.88
402.63	114.88
402.854	102.88
403.078	90.88
403.302	82.88
403.526	90.88
403.75	94.88
403.974	97.88
404.198	100.88
404.422	95.88
404.645	92.88
404.869	83.88
405.093	83.88
405.317	110.88
405.541	94.88
405.765	100.88
405.988	108.88
406.212	147.88
406.436	200.88
406.66	100.88
406.883	98.88
407.107	90.88
407.331	95.88
407.555	88.88
407.778	96.88
408.002	93.88
408.226	84.88
408.449	86.88
408.673	93.88
408.896	93.88
409.12	84.88
409.344	86.88
409.567	96.88
409.791	87.88
410.014	75.88
410.238	98.88
410.461	104.88
410.685	86.88
410.908	99.88
411.132	92.88
411.355	100.88
411.578	108.88
411.802	86.88
412.025	87.88
412.249	98.88
412.472	89.88
412.695	90.88
412.919	80.88
413.142	88.88
413.365	70.88
413.589	82.88
413.812	90.88
414.035	106.88
414.258	97.88
414.482	93.88
414.705	89.88
414.928	101.88
415.151	91.88
415.374	87.88
415.597	86.88
415.821	105.88
416.044	102.88
416.267	106.88
416.49	101.88
416.713	82.88
416.936	96.88
417.159	75.88
417.382	88.88
417.605	101.88
417.828	89.88
418.051	84.88
418.274	87.88
418.497	80.88
418.72	86.88
418.943	90.88
419.166	93.88
419.389	86.88
419.611	84.88
419.834	93.88
420.057	86.88
420.28	84.88
420.503	86.88
420.726	88.88
420.948	98.88
421.171	96.88
421.394	88.88
421.617	83.88
421.839	92.88
422.062	85.88
422.285	98.88
422.507	89.88
422.73	103.88
422.953	105.88
423.175	94.88
423.398	88.88
423.621	83.88
423.843	89.88
424.066	94.88
424.288	95.88
424.511	100.88
424.733	91.88
424.956	109.88
425.178	92.88
425.401	84.88
425.623	105.88
425.846	93.88
426.068	87.88
426.291	73.88
426.513	80.88
426.735	91.88
426.958	85.88
427.18	118.88
427.402	124.88
427.625	130.88
427.847	128.88
428.069	124.88
428.292	95.88
428.514	94.88
428.736	87.88
428.958	97.88
429.181	75.88
429.403	87.88
429.625	72.88
429.847	90.88
430.069	94.88
430.292	84.88
430.514	83.88
430.736	75.88
430.958	84.88
431.18	91.88
431.402	92.88
431.624	88.88
431.846	98.88
432.068	96.88
432.29	75.88
432.512	84.88
432.734	75.88
432.956	72.88
433.178	90.88
433.4	94.88
433.622	93.88
433.844	99.88
434.066	93.88
434.287	89.88
434.509	98.88
434.731	106.88
434.953	93.88
435.175	87.88
435.397	96.88
435.618	85.88
435.84	86.88
436.062	120.88
436.284	101.88
436.505	112.88
436.727	109.88
436.949	88.88
437.17	99.88
437.392	93.88
437.614	96.88
437.835	106.88
438.057	112.88
438.278	88.88
438.5	101.88
438.721	104.88
438.943	104.88
439.165	88.88
439.386	90.88
439.608	92.88
439.829	98.88
440.05	122.88
440.272	126.88
440.493	92.88
440.715	92.88
440.936	92.88
441.158	90.88
441.379	101.88
441.6	90.88
441.822	84.88
442.043	86.88
442.264	81.88
442.486	95.88
442.707	104.88
442.928	91.88
443.149	121.88
443.371	124.88
443.592	102.88
443.813	99.88
444.034	106.88
444.255	96.88
444.476	90.88
444.698	93.88
444.919	88.88
445.14	106.88
445.361	131.88
445.582	108.88
445.803	99.88
446.024	128.88
446.245	127.88
446.466	102.88
446.687	84.88
446.908	91.88
447.129	93.88
447.35	84.88
447.571	77.88
447.792	84.88
448.013	92.88
448.234	110.88
448.455	90.88
448.675	105.88
448.896	107.88
449.117	103.88
449.338	92.88
449.559	107.88
449.779	105.88
450	101.88
450.221	91.88
450.442	87.88
450.662	101.88
450.883	87.88
451.104	109.88
451.324	93.88
451.545	75.88
451.766	84.88
451.986	84.88
452.207	72.88
452.428	89.88
452.648	101.88
452.869	98.88
453.089	114.88
453.31	115.88
453.53	86.88
453.751	81.88
453.971	91.88
454.192	109.88
454.412	93.88
454.633	86.88
454.853	85.88
455.073	102.88
455.294	84.88
455.514	104.88
455.734	77.88
455.955	94.88
456.175	86.88
456.395	78.88
456.616	78.88
456.836	91.88
457.056	76.88
457.276	88.88
457.497	74.88
457.717	91.88
457.937	91.88
458.157	89.88
458.377	97.88
458.598	107.88
458.818	140.88
459.038	113.88
459.258	110.88
459.478	88.88
459.698	85.88
459.918	95.88
460.138	86.88
460.358	83.88
460.578	87.88
460.798	88.88
461.018	85.88
461.238	80.88
461.458	87.88
461.678	93.88
461.898	92.88
462.118	86.88
462.338	70.88
462.558	93.88
462.777	77.88
462.997	91.88
463.217	92.88
463.437	86.88
463.657	91.88
463.876	73.88
464.096	93.88
464.316	87.88
464.536	82.88
464.755	101.88
464.975	100.88
465.195	146.88
465.414	138.88
465.634	96.88
465.854	84.88
466.073	85.88
466.293	86.88
466.512	93.88
466.732	70.88
466.951	94.88
467.171	86.88
467.391	95.88
467.61	112.88
467.829	94.88
468.049	128.88
468.268	134.88
468.488	90.88
468.707	97.88
468.927	94.88
469.146	84.88
469.365	89.88
469.585	96.88
469.804	90.88
470.023	92.88
470.243	85.88
470.462	110.88
470.681	102.88
470.901	85.88
471.12	86.88
471.339	82.88
471.558	77.88
471.777	94.88
471.997	102.88
472.216	163.88
472.435	277.88
472.654	131.88
472.873	82.88
473.092	86.88
473.311	81.88
473.53	90.88
473.749	102.88
473.968	101.88
474.187	106.88
474.406	86.88
474.625	72.88
474.844	88.88
475.063	89.88
475.282	90.88
475.501	91.88
475.72	70.88
475.939	85.88
476.158	76.88
476.377	88.88
476.596	93.88
476.814	103.88
477.033	88.88
477.252	88.88
477.471	88.88
477.69	87.88
477.908	90.88
478.127	95.88
478.346	98.88
478.564	91.88
478.783	92.88
479.002	86.88
479.22	99.88
479.439	89.88
479.658	104.88
479.876	116.88
480.095	106.88
480.313	98.88
480.532	90.88
480.751	104.88
480.969	158.88
481.188	472.88
481.406	292.88
481.624	112.88
481.843	98.88
482.061	92.88
482.28	82.88
482.498	76.88
482.717	80.88
482.935	84.88
483.153	85.88
483.372	99.88
483.59	82.88
483.808	92.88
484.027	103.88
484.245	92.88
484.463	83.88
484.681	91.88
484.9	71.88
485.118	95.88
485.336	107.88
485.554	102.88
485.772	101.88
485.99	109.88
486.209	107.88
486.427	110.88
486.645	108.88
486.863	98.88
487.081	103.88
487.299	89.88
487.517	91.88
487.735	102.88
487.953	104.88
488.171	83.88
488.389	100.88
488.607	108.88
488.825	100.88
489.043	97.88
489.261	87.88
489.479	88.88
489.696	88.88
489.914	99.88
490.132	83.88
490.35	82.88
490.568	76.88
490.786	78.88
491.003	90.88
491.221	86.88
491.439	89.88
491.657	97.88
491.874	97.88
492.092	89.88
492.31	87.88
492.527	80.88
492.745	92.88
492.963	94.88
493.18	104.88
493.398	86.88
493.615	100.88
493.833	99.88
494.05	84.88
494.268	85.88
494.485	93.88
494.703	74.88
494.92	94.88
495.138	96.88
495.355	91.88
495.573	90.88
495.79	85.88
496.008	93.88
496.225	82.88
496.442	84.88
496.66	88.88
496.877	93.88
497.094	101.88
497.312	92.88
497.529	86.88
497.746	85.88
497.963	96.88
498.181	83.88
498.398	92.88
498.615	113.88
498.832	93.88
499.049	97.88
499.267	94.88
499.484	83.88
499.701	102.88
499.918	78.88
500.135	77.88
500.352	97.88
500.569	100.88
500.786	94.88
501.003	102.88
501.22	96.88
501.437	108.88
501.654	100.88
501.871	96.88
502.088	90.88
502.305	100.88
502.522	93.88
502.739	96.88
502.956	90.88
503.172	104.88
503.389	77.88
503.606	95.88
503.823	91.88
504.04	90.88
504.256	95.88
504.473	88.88
504.69	96.88
504.907	85.88
505.123	93.88
505.34	100.88
505.557	94.88
505.773	90.88
505.99	75.88
506.207	69.88
506.423	73.88
506.64	98.88
506.856	83.88
507.073	85.88
507.289	96.88
507.506	107.88
507.722	114.88
507.939	87.88
508.155	82.88
508.372	78.88
508.588	96.88
508.805	94.88
509.021	98.88
509.238	120.88
509.454	90.88
509.67	99.88
509.887	108.88
510.103	122.88
510.319	178.88
510.536	633.88
510.752	1875.88
510.968	535.88
511.184	122.88
511.401	97.88
511.617	86.88
511.833	71.88
512.049	87.88
512.265	92.88
512.481	76.88
512.698	98.88
512.914	90.88
513.13	90.88
513.346	82.88
513.562	87.88
513.778	114.88
513.994	93.88
514.21	97.88
514.426	108.88
514.642	134.88
514.858	125.88
515.074	133.88
