Data from Circ_1983_H10_HRD10591_00013.txt Node
Date: Wed Jan 03 12:26:47 EST 2024
User: Yrep
Spectrometer: HR+D1059
Trigger mode: 1
Integration Time (sec): 1.000000E-1
Scans to average: 1
Electric dark correction enabled: true
Nonlinearity correction enabled: false
Boxcar width: 0
XAxis mode: Wavelengths
Number of Pixels in Spectrum: 2048
>>>>>Begin Spectral Data<<<<<
223.165	-13
223.4	-13
223.635	-13
223.869	-11
224.104	-13
224.338	-14
224.573	-3
224.808	-16
225.042	-9
225.277	-14
225.511	-7
225.746	-9
225.98	-5
226.215	11
226.449	24
226.683	19
226.918	27
227.152	33
227.387	39
227.621	52
227.856	28
228.09	31
228.324	53
228.559	50
228.793	56
229.027	60
229.262	56
229.496	60
229.73	86
229.964	74
230.199	57
230.433	87
230.667	62
230.901	89
231.136	85
231.37	81
231.604	73
231.838	79
232.072	76
232.306	76
232.541	84
232.775	84
233.009	80
233.243	89
233.477	79
233.711	76
233.945	87
234.179	76
234.413	79
234.647	63
234.881	89
235.115	77
235.349	84
235.583	83
235.817	70
236.051	88
236.285	88
236.519	86
236.753	75
236.987	75
237.221	72
237.455	101
237.689	83
237.922	74
238.156	71
238.39	73
238.624	82
238.858	69
239.091	85
239.325	70
239.559	85
239.793	93
240.027	78
240.26	68
240.494	68
240.728	77
240.961	88
241.195	80
241.429	97
241.662	86
241.896	91
242.13	74
242.363	74
242.597	67
242.83	79
243.064	68
243.298	83
243.531	93
243.765	77
243.998	82
244.232	67
244.465	74
244.699	87
244.932	75
245.166	76
245.399	76
245.633	67
245.866	64
246.099	83
246.333	72
246.566	76
246.8	74
247.033	73
247.266	84
247.5	89
247.733	75
247.966	81
248.2	76
248.433	81
248.666	81
248.899	88
249.133	80
249.366	92
249.599	100
249.832	91
250.066	87
250.299	91
250.532	88
250.765	64
250.998	66
251.231	72
251.465	67
251.698	75
251.931	89
252.164	89
252.397	80
252.63	74
252.863	82
253.096	85
253.329	73
253.562	78
253.795	79
254.028	74
254.261	91
254.494	83
254.727	80
254.96	89
255.193	97
255.426	88
255.659	72
255.892	84
256.124	73
256.357	95
256.59	91
256.823	81
257.056	84
257.289	92
257.521	88
257.754	83
257.987	84
258.22	87
258.452	93
258.685	88
258.918	84
259.151	74
259.383	82
259.616	68
259.849	81
260.081	94
260.314	79
260.547	82
260.779	89
261.012	89
261.244	88
261.477	80
261.71	99
261.942	106
262.175	119
262.407	97
262.64	85
262.872	87
263.105	77
263.337	87
263.57	84
263.802	76
264.035	70
264.267	90
264.499	84
264.732	91
264.964	85
265.197	81
265.429	77
265.661	76
265.894	81
266.126	96
266.358	72
266.591	102
266.823	72
267.055	81
267.287	85
267.52	82
267.752	83
267.984	79
268.216	80
268.448	81
268.681	73
268.913	96
269.145	67
269.377	81
269.609	83
269.841	88
270.073	87
270.306	97
270.538	96
270.77	87
271.002	74
271.234	87
271.466	93
271.698	83
271.93	89
272.162	87
272.394	72
272.626	87
272.858	87
273.09	86
273.322	75
273.553	82
273.785	83
274.017	76
274.249	77
274.481	93
274.713	83
274.945	86
275.176	73
275.408	79
275.64	99
275.872	82
276.104	79
276.335	90
276.567	100
276.799	89
277.031	93
277.262	92
277.494	72
277.726	86
277.957	79
278.189	92
278.421	73
278.652	75
278.884	73
279.115	83
279.347	89
279.579	90
279.81	77
280.042	99
280.273	92
280.505	72
280.736	84
280.968	76
281.199	74
281.431	89
281.662	87
281.894	84
282.125	108
282.356	93
282.588	140
282.819	120
283.051	76
283.282	89
283.513	99
283.745	91
283.976	68
284.207	81
284.439	91
284.67	91
284.901	82
285.132	83
285.364	92
285.595	104
285.826	92
286.057	97
286.288	86
286.52	90
286.751	83
286.982	97
287.213	71
287.444	91
287.675	89
287.906	89
288.138	94
288.369	100
288.6	84
288.831	83
289.062	110
289.293	96
289.524	92
289.755	88
289.986	75
290.217	83
290.448	89
290.679	91
290.91	96
291.141	87
291.371	90
291.602	82
291.833	89
292.064	103
292.295	92
292.526	88
292.757	96
292.987	91
293.218	88
293.449	86
293.68	74
293.91	93
294.141	93
294.372	89
294.603	91
294.833	85
295.064	92
295.295	87
295.525	88
295.756	86
295.987	97
296.217	111
296.448	113
296.679	104
296.909	75
297.14	91
297.37	78
297.601	83
297.831	72
298.062	89
298.292	75
298.523	79
298.753	87
298.984	83
299.214	104
299.445	74
299.675	99
299.905	84
300.136	97
300.366	76
300.597	86
300.827	92
301.057	108
301.288	100
301.518	101
301.748	101
301.979	94
302.209	87
302.439	89
302.669	99
302.9	87
303.13	93
303.36	93
303.59	97
303.82	91
304.051	81
304.281	83
304.511	97
304.741	82
304.971	93
305.201	80
305.431	98
305.661	107
305.891	81
306.121	83
306.352	95
306.582	92
306.812	93
307.042	81
307.272	93
307.502	90
307.731	84
307.961	95
308.191	87
308.421	90
308.651	80
308.881	97
309.111	100
309.341	102
309.571	99
309.8	93
310.03	91
310.26	97
310.49	108
310.72	99
310.949	101
311.179	88
311.409	104
311.639	87
311.868	89
312.098	104
312.328	105
312.557	88
312.787	110
313.017	93
313.246	87
313.476	105
313.706	84
313.935	97
314.165	74
314.394	87
314.624	92
314.853	101
315.083	103
315.312	85
315.542	88
315.771	97
316.001	91
316.23	105
316.46	104
316.689	93
316.919	109
317.148	102
317.377	98
317.607	97
317.836	82
318.065	88
318.295	78
318.524	95
318.753	98
318.983	99
319.212	85
319.441	82
319.67	101
319.9	99
320.129	87
320.358	91
320.587	83
320.816	92
321.046	89
321.275	107
321.504	89
321.733	81
321.962	95
322.191	109
322.42	92
322.649	98
322.878	114
323.108	99
323.337	107
323.566	120
323.795	145
324.024	189
324.253	320
324.482	691
324.71	1423
324.939	1847
325.168	681
325.397	207
325.626	113
325.855	118
326.084	126
326.313	131
326.542	146
326.77	206
326.999	385
327.228	825
327.457	1432
327.686	1155
327.914	313
328.143	184
328.372	140
328.6	127
328.829	109
329.058	116
329.287	109
329.515	121
329.744	113
329.972	102
330.201	124
330.43	150
330.658	125
330.887	139
331.115	118
331.344	108
331.572	86
331.801	99
332.03	105
332.258	89
332.486	103
332.715	84
332.943	93
333.172	85
333.4	95
333.629	113
333.857	124
334.085	114
334.314	117
334.542	139
334.771	145
334.999	100
335.227	94
335.455	84
335.684	101
335.912	98
336.14	101
336.369	105
336.597	98
336.825	91
337.053	101
337.281	102
337.51	80
337.738	98
337.966	95
338.194	97
338.422	99
338.65	86
338.878	97
339.106	95
339.334	92
339.562	96
339.79	94
340.018	86
340.246	82
340.474	101
340.702	93
340.93	90
341.158	92
341.386	100
341.614	88
341.842	103
342.07	98
342.298	109
342.526	84
342.754	99
342.981	103
343.209	93
343.437	101
343.665	92
343.893	102
344.12	97
344.348	89
344.576	84
344.804	96
345.031	97
345.259	97
345.487	109
345.714	89
345.942	88
346.17	102
346.397	91
346.625	84
346.853	108
347.08	87
347.308	107
347.535	110
347.763	101
347.99	93
348.218	94
348.445	101
348.673	103
348.9	98
349.128	99
349.355	96
349.583	100
349.81	104
350.037	100
350.265	99
350.492	103
350.72	101
350.947	103
351.174	112
351.402	113
351.629	97
351.856	108
352.083	103
352.311	100
352.538	100
352.765	93
352.992	117
353.22	105
353.447	105
353.674	103
353.901	116
354.128	95
354.355	103
354.583	95
354.81	102
355.037	95
355.264	100
355.491	91
355.718	99
355.945	112
356.172	91
356.399	109
356.626	94
356.853	98
357.08	95
357.307	95
357.534	96
357.761	83
357.988	93
358.215	113
358.441	102
358.668	108
358.895	104
359.122	93
359.349	100
359.576	94
359.802	95
360.029	104
360.256	107
360.483	102
360.709	95
360.936	85
361.163	87
361.39	97
361.616	93
361.843	108
362.07	86
362.296	79
362.523	89
362.749	101
362.976	96
363.203	104
363.429	91
363.656	85
363.882	92
364.109	75
364.335	95
364.562	77
364.788	101
365.015	91
365.241	99
365.468	113
365.694	99
365.92	99
366.147	106
366.373	86
366.599	96
366.826	97
367.052	96
367.278	93
367.505	87
367.731	95
367.957	80
368.184	95
368.41	95
368.636	100
368.862	108
369.089	92
369.315	114
369.541	107
369.767	89
369.993	85
370.219	100
370.445	81
370.672	99
370.898	87
371.124	75
371.35	90
371.576	88
371.802	69
372.028	99
372.254	88
372.48	87
372.706	91
372.932	96
373.158	87
373.384	95
373.61	84
373.835	93
374.061	86
374.287	79
374.513	83
374.739	88
374.965	88
375.191	81
375.416	97
375.642	90
375.868	86
376.094	75
376.319	93
376.545	85
376.771	86
376.997	86
377.222	82
377.448	91
377.674	92
377.899	103
378.125	100
378.35	95
378.576	84
378.802	83
379.027	101
379.253	92
379.478	97
379.704	99
379.929	107
380.155	96
380.38	100
380.606	102
380.831	104
381.057	107
381.282	113
381.507	100
381.733	95
381.958	117
382.184	111
382.409	109
382.634	100
382.86	121
383.085	109
383.31	98
383.535	79
383.761	98
383.986	110
384.211	101
384.436	99
384.662	108
384.887	128
385.112	118
385.337	132
385.562	111
385.787	114
386.013	115
386.238	113
386.463	125
386.688	124
386.913	110
387.138	127
387.363	120
387.588	112
387.813	105
388.038	126
388.263	131
388.488	125
388.713	114
388.938	107
389.163	101
389.387	113
389.612	100
389.837	89
390.062	97
390.287	89
390.512	88
390.736	93
390.961	92
391.186	98
391.411	97
391.636	85
391.86	94
392.085	77
392.31	97
392.534	88
392.759	87
392.984	85
393.208	124
393.433	173
393.658	127
393.882	91
394.107	84
394.331	83
394.556	84
394.78	80
395.005	86
395.229	90
395.454	79
395.678	86
395.903	75
396.127	95
396.352	83
396.576	99
396.801	99
397.025	134
397.249	96
397.474	90
397.698	81
397.922	92
398.147	70
398.371	90
398.595	98
398.82	83
399.044	69
399.268	88
399.492	106
399.717	85
399.941	87
400.165	93
400.389	87
400.613	79
400.837	84
401.062	87
401.286	94
401.51	94
401.734	89
401.958	102
402.182	109
402.406	133
402.63	109
402.854	99
403.078	84
403.302	91
403.526	94
403.75	88
403.974	87
404.198	93
404.422	72
404.645	73
404.869	85
405.093	104
405.317	96
405.541	89
405.765	86
405.988	102
406.212	149
406.436	194
406.66	119
406.883	108
407.107	82
407.331	88
407.555	83
407.778	75
408.002	80
408.226	70
408.449	91
408.673	91
408.896	88
409.12	103
409.344	96
409.567	86
409.791	97
410.014	93
410.238	93
410.461	99
410.685	96
410.908	94
411.132	100
411.355	105
411.578	77
411.802	88
412.025	93
412.249	80
412.472	96
412.695	89
412.919	88
413.142	73
413.365	84
413.589	88
413.812	89
414.035	95
414.258	90
414.482	95
414.705	99
414.928	96
415.151	90
415.374	98
415.597	85
415.821	81
416.044	91
416.267	91
416.49	84
416.713	104
416.936	85
417.159	84
417.382	96
417.605	84
417.828	89
418.051	87
418.274	89
418.497	79
418.72	88
418.943	82
419.166	99
419.389	88
419.611	82
419.834	89
420.057	97
420.28	93
420.503	83
420.726	85
420.948	99
421.171	95
421.394	88
421.617	84
421.839	99
422.062	70
422.285	75
422.507	108
422.73	95
422.953	105
423.175	101
423.398	89
423.621	95
423.843	83
424.066	82
424.288	88
424.511	94
424.733	107
424.956	92
425.178	90
425.401	85
425.623	104
425.846	74
426.068	85
426.291	95
426.513	100
426.735	98
426.958	93
427.18	92
427.402	115
427.625	111
427.847	117
428.069	105
428.292	77
428.514	93
428.736	84
428.958	83
429.181	80
429.403	86
429.625	76
429.847	81
430.069	93
430.292	85
430.514	94
430.736	91
430.958	96
431.18	85
431.402	89
431.624	102
431.846	83
432.068	92
432.29	89
432.512	91
432.734	83
432.956	85
433.178	88
433.4	86
433.622	68
433.844	78
434.066	87
434.287	90
434.509	85
434.731	93
434.953	73
435.175	88
435.397	83
435.618	91
435.84	80
436.062	108
436.284	100
436.505	96
436.727	91
436.949	79
437.17	83
437.392	74
437.614	85
437.835	96
438.057	91
438.278	99
438.5	107
438.721	115
438.943	94
439.165	76
439.386	94
439.608	100
439.829	83
440.05	121
440.272	145
440.493	99
440.715	87
440.936	73
441.158	102
441.379	96
441.6	95
441.822	93
442.043	80
442.264	96
442.486	84
442.707	85
442.928	98
443.149	102
443.371	122
443.592	95
443.813	103
444.034	94
444.255	98
444.476	89
444.698	92
444.919	88
445.14	123
445.361	130
445.582	111
445.803	117
446.024	131
446.245	121
446.466	100
446.687	93
446.908	88
447.129	89
447.35	77
447.571	107
447.792	98
448.013	91
448.234	91
448.455	95
448.675	103
448.896	115
449.117	106
449.338	94
449.559	113
449.779	111
450	95
450.221	85
450.442	85
450.662	81
450.883	88
451.104	90
451.324	90
451.545	89
451.766	92
451.986	92
452.207	96
452.428	89
452.648	107
452.869	96
453.089	98
453.31	112
453.53	98
453.751	85
453.971	96
454.192	93
454.412	79
454.633	93
454.853	95
455.073	73
455.294	83
455.514	105
455.734	104
455.955	90
456.175	74
456.395	84
456.616	84
456.836	81
457.056	87
457.276	96
457.497	81
457.717	84
457.937	86
458.157	73
458.377	88
458.598	92
458.818	122
459.038	136
459.258	100
459.478	93
459.698	95
459.918	81
460.138	83
460.358	85
460.578	75
460.798	82
461.018	95
461.238	95
461.458	91
461.678	86
461.898	91
462.118	91
462.338	95
462.558	83
462.777	87
462.997	86
463.217	88
463.437	98
463.657	95
463.876	64
464.096	100
464.316	79
464.536	85
464.755	84
464.975	103
465.195	146
465.414	139
465.634	99
465.854	102
466.073	93
466.293	90
466.512	71
466.732	91
466.951	77
467.171	89
467.391	102
467.61	88
467.829	98
468.049	121
468.268	99
468.488	92
468.707	91
468.927	97
469.146	76
469.365	83
469.585	87
469.804	116
470.023	85
470.243	92
470.462	95
470.681	100
470.901	89
471.12	70
471.339	107
471.558	100
471.777	88
471.997	93
472.216	116
472.435	171
472.654	105
472.873	92
473.092	86
473.311	90
473.53	90
473.749	86
473.968	89
474.187	82
474.406	81
474.625	96
474.844	89
475.063	81
475.282	83
475.501	91
475.72	80
475.939	89
476.158	89
476.377	87
476.596	66
476.814	92
477.033	83
477.252	81
477.471	89
477.69	88
477.908	101
478.127	94
478.346	86
478.564	89
478.783	84
479.002	84
479.22	81
479.439	89
479.658	92
479.876	93
480.095	79
480.313	97
480.532	105
480.751	91
480.969	116
481.188	240
481.406	180
481.624	110
481.843	84
482.061	100
482.28	83
482.498	83
482.717	85
482.935	96
483.153	94
483.372	86
483.59	88
483.808	93
484.027	99
484.245	90
484.463	82
484.681	92
484.9	85
485.118	103
485.336	103
485.554	95
485.772	107
485.99	112
486.209	106
486.427	112
486.645	115
486.863	119
487.081	102
487.299	89
487.517	89
487.735	102
487.953	93
488.171	89
488.389	103
488.607	105
488.825	106
489.043	75
489.261	115
489.479	91
489.696	86
489.914	83
490.132	86
490.35	89
490.568	89
490.786	110
491.003	95
491.221	91
491.439	84
491.657	90
491.874	85
492.092	82
492.31	91
492.527	83
492.745	103
492.963	91
493.18	83
493.398	76
493.615	104
493.833	101
494.05	94
494.268	83
494.485	95
494.703	84
494.92	87
495.138	90
495.355	85
495.573	82
495.79	80
496.008	103
496.225	89
496.442	87
496.66	86
496.877	77
497.094	93
497.312	79
497.529	92
497.746	83
497.963	86
498.181	95
498.398	93
498.615	116
498.832	97
499.049	95
499.267	89
499.484	75
499.701	83
499.918	97
500.135	74
500.352	89
500.569	92
500.786	88
501.003	88
501.22	93
501.437	92
501.654	82
501.871	93
502.088	82
502.305	89
502.522	76
502.739	68
502.956	73
503.172	106
503.389	91
503.606	87
503.823	68
504.04	103
504.256	115
504.473	99
504.69	84
504.907	93
505.123	87
505.34	97
505.557	102
505.773	93
505.99	83
506.207	83
506.423	94
506.64	90
506.856	89
507.073	82
507.289	101
507.506	93
507.722	96
507.939	108
508.155	97
508.372	104
508.588	103
508.805	87
509.021	88
509.238	93
509.454	104
509.67	120
509.887	99
510.103	135
510.319	204
510.536	620
510.752	1823
510.968	508
511.184	143
511.401	99
511.617	109
511.833	87
512.049	81
512.265	93
512.481	91
512.698	82
512.914	101
513.13	95
513.346	77
513.562	98
513.778	95
513.994	97
514.21	76
514.426	112
514.642	116
514.858	106
515.074	157
515.29	351
515.506	1095
515.721	403
515.937	138
516.153	105
516.369	83
516.585	82
516.801	96
517.016	92
517.232	84
517.448	103
517.664	102
517.879	95
518.095	75
518.311	74
518.527	81
518.742	87
518.958	90
519.173	101
519.389	104
519.605	91
519.82	86
520.036	102
520.251	120
520.467	109
520.682	99
520.898	112
521.113	107
521.329	132
521.544	184
521.76	451
521.975	1796
522.19	1107
522.406	242
522.621	111
522.836	99
523.052	103
523.267	80
523.482	85
523.698	91
523.913	113
524.128	105
524.343	90
524.559	79
524.774	91
524.989	98
525.204	113
525.419	94
525.634	102
525.849	92
526.064	73
526.28	98
526.495	87
526.71	87
526.925	99
527.14	83
527.355	71
527.57	87
527.785	83
527.999	80
528.214	96
528.429	91
528.644	91
528.859	92
529.074	84
529.289	122
529.503	149
529.718	103
529.933	94
530.148	88
530.363	84
530.577	95
530.792	101
531.007	87
531.221	95
531.436	84
531.651	87
531.865	90
532.08	82
532.295	76
532.509	105
532.724	100
532.938	102
533.153	101
533.367	82
533.582	91
533.796	85
534.011	90
534.225	90
534.44	85
534.654	97
534.868	85
535.083	81
535.297	104
535.511	80
535.726	87
535.94	99
536.154	100
536.369	84
536.583	75
536.797	94
537.011	93
537.225	91
537.44	60
537.654	82
537.868	77
538.082	101
538.296	94
538.51	91
538.724	87
538.938	89
539.153	100
539.367	92
539.581	100
539.795	97
540.009	101
540.222	96
540.436	93
540.65	90
540.864	89
541.078	92
541.292	81
541.506	79
541.72	99
541.934	95
542.147	93
542.361	88
542.575	83
542.789	82
543.002	92
543.216	91
543.43	89
543.644	96
543.857	98
544.071	100
544.285	92
544.498	102
544.712	100
544.925	96
545.139	86
545.352	77
545.566	85
545.779	90
545.993	101
546.206	99
546.42	88
546.633	75
546.847	99
547.06	91
547.274	97
547.487	87
547.7	91
547.914	87
548.127	89
548.34	76
548.554	89
548.767	84
548.98	96
549.193	112
549.407	85
549.62	89
549.833	99
550.046	91
550.259	82
550.473	79
550.686	89
550.899	93
551.112	83
551.325	101
551.538	83
551.751	88
551.964	103
552.177	80
552.39	89
552.603	92
552.816	99
553.029	87
553.242	94
553.455	91
553.667	103
553.88	86
554.093	93
554.306	80
554.519	86
554.732	83
554.944	87
555.157	89
555.37	100
555.583	90
555.795	102
556.008	96
556.221	89
556.433	96
556.646	87
556.859	90
557.071	93
557.284	87
557.496	75
557.709	83
557.921	88
558.134	81
558.346	96
558.559	88
558.771	102
558.984	75
559.196	79
559.409	81
559.621	94
559.833	88
560.046	75
560.258	81
560.47	98
560.683	88
560.895	79
561.107	85
561.32	97
561.532	93
561.744	94
561.956	91
562.168	87
562.381	95
562.593	81
562.805	94
563.017	90
563.229	80
563.441	77
563.653	86
563.865	93
564.077	99
564.289	98
564.501	92
564.713	96
564.925	89
565.137	100
565.349	92
565.561	80
565.773	87
565.985	83
566.197	75
566.408	83
566.62	85
566.832	98
567.044	85
567.255	98
567.467	84
567.679	93
567.891	71
568.102	93
568.314	81
568.526	76
568.737	71
568.949	83
569.161	75
569.372	92
569.584	87
569.795	97
570.007	114
570.218	211
570.43	128
570.641	107
570.853	89
571.064	73
571.276	74
571.487	94
571.698	80
571.91	98
572.121	89
572.333	93
572.544	81
572.755	92
572.966	87
573.178	88
573.389	85
573.6	95
573.811	91
574.023	96
574.234	74
574.445	98
574.656	93
574.867	83
575.078	83
575.289	59
575.501	80
575.712	87
575.923	75
576.134	84
576.345	83
576.556	86
576.767	88
576.978	91
577.188	99
577.399	87
577.61	89
577.821	101
578.032	118
578.243	228
578.454	572
578.665	169
578.875	99
579.086	85
579.297	82
579.508	87
579.718	88
579.929	90
580.14	88
580.35	87
580.561	83
580.772	81
580.982	87
581.193	90
581.403	79
581.614	79
581.825	78
582.035	90
582.246	97
582.456	70
582.667	83
582.877	99
583.087	90
583.298	90
583.508	87
583.719	90
583.929	77
584.139	95
