Data from Circ_1983_H10_HRD10591_00065.txt Node
Date: Wed Jan 03 12:26:57 EST 2024
User: Yrep
Spectrometer: HR+D1059
Trigger mode: 1
Integration Time (sec): 1.000000E-1
Scans to average: 1
Electric dark correction enabled: true
Nonlinearity correction enabled: false
Boxcar width: 0
XAxis mode: Wavelengths
Number of Pixels in Spectrum: 2048
>>>>>Begin Spectral Data<<<<<
223.165	-4.5
223.4	-4.5
223.635	-4.5
223.869	-13.5
224.104	-24.5
224.338	-14.5
224.573	-19.5
224.808	-15.5
225.042	-0.5
225.277	-1.5
225.511	2.5
225.746	-8.5
225.98	11.5
226.215	12.5
226.449	19.5
226.683	12.5
226.918	10.5
227.152	33.5
227.387	35.5
227.621	29.5
227.856	40.5
228.09	53.5
228.324	57.5
228.559	63.5
228.793	63.5
229.027	63.5
229.262	48.5
229.496	73.5
229.73	78.5
229.964	82.5
230.199	86.5
230.433	81.5
230.667	88.5
230.901	67.5
231.136	80.5
231.37	71.5
231.604	76.5
231.838	81.5
232.072	90.5
232.306	93.5
232.541	67.5
232.775	87.5
233.009	90.5
233.243	67.5
233.477	70.5
233.711	87.5
233.945	69.5
234.179	73.5
234.413	84.5
234.647	85.5
234.881	85.5
235.115	76.5
235.349	81.5
235.583	85.5
235.817	91.5
236.051	91.5
236.285	75.5
236.519	62.5
236.753	68.5
236.987	71.5
237.221	81.5
237.455	70.5
237.689	77.5
237.922	93.5
238.156	67.5
238.39	81.5
238.624	77.5
238.858	67.5
239.091	83.5
239.325	89.5
239.559	74.5
239.793	93.5
240.027	83.5
240.26	85.5
240.494	77.5
240.728	82.5
240.961	70.5
241.195	79.5
241.429	78.5
241.662	74.5
241.896	60.5
242.13	82.5
242.363	85.5
242.597	77.5
242.83	87.5
243.064	63.5
243.298	88.5
243.531	68.5
243.765	92.5
243.998	74.5
244.232	85.5
244.465	75.5
244.699	86.5
244.932	73.5
245.166	68.5
245.399	51.5
245.633	86.5
245.866	76.5
246.099	85.5
246.333	74.5
246.566	91.5
246.8	69.5
247.033	83.5
247.266	78.5
247.5	70.5
247.733	75.5
247.966	88.5
248.2	75.5
248.433	101.5
248.666	83.5
248.899	90.5
249.133	83.5
249.366	97.5
249.599	100.5
249.832	84.5
250.066	89.5
250.299	72.5
250.532	75.5
250.765	79.5
250.998	81.5
251.231	83.5
251.465	81.5
251.698	83.5
251.931	81.5
252.164	87.5
252.397	74.5
252.63	87.5
252.863	93.5
253.096	79.5
253.329	82.5
253.562	83.5
253.795	76.5
254.028	83.5
254.261	76.5
254.494	83.5
254.727	89.5
254.96	91.5
255.193	69.5
255.426	90.5
255.659	73.5
255.892	79.5
256.124	74.5
256.357	85.5
256.59	86.5
256.823	82.5
257.056	79.5
257.289	86.5
257.521	82.5
257.754	68.5
257.987	87.5
258.22	88.5
258.452	87.5
258.685	93.5
258.918	84.5
259.151	78.5
259.383	88.5
259.616	69.5
259.849	77.5
260.081	79.5
260.314	91.5
260.547	73.5
260.779	79.5
261.012	87.5
261.244	85.5
261.477	89.5
261.71	88.5
261.942	102.5
262.175	118.5
262.407	77.5
262.64	102.5
262.872	85.5
263.105	84.5
263.337	89.5
263.57	79.5
263.802	81.5
264.035	63.5
264.267	87.5
264.499	93.5
264.732	88.5
264.964	87.5
265.197	84.5
265.429	75.5
265.661	77.5
265.894	89.5
266.126	82.5
266.358	89.5
266.591	87.5
266.823	81.5
267.055	71.5
267.287	80.5
267.52	81.5
267.752	96.5
267.984	98.5
268.216	78.5
268.448	77.5
268.681	75.5
268.913	91.5
269.145	82.5
269.377	93.5
269.609	94.5
269.841	82.5
270.073	83.5
270.306	85.5
270.538	90.5
270.77	69.5
271.002	89.5
271.234	82.5
271.466	93.5
271.698	83.5
271.93	101.5
272.162	38.5
272.394	77.5
272.626	76.5
272.858	85.5
273.09	90.5
273.322	84.5
273.553	102.5
273.785	90.5
274.017	94.5
274.249	93.5
274.481	91.5
274.713	90.5
274.945	85.5
275.176	67.5
275.408	87.5
275.64	100.5
275.872	92.5
276.104	83.5
276.335	76.5
276.567	99.5
276.799	116.5
277.031	109.5
277.262	106.5
277.494	94.5
277.726	86.5
277.957	84.5
278.189	82.5
278.421	79.5
278.652	84.5
278.884	78.5
279.115	73.5
279.347	87.5
279.579	85.5
279.81	98.5
280.042	95.5
280.273	109.5
280.505	86.5
280.736	86.5
280.968	87.5
281.199	95.5
281.431	94.5
281.662	102.5
281.894	93.5
282.125	95.5
282.356	107.5
282.588	128.5
282.819	116.5
283.051	105.5
283.282	99.5
283.513	89.5
283.745	86.5
283.976	88.5
284.207	94.5
284.439	86.5
284.67	89.5
284.901	91.5
285.132	94.5
285.364	95.5
285.595	89.5
285.826	79.5
286.057	103.5
286.288	83.5
286.52	93.5
286.751	98.5
286.982	93.5
287.213	91.5
287.444	76.5
287.675	81.5
287.906	106.5
288.138	103.5
288.369	83.5
288.6	95.5
288.831	76.5
289.062	88.5
289.293	94.5
289.524	108.5
289.755	102.5
289.986	93.5
290.217	91.5
290.448	72.5
290.679	79.5
290.91	92.5
291.141	96.5
291.371	88.5
291.602	82.5
291.833	85.5
292.064	81.5
292.295	88.5
292.526	83.5
292.757	97.5
292.987	99.5
293.218	90.5
293.449	86.5
293.68	91.5
293.91	74.5
294.141	95.5
294.372	79.5
294.603	54.5
294.833	88.5
295.064	83.5
295.295	92.5
295.525	75.5
295.756	86.5
295.987	119.5
296.217	118.5
296.448	99.5
296.679	106.5
296.909	85.5
297.14	88.5
297.37	97.5
297.601	90.5
297.831	102.5
298.062	102.5
298.292	88.5
298.523	75.5
298.753	81.5
298.984	87.5
299.214	82.5
299.445	88.5
299.675	89.5
299.905	96.5
300.136	86.5
300.366	88.5
300.597	76.5
300.827	93.5
301.057	90.5
301.288	99.5
301.518	90.5
301.748	83.5
301.979	97.5
302.209	76.5
302.439	87.5
302.669	84.5
302.9	93.5
303.13	94.5
303.36	84.5
303.59	96.5
303.82	95.5
304.051	87.5
304.281	92.5
304.511	84.5
304.741	98.5
304.971	97.5
305.201	83.5
305.431	84.5
305.661	87.5
305.891	91.5
306.121	97.5
306.352	98.5
306.582	100.5
306.812	95.5
307.042	92.5
307.272	98.5
307.502	101.5
307.731	93.5
307.961	98.5
308.191	93.5
308.421	88.5
308.651	97.5
308.881	96.5
309.111	87.5
309.341	95.5
309.571	98.5
309.8	113.5
310.03	78.5
310.26	95.5
310.49	87.5
310.72	111.5
310.949	107.5
311.179	98.5
311.409	86.5
311.639	96.5
311.868	99.5
312.098	93.5
312.328	92.5
312.557	92.5
312.787	97.5
313.017	110.5
313.246	97.5
313.476	85.5
313.706	95.5
313.935	85.5
314.165	109.5
314.394	108.5
314.624	95.5
314.853	100.5
315.083	94.5
315.312	94.5
315.542	92.5
315.771	95.5
316.001	89.5
316.23	91.5
316.46	92.5
316.689	90.5
316.919	94.5
317.148	96.5
317.377	93.5
317.607	109.5
317.836	86.5
318.065	102.5
318.295	89.5
318.524	90.5
318.753	87.5
318.983	75.5
319.212	112.5
319.441	104.5
319.67	111.5
319.9	91.5
320.129	95.5
320.358	83.5
320.587	101.5
320.816	115.5
321.046	92.5
321.275	90.5
321.504	113.5
321.733	104.5
321.962	108.5
322.191	88.5
322.42	91.5
322.649	118.5
322.878	103.5
323.108	99.5
323.337	108.5
323.566	138.5
323.795	152.5
324.024	178.5
324.253	309.5
324.482	640.5
324.71	1302.5
324.939	1730.5
325.168	621.5
325.397	213.5
325.626	131.5
325.855	120.5
326.084	114.5
326.313	124.5
326.542	134.5
326.77	206.5
326.999	375.5
327.228	762.5
327.457	1329.5
327.686	1079.5
327.914	313.5
328.143	201.5
328.372	171.5
328.6	133.5
328.829	121.5
329.058	127.5
329.287	110.5
329.515	107.5
329.744	118.5
329.972	129.5
330.201	183.5
330.43	245.5
330.658	179.5
330.887	122.5
331.115	110.5
331.344	101.5
331.572	109.5
331.801	103.5
332.03	102.5
332.258	95.5
332.486	105.5
332.715	101.5
332.943	103.5
333.172	103.5
333.4	104.5
333.629	92.5
333.857	133.5
334.085	134.5
334.314	195.5
334.542	279.5
334.771	255.5
334.999	116.5
335.227	97.5
335.455	104.5
335.684	94.5
335.912	101.5
336.14	83.5
336.369	100.5
336.597	95.5
336.825	108.5
337.053	106.5
337.281	91.5
337.51	93.5
337.738	104.5
337.966	92.5
338.194	97.5
338.422	98.5
338.65	108.5
338.878	85.5
339.106	71.5
339.334	89.5
339.562	95.5
339.79	90.5
340.018	91.5
340.246	88.5
340.474	79.5
340.702	107.5
340.93	92.5
341.158	95.5
341.386	107.5
341.614	93.5
341.842	93.5
342.07	98.5
342.298	87.5
342.526	86.5
342.754	90.5
342.981	73.5
343.209	97.5
343.437	90.5
343.665	93.5
343.893	87.5
344.12	109.5
344.348	105.5
344.576	91.5
344.804	84.5
345.031	100.5
345.259	94.5
345.487	93.5
345.714	91.5
345.942	100.5
346.17	82.5
346.397	82.5
346.625	102.5
346.853	77.5
347.08	97.5
347.308	95.5
347.535	100.5
347.763	104.5
347.99	105.5
348.218	105.5
348.445	101.5
348.673	81.5
348.9	95.5
349.128	97.5
349.355	102.5
349.583	98.5
349.81	92.5
350.037	85.5
350.265	94.5
350.492	89.5
350.72	93.5
350.947	104.5
351.174	112.5
351.402	111.5
351.629	107.5
351.856	98.5
352.083	107.5
352.311	104.5
352.538	88.5
352.765	90.5
352.992	104.5
353.22	94.5
353.447	125.5
353.674	107.5
353.901	97.5
354.128	101.5
354.355	98.5
354.583	104.5
354.81	102.5
355.037	94.5
355.264	104.5
355.491	91.5
355.718	93.5
355.945	97.5
356.172	98.5
356.399	105.5
356.626	113.5
356.853	98.5
357.08	96.5
357.307	101.5
357.534	103.5
357.761	101.5
357.988	98.5
358.215	87.5
358.441	77.5
358.668	82.5
358.895	106.5
359.122	88.5
359.349	88.5
359.576	94.5
359.802	92.5
360.029	98.5
360.256	109.5
360.483	108.5
360.709	91.5
360.936	95.5
361.163	102.5
361.39	99.5
361.616	97.5
361.843	98.5
362.07	99.5
362.296	81.5
362.523	86.5
362.749	95.5
362.976	83.5
363.203	86.5
363.429	78.5
363.656	92.5
363.882	105.5
364.109	91.5
364.335	95.5
364.562	97.5
364.788	104.5
365.015	95.5
365.241	88.5
365.468	106.5
365.694	110.5
365.92	95.5
366.147	84.5
366.373	97.5
366.599	84.5
366.826	98.5
367.052	85.5
367.278	75.5
367.505	91.5
367.731	91.5
367.957	90.5
368.184	95.5
368.41	84.5
368.636	107.5
368.862	109.5
369.089	92.5
369.315	93.5
369.541	89.5
369.767	81.5
369.993	93.5
370.219	97.5
370.445	90.5
370.672	85.5
370.898	84.5
371.124	69.5
371.35	109.5
371.576	96.5
371.802	95.5
372.028	84.5
372.254	78.5
372.48	97.5
372.706	87.5
372.932	72.5
373.158	94.5
373.384	96.5
373.61	92.5
373.835	92.5
374.061	93.5
374.287	94.5
374.513	103.5
374.739	90.5
374.965	101.5
375.191	96.5
375.416	91.5
375.642	82.5
375.868	84.5
376.094	106.5
376.319	92.5
376.545	98.5
376.771	93.5
376.997	95.5
377.222	98.5
377.448	93.5
377.674	90.5
377.899	91.5
378.125	89.5
378.35	97.5
378.576	91.5
378.802	100.5
379.027	79.5
379.253	105.5
379.478	101.5
379.704	87.5
379.929	88.5
380.155	91.5
380.38	98.5
380.606	101.5
380.831	86.5
381.057	101.5
381.282	94.5
381.507	94.5
381.733	91.5
381.958	101.5
382.184	101.5
382.409	100.5
382.634	108.5
382.86	110.5
383.085	107.5
383.31	109.5
383.535	106.5
383.761	99.5
383.986	91.5
384.211	111.5
384.436	95.5
384.662	95.5
384.887	117.5
385.112	112.5
385.337	102.5
385.562	90.5
385.787	106.5
386.013	106.5
386.238	113.5
386.463	107.5
386.688	112.5
386.913	104.5
387.138	96.5
387.363	95.5
387.588	87.5
387.813	103.5
388.038	99.5
388.263	121.5
388.488	103.5
388.713	90.5
388.938	83.5
389.163	86.5
389.387	110.5
389.612	105.5
389.837	89.5
390.062	97.5
390.287	98.5
390.512	93.5
390.736	108.5
390.961	90.5
391.186	95.5
391.411	88.5
391.636	91.5
391.86	74.5
392.085	83.5
392.31	89.5
392.534	86.5
392.759	88.5
392.984	88.5
393.208	86.5
393.433	98.5
393.658	115.5
393.882	101.5
394.107	91.5
394.331	84.5
394.556	102.5
394.78	90.5
395.005	88.5
395.229	74.5
395.454	74.5
395.678	91.5
395.903	91.5
396.127	94.5
396.352	89.5
396.576	82.5
396.801	95.5
397.025	95.5
397.249	81.5
397.474	87.5
397.698	92.5
397.922	92.5
398.147	78.5
398.371	99.5
398.595	76.5
398.82	81.5
399.044	96.5
399.268	86.5
399.492	88.5
399.717	108.5
399.941	100.5
400.165	98.5
400.389	99.5
400.613	93.5
400.837	78.5
401.062	89.5
401.286	97.5
401.51	98.5
401.734	101.5
401.958	102.5
402.182	114.5
402.406	128.5
402.63	116.5
402.854	90.5
403.078	81.5
403.302	92.5
403.526	91.5
403.75	91.5
403.974	87.5
404.198	77.5
404.422	92.5
404.645	105.5
404.869	99.5
405.093	93.5
405.317	89.5
405.541	101.5
405.765	96.5
405.988	101.5
406.212	150.5
406.436	191.5
406.66	138.5
406.883	92.5
407.107	107.5
407.331	95.5
407.555	98.5
407.778	91.5
408.002	83.5
408.226	100.5
408.449	105.5
408.673	90.5
408.896	82.5
409.12	100.5
409.344	90.5
409.567	87.5
409.791	96.5
410.014	100.5
410.238	89.5
410.461	111.5
410.685	96.5
410.908	106.5
411.132	113.5
411.355	92.5
411.578	93.5
411.802	102.5
412.025	97.5
412.249	98.5
412.472	105.5
412.695	95.5
412.919	91.5
413.142	91.5
413.365	86.5
413.589	91.5
413.812	88.5
414.035	97.5
414.258	92.5
414.482	87.5
414.705	97.5
414.928	86.5
415.151	108.5
415.374	105.5
415.597	98.5
415.821	106.5
416.044	104.5
416.267	92.5
416.49	83.5
416.713	83.5
416.936	93.5
417.159	99.5
417.382	91.5
417.605	82.5
417.828	121.5
418.051	102.5
418.274	85.5
418.497	94.5
418.72	98.5
418.943	108.5
419.166	83.5
419.389	89.5
419.611	104.5
419.834	88.5
420.057	97.5
420.28	88.5
420.503	99.5
420.726	83.5
420.948	75.5
421.171	94.5
421.394	70.5
421.617	91.5
421.839	96.5
422.062	91.5
422.285	90.5
422.507	93.5
422.73	101.5
422.953	94.5
423.175	86.5
423.398	82.5
423.621	78.5
423.843	85.5
424.066	86.5
424.288	89.5
424.511	102.5
424.733	106.5
424.956	101.5
425.178	99.5
425.401	111.5
425.623	89.5
425.846	85.5
426.068	92.5
426.291	77.5
426.513	99.5
426.735	90.5
426.958	89.5
427.18	93.5
427.402	126.5
427.625	137.5
427.847	122.5
428.069	117.5
428.292	90.5
428.514	81.5
428.736	83.5
428.958	90.5
429.181	88.5
429.403	101.5
429.625	84.5
429.847	94.5
430.069	104.5
430.292	84.5
430.514	90.5
430.736	91.5
430.958	100.5
431.18	90.5
431.402	94.5
431.624	92.5
431.846	85.5
432.068	89.5
432.29	91.5
432.512	97.5
432.734	84.5
432.956	86.5
433.178	111.5
433.4	92.5
433.622	92.5
433.844	103.5
434.066	95.5
434.287	89.5
434.509	76.5
434.731	92.5
434.953	98.5
435.175	92.5
435.397	95.5
435.618	98.5
435.84	89.5
436.062	97.5
436.284	115.5
436.505	89.5
436.727	97.5
436.949	90.5
437.17	94.5
437.392	100.5
437.614	86.5
437.835	108.5
438.057	92.5
438.278	96.5
438.5	84.5
438.721	98.5
438.943	91.5
439.165	81.5
439.386	87.5
439.608	102.5
439.829	99.5
440.05	113.5
440.272	111.5
440.493	92.5
440.715	87.5
440.936	92.5
441.158	84.5
441.379	105.5
441.6	87.5
441.822	105.5
442.043	103.5
442.264	100.5
442.486	104.5
442.707	94.5
442.928	110.5
443.149	117.5
443.371	117.5
443.592	102.5
443.813	100.5
444.034	97.5
444.255	76.5
444.476	94.5
444.698	96.5
444.919	90.5
445.14	150.5
445.361	122.5
445.582	121.5
445.803	121.5
446.024	118.5
446.245	117.5
446.466	97.5
446.687	77.5
446.908	93.5
447.129	83.5
447.35	90.5
447.571	100.5
447.792	100.5
448.013	87.5
448.234	88.5
448.455	101.5
448.675	103.5
448.896	111.5
449.117	111.5
449.338	105.5
449.559	117.5
449.779	121.5
450	89.5
450.221	84.5
450.442	83.5
450.662	87.5
450.883	96.5
451.104	98.5
451.324	89.5
451.545	95.5
451.766	81.5
451.986	92.5
452.207	99.5
452.428	86.5
452.648	95.5
452.869	111.5
453.089	115.5
453.31	117.5
453.53	98.5
453.751	93.5
453.971	83.5
454.192	105.5
454.412	94.5
454.633	81.5
454.853	88.5
455.073	92.5
455.294	99.5
455.514	89.5
455.734	92.5
455.955	71.5
456.175	70.5
456.395	106.5
456.616	84.5
456.836	73.5
457.056	97.5
457.276	83.5
457.497	78.5
457.717	75.5
457.937	88.5
458.157	90.5
458.377	93.5
458.598	102.5
458.818	130.5
459.038	157.5
459.258	105.5
459.478	106.5
459.698	93.5
459.918	74.5
460.138	84.5
460.358	78.5
460.578	85.5
460.798	95.5
461.018	112.5
461.238	94.5
461.458	90.5
461.678	86.5
461.898	88.5
462.118	93.5
462.338	94.5
462.558	99.5
462.777	97.5
462.997	78.5
463.217	92.5
463.437	94.5
463.657	88.5
463.876	91.5
464.096	82.5
464.316	85.5
464.536	105.5
464.755	89.5
464.975	97.5
465.195	135.5
465.414	129.5
465.634	86.5
465.854	90.5
466.073	82.5
466.293	91.5
466.512	72.5
466.732	81.5
466.951	97.5
467.171	92.5
467.391	85.5
467.61	104.5
467.829	103.5
468.049	141.5
468.268	154.5
468.488	92.5
468.707	97.5
468.927	87.5
469.146	76.5
469.365	85.5
469.585	92.5
469.804	95.5
470.023	105.5
470.243	90.5
470.462	93.5
470.681	105.5
470.901	99.5
471.12	100.5
471.339	97.5
471.558	94.5
471.777	98.5
471.997	119.5
472.216	217.5
472.435	335.5
472.654	131.5
472.873	83.5
473.092	90.5
473.311	67.5
473.53	88.5
473.749	87.5
473.968	94.5
474.187	98.5
474.406	99.5
474.625	77.5
474.844	91.5
475.063	93.5
475.282	96.5
475.501	81.5
475.72	97.5
475.939	89.5
476.158	81.5
476.377	85.5
476.596	92.5
476.814	96.5
477.033	97.5
477.252	75.5
477.471	71.5
477.69	87.5
477.908	70.5
478.127	97.5
478.346	95.5
478.564	83.5
478.783	97.5
479.002	100.5
479.22	95.5
479.439	93.5
479.658	102.5
479.876	99.5
480.095	80.5
480.313	85.5
480.532	111.5
480.751	109.5
480.969	210.5
481.188	567.5
481.406	351.5
481.624	118.5
481.843	86.5
482.061	97.5
482.28	97.5
482.498	81.5
482.717	94.5
482.935	78.5
483.153	91.5
483.372	89.5
483.59	100.5
483.808	93.5
484.027	91.5
484.245	99.5
484.463	86.5
484.681	87.5
484.9	91.5
485.118	87.5
485.336	84.5
485.554	103.5
485.772	100.5
485.99	100.5
486.209	108.5
486.427	110.5
486.645	120.5
486.863	107.5
487.081	101.5
487.299	97.5
487.517	87.5
487.735	94.5
487.953	89.5
488.171	96.5
488.389	94.5
488.607	106.5
488.825	97.5
489.043	87.5
489.261	86.5
489.479	73.5
489.696	92.5
489.914	93.5
490.132	100.5
490.35	94.5
490.568	75.5
490.786	87.5
491.003	86.5
491.221	88.5
491.439	83.5
491.657	97.5
491.874	98.5
492.092	90.5
492.31	90.5
492.527	89.5
492.745	90.5
492.963	92.5
493.18	78.5
493.398	108.5
493.615	97.5
493.833	88.5
494.05	76.5
494.268	95.5
494.485	92.5
494.703	106.5
494.92	96.5
495.138	105.5
495.355	86.5
495.573	85.5
495.79	86.5
496.008	81.5
496.225	89.5
496.442	94.5
496.66	100.5
496.877	95.5
497.094	103.5
497.312	94.5
497.529	99.5
497.746	106.5
497.963	84.5
498.181	86.5
498.398	97.5
498.615	92.5
498.832	91.5
499.049	89.5
499.267	99.5
499.484	96.5
499.701	73.5
499.918	83.5
500.135	96.5
500.352	92.5
500.569	83.5
500.786	88.5
501.003	92.5
501.22	105.5
501.437	107.5
501.654	79.5
501.871	85.5
502.088	97.5
502.305	83.5
502.522	90.5
502.739	74.5
502.956	92.5
503.172	72.5
503.389	92.5
503.606	85.5
503.823	100.5
504.04	102.5
504.256	78.5
504.473	101.5
504.69	98.5
504.907	86.5
505.123	85.5
505.34	98.5
505.557	85.5
505.773	89.5
505.99	85.5
506.207	106.5
506.423	104.5
506.64	89.5
506.856	94.5
507.073	78.5
507.289	97.5
507.506	95.5
507.722	101.5
507.939	107.5
508.155	91.5
508.372	78.5
508.588	77.5
508.805	100.5
509.021	89.5
509.238	110.5
509.454	90.5
509.67	100.5
509.887	95.5
510.103	119.5
510.319	183.5
510.536	609.5
510.752	1819.5
510.968	526.5
511.184	143.5
511.401	102.5
511.617	78.5
511.833	85.5
512.049	84.5
512.265	85.5
512.481	99.5
512.698	103.5
512.914	94.5
513.13	86.5
513.346	102.5
513.562	89.5
513.778	90.5
513.994	103.5
514.21	105.5
514.426	102.5
514.642	120.5
514.858	130.5
515.074	131.5
515.29	359.5
515.506	1110.5
515.721	415.5
515.937	136.5
516.153	101.5
516.369	107.5
516.585	109.5
516.801	100.5
517.016	91.5
517.232	100.5
517.448	93.5
517.664	91.5
517.879	98.5
518.095	89.5
518.311	87.5
518.527	94.5
518.742	104.5
518.958	100.5
519.173	92.5
519.389	93.5
519.605	94.5
519.82	92.5
520.036	111.5
520.251	108.5
520.467	93.5
520.682	110.5
520.898	112.5
521.113	102.5
521.329	123.5
521.544	177.5
521.76	448.5
521.975	1805.5
522.19	1097.5
522.406	253.5
522.621	116.5
522.836	99.5
523.052	94.5
523.267	83.5
523.482	95.5
523.698	105.5
523.913	112.5
524.128	107.5
524.343	93.5
524.559	93.5
524.774	90.5
524.989	94.5
525.204	92.5
525.419	100.5
525.634	88.5
525.849	92.5
526.064	90.5
526.28	92.5
526.495	95.5
526.71	109.5
526.925	94.5
527.14	89.5
527.355	91.5
527.57	108.5
527.785	89.5
527.999	91.5
528.214	92.5
528.429	90.5
528.644	90.5
528.859	81.5
529.074	98.5
529.289	117.5
529.503	133.5
529.718	100.5
529.933	91.5
530.148	99.5
530.363	99.5
530.577	90.5
530.792	95.5
531.007	82.5
531.221	87.5
531.436	105.5
531.651	87.5
531.865	81.5
532.08	88.5
532.295	85.5
532.509	90.5
532.724	83.5
532.938	89.5
533.153	86.5
533.367	89.5
533.582	78.5
533.796	93.5
534.011	85.5
534.225	89.5
534.44	85.5
534.654	103.5
534.868	113.5
