Data from Circ_1983_H10_HRD10591_00091.txt Node
Date: Wed Jan 03 12:27:03 EST 2024
User: Yrep
Spectrometer: HR+D1059
Trigger mode: 1
Integration Time (sec): 1.000000E-1
Scans to average: 1
Electric dark correction enabled: true
Nonlinearity correction enabled: false
Boxcar width: 0
XAxis mode: Wavelengths
Number of Pixels in Spectrum: 2048
>>>>>Begin Spectral Data<<<<<
223.165	-15.44
223.4	-15.44
223.635	-15.44
223.869	-22.44
224.104	-33.44
224.338	-11.44
224.573	-8.44
224.808	-8.44
225.042	-4.44
225.277	-6.44
225.511	1.56
225.746	6.56
225.98	20.56
226.215	-7.44
226.449	11.56
226.683	13.56
226.918	22.56
227.152	41.56
227.387	31.56
227.621	41.56
227.856	35.56
228.09	45.56
228.324	40.56
228.559	51.56
228.793	53.56
229.027	57.56
229.262	52.56
229.496	61.56
229.73	72.56
229.964	62.56
230.199	75.56
230.433	86.56
230.667	77.56
230.901	57.56
231.136	67.56
231.37	91.56
231.604	85.56
231.838	71.56
232.072	78.56
232.306	73.56
232.541	83.56
232.775	91.56
233.009	81.56
233.243	81.56
233.477	84.56
233.711	83.56
233.945	72.56
234.179	72.56
234.413	60.56
234.647	70.56
234.881	79.56
235.115	72.56
235.349	79.56
235.583	76.56
235.817	81.56
236.051	80.56
236.285	75.56
236.519	74.56
236.753	61.56
236.987	93.56
237.221	88.56
237.455	78.56
237.689	72.56
237.922	71.56
238.156	64.56
238.39	80.56
238.624	68.56
238.858	64.56
239.091	73.56
239.325	69.56
239.559	64.56
239.793	85.56
240.027	71.56
240.26	90.56
240.494	76.56
240.728	75.56
240.961	68.56
241.195	87.56
241.429	75.56
241.662	68.56
241.896	75.56
242.13	70.56
242.363	71.56
242.597	67.56
242.83	66.56
243.064	70.56
243.298	64.56
243.531	81.56
243.765	79.56
243.998	80.56
244.232	75.56
244.465	80.56
244.699	83.56
244.932	80.56
245.166	71.56
245.399	73.56
245.633	76.56
245.866	70.56
246.099	78.56
246.333	85.56
246.566	75.56
246.8	76.56
247.033	73.56
247.266	69.56
247.5	78.56
247.733	69.56
247.966	68.56
248.2	76.56
248.433	69.56
248.666	73.56
248.899	62.56
249.133	77.56
249.366	80.56
249.599	92.56
249.832	74.56
250.066	68.56
250.299	77.56
250.532	78.56
250.765	81.56
250.998	91.56
251.231	82.56
251.465	71.56
251.698	66.56
251.931	72.56
252.164	75.56
252.397	69.56
252.63	84.56
252.863	87.56
253.096	64.56
253.329	79.56
253.562	72.56
253.795	80.56
254.028	79.56
254.261	67.56
254.494	62.56
254.727	75.56
254.96	75.56
255.193	71.56
255.426	75.56
255.659	78.56
255.892	92.56
256.124	78.56
256.357	76.56
256.59	65.56
256.823	90.56
257.056	82.56
257.289	76.56
257.521	74.56
257.754	80.56
257.987	59.56
258.22	69.56
258.452	82.56
258.685	72.56
258.918	64.56
259.151	75.56
259.383	72.56
259.616	74.56
259.849	81.56
260.081	81.56
260.314	79.56
260.547	72.56
260.779	73.56
261.012	70.56
261.244	80.56
261.477	95.56
261.71	87.56
261.942	95.56
262.175	91.56
262.407	79.56
262.64	91.56
262.872	85.56
263.105	79.56
263.337	85.56
263.57	70.56
263.802	90.56
264.035	80.56
264.267	81.56
264.499	69.56
264.732	77.56
264.964	84.56
265.197	83.56
265.429	72.56
265.661	75.56
265.894	75.56
266.126	82.56
266.358	86.56
266.591	84.56
266.823	83.56
267.055	75.56
267.287	84.56
267.52	77.56
267.752	84.56
267.984	78.56
268.216	75.56
268.448	87.56
268.681	88.56
268.913	73.56
269.145	93.56
269.377	84.56
269.609	88.56
269.841	60.56
270.073	88.56
270.306	79.56
270.538	78.56
270.77	81.56
271.002	80.56
271.234	88.56
271.466	70.56
271.698	80.56
271.93	73.56
272.162	81.56
272.394	76.56
272.626	94.56
272.858	75.56
273.09	70.56
273.322	80.56
273.553	75.56
273.785	75.56
274.017	88.56
274.249	80.56
274.481	88.56
274.713	76.56
274.945	79.56
275.176	93.56
275.408	103.56
275.64	80.56
275.872	92.56
276.104	93.56
276.335	83.56
276.567	83.56
276.799	100.56
277.031	91.56
277.262	92.56
277.494	83.56
277.726	78.56
277.957	77.56
278.189	85.56
278.421	87.56
278.652	85.56
278.884	78.56
279.115	73.56
279.347	77.56
279.579	79.56
279.81	79.56
280.042	87.56
280.273	92.56
280.505	89.56
280.736	94.56
280.968	89.56
281.199	69.56
281.431	76.56
281.662	83.56
281.894	83.56
282.125	88.56
282.356	117.56
282.588	114.56
282.819	95.56
283.051	81.56
283.282	85.56
283.513	84.56
283.745	86.56
283.976	87.56
284.207	87.56
284.439	93.56
284.67	70.56
284.901	83.56
285.132	72.56
285.364	83.56
285.595	79.56
285.826	77.56
286.057	71.56
286.288	81.56
286.52	94.56
286.751	84.56
286.982	66.56
287.213	91.56
287.444	85.56
287.675	85.56
287.906	64.56
288.138	83.56
288.369	79.56
288.6	98.56
288.831	77.56
289.062	76.56
289.293	89.56
289.524	72.56
289.755	71.56
289.986	91.56
290.217	78.56
290.448	99.56
290.679	85.56
290.91	86.56
291.141	81.56
291.371	82.56
291.602	91.56
291.833	72.56
292.064	91.56
292.295	91.56
292.526	68.56
292.757	98.56
292.987	86.56
293.218	83.56
293.449	85.56
293.68	87.56
293.91	71.56
294.141	101.56
294.372	81.56
294.603	77.56
294.833	77.56
295.064	67.56
295.295	62.56
295.525	77.56
295.756	86.56
295.987	107.56
296.217	112.56
296.448	107.56
296.679	87.56
296.909	98.56
297.14	94.56
297.37	92.56
297.601	76.56
297.831	73.56
298.062	79.56
298.292	79.56
298.523	84.56
298.753	75.56
298.984	89.56
299.214	83.56
299.445	89.56
299.675	84.56
299.905	79.56
300.136	85.56
300.366	89.56
300.597	88.56
300.827	87.56
301.057	85.56
301.288	98.56
301.518	94.56
301.748	69.56
301.979	91.56
302.209	83.56
302.439	86.56
302.669	95.56
302.9	89.56
303.13	73.56
303.36	92.56
303.59	89.56
303.82	92.56
304.051	86.56
304.281	73.56
304.511	87.56
304.741	85.56
304.971	70.56
305.201	77.56
305.431	83.56
305.661	91.56
305.891	88.56
306.121	82.56
306.352	92.56
306.582	98.56
306.812	80.56
307.042	86.56
307.272	81.56
307.502	105.56
307.731	108.56
307.961	80.56
308.191	86.56
308.421	94.56
308.651	79.56
308.881	75.56
309.111	83.56
309.341	94.56
309.571	90.56
309.8	101.56
310.03	97.56
310.26	84.56
310.49	84.56
310.72	85.56
310.949	111.56
311.179	84.56
311.409	93.56
311.639	90.56
311.868	82.56
312.098	82.56
312.328	94.56
312.557	95.56
312.787	80.56
313.017	85.56
313.246	96.56
313.476	82.56
313.706	91.56
313.935	84.56
314.165	88.56
314.394	91.56
314.624	77.56
314.853	79.56
315.083	87.56
315.312	83.56
315.542	87.56
315.771	86.56
316.001	84.56
316.23	72.56
316.46	75.56
316.689	87.56
316.919	84.56
317.148	87.56
317.377	85.56
317.607	88.56
317.836	83.56
318.065	80.56
318.295	84.56
318.524	94.56
318.753	81.56
318.983	89.56
319.212	95.56
319.441	104.56
319.67	98.56
319.9	94.56
320.129	83.56
320.358	79.56
320.587	99.56
320.816	101.56
321.046	84.56
321.275	88.56
321.504	95.56
321.733	83.56
321.962	79.56
322.191	86.56
322.42	96.56
322.649	101.56
322.878	94.56
323.108	105.56
323.337	101.56
323.566	104.56
323.795	126.56
324.024	173.56
324.253	305.56
324.482	604.56
324.71	1239.56
324.939	1597.56
325.168	622.56
325.397	203.56
325.626	129.56
325.855	123.56
326.084	110.56
326.313	119.56
326.542	122.56
326.77	185.56
326.999	362.56
327.228	702.56
327.457	1241.56
327.686	1024.56
327.914	295.56
328.143	198.56
328.372	187.56
328.6	131.56
328.829	95.56
329.058	116.56
329.287	107.56
329.515	107.56
329.744	130.56
329.972	163.56
330.201	197.56
330.43	260.56
330.658	158.56
330.887	134.56
331.115	109.56
331.344	87.56
331.572	96.56
331.801	100.56
332.03	84.56
332.258	84.56
332.486	84.56
332.715	103.56
332.943	86.56
333.172	97.56
333.4	108.56
333.629	98.56
333.857	119.56
334.085	142.56
334.314	195.56
334.542	321.56
334.771	297.56
334.999	142.56
335.227	101.56
335.455	107.56
335.684	93.56
335.912	103.56
336.14	95.56
336.369	85.56
336.597	87.56
336.825	91.56
337.053	82.56
337.281	98.56
337.51	80.56
337.738	107.56
337.966	79.56
338.194	94.56
338.422	94.56
338.65	100.56
338.878	93.56
339.106	87.56
339.334	85.56
339.562	89.56
339.79	92.56
340.018	87.56
340.246	97.56
340.474	83.56
340.702	88.56
340.93	84.56
341.158	69.56
341.386	82.56
341.614	88.56
341.842	92.56
342.07	78.56
342.298	98.56
342.526	85.56
342.754	88.56
342.981	84.56
343.209	80.56
343.437	87.56
343.665	85.56
343.893	92.56
344.12	91.56
344.348	101.56
344.576	80.56
344.804	91.56
345.031	102.56
345.259	91.56
345.487	75.56
345.714	95.56
345.942	88.56
346.17	95.56
346.397	96.56
346.625	78.56
346.853	95.56
347.08	95.56
347.308	91.56
347.535	104.56
347.763	93.56
347.99	76.56
348.218	91.56
348.445	92.56
348.673	99.56
348.9	81.56
349.128	80.56
349.355	82.56
349.583	95.56
349.81	88.56
350.037	91.56
350.265	91.56
350.492	99.56
350.72	89.56
350.947	95.56
351.174	103.56
351.402	94.56
351.629	95.56
351.856	98.56
352.083	80.56
352.311	111.56
352.538	98.56
352.765	88.56
352.992	110.56
353.22	104.56
353.447	94.56
353.674	95.56
353.901	89.56
354.128	96.56
354.355	85.56
354.583	96.56
354.81	97.56
355.037	86.56
355.264	89.56
355.491	92.56
355.718	83.56
355.945	88.56
356.172	93.56
356.399	89.56
356.626	89.56
356.853	87.56
357.08	88.56
357.307	91.56
357.534	86.56
357.761	88.56
357.988	95.56
358.215	76.56
358.441	90.56
358.668	92.56
358.895	87.56
359.122	75.56
359.349	85.56
359.576	76.56
359.802	101.56
360.029	88.56
360.256	91.56
360.483	77.56
360.709	71.56
360.936	86.56
361.163	88.56
361.39	91.56
361.616	93.56
361.843	77.56
362.07	88.56
362.296	93.56
362.523	78.56
362.749	80.56
362.976	72.56
363.203	101.56
363.429	92.56
363.656	87.56
363.882	93.56
364.109	93.56
364.335	77.56
364.562	76.56
364.788	91.56
365.015	87.56
365.241	91.56
365.468	104.56
365.694	93.56
365.92	76.56
366.147	78.56
366.373	78.56
366.599	68.56
366.826	85.56
367.052	89.56
367.278	90.56
367.505	83.56
367.731	64.56
367.957	79.56
368.184	87.56
368.41	80.56
368.636	103.56
368.862	93.56
369.089	88.56
369.315	96.56
369.541	101.56
369.767	86.56
369.993	81.56
370.219	87.56
370.445	81.56
370.672	92.56
370.898	87.56
371.124	90.56
371.35	97.56
371.576	87.56
371.802	83.56
372.028	77.56
372.254	78.56
372.48	78.56
372.706	103.56
372.932	102.56
373.158	65.56
373.384	93.56
373.61	85.56
373.835	92.56
374.061	96.56
374.287	100.56
374.513	82.56
374.739	78.56
374.965	86.56
375.191	89.56
375.416	70.56
375.642	93.56
375.868	90.56
376.094	78.56
376.319	77.56
376.545	94.56
376.771	88.56
376.997	73.56
377.222	93.56
377.448	93.56
377.674	80.56
377.899	89.56
378.125	95.56
378.35	87.56
378.576	90.56
378.802	80.56
379.027	78.56
379.253	87.56
379.478	87.56
379.704	83.56
379.929	94.56
380.155	94.56
380.38	93.56
380.606	91.56
380.831	87.56
381.057	77.56
381.282	92.56
381.507	82.56
381.733	81.56
381.958	94.56
382.184	87.56
382.409	70.56
382.634	102.56
382.86	90.56
383.085	89.56
383.31	92.56
383.535	100.56
383.761	87.56
383.986	70.56
384.211	93.56
384.436	84.56
384.662	95.56
384.887	93.56
385.112	91.56
385.337	93.56
385.562	107.56
385.787	85.56
386.013	95.56
386.238	97.56
386.463	93.56
386.688	108.56
386.913	90.56
387.138	105.56
387.363	95.56
387.588	94.56
387.813	82.56
388.038	103.56
388.263	100.56
388.488	89.56
388.713	96.56
388.938	98.56
389.163	91.56
389.387	88.56
389.612	84.56
389.837	91.56
390.062	91.56
390.287	84.56
390.512	83.56
390.736	86.56
390.961	75.56
391.186	107.56
391.411	83.56
391.636	80.56
391.86	88.56
392.085	82.56
392.31	82.56
392.534	85.56
392.759	78.56
392.984	93.56
393.208	97.56
393.433	88.56
393.658	94.56
393.882	80.56
394.107	79.56
394.331	81.56
394.556	87.56
394.78	94.56
395.005	89.56
395.229	95.56
395.454	84.56
395.678	75.56
395.903	65.56
396.127	85.56
396.352	83.56
396.576	91.56
396.801	89.56
397.025	80.56
397.249	73.56
397.474	86.56
397.698	83.56
397.922	75.56
398.147	86.56
398.371	81.56
398.595	88.56
398.82	88.56
399.044	76.56
399.268	78.56
399.492	83.56
399.717	84.56
399.941	71.56
400.165	97.56
400.389	84.56
400.613	84.56
400.837	93.56
401.062	72.56
401.286	95.56
401.51	83.56
401.734	94.56
401.958	93.56
402.182	121.56
402.406	141.56
402.63	104.56
402.854	84.56
403.078	92.56
403.302	88.56
403.526	76.56
403.75	87.56
403.974	96.56
404.198	79.56
404.422	84.56
404.645	92.56
404.869	88.56
405.093	82.56
405.317	98.56
405.541	82.56
405.765	102.56
405.988	92.56
406.212	146.56
406.436	180.56
406.66	124.56
406.883	94.56
407.107	68.56
407.331	75.56
407.555	91.56
407.778	94.56
408.002	93.56
408.226	79.56
408.449	82.56
408.673	91.56
408.896	93.56
409.12	97.56
409.344	78.56
409.567	77.56
409.791	90.56
410.014	96.56
410.238	86.56
410.461	91.56
410.685	90.56
410.908	98.56
411.132	94.56
411.355	88.56
411.578	81.56
411.802	88.56
412.025	87.56
412.249	80.56
412.472	93.56
412.695	100.56
412.919	72.56
413.142	86.56
413.365	92.56
413.589	80.56
413.812	76.56
414.035	85.56
414.258	85.56
414.482	89.56
414.705	79.56
414.928	96.56
415.151	91.56
415.374	83.56
415.597	86.56
415.821	79.56
416.044	103.56
416.267	86.56
416.49	72.56
416.713	85.56
416.936	77.56
417.159	88.56
417.382	94.56
417.605	84.56
417.828	96.56
418.051	91.56
418.274	92.56
418.497	73.56
418.72	84.56
418.943	86.56
419.166	91.56
419.389	87.56
419.611	88.56
419.834	78.56
420.057	91.56
420.28	68.56
420.503	83.56
420.726	85.56
420.948	76.56
421.171	79.56
421.394	76.56
421.617	96.56
421.839	79.56
422.062	88.56
422.285	93.56
422.507	114.56
422.73	112.56
422.953	84.56
423.175	71.56
423.398	73.56
423.621	83.56
423.843	85.56
424.066	87.56
424.288	93.56
424.511	71.56
424.733	91.56
424.956	92.56
425.178	91.56
425.401	93.56
425.623	91.56
425.846	87.56
426.068	101.56
426.291	93.56
426.513	69.56
426.735	79.56
426.958	83.56
427.18	92.56
427.402	120.56
427.625	139.56
427.847	116.56
428.069	119.56
428.292	107.56
428.514	91.56
428.736	85.56
428.958	81.56
429.181	81.56
429.403	76.56
429.625	84.56
429.847	79.56
430.069	79.56
430.292	94.56
430.514	88.56
430.736	75.56
430.958	84.56
431.18	71.56
431.402	73.56
431.624	68.56
431.846	89.56
432.068	83.56
432.29	81.56
432.512	88.56
432.734	71.56
432.956	103.56
433.178	97.56
433.4	92.56
433.622	77.56
433.844	91.56
434.066	89.56
434.287	94.56
434.509	91.56
434.731	88.56
434.953	70.56
435.175	86.56
435.397	70.56
435.618	87.56
435.84	85.56
436.062	106.56
436.284	111.56
436.505	89.56
436.727	81.56
436.949	85.56
437.17	86.56
437.392	79.56
437.614	84.56
437.835	95.56
438.057	104.56
438.278	95.56
438.5	98.56
438.721	105.56
438.943	99.56
439.165	86.56
439.386	83.56
439.608	98.56
439.829	80.56
440.05	94.56
440.272	108.56
440.493	96.56
440.715	73.56
440.936	75.56
441.158	84.56
441.379	86.56
441.6	94.56
441.822	77.56
442.043	73.56
442.264	78.56
442.486	87.56
442.707	91.56
442.928	94.56
443.149	110.56
443.371	117.56
443.592	109.56
443.813	108.56
444.034	95.56
444.255	80.56
444.476	85.56
444.698	88.56
444.919	72.56
445.14	123.56
445.361	105.56
445.582	102.56
445.803	117.56
446.024	125.56
446.245	119.56
446.466	109.56
446.687	80.56
446.908	96.56
447.129	85.56
447.35	80.56
447.571	78.56
447.792	79.56
448.013	81.56
448.234	104.56
448.455	87.56
448.675	81.56
448.896	81.56
449.117	83.56
449.338	100.56
449.559	116.56
449.779	120.56
450	81.56
450.221	86.56
450.442	78.56
450.662	88.56
450.883	100.56
451.104	97.56
451.324	87.56
451.545	78.56
451.766	86.56
451.986	82.56
452.207	95.56
452.428	79.56
452.648	59.56
452.869	95.56
453.089	99.56
453.31	109.56
453.53	93.56
453.751	90.56
453.971	84.56
454.192	92.56
454.412	87.56
454.633	73.56
454.853	88.56
455.073	84.56
455.294	72.56
455.514	77.56
455.734	65.56
455.955	64.56
456.175	100.56
456.395	67.56
456.616	87.56
456.836	85.56
457.056	82.56
457.276	83.56
457.497	71.56
457.717	104.56
457.937	73.56
458.157	84.56
458.377	85.56
458.598	100.56
458.818	137.56
459.038	134.56
459.258	100.56
459.478	89.56
459.698	100.56
459.918	104.56
460.138	85.56
460.358	86.56
460.578	67.56
460.798	84.56
461.018	82.56
461.238	91.56
461.458	85.56
461.678	102.56
461.898	82.56
462.118	81.56
462.338	74.56
462.558	72.56
462.777	76.56
462.997	72.56
463.217	70.56
463.437	74.56
463.657	72.56
463.876	78.56
464.096	90.56
464.316	84.56
464.536	94.56
464.755	85.56
464.975	90.56
465.195	126.56
465.414	117.56
465.634	94.56
465.854	77.56
466.073	70.56
466.293	83.56
466.512	85.56
466.732	83.56
466.951	80.56
467.171	92.56
467.391	91.56
467.61	96.56
467.829	98.56
468.049	145.56
468.268	187.56
468.488	97.56
468.707	97.56
468.927	90.56
469.146	67.56
469.365	72.56
469.585	86.56
469.804	91.56
470.023	89.56
470.243	104.56
470.462	92.56
470.681	84.56
470.901	86.56
471.12	95.56
471.339	73.56
471.558	98.56
471.777	87.56
471.997	124.56
472.216	251.56
472.435	441.56
472.654	143.56
472.873	94.56
473.092	68.56
473.311	77.56
473.53	75.56
473.749	85.56
473.968	87.56
474.187	88.56
474.406	100.56
474.625	87.56
474.844	77.56
475.063	79.56
475.282	95.56
475.501	75.56
475.72	81.56
475.939	93.56
476.158	80.56
476.377	83.56
476.596	81.56
476.814	77.56
477.033	72.56
477.252	95.56
477.471	93.56
477.69	96.56
477.908	87.56
478.127	80.56
478.346	92.56
478.564	89.56
478.783	79.56
479.002	91.56
479.22	68.56
479.439	96.56
479.658	99.56
479.876	89.56
480.095	75.56
480.313	79.56
480.532	93.56
480.751	110.56
480.969	268.56
481.188	785.56
481.406	486.56
481.624	147.56
481.843	96.56
482.061	85.56
482.28	89.56
482.498	82.56
482.717	92.56
482.935	86.56
483.153	91.56
483.372	80.56
483.59	98.56
483.808	75.56
484.027	75.56
484.245	99.56
484.463	86.56
484.681	97.56
484.9	96.56
485.118	93.56
485.336	92.56
485.554	101.56
485.772	93.56
485.99	104.56
486.209	92.56
486.427	105.56
486.645	99.56
486.863	115.56
487.081	91.56
487.299	88.56
487.517	95.56
487.735	82.56
487.953	97.56
488.171	79.56
488.389	96.56
488.607	101.56
488.825	95.56
489.043	90.56
489.261	87.56
489.479	96.56
489.696	87.56
489.914	80.56
490.132	96.56
490.35	83.56
490.568	88.56
490.786	91.56
491.003	89.56
491.221	91.56
491.439	79.56
491.657	98.56
491.874	83.56
492.092	84.56
492.31	90.56
492.527	81.56
492.745	93.56
492.963	95.56
493.18	95.56
493.398	85.56
493.615	103.56
493.833	100.56
494.05	89.56
494.268	79.56
494.485	83.56
494.703	89.56
494.92	85.56
495.138	78.56
495.355	110.56
495.573	86.56
495.79	90.56
496.008	83.56
496.225	84.56
496.442	82.56
496.66	79.56
496.877	85.56
497.094	99.56
497.312	99.56
497.529	87.56
497.746	83.56
497.963	85.56
498.181	84.56
498.398	85.56
498.615	94.56
498.832	105.56
499.049	96.56
499.267	93.56
499.484	98.56
499.701	91.56
499.918	86.56
500.135	77.56
500.352	93.56
500.569	84.56
500.786	94.56
501.003	92.56
501.22	81.56
501.437	77.56
501.654	87.56
501.871	97.56
502.088	89.56
502.305	91.56
502.522	92.56
502.739	95.56
502.956	95.56
503.172	89.56
503.389	89.56
503.606	99.56
503.823	96.56
504.04	93.56
504.256	79.56
504.473	95.56
504.69	92.56
504.907	100.56
505.123	92.56
505.34	88.56
505.557	91.56
505.773	84.56
505.99	96.56
506.207	86.56
506.423	77.56
506.64	98.56
506.856	80.56
507.073	97.56
507.289	83.56
507.506	91.56
507.722	102.56
507.939	106.56
508.155	77.56
508.372	76.56
508.588	81.56
508.805	91.56
509.021	89.56
509.238	94.56
509.454	93.56
509.67	87.56
509.887	99.56
510.103	115.56
510.319	179.56
510.536	573.56
510.752	1803.56
510.968	507.56
511.184	142.56
511.401	96.56
511.617	85.56
511.833	87.56
512.049	101.56
512.265	82.56
512.481	88.56
512.698	84.56
512.914	86.56
513.13	93.56
513.346	88.56
513.562	94.56
513.778	107.56
513.994	92.56
514.21	104.56
514.426	112.56
514.642	110.56
514.858	115.56
515.074	139.56
515.29	351.56
515.506	1070.56
515.721	415.56
515.937	137.56
516.153	101.56
516.369	90.56
516.585	83.56
516.801	89.56
517.016	91.56
517.232	83.56
517.448	85.56
