Data from Circ_1983_H10_HRD10591_00077.txt Node
Date: Wed Jan 03 12:27:00 EST 2024
User: Yrep
Spectrometer: HR+D1059
Trigger mode: 1
Integration Time (sec): 1.000000E-1
Scans to average: 1
Electric dark correction enabled: true
Nonlinearity correction enabled: false
Boxcar width: 0
XAxis mode: Wavelengths
Number of Pixels in Spectrum: 2048
>>>>>Begin Spectral Data<<<<<
223.165	-22
223.4	-22
223.635	-22
223.869	-16
224.104	-14
224.338	-12
224.573	-13
224.808	-8
225.042	-22
225.277	-18
225.511	2
225.746	7
225.98	14
226.215	0
226.449	20
226.683	21
226.918	25
227.152	36
227.387	42
227.621	52
227.856	30
228.09	48
228.324	48
228.559	60
228.793	52
229.027	57
229.262	78
229.496	84
229.73	69
229.964	82
230.199	80
230.433	74
230.667	73
230.901	89
231.136	82
231.37	82
231.604	82
231.838	78
232.072	74
232.306	74
232.541	75
232.775	85
233.009	80
233.243	74
233.477	75
233.711	72
233.945	81
234.179	72
234.413	75
234.647	69
234.881	84
235.115	60
235.349	91
235.583	89
235.817	88
236.051	77
236.285	77
236.519	68
236.753	71
236.987	93
237.221	92
237.455	73
237.689	95
237.922	87
238.156	66
238.39	72
238.624	82
238.858	86
239.091	80
239.325	85
239.559	88
239.793	76
240.027	88
240.26	85
240.494	77
240.728	76
240.961	90
241.195	77
241.429	86
241.662	72
241.896	75
242.13	77
242.363	65
242.597	67
242.83	69
243.064	69
243.298	81
243.531	84
243.765	74
243.998	78
244.232	84
244.465	88
244.699	71
244.932	85
245.166	90
245.399	74
245.633	85
245.866	88
246.099	77
246.333	89
246.566	78
246.8	77
247.033	78
247.266	83
247.5	91
247.733	88
247.966	88
248.2	83
248.433	72
248.666	80
248.899	92
249.133	74
249.366	100
249.599	88
249.832	85
250.066	90
250.299	85
250.532	90
250.765	71
250.998	96
251.231	80
251.465	67
251.698	72
251.931	68
252.164	82
252.397	78
252.63	90
252.863	80
253.096	70
253.329	71
253.562	74
253.795	83
254.028	84
254.261	95
254.494	80
254.727	75
254.96	83
255.193	82
255.426	78
255.659	82
255.892	94
256.124	86
256.357	83
256.59	93
256.823	76
257.056	88
257.289	72
257.521	92
257.754	65
257.987	85
258.22	78
258.452	87
258.685	69
258.918	91
259.151	91
259.383	89
259.616	89
259.849	71
260.081	85
260.314	81
260.547	85
260.779	83
261.012	72
261.244	72
261.477	93
261.71	92
261.942	98
262.175	105
262.407	102
262.64	90
262.872	89
263.105	86
263.337	89
263.57	86
263.802	91
264.035	73
264.267	92
264.499	92
264.732	89
264.964	84
265.197	78
265.429	87
265.661	90
265.894	76
266.126	82
266.358	93
266.591	98
266.823	95
267.055	88
267.287	87
267.52	84
267.752	82
267.984	82
268.216	89
268.448	93
268.681	72
268.913	82
269.145	83
269.377	96
269.609	88
269.841	78
270.073	71
270.306	84
270.538	86
270.77	81
271.002	89
271.234	89
271.466	74
271.698	93
271.93	87
272.162	82
272.394	62
272.626	97
272.858	86
273.09	87
273.322	87
273.553	83
273.785	97
274.017	90
274.249	84
274.481	83
274.713	77
274.945	80
275.176	84
275.408	96
275.64	81
275.872	84
276.104	92
276.335	95
276.567	102
276.799	94
277.031	95
277.262	99
277.494	99
277.726	93
277.957	81
278.189	87
278.421	80
278.652	96
278.884	88
279.115	90
279.347	80
279.579	93
279.81	103
280.042	98
280.273	104
280.505	93
280.736	96
280.968	90
281.199	103
281.431	77
281.662	80
281.894	87
282.125	97
282.356	117
282.588	120
282.819	110
283.051	100
283.282	75
283.513	92
283.745	84
283.976	84
284.207	91
284.439	88
284.67	77
284.901	84
285.132	94
285.364	90
285.595	81
285.826	98
286.057	98
286.288	89
286.52	80
286.751	78
286.982	87
287.213	84
287.444	81
287.675	80
287.906	88
288.138	73
288.369	90
288.6	90
288.831	88
289.062	85
289.293	97
289.524	86
289.755	89
289.986	97
290.217	89
290.448	74
290.679	81
290.91	93
291.141	98
291.371	81
291.602	91
291.833	76
292.064	101
292.295	92
292.526	90
292.757	93
292.987	96
293.218	86
293.449	76
293.68	84
293.91	89
294.141	100
294.372	91
294.603	95
294.833	90
295.064	96
295.295	77
295.525	87
295.756	84
295.987	111
296.217	117
296.448	105
296.679	94
296.909	88
297.14	97
297.37	89
297.601	98
297.831	104
298.062	92
298.292	97
298.523	94
298.753	88
298.984	88
299.214	86
299.445	82
299.675	96
299.905	100
300.136	74
300.366	98
300.597	87
300.827	84
301.057	88
301.288	103
301.518	94
301.748	77
301.979	109
302.209	100
302.439	89
302.669	85
302.9	84
303.13	106
303.36	97
303.59	89
303.82	109
304.051	108
304.281	93
304.511	83
304.741	104
304.971	105
305.201	92
305.431	94
305.661	100
305.891	81
306.121	97
306.352	98
306.582	113
306.812	88
307.042	100
307.272	108
307.502	96
307.731	95
307.961	97
308.191	99
308.421	97
308.651	85
308.881	105
309.111	101
309.341	106
309.571	102
309.8	94
310.03	92
310.26	97
310.49	94
310.72	102
310.949	93
311.179	104
311.409	96
311.639	94
311.868	104
312.098	89
312.328	107
312.557	94
312.787	78
313.017	102
313.246	94
313.476	94
313.706	95
313.935	99
314.165	91
314.394	110
314.624	109
314.853	97
315.083	91
315.312	86
315.542	80
315.771	92
316.001	101
316.23	85
316.46	89
316.689	101
316.919	93
317.148	98
317.377	108
317.607	110
317.836	99
318.065	85
318.295	98
318.524	77
318.753	77
318.983	85
319.212	97
319.441	99
319.67	98
319.9	93
320.129	91
320.358	97
320.587	97
320.816	92
321.046	114
321.275	108
321.504	84
321.733	103
321.962	96
322.191	95
322.42	106
322.649	105
322.878	102
323.108	120
323.337	116
323.566	117
323.795	136
324.024	158
324.253	310
324.482	640
324.71	1257
324.939	1654
325.168	617
325.397	198
325.626	140
325.855	135
326.084	104
326.313	113
326.542	136
326.77	192
326.999	353
327.228	706
327.457	1282
327.686	991
327.914	299
328.143	196
328.372	180
328.6	156
328.829	114
329.058	110
329.287	123
329.515	114
329.744	121
329.972	150
330.201	203
330.43	249
330.658	157
330.887	122
331.115	127
331.344	102
331.572	102
331.801	106
332.03	101
332.258	102
332.486	91
332.715	101
332.943	100
333.172	100
333.4	105
333.629	109
333.857	106
334.085	144
334.314	190
334.542	303
334.771	286
334.999	131
335.227	103
335.455	88
335.684	101
335.912	113
336.14	94
336.369	101
336.597	109
336.825	96
337.053	93
337.281	93
337.51	97
337.738	84
337.966	97
338.194	98
338.422	100
338.65	86
338.878	93
339.106	92
339.334	103
339.562	94
339.79	87
340.018	93
340.246	85
340.474	102
340.702	88
340.93	92
341.158	86
341.386	96
341.614	103
341.842	100
342.07	102
342.298	86
342.526	82
342.754	93
342.981	84
343.209	89
343.437	105
343.665	100
343.893	83
344.12	102
344.348	89
344.576	92
344.804	77
345.031	95
345.259	94
345.487	97
345.714	95
345.942	93
346.17	91
346.397	92
346.625	103
346.853	92
347.08	88
347.308	75
347.535	101
347.763	91
347.99	95
348.218	105
348.445	100
348.673	98
348.9	100
349.128	93
349.355	102
349.583	91
349.81	99
350.037	106
350.265	80
350.492	94
350.72	89
350.947	96
351.174	108
351.402	109
351.629	118
351.856	111
352.083	102
352.311	107
352.538	93
352.765	103
352.992	104
353.22	101
353.447	116
353.674	109
353.901	86
354.128	96
354.355	83
354.583	98
354.81	101
355.037	98
355.264	88
355.491	84
355.718	98
355.945	101
356.172	99
356.399	91
356.626	86
356.853	97
357.08	94
357.307	94
357.534	88
357.761	83
357.988	90
358.215	99
358.441	85
358.668	101
358.895	92
359.122	85
359.349	94
359.576	89
359.802	101
360.029	110
360.256	95
360.483	93
360.709	100
360.936	95
361.163	94
361.39	91
361.616	97
361.843	89
362.07	94
362.296	102
362.523	94
362.749	93
362.976	80
363.203	93
363.429	95
363.656	100
363.882	80
364.109	92
364.335	86
364.562	79
364.788	89
365.015	94
365.241	98
365.468	96
365.694	109
365.92	105
366.147	107
366.373	88
366.599	86
366.826	100
367.052	79
367.278	90
367.505	96
367.731	86
367.957	99
368.184	84
368.41	101
368.636	103
368.862	110
369.089	96
369.315	84
369.541	98
369.767	102
369.993	101
370.219	84
370.445	100
370.672	92
370.898	89
371.124	99
371.35	82
371.576	84
371.802	82
372.028	92
372.254	86
372.48	88
372.706	83
372.932	82
373.158	94
373.384	88
373.61	79
373.835	106
374.061	104
374.287	82
374.513	93
374.739	90
374.965	82
375.191	96
375.416	90
375.642	75
375.868	102
376.094	95
376.319	84
376.545	85
376.771	79
376.997	84
377.222	76
377.448	104
377.674	76
377.899	102
378.125	106
378.35	101
378.576	83
378.802	85
379.027	110
379.253	92
379.478	86
379.704	103
379.929	90
380.155	98
380.38	98
380.606	88
380.831	94
381.057	98
381.282	98
381.507	95
381.733	94
381.958	89
382.184	98
382.409	97
382.634	103
382.86	92
383.085	98
383.31	95
383.535	99
383.761	110
383.986	96
384.211	87
384.436	99
384.662	91
384.887	95
385.112	89
385.337	101
385.562	103
385.787	106
386.013	105
386.238	106
386.463	116
386.688	107
386.913	97
387.138	107
387.363	113
387.588	109
387.813	88
388.038	100
388.263	86
388.488	100
388.713	88
388.938	82
389.163	97
389.387	93
389.612	99
389.837	92
390.062	84
390.287	96
390.512	95
390.736	93
390.961	88
391.186	77
391.411	98
391.636	105
391.86	90
392.085	82
392.31	75
392.534	69
392.759	86
392.984	88
393.208	107
393.433	99
393.658	104
393.882	90
394.107	80
394.331	84
394.556	93
394.78	97
395.005	93
395.229	93
395.454	102
395.678	92
395.903	98
396.127	92
396.352	96
396.576	91
396.801	96
397.025	100
397.249	94
397.474	81
397.698	81
397.922	89
398.147	74
398.371	86
398.595	91
398.82	85
399.044	85
399.268	97
399.492	91
399.717	85
399.941	108
400.165	97
400.389	89
400.613	86
400.837	99
401.062	94
401.286	86
401.51	87
401.734	88
401.958	107
402.182	106
402.406	134
402.63	110
402.854	84
403.078	94
403.302	91
403.526	94
403.75	91
403.974	88
404.198	83
404.422	90
404.645	84
404.869	92
405.093	91
405.317	93
405.541	113
405.765	96
405.988	103
406.212	140
406.436	180
406.66	131
406.883	97
407.107	85
407.331	82
407.555	97
407.778	97
408.002	76
408.226	77
408.449	92
408.673	94
408.896	88
409.12	76
409.344	90
409.567	98
409.791	96
410.014	95
410.238	86
410.461	88
410.685	96
410.908	91
411.132	94
411.355	99
411.578	106
411.802	96
412.025	99
412.249	89
412.472	103
412.695	101
412.919	86
413.142	82
413.365	87
413.589	97
413.812	80
414.035	102
414.258	98
414.482	73
414.705	90
414.928	99
415.151	84
415.374	90
415.597	72
415.821	92
416.044	81
416.267	90
416.49	90
416.713	83
416.936	82
417.159	94
417.382	88
417.605	88
417.828	91
418.051	87
418.274	88
418.497	83
418.72	99
418.943	88
419.166	90
419.389	68
419.611	83
419.834	78
420.057	97
420.28	82
420.503	89
420.726	89
420.948	95
421.171	85
421.394	100
421.617	98
421.839	81
422.062	87
422.285	94
422.507	104
422.73	112
422.953	91
423.175	105
423.398	84
423.621	85
423.843	74
424.066	84
424.288	82
424.511	84
424.733	100
424.956	86
425.178	98
425.401	101
425.623	90
425.846	100
426.068	82
426.291	92
426.513	90
426.735	85
426.958	94
427.18	102
427.402	114
427.625	140
427.847	123
428.069	120
428.292	101
428.514	90
428.736	87
428.958	86
429.181	75
429.403	86
429.625	88
429.847	97
430.069	95
430.292	90
430.514	74
430.736	88
430.958	83
431.18	82
431.402	87
431.624	77
431.846	80
432.068	92
432.29	78
432.512	90
432.734	74
432.956	98
433.178	93
433.4	104
433.622	94
433.844	81
434.066	99
434.287	82
434.509	108
434.731	85
434.953	102
435.175	94
435.397	95
435.618	89
435.84	97
436.062	108
436.284	110
436.505	97
436.727	112
436.949	89
437.17	86
437.392	84
437.614	107
437.835	118
438.057	106
438.278	105
438.5	107
438.721	97
438.943	100
439.165	94
439.386	84
439.608	78
439.829	112
440.05	106
440.272	129
440.493	99
440.715	93
440.936	100
441.158	98
441.379	78
441.6	78
441.822	86
442.043	97
442.264	89
442.486	101
442.707	92
442.928	90
443.149	106
443.371	103
443.592	119
443.813	110
444.034	90
444.255	85
444.476	85
444.698	103
444.919	84
445.14	127
445.361	110
445.582	103
445.803	132
446.024	117
446.245	130
446.466	102
446.687	79
446.908	99
447.129	86
447.35	84
447.571	93
447.792	105
448.013	106
448.234	85
448.455	108
448.675	112
448.896	113
449.117	93
449.338	90
449.559	108
449.779	102
450	86
450.221	82
450.442	101
450.662	92
450.883	109
451.104	102
451.324	90
451.545	86
451.766	88
451.986	84
452.207	91
452.428	90
452.648	97
452.869	103
453.089	104
453.31	93
453.53	98
453.751	97
453.971	88
454.192	99
454.412	70
454.633	91
454.853	81
455.073	94
455.294	84
455.514	92
455.734	93
455.955	84
456.175	78
456.395	94
456.616	100
456.836	77
457.056	95
457.276	85
457.497	86
457.717	96
457.937	89
458.157	96
458.377	92
458.598	99
458.818	126
459.038	150
459.258	97
459.478	93
459.698	86
459.918	87
460.138	80
460.358	87
460.578	85
460.798	93
461.018	96
461.238	85
461.458	93
461.678	94
461.898	94
462.118	81
462.338	77
462.558	87
462.777	88
462.997	92
463.217	69
463.437	85
463.657	73
463.876	97
464.096	92
464.316	96
464.536	95
464.755	94
464.975	96
465.195	149
465.414	136
465.634	91
465.854	106
466.073	85
466.293	83
466.512	83
466.732	84
466.951	82
467.171	88
467.391	99
467.61	104
467.829	94
468.049	158
468.268	165
468.488	107
468.707	78
468.927	91
469.146	74
469.365	90
469.585	94
469.804	116
470.023	88
470.243	98
470.462	103
470.681	104
470.901	89
471.12	85
471.339	96
471.558	100
471.777	103
471.997	120
472.216	241
472.435	394
472.654	146
472.873	101
473.092	93
473.311	88
473.53	86
473.749	89
473.968	92
474.187	104
474.406	89
474.625	86
474.844	96
475.063	81
475.282	95
475.501	85
475.72	105
475.939	105
476.158	81
476.377	95
476.596	86
476.814	93
477.033	96
477.252	95
477.471	98
477.69	92
477.908	89
478.127	93
478.346	86
478.564	76
478.783	104
479.002	102
479.22	91
479.439	107
479.658	105
479.876	90
480.095	89
480.313	90
480.532	97
480.751	107
480.969	219
481.188	650
481.406	391
481.624	121
481.843	96
482.061	85
482.28	97
482.498	92
482.717	95
482.935	93
483.153	91
483.372	88
483.59	82
483.808	77
484.027	84
484.245	96
484.463	96
484.681	104
484.9	97
485.118	92
485.336	86
485.554	99
485.772	105
485.99	97
486.209	109
486.427	119
486.645	109
486.863	88
487.081	107
487.299	95
487.517	106
487.735	74
487.953	100
488.171	98
488.389	102
488.607	98
488.825	91
489.043	100
489.261	105
489.479	91
489.696	76
489.914	97
490.132	89
490.35	98
490.568	92
490.786	91
491.003	105
491.221	85
491.439	75
491.657	113
491.874	101
492.092	84
492.31	84
492.527	94
492.745	94
492.963	89
493.18	76
493.398	73
493.615	98
493.833	103
494.05	89
494.268	78
494.485	93
494.703	89
494.92	86
495.138	81
495.355	85
495.573	87
495.79	91
496.008	82
496.225	101
496.442	86
496.66	110
496.877	90
497.094	84
497.312	98
497.529	85
497.746	88
497.963	91
498.181	96
498.398	98
498.615	94
498.832	92
499.049	99
499.267	93
499.484	72
499.701	80
499.918	90
500.135	86
500.352	91
500.569	101
500.786	100
501.003	92
501.22	81
501.437	92
501.654	84
501.871	93
502.088	90
502.305	80
502.522	82
502.739	89
502.956	93
503.172	90
503.389	89
503.606	107
503.823	96
504.04	82
504.256	93
504.473	92
504.69	97
504.907	76
505.123	87
505.34	100
505.557	89
505.773	83
505.99	86
506.207	93
506.423	75
506.64	83
506.856	97
507.073	88
507.289	94
507.506	77
507.722	96
507.939	101
508.155	103
508.372	105
508.588	76
508.805	90
509.021	72
509.238	94
509.454	108
509.67	96
509.887	96
510.103	123
510.319	196
510.536	619
510.752	1862
510.968	528
511.184	129
511.401	114
511.617	92
511.833	89
512.049	91
512.265	95
512.481	87
512.698	88
512.914	75
513.13	102
513.346	106
513.562	106
513.778	108
513.994	98
514.21	91
514.426	103
514.642	123
514.858	113
515.074	142
515.29	374
515.506	1112
515.721	429
515.937	128
516.153	102
516.369	88
516.585	89
516.801	87
517.016	96
517.232	94
517.448	90
517.664	90
517.879	97
518.095	92
518.311	96
518.527	97
518.742	94
518.958	94
519.173	107
519.389	106
519.605	98
519.82	84
520.036	125
520.251	117
520.467	103
520.682	77
520.898	96
521.113	109
521.329	123
521.544	174
521.76	438
521.975	1834
522.19	1094
522.406	259
522.621	125
522.836	111
523.052	98
523.267	92
523.482	97
523.698	92
523.913	115
524.128	98
524.343	84
524.559	90
524.774	85
524.989	100
525.204	99
525.419	108
525.634	87
525.849	95
526.064	93
526.28	84
526.495	84
526.71	88
526.925	89
527.14	95
527.355	68
527.57	88
527.785	86
527.999	82
528.214	105
528.429	84
528.644	82
528.859	88
529.074	100
529.289	118
529.503	148
529.718	97
529.933	94
530.148	84
530.363	89
530.577	87
530.792	92
531.007	84
531.221	84
531.436	80
531.651	85
531.865	104
532.08	100
532.295	85
532.509	93
532.724	98
532.938	103
533.153	109
533.367	88
533.582	84
533.796	84
534.011	72
534.225	86
534.44	84
534.654	100
534.868	96
535.083	94
535.297	88
535.511	91
535.726	92
535.94	92
536.154	93
536.369	92
536.583	86
536.797	102
537.011	96
537.225	84
537.44	99
537.654	91
537.868	89
538.082	99
538.296	94
538.51	90
538.724	89
538.938	83
539.153	90
539.367	99
539.581	96
539.795	89
540.009	98
540.222	108
540.436	97
540.65	86
540.864	89
541.078	105
541.292	87
541.506	92
541.72	74
541.934	88
542.147	92
542.361	79
542.575	96
542.789	86
543.002	81
543.216	97
543.43	93
543.644	100
543.857	93
544.071	92
544.285	103
544.498	112
544.712	88
544.925	99
545.139	98
545.352	73
545.566	93
545.779	71
545.993	82
546.206	85
546.42	93
546.633	91
546.847	85
547.06	100
547.274	83
547.487	85
547.7	94
547.914	78
548.127	87
548.34	94
548.554	91
548.767	97
548.98	84
549.193	98
549.407	95
549.62	90
549.833	88
550.046	81
550.259	94
550.473	92
550.686	77
550.899	83
551.112	90
551.325	89
551.538	89
551.751	88
551.964	76
552.177	83
552.39	89
552.603	94
552.816	98
553.029	83
553.242	90
553.455	105
553.667	95
553.88	78
554.093	93
554.306	96
554.519	78
554.732	98
554.944	93
555.157	93
555.37	91
555.583	94
555.795	97
556.008	99
556.221	97
556.433	92
556.646	100
556.859	90
557.071	98
557.284	110
557.496	96
557.709	97
557.921	92
558.134	81
558.346	86
558.559	86
558.771	87
558.984	80
559.196	97
559.409	84
559.621	86
559.833	86
560.046	77
560.258	91
560.47	93
560.683	85
560.895	82
561.107	90
561.32	84
561.532	87
561.744	89
561.956	91
562.168	92
562.381	98
562.593	92
562.805	110
563.017	99
563.229	93
563.441	107
563.653	82
563.865	88
564.077	90
564.289	92
564.501	104
564.713	81
564.925	95
565.137	96
565.349	88
565.561	79
565.773	88
565.985	79
566.197	89
566.408	84
566.62	83
566.832	93
567.044	102
567.255	82
567.467	84
567.679	106
567.891	99
568.102	72
568.314	78
568.526	90
568.737	81
568.949	85
569.161	77
569.372	74
569.584	80
569.795	84
570.007	112
570.218	214
570.43	122
570.641	92
570.853	84
571.064	92
571.276	79
571.487	81
571.698	86
571.91	85
572.121	85
572.333	88
572.544	80
572.755	73
572.966	93
573.178	87
573.389	86
573.6	86
573.811	86
574.023	88
574.234	90
574.445	91
574.656	74
574.867	99
575.078	77
575.289	84
575.501	75
575.712	93
575.923	74
576.134	92
576.345	78
576.556	93
576.767	95
576.978	102
577.188	92
577.399	102
577.61	93
577.821	106
578.032	120
578.243	214
578.454	548
578.665	173
578.875	106
579.086	86
579.297	90
579.508	73
579.718	86
579.929	104
580.14	86
580.35	84
580.561	86
580.772	86
580.982	95
581.193	85
581.403	93
581.614	91
581.825	80
582.035	82
582.246	83
582.456	88
582.667	90
582.877	75
583.087	93
583.298	75
583.508	71
583.719	83
583.929	89
584.139	93
