Data from Circ_1983_H10_HRD10591_00055.txt Node
Date: Wed Jan 03 12:26:55 EST 2024
User: Yrep
Spectrometer: HR+D1059
Trigger mode: 1
Integration Time (sec): 1.000000E-1
Scans to average: 1
Electric dark correction enabled: true
Nonlinearity correction enabled: false
Boxcar width: 0
XAxis mode: Wavelengths
Number of Pixels in Spectrum: 2048
>>>>>Begin Spectral Data<<<<<
223.165	-21.62
223.4	-21.62
223.635	-21.62
223.869	-9.62
224.104	-15.62
224.338	-13.62
224.573	-15.62
224.808	-7.62
225.042	-7.62
225.277	-5.62
225.511	0.38
225.746	2.38
225.98	7.38
226.215	16.38
226.449	16.38
226.683	21.38
226.918	14.38
227.152	18.38
227.387	30.38
227.621	45.38
227.856	40.38
228.09	36.38
228.324	71.38
228.559	45.38
228.793	48.38
229.027	71.38
229.262	54.38
229.496	62.38
229.73	78.38
229.964	73.38
230.199	70.38
230.433	77.38
230.667	68.38
230.901	72.38
231.136	64.38
231.37	86.38
231.604	80.38
231.838	63.38
232.072	66.38
232.306	87.38
232.541	73.38
232.775	85.38
233.009	65.38
233.243	78.38
233.477	88.38
233.711	86.38
233.945	68.38
234.179	84.38
234.413	78.38
234.647	72.38
234.881	83.38
235.115	81.38
235.349	74.38
235.583	85.38
235.817	74.38
236.051	85.38
236.285	76.38
236.519	68.38
236.753	76.38
236.987	78.38
237.221	89.38
237.455	74.38
237.689	80.38
237.922	86.38
238.156	72.38
238.39	60.38
238.624	75.38
238.858	60.38
239.091	71.38
239.325	73.38
239.559	81.38
239.793	88.38
240.027	71.38
240.26	61.38
240.494	70.38
240.728	79.38
240.961	66.38
241.195	76.38
241.429	72.38
241.662	72.38
241.896	66.38
242.13	68.38
242.363	67.38
242.597	64.38
242.83	78.38
243.064	69.38
243.298	76.38
243.531	87.38
243.765	82.38
243.998	73.38
244.232	84.38
244.465	69.38
244.699	78.38
244.932	84.38
245.166	88.38
245.399	82.38
245.633	82.38
245.866	78.38
246.099	83.38
246.333	81.38
246.566	76.38
246.8	69.38
247.033	82.38
247.266	70.38
247.5	82.38
247.733	72.38
247.966	73.38
248.2	81.38
248.433	71.38
248.666	76.38
248.899	86.38
249.133	69.38
249.366	91.38
249.599	84.38
249.832	64.38
250.066	79.38
250.299	70.38
250.532	80.38
250.765	67.38
250.998	72.38
251.231	74.38
251.465	83.38
251.698	68.38
251.931	79.38
252.164	70.38
252.397	71.38
252.63	69.38
252.863	76.38
253.096	84.38
253.329	81.38
253.562	78.38
253.795	72.38
254.028	71.38
254.261	85.38
254.494	78.38
254.727	75.38
254.96	87.38
255.193	72.38
255.426	64.38
255.659	80.38
255.892	87.38
256.124	70.38
256.357	78.38
256.59	70.38
256.823	83.38
257.056	68.38
257.289	77.38
257.521	81.38
257.754	69.38
257.987	82.38
258.22	83.38
258.452	88.38
258.685	71.38
258.918	88.38
259.151	92.38
259.383	74.38
259.616	64.38
259.849	77.38
260.081	85.38
260.314	71.38
260.547	86.38
260.779	84.38
261.012	84.38
261.244	84.38
261.477	103.38
261.71	86.38
261.942	100.38
262.175	106.38
262.407	81.38
262.64	91.38
262.872	82.38
263.105	88.38
263.337	87.38
263.57	67.38
263.802	76.38
264.035	92.38
264.267	79.38
264.499	85.38
264.732	71.38
264.964	87.38
265.197	68.38
265.429	85.38
265.661	87.38
265.894	80.38
266.126	76.38
266.358	81.38
266.591	53.38
266.823	80.38
267.055	85.38
267.287	77.38
267.52	86.38
267.752	95.38
267.984	76.38
268.216	74.38
268.448	79.38
268.681	84.38
268.913	84.38
269.145	73.38
269.377	68.38
269.609	68.38
269.841	82.38
270.073	80.38
270.306	79.38
270.538	76.38
270.77	78.38
271.002	85.38
271.234	78.38
271.466	82.38
271.698	81.38
271.93	76.38
272.162	79.38
272.394	71.38
272.626	84.38
272.858	67.38
273.09	82.38
273.322	96.38
273.553	79.38
273.785	82.38
274.017	76.38
274.249	78.38
274.481	89.38
274.713	67.38
274.945	93.38
275.176	82.38
275.408	78.38
275.64	104.38
275.872	90.38
276.104	88.38
276.335	86.38
276.567	93.38
276.799	88.38
277.031	79.38
277.262	79.38
277.494	78.38
277.726	80.38
277.957	77.38
278.189	85.38
278.421	77.38
278.652	92.38
278.884	74.38
279.115	82.38
279.347	81.38
279.579	91.38
279.81	106.38
280.042	100.38
280.273	101.38
280.505	76.38
280.736	61.38
280.968	98.38
281.199	86.38
281.431	86.38
281.662	89.38
281.894	96.38
282.125	94.38
282.356	111.38
282.588	105.38
282.819	106.38
283.051	84.38
283.282	78.38
283.513	78.38
283.745	73.38
283.976	98.38
284.207	81.38
284.439	90.38
284.67	91.38
284.901	84.38
285.132	86.38
285.364	73.38
285.595	96.38
285.826	73.38
286.057	77.38
286.288	87.38
286.52	87.38
286.751	79.38
286.982	81.38
287.213	87.38
287.444	86.38
287.675	89.38
287.906	87.38
288.138	88.38
288.369	77.38
288.6	83.38
288.831	72.38
289.062	72.38
289.293	87.38
289.524	84.38
289.755	65.38
289.986	78.38
290.217	100.38
290.448	76.38
290.679	77.38
290.91	77.38
291.141	83.38
291.371	86.38
291.602	74.38
291.833	85.38
292.064	90.38
292.295	77.38
292.526	98.38
292.757	86.38
292.987	97.38
293.218	72.38
293.449	93.38
293.68	92.38
293.91	90.38
294.141	74.38
294.372	89.38
294.603	81.38
294.833	89.38
295.064	86.38
295.295	79.38
295.525	82.38
295.756	92.38
295.987	104.38
296.217	115.38
296.448	105.38
296.679	90.38
296.909	107.38
297.14	94.38
297.37	86.38
297.601	94.38
297.831	90.38
298.062	65.38
298.292	78.38
298.523	87.38
298.753	84.38
298.984	86.38
299.214	99.38
299.445	78.38
299.675	84.38
299.905	103.38
300.136	78.38
300.366	88.38
300.597	87.38
300.827	106.38
301.057	105.38
301.288	104.38
301.518	88.38
301.748	82.38
301.979	106.38
302.209	104.38
302.439	89.38
302.669	88.38
302.9	87.38
303.13	82.38
303.36	85.38
303.59	96.38
303.82	105.38
304.051	89.38
304.281	88.38
304.511	81.38
304.741	84.38
304.971	82.38
305.201	96.38
305.431	84.38
305.661	90.38
305.891	82.38
306.121	82.38
306.352	89.38
306.582	84.38
306.812	83.38
307.042	87.38
307.272	86.38
307.502	96.38
307.731	88.38
307.961	87.38
308.191	89.38
308.421	91.38
308.651	68.38
308.881	80.38
309.111	89.38
309.341	97.38
309.571	85.38
309.8	95.38
310.03	85.38
310.26	92.38
310.49	96.38
310.72	88.38
310.949	99.38
311.179	99.38
311.409	77.38
311.639	89.38
311.868	100.38
312.098	84.38
312.328	99.38
312.557	104.38
312.787	92.38
313.017	101.38
313.246	102.38
313.476	104.38
313.706	91.38
313.935	102.38
314.165	73.38
314.394	78.38
314.624	88.38
314.853	84.38
315.083	95.38
315.312	94.38
315.542	94.38
315.771	86.38
316.001	98.38
316.23	89.38
316.46	87.38
316.689	88.38
316.919	82.38
317.148	109.38
317.377	78.38
317.607	84.38
317.836	78.38
318.065	105.38
318.295	92.38
318.524	87.38
318.753	76.38
318.983	92.38
319.212	105.38
319.441	107.38
319.67	97.38
319.9	94.38
320.129	80.38
320.358	102.38
320.587	86.38
320.816	93.38
321.046	98.38
321.275	99.38
321.504	102.38
321.733	89.38
321.962	104.38
322.191	92.38
322.42	90.38
322.649	93.38
322.878	99.38
323.108	107.38
323.337	111.38
323.566	109.38
323.795	121.38
324.024	181.38
324.253	292.38
324.482	603.38
324.71	1169.38
324.939	1545.38
325.168	583.38
325.397	183.38
325.626	139.38
325.855	113.38
326.084	120.38
326.313	120.38
326.542	125.38
326.77	181.38
326.999	351.38
327.228	684.38
327.457	1222.38
327.686	976.38
327.914	288.38
328.143	182.38
328.372	169.38
328.6	127.38
328.829	114.38
329.058	104.38
329.287	105.38
329.515	95.38
329.744	113.38
329.972	130.38
330.201	161.38
330.43	188.38
330.658	142.38
330.887	114.38
331.115	104.38
331.344	94.38
331.572	104.38
331.801	94.38
332.03	101.38
332.258	102.38
332.486	84.38
332.715	83.38
332.943	100.38
333.172	92.38
333.4	93.38
333.629	94.38
333.857	107.38
334.085	120.38
334.314	171.38
334.542	256.38
334.771	224.38
334.999	123.38
335.227	100.38
335.455	92.38
335.684	100.38
335.912	78.38
336.14	102.38
336.369	90.38
336.597	91.38
336.825	96.38
337.053	97.38
337.281	94.38
337.51	94.38
337.738	80.38
337.966	95.38
338.194	96.38
338.422	85.38
338.65	100.38
338.878	92.38
339.106	96.38
339.334	92.38
339.562	80.38
339.79	88.38
340.018	79.38
340.246	84.38
340.474	93.38
340.702	80.38
340.93	96.38
341.158	86.38
341.386	80.38
341.614	92.38
341.842	96.38
342.07	109.38
342.298	97.38
342.526	83.38
342.754	83.38
342.981	83.38
343.209	82.38
343.437	79.38
343.665	90.38
343.893	92.38
344.12	86.38
344.348	95.38
344.576	85.38
344.804	93.38
345.031	109.38
345.259	96.38
345.487	83.38
345.714	75.38
345.942	88.38
346.17	83.38
346.397	81.38
346.625	98.38
346.853	100.38
347.08	92.38
347.308	92.38
347.535	81.38
347.763	80.38
347.99	95.38
348.218	86.38
348.445	84.38
348.673	97.38
348.9	84.38
349.128	82.38
349.355	85.38
349.583	89.38
349.81	98.38
350.037	86.38
350.265	96.38
350.492	97.38
350.72	90.38
350.947	91.38
351.174	99.38
351.402	93.38
351.629	118.38
351.856	98.38
352.083	90.38
352.311	97.38
352.538	94.38
352.765	92.38
352.992	110.38
353.22	106.38
353.447	100.38
353.674	101.38
353.901	96.38
354.128	90.38
354.355	89.38
354.583	104.38
354.81	101.38
355.037	102.38
355.264	88.38
355.491	92.38
355.718	86.38
355.945	79.38
356.172	86.38
356.399	99.38
356.626	92.38
356.853	90.38
357.08	74.38
357.307	77.38
357.534	94.38
357.761	80.38
357.988	85.38
358.215	104.38
358.441	98.38
358.668	82.38
358.895	99.38
359.122	91.38
359.349	79.38
359.576	82.38
359.802	85.38
360.029	88.38
360.256	97.38
360.483	90.38
360.709	82.38
360.936	95.38
361.163	82.38
361.39	84.38
361.616	98.38
361.843	94.38
362.07	85.38
362.296	99.38
362.523	84.38
362.749	89.38
362.976	93.38
363.203	88.38
363.429	84.38
363.656	86.38
363.882	81.38
364.109	94.38
364.335	86.38
364.562	86.38
364.788	90.38
365.015	94.38
365.241	80.38
365.468	92.38
365.694	97.38
365.92	96.38
366.147	79.38
366.373	96.38
366.599	89.38
366.826	83.38
367.052	75.38
367.278	88.38
367.505	84.38
367.731	84.38
367.957	74.38
368.184	73.38
368.41	98.38
368.636	97.38
368.862	113.38
369.089	100.38
369.315	85.38
369.541	92.38
369.767	86.38
369.993	93.38
370.219	86.38
370.445	93.38
370.672	87.38
370.898	87.38
371.124	85.38
371.35	80.38
371.576	80.38
371.802	94.38
372.028	95.38
372.254	80.38
372.48	94.38
372.706	83.38
372.932	90.38
373.158	88.38
373.384	94.38
373.61	92.38
373.835	92.38
374.061	93.38
374.287	94.38
374.513	77.38
374.739	81.38
374.965	70.38
375.191	94.38
375.416	106.38
375.642	87.38
375.868	92.38
376.094	88.38
376.319	99.38
376.545	92.38
376.771	95.38
376.997	100.38
377.222	98.38
377.448	85.38
377.674	76.38
377.899	88.38
378.125	92.38
378.35	92.38
378.576	95.38
378.802	80.38
379.027	78.38
379.253	81.38
379.478	84.38
379.704	95.38
379.929	90.38
380.155	100.38
380.38	77.38
380.606	96.38
380.831	90.38
381.057	99.38
381.282	80.38
381.507	70.38
381.733	86.38
381.958	89.38
382.184	83.38
382.409	103.38
382.634	91.38
382.86	84.38
383.085	89.38
383.31	94.38
383.535	80.38
383.761	94.38
383.986	95.38
384.211	101.38
384.436	100.38
384.662	94.38
384.887	90.38
385.112	99.38
385.337	103.38
385.562	103.38
385.787	89.38
386.013	113.38
386.238	111.38
386.463	99.38
386.688	93.38
386.913	99.38
387.138	105.38
387.363	102.38
387.588	104.38
387.813	97.38
388.038	93.38
388.263	104.38
388.488	100.38
388.713	89.38
388.938	88.38
389.163	92.38
389.387	85.38
389.612	100.38
389.837	83.38
390.062	87.38
390.287	88.38
390.512	100.38
390.736	84.38
390.961	87.38
391.186	71.38
391.411	97.38
391.636	80.38
391.86	90.38
392.085	100.38
392.31	80.38
392.534	80.38
392.759	72.38
392.984	94.38
393.208	104.38
393.433	104.38
393.658	94.38
393.882	78.38
394.107	89.38
394.331	97.38
394.556	86.38
394.78	97.38
395.005	87.38
395.229	77.38
395.454	74.38
395.678	81.38
395.903	92.38
396.127	94.38
396.352	87.38
396.576	87.38
396.801	80.38
397.025	96.38
397.249	85.38
397.474	93.38
397.698	93.38
397.922	85.38
398.147	102.38
398.371	93.38
398.595	101.38
398.82	76.38
399.044	68.38
399.268	98.38
399.492	82.38
399.717	86.38
399.941	83.38
400.165	76.38
400.389	84.38
400.613	90.38
400.837	77.38
401.062	94.38
401.286	91.38
401.51	74.38
401.734	84.38
401.958	93.38
402.182	105.38
402.406	118.38
402.63	102.38
402.854	91.38
403.078	86.38
403.302	90.38
403.526	68.38
403.75	96.38
403.974	85.38
404.198	80.38
404.422	90.38
404.645	82.38
404.869	89.38
405.093	100.38
405.317	91.38
405.541	76.38
405.765	68.38
405.988	104.38
406.212	140.38
406.436	177.38
406.66	126.38
406.883	87.38
407.107	69.38
407.331	94.38
407.555	101.38
407.778	98.38
408.002	88.38
408.226	78.38
408.449	92.38
408.673	93.38
408.896	89.38
409.12	96.38
409.344	78.38
409.567	84.38
409.791	80.38
410.014	96.38
410.238	93.38
410.461	87.38
410.685	91.38
410.908	93.38
411.132	89.38
411.355	94.38
411.578	76.38
411.802	78.38
412.025	88.38
412.249	91.38
412.472	94.38
412.695	88.38
412.919	78.38
413.142	67.38
413.365	94.38
413.589	82.38
413.812	80.38
414.035	86.38
414.258	76.38
414.482	74.38
414.705	93.38
414.928	82.38
415.151	81.38
415.374	82.38
415.597	106.38
415.821	92.38
416.044	88.38
416.267	80.38
416.49	84.38
416.713	80.38
416.936	81.38
417.159	83.38
417.382	82.38
417.605	86.38
417.828	88.38
418.051	80.38
418.274	85.38
418.497	72.38
418.72	91.38
418.943	96.38
419.166	78.38
419.389	97.38
419.611	90.38
419.834	90.38
420.057	94.38
420.28	111.38
420.503	70.38
420.726	84.38
420.948	94.38
421.171	86.38
421.394	96.38
421.617	96.38
421.839	80.38
422.062	82.38
422.285	83.38
422.507	83.38
422.73	93.38
422.953	90.38
423.175	94.38
423.398	91.38
423.621	79.38
423.843	92.38
424.066	77.38
424.288	81.38
424.511	103.38
424.733	92.38
424.956	92.38
425.178	62.38
425.401	79.38
425.623	90.38
425.846	98.38
426.068	85.38
426.291	91.38
426.513	85.38
426.735	86.38
426.958	89.38
427.18	96.38
427.402	121.38
427.625	116.38
427.847	110.38
428.069	113.38
428.292	95.38
428.514	82.38
428.736	80.38
428.958	80.38
429.181	80.38
429.403	88.38
429.625	80.38
429.847	74.38
430.069	98.38
430.292	103.38
430.514	78.38
430.736	81.38
430.958	90.38
431.18	87.38
431.402	78.38
431.624	87.38
431.846	82.38
432.068	73.38
432.29	80.38
432.512	81.38
432.734	88.38
432.956	91.38
433.178	92.38
433.4	98.38
433.622	82.38
433.844	93.38
434.066	101.38
434.287	89.38
434.509	96.38
434.731	89.38
434.953	73.38
435.175	78.38
435.397	90.38
435.618	87.38
435.84	81.38
436.062	106.38
436.284	87.38
436.505	86.38
436.727	97.38
436.949	79.38
437.17	92.38
437.392	79.38
437.614	88.38
437.835	102.38
438.057	103.38
438.278	97.38
438.5	98.38
438.721	112.38
438.943	88.38
439.165	85.38
439.386	82.38
439.608	81.38
439.829	113.38
440.05	112.38
440.272	123.38
440.493	96.38
440.715	90.38
440.936	89.38
441.158	80.38
441.379	83.38
441.6	104.38
441.822	78.38
442.043	96.38
442.264	92.38
442.486	76.38
442.707	93.38
442.928	93.38
443.149	105.38
443.371	117.38
443.592	96.38
443.813	89.38
444.034	80.38
444.255	81.38
444.476	65.38
444.698	75.38
444.919	83.38
445.14	128.38
445.361	116.38
445.582	97.38
445.803	101.38
446.024	92.38
446.245	118.38
446.466	92.38
446.687	66.38
446.908	84.38
447.129	90.38
447.35	76.38
447.571	80.38
447.792	91.38
448.013	92.38
448.234	99.38
448.455	109.38
448.675	101.38
448.896	96.38
449.117	97.38
449.338	91.38
449.559	105.38
449.779	101.38
450	80.38
450.221	72.38
450.442	80.38
450.662	92.38
450.883	88.38
451.104	99.38
451.324	78.38
451.545	76.38
451.766	74.38
451.986	66.38
452.207	97.38
452.428	86.38
452.648	89.38
452.869	106.38
453.089	95.38
453.31	99.38
453.53	80.38
453.751	83.38
453.971	74.38
454.192	102.38
454.412	89.38
454.633	75.38
454.853	85.38
455.073	78.38
455.294	72.38
455.514	81.38
455.734	87.38
455.955	94.38
456.175	78.38
456.395	83.38
456.616	81.38
456.836	78.38
457.056	78.38
457.276	79.38
457.497	73.38
457.717	87.38
457.937	71.38
458.157	72.38
458.377	81.38
458.598	102.38
458.818	106.38
459.038	121.38
459.258	92.38
459.478	96.38
459.698	81.38
459.918	85.38
460.138	82.38
460.358	84.38
460.578	78.38
460.798	98.38
461.018	95.38
461.238	83.38
461.458	81.38
461.678	78.38
461.898	79.38
462.118	86.38
462.338	70.38
462.558	66.38
462.777	70.38
462.997	80.38
463.217	78.38
463.437	70.38
463.657	84.38
463.876	81.38
464.096	64.38
464.316	104.38
464.536	78.38
464.755	101.38
464.975	96.38
465.195	123.38
465.414	121.38
465.634	86.38
465.854	80.38
466.073	98.38
466.293	81.38
466.512	86.38
466.732	83.38
466.951	86.38
467.171	86.38
467.391	80.38
467.61	94.38
467.829	83.38
468.049	106.38
468.268	138.38
468.488	82.38
468.707	78.38
468.927	84.38
469.146	85.38
469.365	83.38
469.585	92.38
469.804	86.38
470.023	90.38
470.243	85.38
470.462	71.38
470.681	111.38
470.901	84.38
471.12	88.38
471.339	90.38
471.558	86.38
471.777	77.38
471.997	110.38
472.216	191.38
472.435	288.38
472.654	119.38
472.873	98.38
473.092	85.38
473.311	87.38
473.53	84.38
473.749	77.38
473.968	88.38
474.187	89.38
474.406	92.38
474.625	72.38
474.844	81.38
475.063	71.38
475.282	78.38
475.501	77.38
475.72	82.38
475.939	85.38
476.158	83.38
476.377	82.38
476.596	97.38
476.814	84.38
477.033	86.38
477.252	81.38
477.471	81.38
477.69	80.38
477.908	70.38
478.127	103.38
478.346	88.38
478.564	82.38
478.783	87.38
479.002	82.38
479.22	89.38
479.439	98.38
479.658	101.38
479.876	88.38
480.095	90.38
480.313	97.38
480.532	83.38
480.751	109.38
480.969	183.38
481.188	527.38
481.406	288.38
481.624	98.38
481.843	90.38
482.061	75.38
482.28	98.38
482.498	68.38
482.717	82.38
482.935	85.38
483.153	85.38
483.372	96.38
483.59	86.38
483.808	76.38
484.027	89.38
484.245	95.38
484.463	89.38
484.681	86.38
484.9	93.38
485.118	100.38
485.336	97.38
485.554	92.38
485.772	93.38
485.99	97.38
486.209	102.38
486.427	112.38
486.645	105.38
486.863	102.38
487.081	83.38
487.299	89.38
487.517	97.38
487.735	85.38
487.953	92.38
488.171	103.38
488.389	95.38
488.607	82.38
488.825	87.38
489.043	95.38
489.261	80.38
489.479	90.38
489.696	95.38
489.914	71.38
490.132	74.38
490.35	66.38
490.568	82.38
490.786	73.38
491.003	84.38
491.221	69.38
491.439	100.38
491.657	77.38
491.874	88.38
492.092	90.38
492.31	86.38
492.527	85.38
492.745	77.38
492.963	87.38
493.18	89.38
493.398	72.38
493.615	87.38
493.833	92.38
494.05	78.38
494.268	72.38
494.485	76.38
494.703	78.38
494.92	89.38
495.138	89.38
495.355	86.38
495.573	98.38
495.79	89.38
496.008	85.38
496.225	99.38
496.442	90.38
496.66	85.38
496.877	104.38
497.094	89.38
497.312	88.38
497.529	79.38
497.746	78.38
497.963	97.38
498.181	74.38
498.398	84.38
498.615	92.38
498.832	95.38
499.049	105.38
499.267	93.38
499.484	92.38
499.701	95.38
499.918	87.38
500.135	104.38
500.352	89.38
500.569	92.38
500.786	100.38
501.003	90.38
501.22	85.38
501.437	83.38
501.654	82.38
501.871	84.38
502.088	92.38
502.305	81.38
502.522	95.38
502.739	96.38
502.956	88.38
503.172	101.38
503.389	100.38
503.606	94.38
503.823	88.38
504.04	94.38
504.256	82.38
504.473	94.38
504.69	90.38
504.907	92.38
505.123	91.38
505.34	74.38
505.557	77.38
505.773	70.38
505.99	72.38
506.207	90.38
506.423	83.38
506.64	92.38
506.856	70.38
507.073	84.38
507.289	82.38
507.506	86.38
507.722	95.38
507.939	91.38
508.155	93.38
508.372	87.38
508.588	90.38
508.805	96.38
509.021	89.38
509.238	95.38
509.454	106.38
509.67	105.38
509.887	90.38
510.103	107.38
510.319	160.38
510.536	553.38
510.752	1567.38
510.968	453.38
511.184	121.38
511.401	95.38
511.617	90.38
511.833	80.38
512.049	81.38
512.265	74.38
512.481	87.38
512.698	82.38
512.914	81.38
513.13	88.38
513.346	89.38
513.562	76.38
513.778	87.38
513.994	82.38
514.21	89.38
514.426	102.38
514.642	105.38
514.858	117.38
515.074	134.38
515.29	325.38
515.506	935.38
515.721	357.38
515.937	113.38
516.153	93.38
516.369	96.38
516.585	90.38
516.801	80.38
517.016	86.38
517.232	88.38
