Data from Circ_1983_H10_HRD10591_00061.txt Node
Date: Wed Jan 03 12:26:57 EST 2024
User: Yrep
Spectrometer: HR+D1059
Trigger mode: 1
Integration Time (sec): 1.000000E-1
Scans to average: 1
Electric dark correction enabled: true
Nonlinearity correction enabled: false
Boxcar width: 0
XAxis mode: Wavelengths
Number of Pixels in Spectrum: 2048
>>>>>Begin Spectral Data<<<<<
223.165	-26.81
223.4	-26.81
223.635	-26.81
223.869	-18.81
224.104	-22.81
224.338	-9.81
224.573	-21.81
224.808	-26.81
225.042	-9.81
225.277	-11.81
225.511	4.19
225.746	1.19
225.98	17.19
226.215	18.19
226.449	15.19
226.683	32.19
226.918	39.19
227.152	21.19
227.387	45.19
227.621	37.19
227.856	54.19
228.09	53.19
228.324	44.19
228.559	59.19
228.793	48.19
229.027	60.19
229.262	58.19
229.496	78.19
229.73	83.19
229.964	64.19
230.199	81.19
230.433	82.19
230.667	89.19
230.901	78.19
231.136	80.19
231.37	98.19
231.604	90.19
231.838	93.19
232.072	67.19
232.306	75.19
232.541	80.19
232.775	95.19
233.009	84.19
233.243	96.19
233.477	80.19
233.711	80.19
233.945	79.19
234.179	82.19
234.413	71.19
234.647	94.19
234.881	87.19
235.115	84.19
235.349	82.19
235.583	78.19
235.817	82.19
236.051	75.19
236.285	69.19
236.519	81.19
236.753	69.19
236.987	80.19
237.221	82.19
237.455	84.19
237.689	84.19
237.922	79.19
238.156	87.19
238.39	76.19
238.624	79.19
238.858	72.19
239.091	70.19
239.325	78.19
239.559	80.19
239.793	70.19
240.027	82.19
240.26	65.19
240.494	80.19
240.728	72.19
240.961	70.19
241.195	81.19
241.429	85.19
241.662	75.19
241.896	75.19
242.13	81.19
242.363	71.19
242.597	75.19
242.83	72.19
243.064	82.19
243.298	80.19
243.531	72.19
243.765	83.19
243.998	70.19
244.232	74.19
244.465	89.19
244.699	80.19
244.932	74.19
245.166	80.19
245.399	85.19
245.633	70.19
245.866	75.19
246.099	71.19
246.333	75.19
246.566	82.19
246.8	94.19
247.033	90.19
247.266	64.19
247.5	72.19
247.733	86.19
247.966	80.19
248.2	99.19
248.433	76.19
248.666	93.19
248.899	87.19
249.133	83.19
249.366	110.19
249.599	95.19
249.832	86.19
250.066	81.19
250.299	74.19
250.532	80.19
250.765	77.19
250.998	83.19
251.231	71.19
251.465	63.19
251.698	75.19
251.931	81.19
252.164	83.19
252.397	62.19
252.63	90.19
252.863	69.19
253.096	82.19
253.329	88.19
253.562	88.19
253.795	76.19
254.028	100.19
254.261	86.19
254.494	80.19
254.727	88.19
254.96	81.19
255.193	80.19
255.426	96.19
255.659	86.19
255.892	88.19
256.124	95.19
256.357	91.19
256.59	91.19
256.823	76.19
257.056	79.19
257.289	86.19
257.521	74.19
257.754	99.19
257.987	76.19
258.22	83.19
258.452	78.19
258.685	69.19
258.918	71.19
259.151	89.19
259.383	97.19
259.616	88.19
259.849	87.19
260.081	83.19
260.314	80.19
260.547	83.19
260.779	80.19
261.012	82.19
261.244	82.19
261.477	83.19
261.71	81.19
261.942	112.19
262.175	100.19
262.407	90.19
262.64	83.19
262.872	79.19
263.105	81.19
263.337	91.19
263.57	96.19
263.802	75.19
264.035	80.19
264.267	72.19
264.499	84.19
264.732	80.19
264.964	94.19
265.197	76.19
265.429	96.19
265.661	78.19
265.894	76.19
266.126	78.19
266.358	78.19
266.591	73.19
266.823	84.19
267.055	87.19
267.287	84.19
267.52	88.19
267.752	95.19
267.984	88.19
268.216	79.19
268.448	83.19
268.681	79.19
268.913	79.19
269.145	102.19
269.377	88.19
269.609	90.19
269.841	90.19
270.073	74.19
270.306	80.19
270.538	86.19
270.77	84.19
271.002	83.19
271.234	89.19
271.466	90.19
271.698	87.19
271.93	90.19
272.162	98.19
272.394	99.19
272.626	92.19
272.858	90.19
273.09	85.19
273.322	79.19
273.553	80.19
273.785	79.19
274.017	85.19
274.249	96.19
274.481	85.19
274.713	75.19
274.945	79.19
275.176	72.19
275.408	85.19
275.64	85.19
275.872	97.19
276.104	88.19
276.335	84.19
276.567	80.19
276.799	104.19
277.031	90.19
277.262	94.19
277.494	87.19
277.726	82.19
277.957	82.19
278.189	93.19
278.421	91.19
278.652	91.19
278.884	86.19
279.115	82.19
279.347	98.19
279.579	93.19
279.81	86.19
280.042	90.19
280.273	92.19
280.505	87.19
280.736	86.19
280.968	91.19
281.199	90.19
281.431	90.19
281.662	71.19
281.894	82.19
282.125	93.19
282.356	107.19
282.588	120.19
282.819	107.19
283.051	87.19
283.282	88.19
283.513	97.19
283.745	98.19
283.976	85.19
284.207	83.19
284.439	99.19
284.67	72.19
284.901	86.19
285.132	88.19
285.364	88.19
285.595	88.19
285.826	87.19
286.057	96.19
286.288	87.19
286.52	81.19
286.751	87.19
286.982	90.19
287.213	98.19
287.444	98.19
287.675	90.19
287.906	89.19
288.138	102.19
288.369	90.19
288.6	91.19
288.831	83.19
289.062	94.19
289.293	71.19
289.524	84.19
289.755	80.19
289.986	73.19
290.217	84.19
290.448	71.19
290.679	85.19
290.91	84.19
291.141	89.19
291.371	84.19
291.602	91.19
291.833	94.19
292.064	96.19
292.295	100.19
292.526	94.19
292.757	94.19
292.987	90.19
293.218	76.19
293.449	87.19
293.68	85.19
293.91	102.19
294.141	86.19
294.372	94.19
294.603	91.19
294.833	97.19
295.064	98.19
295.295	102.19
295.525	81.19
295.756	97.19
295.987	103.19
296.217	120.19
296.448	120.19
296.679	103.19
296.909	96.19
297.14	96.19
297.37	79.19
297.601	72.19
297.831	96.19
298.062	85.19
298.292	86.19
298.523	90.19
298.753	80.19
298.984	83.19
299.214	92.19
299.445	75.19
299.675	90.19
299.905	92.19
300.136	90.19
300.366	83.19
300.597	95.19
300.827	79.19
301.057	95.19
301.288	106.19
301.518	96.19
301.748	79.19
301.979	99.19
302.209	87.19
302.439	82.19
302.669	78.19
302.9	80.19
303.13	90.19
303.36	87.19
303.59	102.19
303.82	87.19
304.051	94.19
304.281	86.19
304.511	86.19
304.741	95.19
304.971	83.19
305.201	79.19
305.431	92.19
305.661	94.19
305.891	84.19
306.121	87.19
306.352	90.19
306.582	89.19
306.812	91.19
307.042	81.19
307.272	81.19
307.502	103.19
307.731	93.19
307.961	86.19
308.191	90.19
308.421	87.19
308.651	74.19
308.881	105.19
309.111	78.19
309.341	89.19
309.571	101.19
309.8	99.19
310.03	100.19
310.26	89.19
310.49	88.19
310.72	90.19
310.949	98.19
311.179	96.19
311.409	92.19
311.639	84.19
311.868	100.19
312.098	81.19
312.328	94.19
312.557	98.19
312.787	87.19
313.017	103.19
313.246	92.19
313.476	72.19
313.706	105.19
313.935	91.19
314.165	103.19
314.394	90.19
314.624	94.19
314.853	107.19
315.083	77.19
315.312	85.19
315.542	73.19
315.771	94.19
316.001	86.19
316.23	72.19
316.46	88.19
316.689	100.19
316.919	70.19
317.148	81.19
317.377	95.19
317.607	98.19
317.836	86.19
318.065	89.19
318.295	87.19
318.524	88.19
318.753	106.19
318.983	95.19
319.212	112.19
319.441	117.19
319.67	88.19
319.9	80.19
320.129	87.19
320.358	86.19
320.587	84.19
320.816	84.19
321.046	85.19
321.275	100.19
321.504	80.19
321.733	93.19
321.962	94.19
322.191	85.19
322.42	82.19
322.649	106.19
322.878	106.19
323.108	109.19
323.337	115.19
323.566	110.19
323.795	123.19
324.024	177.19
324.253	295.19
324.482	617.19
324.71	1220.19
324.939	1584.19
325.168	579.19
325.397	196.19
325.626	121.19
325.855	125.19
326.084	128.19
326.313	116.19
326.542	122.19
326.77	203.19
326.999	346.19
327.228	686.19
327.457	1226.19
327.686	968.19
327.914	278.19
328.143	178.19
328.372	158.19
328.6	132.19
328.829	110.19
329.058	120.19
329.287	116.19
329.515	85.19
329.744	126.19
329.972	111.19
330.201	183.19
330.43	219.19
330.658	154.19
330.887	131.19
331.115	113.19
331.344	87.19
331.572	111.19
331.801	89.19
332.03	91.19
332.258	103.19
332.486	86.19
332.715	99.19
332.943	75.19
333.172	98.19
333.4	102.19
333.629	109.19
333.857	112.19
334.085	121.19
334.314	172.19
334.542	256.19
334.771	239.19
334.999	98.19
335.227	104.19
335.455	104.19
335.684	98.19
335.912	103.19
336.14	99.19
336.369	109.19
336.597	119.19
336.825	101.19
337.053	98.19
337.281	107.19
337.51	88.19
337.738	94.19
337.966	96.19
338.194	90.19
338.422	97.19
338.65	86.19
338.878	91.19
339.106	94.19
339.334	86.19
339.562	98.19
339.79	85.19
340.018	88.19
340.246	86.19
340.474	90.19
340.702	71.19
340.93	107.19
341.158	95.19
341.386	99.19
341.614	94.19
341.842	99.19
342.07	90.19
342.298	96.19
342.526	91.19
342.754	80.19
342.981	84.19
343.209	80.19
343.437	105.19
343.665	79.19
343.893	82.19
344.12	85.19
344.348	107.19
344.576	90.19
344.804	91.19
345.031	89.19
345.259	97.19
345.487	96.19
345.714	98.19
345.942	85.19
346.17	83.19
346.397	90.19
346.625	96.19
346.853	99.19
347.08	100.19
347.308	88.19
347.535	97.19
347.763	96.19
347.99	95.19
348.218	110.19
348.445	93.19
348.673	87.19
348.9	82.19
349.128	83.19
349.355	83.19
349.583	101.19
349.81	102.19
350.037	104.19
350.265	112.19
350.492	98.19
350.72	85.19
350.947	82.19
351.174	103.19
351.402	93.19
351.629	98.19
351.856	95.19
352.083	93.19
352.311	98.19
352.538	91.19
352.765	121.19
352.992	105.19
353.22	102.19
353.447	86.19
353.674	91.19
353.901	92.19
354.128	95.19
354.355	88.19
354.583	107.19
354.81	96.19
355.037	100.19
355.264	101.19
355.491	83.19
355.718	87.19
355.945	88.19
356.172	87.19
356.399	90.19
356.626	100.19
356.853	105.19
357.08	97.19
357.307	91.19
357.534	90.19
357.761	97.19
357.988	86.19
358.215	107.19
358.441	91.19
358.668	80.19
358.895	79.19
359.122	85.19
359.349	82.19
359.576	87.19
359.802	92.19
360.029	100.19
360.256	83.19
360.483	84.19
360.709	105.19
360.936	90.19
361.163	105.19
361.39	86.19
361.616	70.19
361.843	85.19
362.07	77.19
362.296	100.19
362.523	90.19
362.749	91.19
362.976	90.19
363.203	90.19
363.429	89.19
363.656	92.19
363.882	98.19
364.109	89.19
364.335	82.19
364.562	77.19
364.788	93.19
365.015	102.19
365.241	102.19
365.468	100.19
365.694	102.19
365.92	97.19
366.147	94.19
366.373	90.19
366.599	90.19
366.826	78.19
367.052	83.19
367.278	88.19
367.505	72.19
367.731	84.19
367.957	81.19
368.184	93.19
368.41	86.19
368.636	101.19
368.862	99.19
369.089	104.19
369.315	85.19
369.541	87.19
369.767	91.19
369.993	87.19
370.219	72.19
370.445	88.19
370.672	83.19
370.898	70.19
371.124	80.19
371.35	74.19
371.576	81.19
371.802	100.19
372.028	88.19
372.254	92.19
372.48	80.19
372.706	98.19
372.932	96.19
373.158	81.19
373.384	80.19
373.61	80.19
373.835	84.19
374.061	84.19
374.287	92.19
374.513	87.19
374.739	75.19
374.965	92.19
375.191	94.19
375.416	88.19
375.642	78.19
375.868	87.19
376.094	80.19
376.319	79.19
376.545	88.19
376.771	80.19
376.997	104.19
377.222	87.19
377.448	98.19
377.674	92.19
377.899	88.19
378.125	80.19
378.35	73.19
378.576	95.19
378.802	82.19
379.027	95.19
379.253	73.19
379.478	90.19
379.704	95.19
379.929	76.19
380.155	78.19
380.38	73.19
380.606	98.19
380.831	92.19
381.057	103.19
381.282	99.19
381.507	79.19
381.733	90.19
381.958	100.19
382.184	108.19
382.409	87.19
382.634	82.19
382.86	100.19
383.085	84.19
383.31	99.19
383.535	104.19
383.761	94.19
383.986	100.19
384.211	101.19
384.436	91.19
384.662	90.19
384.887	102.19
385.112	94.19
385.337	103.19
385.562	119.19
385.787	99.19
386.013	100.19
386.238	113.19
386.463	102.19
386.688	122.19
386.913	106.19
387.138	100.19
387.363	101.19
387.588	88.19
387.813	89.19
388.038	103.19
388.263	103.19
388.488	105.19
388.713	80.19
388.938	102.19
389.163	102.19
389.387	95.19
389.612	81.19
389.837	86.19
390.062	92.19
390.287	82.19
390.512	75.19
390.736	85.19
390.961	86.19
391.186	86.19
391.411	78.19
391.636	88.19
391.86	86.19
392.085	86.19
392.31	90.19
392.534	74.19
392.759	86.19
392.984	92.19
393.208	82.19
393.433	106.19
393.658	97.19
393.882	93.19
394.107	89.19
394.331	85.19
394.556	89.19
394.78	85.19
395.005	88.19
395.229	94.19
395.454	80.19
395.678	84.19
395.903	86.19
396.127	86.19
396.352	69.19
396.576	92.19
396.801	94.19
397.025	102.19
397.249	83.19
397.474	80.19
397.698	80.19
397.922	80.19
398.147	81.19
398.371	81.19
398.595	87.19
398.82	87.19
399.044	84.19
399.268	87.19
399.492	79.19
399.717	88.19
399.941	82.19
400.165	83.19
400.389	88.19
400.613	79.19
400.837	81.19
401.062	94.19
401.286	88.19
401.51	83.19
401.734	88.19
401.958	80.19
402.182	103.19
402.406	138.19
402.63	89.19
402.854	90.19
403.078	92.19
403.302	82.19
403.526	70.19
403.75	90.19
403.974	81.19
404.198	84.19
404.422	78.19
404.645	76.19
404.869	86.19
405.093	88.19
405.317	111.19
405.541	103.19
405.765	91.19
405.988	112.19
406.212	133.19
406.436	171.19
406.66	129.19
406.883	87.19
407.107	90.19
407.331	101.19
407.555	83.19
407.778	87.19
408.002	83.19
408.226	94.19
408.449	91.19
408.673	90.19
408.896	103.19
409.12	97.19
409.344	72.19
409.567	88.19
409.791	92.19
410.014	93.19
410.238	90.19
410.461	87.19
410.685	106.19
410.908	103.19
411.132	89.19
411.355	99.19
411.578	93.19
411.802	80.19
412.025	89.19
412.249	101.19
412.472	91.19
412.695	102.19
412.919	85.19
413.142	94.19
413.365	76.19
413.589	77.19
413.812	91.19
414.035	82.19
414.258	102.19
414.482	86.19
414.705	96.19
414.928	82.19
415.151	82.19
415.374	75.19
415.597	89.19
415.821	83.19
416.044	89.19
416.267	94.19
416.49	79.19
416.713	91.19
416.936	83.19
417.159	100.19
417.382	91.19
417.605	74.19
417.828	90.19
418.051	96.19
418.274	82.19
418.497	88.19
418.72	81.19
418.943	88.19
419.166	96.19
419.389	92.19
419.611	94.19
419.834	78.19
420.057	91.19
420.28	81.19
420.503	89.19
420.726	100.19
420.948	97.19
421.171	92.19
421.394	94.19
421.617	84.19
421.839	80.19
422.062	88.19
422.285	80.19
422.507	106.19
422.73	102.19
422.953	80.19
423.175	79.19
423.398	101.19
423.621	72.19
423.843	74.19
424.066	89.19
424.288	78.19
424.511	88.19
424.733	88.19
424.956	95.19
425.178	83.19
425.401	83.19
425.623	93.19
425.846	71.19
426.068	85.19
426.291	83.19
426.513	95.19
426.735	73.19
426.958	71.19
427.18	94.19
427.402	125.19
427.625	143.19
427.847	126.19
428.069	128.19
428.292	106.19
428.514	72.19
428.736	87.19
428.958	84.19
429.181	72.19
429.403	82.19
429.625	93.19
429.847	72.19
430.069	74.19
430.292	89.19
430.514	82.19
430.736	95.19
430.958	90.19
431.18	75.19
431.402	95.19
431.624	74.19
431.846	66.19
432.068	81.19
432.29	87.19
432.512	86.19
432.734	83.19
432.956	93.19
433.178	91.19
433.4	86.19
433.622	75.19
433.844	90.19
434.066	88.19
434.287	88.19
434.509	86.19
434.731	119.19
434.953	96.19
435.175	90.19
435.397	86.19
435.618	87.19
435.84	103.19
436.062	107.19
436.284	107.19
436.505	97.19
436.727	90.19
436.949	99.19
437.17	89.19
437.392	71.19
437.614	78.19
437.835	87.19
438.057	102.19
438.278	96.19
438.5	100.19
438.721	92.19
438.943	94.19
439.165	90.19
439.386	72.19
439.608	95.19
439.829	100.19
440.05	114.19
440.272	131.19
440.493	80.19
440.715	67.19
440.936	73.19
441.158	97.19
441.379	98.19
441.6	90.19
441.822	74.19
442.043	86.19
442.264	101.19
442.486	94.19
442.707	97.19
442.928	87.19
443.149	116.19
443.371	111.19
443.592	102.19
443.813	101.19
444.034	98.19
444.255	89.19
444.476	92.19
444.698	90.19
444.919	88.19
445.14	139.19
445.361	112.19
445.582	95.19
445.803	124.19
446.024	108.19
446.245	109.19
446.466	106.19
446.687	102.19
446.908	92.19
447.129	75.19
447.35	88.19
447.571	98.19
447.792	78.19
448.013	82.19
448.234	95.19
448.455	98.19
448.675	96.19
448.896	98.19
449.117	82.19
449.338	92.19
449.559	106.19
449.779	104.19
450	82.19
450.221	87.19
450.442	89.19
450.662	89.19
450.883	92.19
451.104	94.19
451.324	90.19
451.545	79.19
451.766	81.19
451.986	84.19
452.207	87.19
452.428	86.19
452.648	85.19
452.869	93.19
453.089	93.19
453.31	115.19
453.53	74.19
453.751	90.19
453.971	98.19
454.192	80.19
454.412	84.19
454.633	85.19
454.853	82.19
455.073	86.19
455.294	78.19
455.514	91.19
455.734	84.19
455.955	85.19
456.175	80.19
456.395	84.19
456.616	83.19
456.836	84.19
457.056	75.19
457.276	80.19
457.497	81.19
457.717	78.19
457.937	96.19
458.157	90.19
458.377	86.19
458.598	110.19
458.818	119.19
459.038	120.19
459.258	94.19
459.478	92.19
459.698	91.19
459.918	71.19
460.138	73.19
460.358	93.19
460.578	94.19
460.798	76.19
461.018	86.19
461.238	97.19
461.458	83.19
461.678	90.19
461.898	86.19
462.118	75.19
462.338	74.19
462.558	84.19
462.777	75.19
462.997	86.19
463.217	91.19
463.437	84.19
463.657	98.19
463.876	91.19
464.096	84.19
464.316	82.19
464.536	71.19
464.755	86.19
464.975	98.19
465.195	137.19
465.414	135.19
465.634	92.19
465.854	89.19
466.073	87.19
466.293	92.19
466.512	98.19
466.732	98.19
466.951	87.19
467.171	80.19
467.391	97.19
467.61	92.19
467.829	94.19
468.049	123.19
468.268	143.19
468.488	95.19
468.707	78.19
468.927	75.19
469.146	90.19
469.365	89.19
469.585	95.19
469.804	82.19
470.023	90.19
470.243	87.19
470.462	106.19
470.681	103.19
470.901	81.19
471.12	98.19
471.339	93.19
471.558	79.19
471.777	89.19
471.997	107.19
472.216	197.19
472.435	311.19
472.654	144.19
472.873	96.19
473.092	86.19
473.311	87.19
473.53	88.19
473.749	69.19
473.968	86.19
474.187	102.19
474.406	92.19
474.625	84.19
474.844	81.19
475.063	90.19
475.282	83.19
475.501	98.19
475.72	92.19
475.939	80.19
476.158	90.19
476.377	91.19
476.596	78.19
476.814	82.19
477.033	79.19
477.252	82.19
477.471	83.19
477.69	79.19
477.908	86.19
478.127	71.19
478.346	87.19
478.564	84.19
478.783	97.19
479.002	105.19
479.22	93.19
479.439	75.19
479.658	100.19
479.876	96.19
480.095	90.19
480.313	87.19
480.532	107.19
480.751	104.19
480.969	197.19
481.188	517.19
481.406	327.19
481.624	106.19
481.843	82.19
482.061	95.19
482.28	83.19
482.498	98.19
482.717	79.19
482.935	87.19
483.153	95.19
483.372	87.19
483.59	99.19
483.808	84.19
484.027	91.19
484.245	85.19
484.463	95.19
484.681	84.19
484.9	92.19
485.118	88.19
485.336	86.19
485.554	91.19
485.772	84.19
485.99	108.19
486.209	109.19
486.427	98.19
486.645	94.19
486.863	115.19
487.081	89.19
487.299	106.19
487.517	98.19
487.735	80.19
487.953	90.19
488.171	95.19
488.389	98.19
488.607	90.19
488.825	86.19
489.043	69.19
489.261	101.19
489.479	92.19
489.696	92.19
489.914	90.19
490.132	99.19
490.35	94.19
490.568	104.19
490.786	83.19
491.003	98.19
491.221	72.19
491.439	89.19
491.657	100.19
491.874	95.19
492.092	86.19
492.31	91.19
492.527	88.19
492.745	94.19
492.963	94.19
493.18	82.19
493.398	90.19
493.615	103.19
493.833	108.19
494.05	100.19
494.268	100.19
494.485	89.19
494.703	94.19
494.92	95.19
495.138	78.19
495.355	106.19
495.573	100.19
495.79	100.19
496.008	88.19
496.225	106.19
496.442	85.19
496.66	103.19
496.877	87.19
497.094	74.19
497.312	87.19
497.529	97.19
497.746	84.19
497.963	99.19
498.181	91.19
498.398	81.19
498.615	108.19
498.832	115.19
499.049	94.19
499.267	100.19
499.484	95.19
499.701	82.19
499.918	84.19
500.135	76.19
500.352	80.19
500.569	92.19
500.786	83.19
501.003	84.19
501.22	84.19
501.437	102.19
501.654	98.19
501.871	113.19
502.088	98.19
502.305	106.19
502.522	79.19
502.739	92.19
502.956	94.19
503.172	92.19
503.389	89.19
503.606	90.19
503.823	96.19
504.04	95.19
504.256	100.19
504.473	90.19
504.69	84.19
504.907	83.19
505.123	103.19
505.34	82.19
505.557	98.19
505.773	81.19
505.99	90.19
506.207	96.19
506.423	83.19
506.64	70.19
506.856	84.19
507.073	93.19
507.289	98.19
507.506	93.19
507.722	99.19
507.939	95.19
508.155	92.19
508.372	100.19
508.588	97.19
508.805	89.19
509.021	83.19
509.238	102.19
509.454	108.19
509.67	80.19
509.887	113.19
510.103	120.19
510.319	184.19
510.536	550.19
510.752	1718.19
510.968	480.19
511.184	126.19
511.401	104.19
511.617	99.19
511.833	98.19
512.049	102.19
512.265	95.19
512.481	88.19
512.698	82.19
512.914	88.19
513.13	95.19
513.346	94.19
513.562	79.19
513.778	98.19
513.994	85.19
514.21	97.19
514.426	109.19
514.642	120.19
514.858	103.19
515.074	142.19
515.29	346.19
515.506	1043.19
515.721	387.19
515.937	125.19
516.153	102.19
516.369	99.19
