Data from Circ_1983_H10_HRD10591_00021.txt Node
Date: Wed Jan 03 12:26:49 EST 2024
User: Yrep
Spectrometer: HR+D1059
Trigger mode: 1
Integration Time (sec): 1.000000E-1
Scans to average: 1
Electric dark correction enabled: true
Nonlinearity correction enabled: false
Boxcar width: 0
XAxis mode: Wavelengths
Number of Pixels in Spectrum: 2048
>>>>>Begin Spectral Data<<<<<
223.165	-12.5
223.4	-12.5
223.635	-12.5
223.869	-26.5
224.104	-22.5
224.338	-22.5
224.573	-22.5
224.808	-3.5
225.042	4.5
225.277	4.5
225.511	3.5
225.746	8.5
225.98	5.5
226.215	4.5
226.449	9.5
226.683	11.5
226.918	31.5
227.152	26.5
227.387	28.5
227.621	34.5
227.856	45.5
228.09	55.5
228.324	57.5
228.559	51.5
228.793	51.5
229.027	67.5
229.262	75.5
229.496	62.5
229.73	88.5
229.964	76.5
230.199	67.5
230.433	90.5
230.667	77.5
230.901	84.5
231.136	72.5
231.37	72.5
231.604	73.5
231.838	73.5
232.072	75.5
232.306	73.5
232.541	88.5
232.775	73.5
233.009	80.5
233.243	68.5
233.477	85.5
233.711	76.5
233.945	82.5
234.179	81.5
234.413	81.5
234.647	71.5
234.881	78.5
235.115	78.5
235.349	82.5
235.583	76.5
235.817	93.5
236.051	88.5
236.285	67.5
236.519	73.5
236.753	87.5
236.987	72.5
237.221	92.5
237.455	96.5
237.689	81.5
237.922	80.5
238.156	67.5
238.39	74.5
238.624	74.5
238.858	85.5
239.091	77.5
239.325	72.5
239.559	73.5
239.793	67.5
240.027	84.5
240.26	76.5
240.494	92.5
240.728	86.5
240.961	82.5
241.195	71.5
241.429	70.5
241.662	86.5
241.896	82.5
242.13	85.5
242.363	86.5
242.597	74.5
242.83	74.5
243.064	71.5
243.298	75.5
243.531	70.5
243.765	62.5
243.998	84.5
244.232	71.5
244.465	87.5
244.699	86.5
244.932	85.5
245.166	72.5
245.399	83.5
245.633	95.5
245.866	80.5
246.099	80.5
246.333	83.5
246.566	82.5
246.8	82.5
247.033	82.5
247.266	81.5
247.5	82.5
247.733	78.5
247.966	66.5
248.2	71.5
248.433	76.5
248.666	66.5
248.899	74.5
249.133	95.5
249.366	94.5
249.599	96.5
249.832	73.5
250.066	72.5
250.299	85.5
250.532	88.5
250.765	75.5
250.998	69.5
251.231	81.5
251.465	80.5
251.698	66.5
251.931	75.5
252.164	75.5
252.397	75.5
252.63	96.5
252.863	87.5
253.096	81.5
253.329	68.5
253.562	76.5
253.795	78.5
254.028	85.5
254.261	89.5
254.494	83.5
254.727	86.5
254.96	73.5
255.193	80.5
255.426	90.5
255.659	83.5
255.892	93.5
256.124	82.5
256.357	76.5
256.59	94.5
256.823	74.5
257.056	81.5
257.289	80.5
257.521	82.5
257.754	79.5
257.987	74.5
258.22	80.5
258.452	80.5
258.685	94.5
258.918	92.5
259.151	72.5
259.383	76.5
259.616	70.5
259.849	87.5
260.081	80.5
260.314	92.5
260.547	89.5
260.779	90.5
261.012	84.5
261.244	89.5
261.477	80.5
261.71	93.5
261.942	109.5
262.175	96.5
262.407	88.5
262.64	84.5
262.872	85.5
263.105	84.5
263.337	100.5
263.57	84.5
263.802	91.5
264.035	89.5
264.267	78.5
264.499	89.5
264.732	84.5
264.964	86.5
265.197	82.5
265.429	88.5
265.661	102.5
265.894	73.5
266.126	84.5
266.358	97.5
266.591	76.5
266.823	94.5
267.055	88.5
267.287	89.5
267.52	98.5
267.752	87.5
267.984	74.5
268.216	81.5
268.448	88.5
268.681	86.5
268.913	75.5
269.145	75.5
269.377	90.5
269.609	75.5
269.841	75.5
270.073	87.5
270.306	87.5
270.538	82.5
270.77	87.5
271.002	80.5
271.234	102.5
271.466	87.5
271.698	80.5
271.93	74.5
272.162	75.5
272.394	99.5
272.626	80.5
272.858	86.5
273.09	78.5
273.322	84.5
273.553	72.5
273.785	86.5
274.017	99.5
274.249	94.5
274.481	82.5
274.713	95.5
274.945	87.5
275.176	84.5
275.408	91.5
275.64	85.5
275.872	84.5
276.104	86.5
276.335	89.5
276.567	93.5
276.799	98.5
277.031	103.5
277.262	87.5
277.494	85.5
277.726	88.5
277.957	79.5
278.189	82.5
278.421	83.5
278.652	84.5
278.884	92.5
279.115	73.5
279.347	84.5
279.579	80.5
279.81	82.5
280.042	85.5
280.273	91.5
280.505	93.5
280.736	68.5
280.968	83.5
281.199	91.5
281.431	97.5
281.662	90.5
281.894	87.5
282.125	101.5
282.356	98.5
282.588	122.5
282.819	101.5
283.051	86.5
283.282	81.5
283.513	80.5
283.745	93.5
283.976	89.5
284.207	68.5
284.439	95.5
284.67	81.5
284.901	71.5
285.132	93.5
285.364	86.5
285.595	89.5
285.826	83.5
286.057	81.5
286.288	74.5
286.52	93.5
286.751	90.5
286.982	86.5
287.213	78.5
287.444	82.5
287.675	86.5
287.906	84.5
288.138	77.5
288.369	82.5
288.6	88.5
288.831	86.5
289.062	91.5
289.293	88.5
289.524	81.5
289.755	93.5
289.986	83.5
290.217	76.5
290.448	91.5
290.679	92.5
290.91	80.5
291.141	93.5
291.371	94.5
291.602	93.5
291.833	92.5
292.064	90.5
292.295	91.5
292.526	81.5
292.757	76.5
292.987	82.5
293.218	86.5
293.449	80.5
293.68	86.5
293.91	89.5
294.141	96.5
294.372	86.5
294.603	77.5
294.833	93.5
295.064	85.5
295.295	96.5
295.525	88.5
295.756	92.5
295.987	94.5
296.217	120.5
296.448	119.5
296.679	100.5
296.909	92.5
297.14	101.5
297.37	90.5
297.601	89.5
297.831	84.5
298.062	78.5
298.292	94.5
298.523	87.5
298.753	85.5
298.984	72.5
299.214	80.5
299.445	82.5
299.675	102.5
299.905	96.5
300.136	80.5
300.366	75.5
300.597	86.5
300.827	90.5
301.057	94.5
301.288	113.5
301.518	90.5
301.748	85.5
301.979	106.5
302.209	85.5
302.439	86.5
302.669	89.5
302.9	98.5
303.13	90.5
303.36	86.5
303.59	108.5
303.82	107.5
304.051	92.5
304.281	81.5
304.511	91.5
304.741	83.5
304.971	84.5
305.201	90.5
305.431	90.5
305.661	77.5
305.891	99.5
306.121	91.5
306.352	90.5
306.582	112.5
306.812	90.5
307.042	98.5
307.272	98.5
307.502	102.5
307.731	102.5
307.961	101.5
308.191	90.5
308.421	85.5
308.651	86.5
308.881	83.5
309.111	91.5
309.341	96.5
309.571	112.5
309.8	91.5
310.03	98.5
310.26	96.5
310.49	100.5
310.72	92.5
310.949	96.5
311.179	103.5
311.409	82.5
311.639	88.5
311.868	94.5
312.098	91.5
312.328	90.5
312.557	90.5
312.787	99.5
313.017	92.5
313.246	88.5
313.476	94.5
313.706	84.5
313.935	82.5
314.165	91.5
314.394	95.5
314.624	88.5
314.853	86.5
315.083	93.5
315.312	92.5
315.542	82.5
315.771	90.5
316.001	80.5
316.23	80.5
316.46	89.5
316.689	89.5
316.919	94.5
317.148	89.5
317.377	97.5
317.607	88.5
317.836	100.5
318.065	99.5
318.295	62.5
318.524	88.5
318.753	89.5
318.983	121.5
319.212	88.5
319.441	94.5
319.67	98.5
319.9	94.5
320.129	85.5
320.358	92.5
320.587	99.5
320.816	93.5
321.046	93.5
321.275	96.5
321.504	84.5
321.733	96.5
321.962	94.5
322.191	97.5
322.42	73.5
322.649	105.5
322.878	98.5
323.108	116.5
323.337	112.5
323.566	110.5
323.795	120.5
324.024	166.5
324.253	309.5
324.482	619.5
324.71	1207.5
324.939	1648.5
325.168	594.5
325.397	204.5
325.626	123.5
325.855	117.5
326.084	104.5
326.313	116.5
326.542	139.5
326.77	196.5
326.999	366.5
327.228	710.5
327.457	1273.5
327.686	1025.5
327.914	294.5
328.143	184.5
328.372	138.5
328.6	126.5
328.829	112.5
329.058	110.5
329.287	116.5
329.515	92.5
329.744	110.5
329.972	118.5
330.201	134.5
330.43	148.5
330.658	140.5
330.887	133.5
331.115	102.5
331.344	88.5
331.572	100.5
331.801	98.5
332.03	101.5
332.258	107.5
332.486	104.5
332.715	93.5
332.943	98.5
333.172	105.5
333.4	99.5
333.629	109.5
333.857	92.5
334.085	113.5
334.314	117.5
334.542	162.5
334.771	152.5
334.999	113.5
335.227	112.5
335.455	97.5
335.684	104.5
335.912	104.5
336.14	97.5
336.369	90.5
336.597	104.5
336.825	110.5
337.053	91.5
337.281	81.5
337.51	97.5
337.738	97.5
337.966	92.5
338.194	96.5
338.422	93.5
338.65	89.5
338.878	97.5
339.106	78.5
339.334	106.5
339.562	91.5
339.79	92.5
340.018	88.5
340.246	97.5
340.474	89.5
340.702	88.5
340.93	90.5
341.158	85.5
341.386	90.5
341.614	94.5
341.842	96.5
342.07	94.5
342.298	84.5
342.526	94.5
342.754	84.5
342.981	102.5
343.209	93.5
343.437	99.5
343.665	86.5
343.893	84.5
344.12	96.5
344.348	91.5
344.576	83.5
344.804	88.5
345.031	97.5
345.259	100.5
345.487	97.5
345.714	97.5
345.942	83.5
346.17	98.5
346.397	98.5
346.625	86.5
346.853	97.5
347.08	85.5
347.308	96.5
347.535	93.5
347.763	77.5
347.99	96.5
348.218	101.5
348.445	79.5
348.673	88.5
348.9	91.5
349.128	97.5
349.355	90.5
349.583	100.5
349.81	84.5
350.037	97.5
350.265	101.5
350.492	95.5
350.72	79.5
350.947	97.5
351.174	96.5
351.402	99.5
351.629	100.5
351.856	117.5
352.083	107.5
352.311	110.5
352.538	98.5
352.765	108.5
352.992	112.5
353.22	113.5
353.447	98.5
353.674	103.5
353.901	107.5
354.128	79.5
354.355	100.5
354.583	94.5
354.81	93.5
355.037	96.5
355.264	86.5
355.491	96.5
355.718	106.5
355.945	114.5
356.172	91.5
356.399	98.5
356.626	96.5
356.853	94.5
357.08	94.5
357.307	108.5
357.534	106.5
357.761	92.5
357.988	100.5
358.215	96.5
358.441	96.5
358.668	70.5
358.895	87.5
359.122	88.5
359.349	92.5
359.576	102.5
359.802	96.5
360.029	87.5
360.256	106.5
360.483	86.5
360.709	97.5
360.936	86.5
361.163	87.5
361.39	95.5
361.616	77.5
361.843	92.5
362.07	98.5
362.296	72.5
362.523	82.5
362.749	90.5
362.976	109.5
363.203	82.5
363.429	75.5
363.656	90.5
363.882	93.5
364.109	91.5
364.335	80.5
364.562	96.5
364.788	102.5
365.015	96.5
365.241	93.5
365.468	114.5
365.694	101.5
365.92	94.5
366.147	94.5
366.373	87.5
366.599	86.5
366.826	89.5
367.052	81.5
367.278	99.5
367.505	76.5
367.731	87.5
367.957	98.5
368.184	100.5
368.41	86.5
368.636	100.5
368.862	110.5
369.089	98.5
369.315	74.5
369.541	91.5
369.767	104.5
369.993	98.5
370.219	82.5
370.445	86.5
370.672	76.5
370.898	89.5
371.124	87.5
371.35	86.5
371.576	93.5
371.802	94.5
372.028	83.5
372.254	92.5
372.48	81.5
372.706	82.5
372.932	93.5
373.158	78.5
373.384	85.5
373.61	84.5
373.835	105.5
374.061	93.5
374.287	83.5
374.513	80.5
374.739	88.5
374.965	88.5
375.191	94.5
375.416	84.5
375.642	85.5
375.868	81.5
376.094	99.5
376.319	84.5
376.545	89.5
376.771	90.5
376.997	104.5
377.222	102.5
377.448	92.5
377.674	105.5
377.899	102.5
378.125	92.5
378.35	91.5
378.576	96.5
378.802	95.5
379.027	101.5
379.253	94.5
379.478	108.5
379.704	93.5
379.929	102.5
380.155	108.5
380.38	102.5
380.606	100.5
380.831	93.5
381.057	105.5
381.282	118.5
381.507	104.5
381.733	108.5
381.958	99.5
382.184	107.5
382.409	113.5
382.634	114.5
382.86	110.5
383.085	102.5
383.31	103.5
383.535	109.5
383.761	104.5
383.986	104.5
384.211	105.5
384.436	96.5
384.662	111.5
384.887	117.5
385.112	121.5
385.337	121.5
385.562	123.5
385.787	118.5
386.013	122.5
386.238	125.5
386.463	104.5
386.688	117.5
386.913	113.5
387.138	119.5
387.363	122.5
387.588	117.5
387.813	117.5
388.038	118.5
388.263	131.5
388.488	134.5
388.713	105.5
388.938	89.5
389.163	87.5
389.387	91.5
389.612	87.5
389.837	71.5
390.062	77.5
390.287	99.5
390.512	88.5
390.736	92.5
390.961	99.5
391.186	85.5
391.411	82.5
391.636	86.5
391.86	81.5
392.085	92.5
392.31	80.5
392.534	91.5
392.759	94.5
392.984	92.5
393.208	115.5
393.433	148.5
393.658	118.5
393.882	93.5
394.107	97.5
394.331	84.5
394.556	82.5
394.78	100.5
395.005	84.5
395.229	100.5
395.454	93.5
395.678	87.5
395.903	77.5
396.127	103.5
396.352	99.5
396.576	102.5
396.801	99.5
397.025	115.5
397.249	94.5
397.474	90.5
397.698	88.5
397.922	84.5
398.147	109.5
398.371	78.5
398.595	86.5
398.82	84.5
399.044	95.5
399.268	81.5
399.492	101.5
399.717	95.5
399.941	88.5
400.165	90.5
400.389	85.5
400.613	93.5
400.837	91.5
401.062	85.5
401.286	96.5
401.51	104.5
401.734	94.5
401.958	94.5
402.182	111.5
402.406	138.5
402.63	108.5
402.854	117.5
403.078	94.5
403.302	86.5
403.526	84.5
403.75	87.5
403.974	86.5
404.198	91.5
404.422	86.5
404.645	70.5
404.869	83.5
405.093	97.5
405.317	101.5
405.541	96.5
405.765	93.5
405.988	115.5
406.212	137.5
406.436	200.5
406.66	134.5
406.883	112.5
407.107	86.5
407.331	91.5
407.555	101.5
407.778	89.5
408.002	100.5
408.226	91.5
408.449	84.5
408.673	94.5
408.896	107.5
409.12	100.5
409.344	88.5
409.567	97.5
409.791	86.5
410.014	105.5
410.238	87.5
410.461	95.5
410.685	100.5
410.908	93.5
411.132	106.5
411.355	95.5
411.578	99.5
411.802	93.5
412.025	90.5
412.249	93.5
412.472	85.5
412.695	89.5
412.919	85.5
413.142	90.5
413.365	90.5
413.589	81.5
413.812	82.5
414.035	103.5
414.258	96.5
414.482	101.5
414.705	90.5
414.928	98.5
415.151	97.5
415.374	110.5
415.597	104.5
415.821	89.5
416.044	101.5
416.267	82.5
416.49	100.5
416.713	81.5
416.936	98.5
417.159	82.5
417.382	85.5
417.605	90.5
417.828	90.5
418.051	98.5
418.274	96.5
418.497	98.5
418.72	93.5
418.943	94.5
419.166	100.5
419.389	88.5
419.611	86.5
419.834	91.5
420.057	92.5
420.28	94.5
420.503	75.5
420.726	64.5
420.948	87.5
421.171	87.5
421.394	99.5
421.617	86.5
421.839	96.5
422.062	89.5
422.285	100.5
422.507	110.5
422.73	115.5
422.953	100.5
423.175	111.5
423.398	90.5
423.621	89.5
423.843	85.5
424.066	97.5
424.288	92.5
424.511	76.5
424.733	87.5
424.956	92.5
425.178	94.5
425.401	110.5
425.623	102.5
425.846	96.5
426.068	99.5
426.291	90.5
426.513	94.5
426.735	83.5
426.958	93.5
427.18	96.5
427.402	112.5
427.625	136.5
427.847	107.5
428.069	108.5
428.292	89.5
428.514	104.5
428.736	89.5
428.958	76.5
429.181	88.5
429.403	83.5
429.625	96.5
429.847	81.5
430.069	101.5
430.292	92.5
430.514	98.5
430.736	92.5
430.958	87.5
431.18	92.5
431.402	86.5
431.624	86.5
431.846	77.5
432.068	77.5
432.29	87.5
432.512	93.5
432.734	96.5
432.956	76.5
433.178	102.5
433.4	102.5
433.622	102.5
433.844	91.5
434.066	90.5
434.287	80.5
434.509	102.5
434.731	102.5
434.953	101.5
435.175	106.5
435.397	87.5
435.618	90.5
435.84	97.5
436.062	114.5
436.284	96.5
436.505	97.5
436.727	85.5
436.949	89.5
437.17	76.5
437.392	85.5
437.614	90.5
437.835	89.5
438.057	97.5
438.278	86.5
438.5	95.5
438.721	112.5
438.943	78.5
439.165	102.5
439.386	88.5
439.608	93.5
439.829	96.5
440.05	117.5
440.272	117.5
440.493	97.5
440.715	92.5
440.936	84.5
441.158	87.5
441.379	90.5
441.6	93.5
441.822	96.5
442.043	86.5
442.264	82.5
442.486	74.5
442.707	86.5
442.928	99.5
443.149	116.5
443.371	103.5
443.592	96.5
443.813	101.5
444.034	107.5
444.255	100.5
444.476	104.5
444.698	94.5
444.919	94.5
445.14	124.5
445.361	114.5
445.582	100.5
445.803	117.5
446.024	100.5
446.245	115.5
446.466	106.5
446.687	104.5
446.908	95.5
447.129	90.5
447.35	80.5
447.571	90.5
447.792	102.5
448.013	99.5
448.234	124.5
448.455	93.5
448.675	97.5
448.896	91.5
449.117	108.5
449.338	97.5
449.559	120.5
449.779	108.5
450	104.5
450.221	110.5
450.442	90.5
450.662	96.5
450.883	97.5
451.104	98.5
451.324	76.5
451.545	76.5
451.766	89.5
451.986	66.5
452.207	99.5
452.428	88.5
452.648	110.5
452.869	109.5
453.089	102.5
453.31	99.5
453.53	95.5
453.751	76.5
453.971	102.5
454.192	101.5
454.412	101.5
454.633	89.5
454.853	97.5
455.073	91.5
455.294	89.5
455.514	97.5
455.734	96.5
455.955	88.5
456.175	94.5
456.395	98.5
456.616	89.5
456.836	85.5
457.056	86.5
457.276	84.5
457.497	81.5
457.717	93.5
457.937	98.5
458.157	95.5
458.377	91.5
458.598	95.5
458.818	131.5
459.038	134.5
459.258	84.5
459.478	92.5
459.698	94.5
459.918	84.5
460.138	71.5
460.358	95.5
460.578	76.5
460.798	102.5
461.018	80.5
461.238	92.5
461.458	87.5
461.678	89.5
461.898	93.5
462.118	105.5
462.338	84.5
462.558	77.5
462.777	76.5
462.997	89.5
463.217	101.5
463.437	90.5
463.657	89.5
463.876	98.5
464.096	75.5
464.316	94.5
464.536	94.5
464.755	85.5
464.975	102.5
465.195	146.5
465.414	126.5
465.634	95.5
465.854	88.5
466.073	94.5
466.293	90.5
466.512	80.5
466.732	86.5
466.951	101.5
467.171	82.5
467.391	106.5
467.61	108.5
467.829	96.5
468.049	100.5
468.268	113.5
468.488	90.5
468.707	84.5
468.927	84.5
469.146	98.5
469.365	100.5
469.585	93.5
469.804	81.5
470.023	84.5
470.243	106.5
470.462	84.5
470.681	86.5
470.901	86.5
471.12	78.5
471.339	93.5
471.558	81.5
471.777	93.5
471.997	93.5
472.216	133.5
472.435	187.5
472.654	96.5
472.873	97.5
473.092	86.5
473.311	81.5
473.53	81.5
473.749	99.5
473.968	84.5
474.187	99.5
474.406	87.5
474.625	72.5
474.844	84.5
475.063	75.5
475.282	81.5
475.501	88.5
475.72	82.5
475.939	89.5
476.158	76.5
476.377	90.5
476.596	93.5
476.814	90.5
477.033	84.5
477.252	82.5
477.471	82.5
477.69	93.5
477.908	89.5
478.127	91.5
478.346	90.5
478.564	100.5
478.783	100.5
479.002	102.5
479.22	82.5
479.439	87.5
479.658	85.5
479.876	89.5
480.095	90.5
480.313	92.5
480.532	89.5
480.751	120.5
480.969	138.5
481.188	269.5
481.406	183.5
481.624	100.5
481.843	86.5
482.061	85.5
482.28	97.5
482.498	101.5
482.717	106.5
482.935	104.5
483.153	91.5
483.372	100.5
483.59	95.5
483.808	86.5
484.027	97.5
484.245	90.5
484.463	89.5
484.681	81.5
484.9	88.5
485.118	91.5
485.336	104.5
485.554	96.5
485.772	107.5
485.99	105.5
486.209	102.5
486.427	104.5
486.645	104.5
486.863	97.5
487.081	117.5
487.299	104.5
487.517	100.5
487.735	100.5
487.953	81.5
488.171	105.5
488.389	114.5
488.607	91.5
488.825	96.5
489.043	93.5
489.261	87.5
489.479	102.5
489.696	86.5
489.914	72.5
490.132	85.5
490.35	82.5
490.568	86.5
490.786	81.5
491.003	111.5
491.221	80.5
491.439	95.5
491.657	87.5
491.874	73.5
492.092	101.5
492.31	98.5
492.527	95.5
492.745	91.5
492.963	102.5
493.18	94.5
493.398	101.5
493.615	89.5
493.833	98.5
494.05	96.5
494.268	82.5
494.485	93.5
494.703	104.5
494.92	96.5
495.138	82.5
495.355	90.5
495.573	84.5
495.79	86.5
496.008	93.5
496.225	90.5
496.442	84.5
496.66	90.5
496.877	75.5
497.094	111.5
497.312	76.5
497.529	108.5
497.746	87.5
497.963	67.5
498.181	104.5
498.398	96.5
498.615	96.5
498.832	104.5
499.049	86.5
499.267	86.5
499.484	89.5
499.701	93.5
499.918	76.5
500.135	82.5
500.352	87.5
500.569	105.5
500.786	90.5
501.003	83.5
501.22	86.5
501.437	87.5
501.654	86.5
501.871	93.5
502.088	87.5
502.305	99.5
502.522	96.5
502.739	90.5
502.956	74.5
503.172	85.5
503.389	91.5
503.606	108.5
503.823	93.5
504.04	109.5
504.256	102.5
504.473	88.5
504.69	86.5
504.907	99.5
505.123	98.5
505.34	97.5
505.557	96.5
505.773	93.5
505.99	94.5
506.207	90.5
506.423	106.5
506.64	87.5
506.856	87.5
507.073	89.5
507.289	85.5
507.506	100.5
507.722	110.5
507.939	96.5
508.155	109.5
508.372	100.5
508.588	75.5
508.805	94.5
509.021	84.5
509.238	91.5
509.454	88.5
509.67	105.5
509.887	90.5
510.103	136.5
510.319	166.5
510.536	574.5
510.752	1661.5
510.968	473.5
511.184	130.5
511.401	94.5
511.617	89.5
511.833	103.5
512.049	113.5
512.265	92.5
512.481	96.5
512.698	89.5
512.914	85.5
513.13	91.5
513.346	73.5
513.562	108.5
513.778	100.5
513.994	102.5
514.21	98.5
514.426	114.5
514.642	123.5
514.858	116.5
515.074	143.5
515.29	338.5
515.506	990.5
515.721	366.5
515.937	124.5
516.153	98.5
516.369	96.5
516.585	104.5
516.801	98.5
517.016	90.5
517.232	100.5
517.448	91.5
517.664	104.5
517.879	95.5
518.095	97.5
518.311	103.5
518.527	99.5
518.742	105.5
518.958	97.5
519.173	98.5
519.389	98.5
519.605	89.5
519.82	97.5
520.036	101.5
520.251	124.5
520.467	100.5
520.682	102.5
520.898	87.5
521.113	92.5
521.329	125.5
521.544	158.5
521.76	409.5
521.975	1654.5
522.19	990.5
522.406	231.5
522.621	112.5
522.836	92.5
523.052	99.5
523.267	86.5
523.482	97.5
523.698	99.5
523.913	122.5
524.128	102.5
524.343	84.5
524.559	79.5
524.774	89.5
524.989	102.5
525.204	83.5
525.419	86.5
525.634	109.5
525.849	101.5
526.064	74.5
526.28	88.5
526.495	83.5
526.71	86.5
526.925	99.5
527.14	97.5
527.355	83.5
527.57	76.5
527.785	92.5
527.999	89.5
528.214	96.5
528.429	98.5
528.644	96.5
528.859	109.5
529.074	103.5
529.289	100.5
529.503	142.5
529.718	97.5
529.933	90.5
530.148	94.5
530.363	94.5
530.577	79.5
530.792	105.5
531.007	88.5
531.221	88.5
531.436	88.5
531.651	91.5
531.865	104.5
532.08	107.5
532.295	89.5
532.509	98.5
532.724	98.5
532.938	93.5
533.153	84.5
533.367	78.5
533.582	86.5
533.796	91.5
534.011	107.5
534.225	83.5
534.44	86.5
534.654	91.5
534.868	88.5
535.083	83.5
535.297	76.5
