Data from Circ_1983_H10_HRD10591_00069.txt Node
Date: Wed Jan 03 12:26:58 EST 2024
User: Yrep
Spectrometer: HR+D1059
Trigger mode: 1
Integration Time (sec): 1.000000E-1
Scans to average: 1
Electric dark correction enabled: true
Nonlinearity correction enabled: false
Boxcar width: 0
XAxis mode: Wavelengths
Number of Pixels in Spectrum: 2048
>>>>>Begin Spectral Data<<<<<
223.165	-11.62
223.4	-11.62
223.635	-11.62
223.869	-29.62
224.104	-15.62
224.338	-25.62
224.573	-15.62
224.808	-8.62
225.042	3.38
225.277	-9.62
225.511	8.38
225.746	9.38
225.98	-0.62
226.215	2.38
226.449	16.38
226.683	15.38
226.918	40.38
227.152	21.38
227.387	49.38
227.621	42.38
227.856	53.38
228.09	43.38
228.324	62.38
228.559	75.38
228.793	57.38
229.027	59.38
229.262	57.38
229.496	62.38
229.73	80.38
229.964	60.38
230.199	82.38
230.433	74.38
230.667	80.38
230.901	78.38
231.136	87.38
231.37	78.38
231.604	76.38
231.838	82.38
232.072	78.38
232.306	82.38
232.541	94.38
232.775	88.38
233.009	78.38
233.243	88.38
233.477	75.38
233.711	84.38
233.945	78.38
234.179	91.38
234.413	85.38
234.647	85.38
234.881	82.38
235.115	85.38
235.349	82.38
235.583	86.38
235.817	75.38
236.051	86.38
236.285	72.38
236.519	71.38
236.753	76.38
236.987	94.38
237.221	73.38
237.455	84.38
237.689	77.38
237.922	82.38
238.156	74.38
238.39	82.38
238.624	68.38
238.858	60.38
239.091	68.38
239.325	73.38
239.559	78.38
239.793	84.38
240.027	75.38
240.26	93.38
240.494	80.38
240.728	68.38
240.961	97.38
241.195	91.38
241.429	75.38
241.662	83.38
241.896	83.38
242.13	74.38
242.363	74.38
242.597	76.38
242.83	86.38
243.064	87.38
243.298	87.38
243.531	71.38
243.765	80.38
243.998	82.38
244.232	79.38
244.465	96.38
244.699	105.38
244.932	80.38
245.166	88.38
245.399	76.38
245.633	64.38
245.866	82.38
246.099	80.38
246.333	70.38
246.566	77.38
246.8	83.38
247.033	75.38
247.266	76.38
247.5	85.38
247.733	76.38
247.966	79.38
248.2	82.38
248.433	84.38
248.666	84.38
248.899	82.38
249.133	85.38
249.366	99.38
249.599	70.38
249.832	76.38
250.066	83.38
250.299	84.38
250.532	82.38
250.765	80.38
250.998	88.38
251.231	82.38
251.465	89.38
251.698	90.38
251.931	87.38
252.164	90.38
252.397	82.38
252.63	88.38
252.863	79.38
253.096	91.38
253.329	74.38
253.562	76.38
253.795	96.38
254.028	76.38
254.261	94.38
254.494	86.38
254.727	82.38
254.96	80.38
255.193	89.38
255.426	92.38
255.659	75.38
255.892	87.38
256.124	89.38
256.357	95.38
256.59	76.38
256.823	86.38
257.056	85.38
257.289	87.38
257.521	95.38
257.754	91.38
257.987	69.38
258.22	79.38
258.452	68.38
258.685	95.38
258.918	84.38
259.151	87.38
259.383	93.38
259.616	79.38
259.849	79.38
260.081	83.38
260.314	84.38
260.547	80.38
260.779	92.38
261.012	88.38
261.244	81.38
261.477	90.38
261.71	94.38
261.942	103.38
262.175	102.38
262.407	90.38
262.64	76.38
262.872	79.38
263.105	79.38
263.337	77.38
263.57	79.38
263.802	95.38
264.035	96.38
264.267	99.38
264.499	94.38
264.732	68.38
264.964	84.38
265.197	86.38
265.429	100.38
265.661	74.38
265.894	87.38
266.126	84.38
266.358	96.38
266.591	79.38
266.823	91.38
267.055	78.38
267.287	78.38
267.52	85.38
267.752	88.38
267.984	88.38
268.216	89.38
268.448	92.38
268.681	88.38
268.913	95.38
269.145	99.38
269.377	98.38
269.609	67.38
269.841	103.38
270.073	102.38
270.306	86.38
270.538	93.38
270.77	88.38
271.002	81.38
271.234	87.38
271.466	81.38
271.698	97.38
271.93	91.38
272.162	89.38
272.394	84.38
272.626	89.38
272.858	90.38
273.09	85.38
273.322	89.38
273.553	95.38
273.785	80.38
274.017	79.38
274.249	70.38
274.481	76.38
274.713	92.38
274.945	91.38
275.176	87.38
275.408	91.38
275.64	108.38
275.872	90.38
276.104	88.38
276.335	93.38
276.567	90.38
276.799	92.38
277.031	98.38
277.262	102.38
277.494	96.38
277.726	84.38
277.957	82.38
278.189	92.38
278.421	78.38
278.652	84.38
278.884	100.38
279.115	95.38
279.347	90.38
279.579	84.38
279.81	104.38
280.042	91.38
280.273	101.38
280.505	95.38
280.736	88.38
280.968	88.38
281.199	82.38
281.431	88.38
281.662	107.38
281.894	92.38
282.125	89.38
282.356	99.38
282.588	126.38
282.819	106.38
283.051	83.38
283.282	86.38
283.513	93.38
283.745	94.38
283.976	85.38
284.207	83.38
284.439	85.38
284.67	81.38
284.901	81.38
285.132	84.38
285.364	91.38
285.595	92.38
285.826	87.38
286.057	84.38
286.288	93.38
286.52	90.38
286.751	86.38
286.982	89.38
287.213	76.38
287.444	90.38
287.675	103.38
287.906	97.38
288.138	93.38
288.369	88.38
288.6	110.38
288.831	68.38
289.062	87.38
289.293	78.38
289.524	77.38
289.755	87.38
289.986	90.38
290.217	95.38
290.448	92.38
290.679	89.38
290.91	103.38
291.141	86.38
291.371	69.38
291.602	84.38
291.833	74.38
292.064	89.38
292.295	90.38
292.526	77.38
292.757	85.38
292.987	91.38
293.218	84.38
293.449	87.38
293.68	91.38
293.91	91.38
294.141	102.38
294.372	84.38
294.603	86.38
294.833	78.38
295.064	77.38
295.295	96.38
295.525	101.38
295.756	98.38
295.987	104.38
296.217	121.38
296.448	122.38
296.679	99.38
296.909	105.38
297.14	85.38
297.37	99.38
297.601	75.38
297.831	89.38
298.062	105.38
298.292	94.38
298.523	92.38
298.753	103.38
298.984	82.38
299.214	75.38
299.445	91.38
299.675	98.38
299.905	100.38
300.136	103.38
300.366	95.38
300.597	89.38
300.827	104.38
301.057	102.38
301.288	99.38
301.518	106.38
301.748	89.38
301.979	90.38
302.209	89.38
302.439	75.38
302.669	97.38
302.9	90.38
303.13	106.38
303.36	73.38
303.59	86.38
303.82	105.38
304.051	98.38
304.281	82.38
304.511	92.38
304.741	81.38
304.971	102.38
305.201	98.38
305.431	101.38
305.661	96.38
305.891	83.38
306.121	91.38
306.352	93.38
306.582	102.38
306.812	96.38
307.042	91.38
307.272	95.38
307.502	83.38
307.731	99.38
307.961	107.38
308.191	78.38
308.421	95.38
308.651	97.38
308.881	87.38
309.111	95.38
309.341	78.38
309.571	92.38
309.8	106.38
310.03	103.38
310.26	98.38
310.49	103.38
310.72	103.38
310.949	106.38
311.179	87.38
311.409	91.38
311.639	91.38
311.868	77.38
312.098	102.38
312.328	91.38
312.557	98.38
312.787	78.38
313.017	91.38
313.246	98.38
313.476	92.38
313.706	95.38
313.935	78.38
314.165	102.38
314.394	95.38
314.624	90.38
314.853	95.38
315.083	85.38
315.312	102.38
315.542	92.38
315.771	82.38
316.001	87.38
316.23	102.38
316.46	87.38
316.689	86.38
316.919	88.38
317.148	95.38
317.377	88.38
317.607	92.38
317.836	85.38
318.065	100.38
318.295	99.38
318.524	102.38
318.753	95.38
318.983	85.38
319.212	94.38
319.441	95.38
319.67	114.38
319.9	88.38
320.129	106.38
320.358	99.38
320.587	94.38
320.816	99.38
321.046	101.38
321.275	104.38
321.504	85.38
321.733	88.38
321.962	104.38
322.191	103.38
322.42	99.38
322.649	98.38
322.878	102.38
323.108	116.38
323.337	129.38
323.566	116.38
323.795	139.38
324.024	168.38
324.253	304.38
324.482	612.38
324.71	1216.38
324.939	1592.38
325.168	608.38
325.397	188.38
325.626	133.38
325.855	128.38
326.084	125.38
326.313	118.38
326.542	149.38
326.77	194.38
326.999	354.38
327.228	694.38
327.457	1250.38
327.686	1011.38
327.914	329.38
328.143	199.38
328.372	190.38
328.6	129.38
328.829	122.38
329.058	124.38
329.287	114.38
329.515	94.38
329.744	121.38
329.972	119.38
330.201	176.38
330.43	224.38
330.658	144.38
330.887	134.38
331.115	109.38
331.344	101.38
331.572	88.38
331.801	92.38
332.03	123.38
332.258	104.38
332.486	90.38
332.715	101.38
332.943	82.38
333.172	101.38
333.4	92.38
333.629	100.38
333.857	115.38
334.085	136.38
334.314	185.38
334.542	284.38
334.771	248.38
334.999	138.38
335.227	109.38
335.455	105.38
335.684	103.38
335.912	98.38
336.14	98.38
336.369	90.38
336.597	102.38
336.825	106.38
337.053	109.38
337.281	76.38
337.51	111.38
337.738	92.38
337.966	86.38
338.194	77.38
338.422	93.38
338.65	102.38
338.878	93.38
339.106	84.38
339.334	104.38
339.562	114.38
339.79	82.38
340.018	76.38
340.246	103.38
340.474	102.38
340.702	88.38
340.93	92.38
341.158	85.38
341.386	110.38
341.614	94.38
341.842	84.38
342.07	86.38
342.298	96.38
342.526	90.38
342.754	86.38
342.981	80.38
343.209	90.38
343.437	95.38
343.665	88.38
343.893	94.38
344.12	92.38
344.348	86.38
344.576	98.38
344.804	90.38
345.031	92.38
345.259	99.38
345.487	99.38
345.714	93.38
345.942	94.38
346.17	89.38
346.397	87.38
346.625	105.38
346.853	94.38
347.08	93.38
347.308	91.38
347.535	95.38
347.763	93.38
347.99	88.38
348.218	93.38
348.445	112.38
348.673	106.38
348.9	100.38
349.128	105.38
349.355	85.38
349.583	89.38
349.81	83.38
350.037	91.38
350.265	107.38
350.492	99.38
350.72	96.38
350.947	98.38
351.174	97.38
351.402	98.38
351.629	99.38
351.856	90.38
352.083	92.38
352.311	116.38
352.538	97.38
352.765	111.38
352.992	110.38
353.22	97.38
353.447	95.38
353.674	116.38
353.901	94.38
354.128	102.38
354.355	89.38
354.583	106.38
354.81	98.38
355.037	102.38
355.264	109.38
355.491	87.38
355.718	100.38
355.945	98.38
356.172	94.38
356.399	101.38
356.626	80.38
356.853	88.38
357.08	101.38
357.307	98.38
357.534	81.38
357.761	82.38
357.988	101.38
358.215	103.38
358.441	96.38
358.668	91.38
358.895	93.38
359.122	96.38
359.349	100.38
359.576	97.38
359.802	100.38
360.029	115.38
360.256	103.38
360.483	100.38
360.709	102.38
360.936	90.38
361.163	93.38
361.39	89.38
361.616	92.38
361.843	95.38
362.07	77.38
362.296	104.38
362.523	95.38
362.749	111.38
362.976	87.38
363.203	83.38
363.429	114.38
363.656	101.38
363.882	86.38
364.109	78.38
364.335	92.38
364.562	101.38
364.788	92.38
365.015	98.38
365.241	99.38
365.468	95.38
365.694	94.38
365.92	77.38
366.147	78.38
366.373	105.38
366.599	90.38
366.826	103.38
367.052	94.38
367.278	110.38
367.505	88.38
367.731	103.38
367.957	91.38
368.184	94.38
368.41	96.38
368.636	103.38
368.862	98.38
369.089	109.38
369.315	104.38
369.541	107.38
369.767	89.38
369.993	100.38
370.219	84.38
370.445	83.38
370.672	87.38
370.898	96.38
371.124	90.38
371.35	98.38
371.576	88.38
371.802	94.38
372.028	95.38
372.254	90.38
372.48	75.38
372.706	98.38
372.932	92.38
373.158	99.38
373.384	101.38
373.61	101.38
373.835	74.38
374.061	90.38
374.287	75.38
374.513	93.38
374.739	94.38
374.965	85.38
375.191	91.38
375.416	86.38
375.642	106.38
375.868	96.38
376.094	101.38
376.319	97.38
376.545	109.38
376.771	90.38
376.997	94.38
377.222	94.38
377.448	90.38
377.674	101.38
377.899	88.38
378.125	101.38
378.35	82.38
378.576	97.38
378.802	95.38
379.027	88.38
379.253	102.38
379.478	115.38
379.704	92.38
379.929	87.38
380.155	86.38
380.38	89.38
380.606	98.38
380.831	87.38
381.057	103.38
381.282	96.38
381.507	94.38
381.733	106.38
381.958	92.38
382.184	104.38
382.409	108.38
382.634	108.38
382.86	96.38
383.085	83.38
383.31	105.38
383.535	92.38
383.761	101.38
383.986	91.38
384.211	102.38
384.436	100.38
384.662	98.38
384.887	112.38
385.112	123.38
385.337	114.38
385.562	107.38
385.787	109.38
386.013	114.38
386.238	116.38
386.463	111.38
386.688	121.38
386.913	101.38
387.138	100.38
387.363	96.38
387.588	121.38
387.813	110.38
388.038	94.38
388.263	119.38
388.488	110.38
388.713	86.38
388.938	87.38
389.163	86.38
389.387	106.38
389.612	104.38
389.837	109.38
390.062	88.38
390.287	90.38
390.512	107.38
390.736	93.38
390.961	95.38
391.186	85.38
391.411	93.38
391.636	94.38
391.86	89.38
392.085	77.38
392.31	82.38
392.534	86.38
392.759	85.38
392.984	89.38
393.208	90.38
393.433	100.38
393.658	88.38
393.882	98.38
394.107	87.38
394.331	88.38
394.556	75.38
394.78	85.38
395.005	90.38
395.229	106.38
395.454	88.38
395.678	78.38
395.903	76.38
396.127	101.38
396.352	82.38
396.576	83.38
396.801	84.38
397.025	103.38
397.249	79.38
397.474	94.38
397.698	94.38
397.922	78.38
398.147	79.38
398.371	87.38
398.595	93.38
398.82	92.38
399.044	94.38
399.268	84.38
399.492	93.38
399.717	83.38
399.941	100.38
400.165	91.38
400.389	95.38
400.613	84.38
400.837	96.38
401.062	88.38
401.286	93.38
401.51	92.38
401.734	91.38
401.958	98.38
402.182	102.38
402.406	128.38
402.63	108.38
402.854	105.38
403.078	95.38
403.302	94.38
403.526	88.38
403.75	93.38
403.974	78.38
404.198	102.38
404.422	99.38
404.645	76.38
404.869	109.38
405.093	99.38
405.317	101.38
405.541	108.38
405.765	106.38
405.988	94.38
406.212	136.38
406.436	183.38
406.66	122.38
406.883	95.38
407.107	96.38
407.331	97.38
407.555	80.38
407.778	95.38
408.002	98.38
408.226	86.38
408.449	92.38
408.673	99.38
408.896	98.38
409.12	86.38
409.344	86.38
409.567	104.38
409.791	88.38
410.014	94.38
410.238	90.38
410.461	101.38
410.685	94.38
410.908	98.38
411.132	108.38
411.355	112.38
411.578	103.38
411.802	96.38
412.025	89.38
412.249	88.38
412.472	86.38
412.695	117.38
412.919	95.38
413.142	89.38
413.365	75.38
413.589	86.38
413.812	86.38
414.035	110.38
414.258	88.38
414.482	85.38
414.705	74.38
414.928	101.38
415.151	90.38
415.374	99.38
415.597	87.38
415.821	88.38
416.044	91.38
416.267	84.38
416.49	78.38
416.713	98.38
416.936	85.38
417.159	88.38
417.382	84.38
417.605	97.38
417.828	91.38
418.051	84.38
418.274	93.38
418.497	100.38
418.72	86.38
418.943	95.38
419.166	78.38
419.389	93.38
419.611	86.38
419.834	91.38
420.057	86.38
420.28	92.38
420.503	94.38
420.726	100.38
420.948	96.38
421.171	86.38
421.394	89.38
421.617	98.38
421.839	94.38
422.062	96.38
422.285	90.38
422.507	96.38
422.73	102.38
422.953	92.38
423.175	98.38
423.398	91.38
423.621	84.38
423.843	90.38
424.066	85.38
424.288	90.38
424.511	98.38
424.733	111.38
424.956	99.38
425.178	94.38
425.401	90.38
425.623	102.38
425.846	108.38
426.068	102.38
426.291	102.38
426.513	107.38
426.735	91.38
426.958	90.38
427.18	115.38
427.402	118.38
427.625	142.38
427.847	123.38
428.069	127.38
428.292	103.38
428.514	89.38
428.736	95.38
428.958	70.38
429.181	91.38
429.403	91.38
429.625	86.38
429.847	94.38
430.069	89.38
430.292	90.38
430.514	82.38
430.736	84.38
430.958	74.38
431.18	88.38
431.402	82.38
431.624	82.38
431.846	82.38
432.068	93.38
432.29	98.38
432.512	96.38
432.734	79.38
432.956	78.38
433.178	101.38
433.4	106.38
433.622	82.38
433.844	100.38
434.066	108.38
434.287	87.38
434.509	84.38
434.731	96.38
434.953	85.38
435.175	98.38
435.397	90.38
435.618	88.38
435.84	89.38
436.062	118.38
436.284	108.38
436.505	101.38
436.727	101.38
436.949	93.38
437.17	84.38
437.392	79.38
437.614	100.38
437.835	104.38
438.057	116.38
438.278	113.38
438.5	88.38
438.721	106.38
438.943	93.38
439.165	87.38
439.386	92.38
439.608	90.38
439.829	91.38
440.05	104.38
440.272	127.38
440.493	99.38
440.715	99.38
440.936	79.38
441.158	96.38
441.379	91.38
441.6	94.38
441.822	94.38
442.043	97.38
442.264	98.38
442.486	95.38
442.707	99.38
442.928	92.38
443.149	117.38
443.371	99.38
443.592	98.38
443.813	104.38
444.034	94.38
444.255	89.38
444.476	98.38
444.698	92.38
444.919	92.38
445.14	133.38
445.361	112.38
445.582	118.38
445.803	130.38
446.024	117.38
446.245	132.38
446.466	103.38
446.687	94.38
446.908	94.38
447.129	80.38
447.35	91.38
447.571	102.38
447.792	87.38
448.013	92.38
448.234	111.38
448.455	95.38
448.675	101.38
448.896	112.38
449.117	99.38
449.338	84.38
449.559	98.38
449.779	117.38
450	106.38
450.221	91.38
450.442	92.38
450.662	89.38
450.883	91.38
451.104	94.38
451.324	101.38
451.545	94.38
451.766	95.38
451.986	97.38
452.207	101.38
452.428	92.38
452.648	92.38
452.869	96.38
453.089	96.38
453.31	114.38
453.53	103.38
453.751	80.38
453.971	93.38
454.192	103.38
454.412	103.38
454.633	95.38
454.853	85.38
455.073	87.38
455.294	80.38
455.514	98.38
455.734	97.38
455.955	91.38
456.175	104.38
456.395	92.38
456.616	80.38
456.836	91.38
457.056	90.38
457.276	89.38
457.497	84.38
457.717	94.38
457.937	90.38
458.157	96.38
458.377	86.38
458.598	98.38
458.818	126.38
459.038	135.38
459.258	104.38
459.478	89.38
459.698	90.38
459.918	95.38
460.138	91.38
460.358	84.38
460.578	92.38
460.798	92.38
461.018	98.38
461.238	87.38
461.458	88.38
461.678	78.38
461.898	99.38
462.118	86.38
462.338	89.38
462.558	90.38
462.777	88.38
462.997	91.38
463.217	87.38
463.437	88.38
463.657	88.38
463.876	84.38
464.096	83.38
464.316	101.38
464.536	87.38
464.755	83.38
464.975	106.38
465.195	130.38
465.414	129.38
465.634	100.38
465.854	100.38
466.073	95.38
466.293	97.38
466.512	76.38
466.732	84.38
466.951	86.38
467.171	103.38
467.391	90.38
467.61	88.38
467.829	94.38
468.049	130.38
468.268	153.38
468.488	86.38
468.707	93.38
468.927	97.38
469.146	84.38
469.365	93.38
469.585	94.38
469.804	90.38
470.023	96.38
470.243	94.38
470.462	84.38
470.681	113.38
470.901	86.38
471.12	80.38
471.339	103.38
471.558	96.38
471.777	80.38
471.997	105.38
472.216	208.38
472.435	332.38
472.654	142.38
472.873	103.38
473.092	93.38
473.311	93.38
473.53	94.38
473.749	66.38
473.968	82.38
474.187	88.38
474.406	99.38
474.625	89.38
474.844	94.38
475.063	90.38
475.282	93.38
475.501	83.38
475.72	100.38
475.939	106.38
476.158	103.38
476.377	93.38
476.596	90.38
476.814	92.38
477.033	93.38
477.252	90.38
477.471	87.38
477.69	88.38
477.908	89.38
478.127	88.38
478.346	90.38
478.564	85.38
478.783	110.38
479.002	104.38
479.22	87.38
479.439	102.38
479.658	97.38
479.876	86.38
480.095	82.38
480.313	97.38
480.532	99.38
480.751	115.38
480.969	200.38
481.188	563.38
481.406	362.38
481.624	116.38
481.843	94.38
482.061	79.38
482.28	101.38
482.498	90.38
482.717	88.38
482.935	94.38
483.153	85.38
483.372	92.38
483.59	90.38
483.808	94.38
484.027	95.38
484.245	91.38
484.463	92.38
484.681	98.38
484.9	123.38
485.118	107.38
485.336	98.38
485.554	87.38
485.772	89.38
485.99	105.38
486.209	105.38
486.427	103.38
486.645	119.38
486.863	92.38
487.081	104.38
487.299	96.38
487.517	86.38
487.735	88.38
487.953	99.38
488.171	79.38
488.389	102.38
488.607	111.38
488.825	86.38
489.043	88.38
489.261	90.38
489.479	90.38
489.696	90.38
489.914	88.38
490.132	94.38
490.35	90.38
490.568	102.38
490.786	93.38
491.003	85.38
491.221	93.38
491.439	94.38
491.657	108.38
491.874	100.38
492.092	87.38
492.31	102.38
492.527	96.38
492.745	99.38
492.963	83.38
493.18	86.38
493.398	95.38
493.615	77.38
493.833	110.38
494.05	90.38
494.268	104.38
494.485	102.38
494.703	89.38
494.92	89.38
495.138	88.38
495.355	110.38
495.573	88.38
495.79	94.38
496.008	99.38
496.225	86.38
496.442	92.38
496.66	92.38
496.877	105.38
497.094	96.38
497.312	103.38
497.529	99.38
497.746	95.38
497.963	85.38
498.181	88.38
498.398	97.38
498.615	116.38
498.832	91.38
499.049	82.38
499.267	91.38
499.484	86.38
499.701	95.38
499.918	89.38
500.135	92.38
500.352	101.38
500.569	91.38
500.786	96.38
501.003	98.38
501.22	103.38
501.437	94.38
501.654	96.38
501.871	92.38
502.088	95.38
502.305	95.38
502.522	96.38
502.739	102.38
502.956	76.38
503.172	87.38
503.389	84.38
503.606	94.38
503.823	90.38
504.04	99.38
504.256	81.38
504.473	97.38
504.69	95.38
504.907	99.38
505.123	91.38
505.34	99.38
505.557	86.38
505.773	88.38
505.99	86.38
506.207	93.38
506.423	100.38
506.64	88.38
506.856	92.38
507.073	98.38
507.289	90.38
507.506	96.38
507.722	102.38
507.939	94.38
508.155	109.38
508.372	94.38
508.588	94.38
508.805	94.38
509.021	91.38
509.238	90.38
509.454	92.38
509.67	97.38
509.887	108.38
510.103	124.38
510.319	174.38
510.536	552.38
510.752	1622.38
510.968	476.38
511.184	139.38
511.401	107.38
511.617	106.38
511.833	104.38
512.049	77.38
512.265	94.38
512.481	92.38
512.698	82.38
512.914	100.38
513.13	104.38
513.346	78.38
513.562	98.38
513.778	92.38
513.994	88.38
514.21	102.38
514.426	100.38
514.642	130.38
514.858	105.38
515.074	151.38
515.29	341.38
