Data from Circ_1983_H10_HRD10591_00027.txt Node
Date: Wed Jan 03 12:26:50 EST 2024
User: Yrep
Spectrometer: HR+D1059
Trigger mode: 1
Integration Time (sec): 1.000000E-1
Scans to average: 1
Electric dark correction enabled: true
Nonlinearity correction enabled: false
Boxcar width: 0
XAxis mode: Wavelengths
Number of Pixels in Spectrum: 2048
>>>>>Begin Spectral Data<<<<<
223.165	-4.19
223.4	-4.19
223.635	-4.19
223.869	-7.19
224.104	-23.19
224.338	-12.19
224.573	-16.19
224.808	-17.19
225.042	-12.19
225.277	-17.19
225.511	-6.19
225.746	7.81
225.98	22.81
226.215	2.81
226.449	17.81
226.683	15.81
226.918	23.81
227.152	24.81
227.387	28.81
227.621	38.81
227.856	61.81
228.09	51.81
228.324	55.81
228.559	58.81
228.793	63.81
229.027	65.81
229.262	39.81
229.496	59.81
229.73	82.81
229.964	82.81
230.199	62.81
230.433	82.81
230.667	70.81
230.901	78.81
231.136	70.81
231.37	79.81
231.604	85.81
231.838	73.81
232.072	77.81
232.306	77.81
232.541	88.81
232.775	84.81
233.009	88.81
233.243	88.81
233.477	78.81
233.711	78.81
233.945	77.81
234.179	69.81
234.413	82.81
234.647	83.81
234.881	83.81
235.115	80.81
235.349	67.81
235.583	71.81
235.817	85.81
236.051	80.81
236.285	74.81
236.519	65.81
236.753	72.81
236.987	83.81
237.221	73.81
237.455	60.81
237.689	69.81
237.922	70.81
238.156	63.81
238.39	81.81
238.624	61.81
238.858	74.81
239.091	78.81
239.325	77.81
239.559	63.81
239.793	68.81
240.027	67.81
240.26	58.81
240.494	86.81
240.728	74.81
240.961	72.81
241.195	56.81
241.429	71.81
241.662	75.81
241.896	68.81
242.13	73.81
242.363	62.81
242.597	89.81
242.83	61.81
243.064	69.81
243.298	77.81
243.531	73.81
243.765	65.81
243.998	83.81
244.232	80.81
244.465	81.81
244.699	69.81
244.932	89.81
245.166	73.81
245.399	85.81
245.633	74.81
245.866	58.81
246.099	69.81
246.333	73.81
246.566	74.81
246.8	81.81
247.033	82.81
247.266	73.81
247.5	81.81
247.733	62.81
247.966	60.81
248.2	70.81
248.433	77.81
248.666	68.81
248.899	82.81
249.133	85.81
249.366	74.81
249.599	95.81
249.832	94.81
250.066	81.81
250.299	82.81
250.532	64.81
250.765	77.81
250.998	68.81
251.231	75.81
251.465	79.81
251.698	63.81
251.931	79.81
252.164	79.81
252.397	81.81
252.63	81.81
252.863	71.81
253.096	85.81
253.329	81.81
253.562	88.81
253.795	83.81
254.028	89.81
254.261	71.81
254.494	85.81
254.727	80.81
254.96	88.81
255.193	73.81
255.426	87.81
255.659	79.81
255.892	82.81
256.124	86.81
256.357	88.81
256.59	71.81
256.823	89.81
257.056	82.81
257.289	82.81
257.521	78.81
257.754	80.81
257.987	63.81
258.22	74.81
258.452	87.81
258.685	83.81
258.918	66.81
259.151	74.81
259.383	80.81
259.616	83.81
259.849	81.81
260.081	79.81
260.314	74.81
260.547	73.81
260.779	79.81
261.012	85.81
261.244	87.81
261.477	77.81
261.71	83.81
261.942	109.81
262.175	85.81
262.407	85.81
262.64	85.81
262.872	79.81
263.105	72.81
263.337	70.81
263.57	88.81
263.802	89.81
264.035	83.81
264.267	80.81
264.499	80.81
264.732	61.81
264.964	85.81
265.197	83.81
265.429	71.81
265.661	85.81
265.894	81.81
266.126	86.81
266.358	70.81
266.591	91.81
266.823	74.81
267.055	68.81
267.287	88.81
267.52	77.81
267.752	90.81
267.984	73.81
268.216	81.81
268.448	86.81
268.681	86.81
268.913	78.81
269.145	73.81
269.377	91.81
269.609	80.81
269.841	93.81
270.073	81.81
270.306	88.81
270.538	83.81
270.77	72.81
271.002	69.81
271.234	75.81
271.466	104.81
271.698	93.81
271.93	75.81
272.162	81.81
272.394	84.81
272.626	69.81
272.858	68.81
273.09	94.81
273.322	90.81
273.553	87.81
273.785	83.81
274.017	92.81
274.249	94.81
274.481	78.81
274.713	66.81
274.945	82.81
275.176	83.81
275.408	85.81
275.64	86.81
275.872	74.81
276.104	77.81
276.335	67.81
276.567	85.81
276.799	85.81
277.031	87.81
277.262	87.81
277.494	85.81
277.726	83.81
277.957	83.81
278.189	72.81
278.421	74.81
278.652	88.81
278.884	79.81
279.115	77.81
279.347	88.81
279.579	98.81
279.81	95.81
280.042	96.81
280.273	93.81
280.505	85.81
280.736	83.81
280.968	81.81
281.199	82.81
281.431	88.81
281.662	92.81
281.894	75.81
282.125	83.81
282.356	94.81
282.588	114.81
282.819	101.81
283.051	73.81
283.282	94.81
283.513	78.81
283.745	100.81
283.976	65.81
284.207	84.81
284.439	74.81
284.67	90.81
284.901	80.81
285.132	103.81
285.364	79.81
285.595	78.81
285.826	86.81
286.057	87.81
286.288	77.81
286.52	88.81
286.751	89.81
286.982	89.81
287.213	81.81
287.444	82.81
287.675	81.81
287.906	84.81
288.138	84.81
288.369	95.81
288.6	83.81
288.831	77.81
289.062	74.81
289.293	70.81
289.524	87.81
289.755	68.81
289.986	79.81
290.217	75.81
290.448	83.81
290.679	88.81
290.91	83.81
291.141	85.81
291.371	97.81
291.602	86.81
291.833	76.81
292.064	100.81
292.295	83.81
292.526	88.81
292.757	97.81
292.987	74.81
293.218	83.81
293.449	83.81
293.68	88.81
293.91	94.81
294.141	91.81
294.372	96.81
294.603	81.81
294.833	81.81
295.064	81.81
295.295	103.81
295.525	89.81
295.756	88.81
295.987	101.81
296.217	113.81
296.448	98.81
296.679	85.81
296.909	101.81
297.14	71.81
297.37	73.81
297.601	89.81
297.831	84.81
298.062	102.81
298.292	87.81
298.523	102.81
298.753	86.81
298.984	94.81
299.214	83.81
299.445	114.81
299.675	90.81
299.905	100.81
300.136	95.81
300.366	93.81
300.597	87.81
300.827	97.81
301.057	90.81
301.288	93.81
301.518	90.81
301.748	93.81
301.979	97.81
302.209	96.81
302.439	82.81
302.669	87.81
302.9	85.81
303.13	87.81
303.36	98.81
303.59	98.81
303.82	86.81
304.051	89.81
304.281	90.81
304.511	96.81
304.741	78.81
304.971	82.81
305.201	94.81
305.431	93.81
305.661	86.81
305.891	93.81
306.121	95.81
306.352	82.81
306.582	93.81
306.812	93.81
307.042	87.81
307.272	70.81
307.502	83.81
307.731	75.81
307.961	96.81
308.191	77.81
308.421	86.81
308.651	99.81
308.881	89.81
309.111	80.81
309.341	95.81
309.571	102.81
309.8	81.81
310.03	96.81
310.26	89.81
310.49	83.81
310.72	101.81
310.949	84.81
311.179	84.81
311.409	85.81
311.639	88.81
311.868	101.81
312.098	107.81
312.328	87.81
312.557	91.81
312.787	95.81
313.017	92.81
313.246	94.81
313.476	93.81
313.706	98.81
313.935	93.81
314.165	81.81
314.394	95.81
314.624	79.81
314.853	94.81
315.083	89.81
315.312	80.81
315.542	79.81
315.771	90.81
316.001	95.81
316.23	98.81
316.46	79.81
316.689	81.81
316.919	86.81
317.148	102.81
317.377	98.81
317.607	83.81
317.836	90.81
318.065	79.81
318.295	97.81
318.524	78.81
318.753	88.81
318.983	89.81
319.212	101.81
319.441	116.81
319.67	100.81
319.9	95.81
320.129	87.81
320.358	80.81
320.587	98.81
320.816	85.81
321.046	87.81
321.275	93.81
321.504	84.81
321.733	89.81
321.962	88.81
322.191	89.81
322.42	107.81
322.649	115.81
322.878	83.81
323.108	111.81
323.337	107.81
323.566	111.81
323.795	112.81
324.024	169.81
324.253	282.81
324.482	607.81
324.71	1167.81
324.939	1539.81
325.168	599.81
325.397	182.81
325.626	125.81
325.855	109.81
326.084	107.81
326.313	111.81
326.542	121.81
326.77	190.81
326.999	331.81
327.228	658.81
327.457	1178.81
327.686	939.81
327.914	277.81
328.143	165.81
328.372	162.81
328.6	126.81
328.829	106.81
329.058	111.81
329.287	101.81
329.515	99.81
329.744	115.81
329.972	118.81
330.201	142.81
330.43	146.81
330.658	127.81
330.887	111.81
331.115	114.81
331.344	92.81
331.572	92.81
331.801	95.81
332.03	101.81
332.258	94.81
332.486	90.81
332.715	98.81
332.943	79.81
333.172	89.81
333.4	85.81
333.629	94.81
333.857	107.81
334.085	106.81
334.314	130.81
334.542	174.81
334.771	179.81
334.999	115.81
335.227	89.81
335.455	93.81
335.684	87.81
335.912	94.81
336.14	107.81
336.369	104.81
336.597	95.81
336.825	103.81
337.053	91.81
337.281	93.81
337.51	89.81
337.738	94.81
337.966	89.81
338.194	91.81
338.422	87.81
338.65	83.81
338.878	83.81
339.106	80.81
339.334	86.81
339.562	69.81
339.79	93.81
340.018	91.81
340.246	94.81
340.474	81.81
340.702	93.81
340.93	93.81
341.158	91.81
341.386	85.81
341.614	81.81
341.842	90.81
342.07	73.81
342.298	93.81
342.526	97.81
342.754	90.81
342.981	78.81
343.209	87.81
343.437	105.81
343.665	89.81
343.893	101.81
344.12	77.81
344.348	93.81
344.576	92.81
344.804	95.81
345.031	93.81
345.259	98.81
345.487	90.81
345.714	89.81
345.942	87.81
346.17	92.81
346.397	74.81
346.625	83.81
346.853	90.81
347.08	88.81
347.308	94.81
347.535	90.81
347.763	100.81
347.99	94.81
348.218	94.81
348.445	90.81
348.673	83.81
348.9	94.81
349.128	96.81
349.355	84.81
349.583	95.81
349.81	96.81
350.037	94.81
350.265	83.81
350.492	86.81
350.72	95.81
350.947	87.81
351.174	100.81
351.402	93.81
351.629	103.81
351.856	93.81
352.083	89.81
352.311	96.81
352.538	103.81
352.765	95.81
352.992	104.81
353.22	91.81
353.447	100.81
353.674	101.81
353.901	97.81
354.128	85.81
354.355	89.81
354.583	94.81
354.81	97.81
355.037	94.81
355.264	81.81
355.491	86.81
355.718	90.81
355.945	90.81
356.172	90.81
356.399	90.81
356.626	93.81
356.853	81.81
357.08	86.81
357.307	96.81
357.534	91.81
357.761	95.81
357.988	90.81
358.215	93.81
358.441	89.81
358.668	82.81
358.895	74.81
359.122	85.81
359.349	79.81
359.576	69.81
359.802	95.81
360.029	95.81
360.256	94.81
360.483	97.81
360.709	92.81
360.936	80.81
361.163	78.81
361.39	90.81
361.616	90.81
361.843	95.81
362.07	95.81
362.296	85.81
362.523	87.81
362.749	94.81
362.976	81.81
363.203	73.81
363.429	99.81
363.656	69.81
363.882	75.81
364.109	86.81
364.335	73.81
364.562	83.81
364.788	101.81
365.015	75.81
365.241	90.81
365.468	88.81
365.694	87.81
365.92	90.81
366.147	92.81
366.373	89.81
366.599	83.81
366.826	83.81
367.052	74.81
367.278	81.81
367.505	79.81
367.731	78.81
367.957	80.81
368.184	103.81
368.41	89.81
368.636	104.81
368.862	109.81
369.089	96.81
369.315	81.81
369.541	104.81
369.767	88.81
369.993	93.81
370.219	78.81
370.445	81.81
370.672	84.81
370.898	92.81
371.124	93.81
371.35	81.81
371.576	79.81
371.802	86.81
372.028	92.81
372.254	88.81
372.48	89.81
372.706	87.81
372.932	101.81
373.158	80.81
373.384	82.81
373.61	97.81
373.835	75.81
374.061	95.81
374.287	83.81
374.513	89.81
374.739	88.81
374.965	93.81
375.191	89.81
375.416	90.81
375.642	74.81
375.868	83.81
376.094	93.81
376.319	84.81
376.545	86.81
376.771	97.81
376.997	96.81
377.222	73.81
377.448	80.81
377.674	93.81
377.899	106.81
378.125	95.81
378.35	97.81
378.576	88.81
378.802	86.81
379.027	84.81
379.253	84.81
379.478	82.81
379.704	95.81
379.929	89.81
380.155	97.81
380.38	92.81
380.606	94.81
380.831	95.81
381.057	82.81
381.282	96.81
381.507	81.81
381.733	101.81
381.958	89.81
382.184	94.81
382.409	96.81
382.634	106.81
382.86	97.81
383.085	96.81
383.31	99.81
383.535	93.81
383.761	96.81
383.986	110.81
384.211	98.81
384.436	99.81
384.662	109.81
384.887	101.81
385.112	98.81
385.337	105.81
385.562	112.81
385.787	103.81
386.013	120.81
386.238	108.81
386.463	110.81
386.688	99.81
386.913	103.81
387.138	109.81
387.363	104.81
387.588	91.81
387.813	98.81
388.038	105.81
388.263	107.81
388.488	112.81
388.713	96.81
388.938	82.81
389.163	89.81
389.387	86.81
389.612	94.81
389.837	91.81
390.062	103.81
390.287	94.81
390.512	85.81
390.736	80.81
390.961	71.81
391.186	102.81
391.411	89.81
391.636	91.81
391.86	82.81
392.085	95.81
392.31	81.81
392.534	74.81
392.759	91.81
392.984	90.81
393.208	93.81
393.433	129.81
393.658	125.81
393.882	86.81
394.107	83.81
394.331	78.81
394.556	81.81
394.78	93.81
395.005	90.81
395.229	87.81
395.454	90.81
395.678	88.81
395.903	79.81
396.127	90.81
396.352	90.81
396.576	72.81
396.801	105.81
397.025	100.81
397.249	87.81
397.474	80.81
397.698	87.81
397.922	66.81
398.147	84.81
398.371	81.81
398.595	87.81
398.82	78.81
399.044	82.81
399.268	82.81
399.492	86.81
399.717	80.81
399.941	87.81
400.165	87.81
400.389	86.81
400.613	90.81
400.837	81.81
401.062	97.81
401.286	94.81
401.51	83.81
401.734	94.81
401.958	85.81
402.182	119.81
402.406	119.81
402.63	104.81
402.854	90.81
403.078	66.81
403.302	69.81
403.526	88.81
403.75	85.81
403.974	88.81
404.198	80.81
404.422	93.81
404.645	81.81
404.869	83.81
405.093	74.81
405.317	97.81
405.541	100.81
405.765	84.81
405.988	85.81
406.212	141.81
406.436	162.81
406.66	118.81
406.883	104.81
407.107	84.81
407.331	83.81
407.555	88.81
407.778	89.81
408.002	83.81
408.226	85.81
408.449	70.81
408.673	91.81
408.896	90.81
409.12	91.81
409.344	85.81
409.567	84.81
409.791	87.81
410.014	91.81
410.238	89.81
410.461	91.81
410.685	94.81
410.908	81.81
411.132	98.81
411.355	78.81
411.578	84.81
411.802	79.81
412.025	80.81
412.249	93.81
412.472	77.81
412.695	91.81
412.919	73.81
413.142	85.81
413.365	88.81
413.589	91.81
413.812	79.81
414.035	91.81
414.258	85.81
414.482	98.81
414.705	92.81
414.928	93.81
415.151	91.81
415.374	86.81
415.597	89.81
415.821	80.81
416.044	87.81
416.267	89.81
416.49	91.81
416.713	96.81
416.936	77.81
417.159	72.81
417.382	62.81
417.605	84.81
417.828	89.81
418.051	70.81
418.274	86.81
418.497	73.81
418.72	76.81
418.943	68.81
419.166	81.81
419.389	99.81
419.611	90.81
419.834	98.81
420.057	90.81
420.28	82.81
420.503	108.81
420.726	83.81
420.948	88.81
421.171	87.81
421.394	74.81
421.617	91.81
421.839	101.81
422.062	74.81
422.285	89.81
422.507	103.81
422.73	97.81
422.953	86.81
423.175	86.81
423.398	85.81
423.621	88.81
423.843	83.81
424.066	89.81
424.288	87.81
424.511	84.81
424.733	82.81
424.956	92.81
425.178	91.81
425.401	81.81
425.623	90.81
425.846	86.81
426.068	85.81
426.291	93.81
426.513	87.81
426.735	87.81
426.958	75.81
427.18	99.81
427.402	116.81
427.625	109.81
427.847	104.81
428.069	98.81
428.292	93.81
428.514	74.81
428.736	85.81
428.958	57.81
429.181	82.81
429.403	87.81
429.625	78.81
429.847	85.81
430.069	94.81
430.292	81.81
430.514	79.81
430.736	76.81
430.958	85.81
431.18	79.81
431.402	91.81
431.624	71.81
431.846	91.81
432.068	89.81
432.29	79.81
432.512	93.81
432.734	79.81
432.956	81.81
433.178	98.81
433.4	94.81
433.622	102.81
433.844	90.81
434.066	88.81
434.287	89.81
434.509	73.81
434.731	90.81
434.953	86.81
435.175	74.81
435.397	87.81
435.618	79.81
435.84	83.81
436.062	113.81
436.284	103.81
436.505	82.81
436.727	83.81
436.949	92.81
437.17	89.81
437.392	88.81
437.614	87.81
437.835	90.81
438.057	85.81
438.278	96.81
438.5	81.81
438.721	113.81
438.943	93.81
439.165	87.81
439.386	82.81
439.608	77.81
439.829	97.81
440.05	99.81
440.272	115.81
440.493	96.81
440.715	94.81
440.936	73.81
441.158	81.81
441.379	90.81
441.6	101.81
441.822	87.81
442.043	78.81
442.264	94.81
442.486	91.81
442.707	79.81
442.928	94.81
443.149	101.81
443.371	109.81
443.592	99.81
443.813	77.81
444.034	104.81
444.255	92.81
444.476	89.81
444.698	72.81
444.919	81.81
445.14	119.81
445.361	105.81
445.582	93.81
445.803	101.81
446.024	103.81
446.245	115.81
446.466	92.81
446.687	82.81
446.908	84.81
447.129	72.81
447.35	80.81
447.571	87.81
447.792	85.81
448.013	90.81
448.234	98.81
448.455	94.81
448.675	98.81
448.896	99.81
449.117	95.81
449.338	90.81
449.559	124.81
449.779	104.81
450	88.81
450.221	94.81
450.442	74.81
450.662	82.81
450.883	81.81
451.104	103.81
451.324	98.81
451.545	87.81
451.766	82.81
451.986	81.81
452.207	89.81
452.428	90.81
452.648	87.81
452.869	102.81
453.089	96.81
453.31	98.81
453.53	93.81
453.751	73.81
453.971	103.81
454.192	100.81
454.412	84.81
454.633	70.81
454.853	79.81
455.073	87.81
455.294	74.81
455.514	94.81
455.734	82.81
455.955	70.81
456.175	86.81
456.395	74.81
456.616	79.81
456.836	89.81
457.056	75.81
457.276	81.81
457.497	95.81
457.717	88.81
457.937	87.81
458.157	88.81
458.377	97.81
458.598	88.81
458.818	114.81
459.038	122.81
459.258	100.81
459.478	90.81
459.698	89.81
459.918	67.81
460.138	94.81
460.358	89.81
460.578	94.81
460.798	85.81
461.018	87.81
461.238	86.81
461.458	79.81
461.678	83.81
461.898	83.81
462.118	94.81
462.338	69.81
462.558	71.81
462.777	72.81
462.997	82.81
463.217	98.81
463.437	90.81
463.657	79.81
463.876	77.81
464.096	90.81
464.316	77.81
464.536	89.81
464.755	102.81
464.975	99.81
465.195	118.81
465.414	111.81
465.634	87.81
465.854	89.81
466.073	92.81
466.293	80.81
466.512	94.81
466.732	84.81
466.951	82.81
467.171	85.81
467.391	78.81
467.61	93.81
467.829	77.81
468.049	112.81
468.268	114.81
468.488	89.81
468.707	76.81
468.927	89.81
469.146	81.81
469.365	82.81
469.585	96.81
469.804	86.81
470.023	103.81
470.243	81.81
470.462	85.81
470.681	100.81
470.901	91.81
471.12	61.81
471.339	75.81
471.558	78.81
471.777	80.81
471.997	96.81
472.216	146.81
472.435	219.81
472.654	103.81
472.873	106.81
473.092	84.81
473.311	86.81
473.53	90.81
473.749	85.81
473.968	97.81
474.187	95.81
474.406	81.81
474.625	90.81
474.844	89.81
475.063	87.81
475.282	86.81
475.501	92.81
475.72	94.81
475.939	81.81
476.158	83.81
476.377	94.81
476.596	84.81
476.814	83.81
477.033	100.81
477.252	93.81
477.471	75.81
477.69	86.81
477.908	93.81
478.127	89.81
478.346	82.81
478.564	80.81
478.783	104.81
479.002	92.81
479.22	75.81
479.439	95.81
479.658	94.81
479.876	82.81
480.095	98.81
480.313	89.81
480.532	84.81
480.751	90.81
480.969	125.81
481.188	333.81
481.406	219.81
481.624	92.81
481.843	75.81
482.061	95.81
482.28	82.81
482.498	84.81
482.717	79.81
482.935	74.81
483.153	67.81
483.372	88.81
483.59	82.81
483.808	103.81
484.027	100.81
484.245	96.81
484.463	72.81
484.681	83.81
484.9	77.81
485.118	96.81
485.336	88.81
485.554	95.81
485.772	95.81
485.99	85.81
486.209	93.81
486.427	106.81
486.645	101.81
486.863	107.81
487.081	90.81
487.299	94.81
487.517	88.81
487.735	92.81
487.953	84.81
488.171	83.81
488.389	91.81
488.607	96.81
488.825	88.81
489.043	90.81
489.261	87.81
489.479	107.81
489.696	79.81
489.914	88.81
490.132	73.81
490.35	83.81
490.568	88.81
490.786	78.81
491.003	86.81
491.221	101.81
491.439	80.81
491.657	90.81
491.874	79.81
492.092	87.81
492.31	85.81
492.527	82.81
492.745	89.81
492.963	79.81
493.18	85.81
493.398	83.81
493.615	104.81
493.833	98.81
494.05	89.81
494.268	89.81
494.485	90.81
494.703	79.81
494.92	95.81
495.138	73.81
495.355	88.81
495.573	98.81
495.79	86.81
496.008	95.81
496.225	97.81
496.442	84.81
496.66	93.81
496.877	76.81
497.094	98.81
497.312	78.81
497.529	74.81
497.746	88.81
497.963	113.81
498.181	85.81
498.398	90.81
498.615	104.81
498.832	114.81
499.049	74.81
499.267	87.81
499.484	95.81
499.701	77.81
499.918	81.81
500.135	89.81
500.352	78.81
500.569	84.81
500.786	90.81
501.003	98.81
501.22	95.81
501.437	85.81
501.654	75.81
501.871	93.81
502.088	77.81
502.305	84.81
502.522	86.81
502.739	77.81
502.956	106.81
503.172	92.81
503.389	88.81
503.606	90.81
503.823	96.81
504.04	86.81
504.256	86.81
504.473	85.81
504.69	82.81
504.907	86.81
505.123	89.81
505.34	102.81
505.557	90.81
505.773	98.81
505.99	90.81
506.207	86.81
506.423	94.81
506.64	67.81
506.856	79.81
507.073	90.81
507.289	94.81
507.506	72.81
507.722	87.81
507.939	98.81
508.155	88.81
508.372	93.81
508.588	87.81
508.805	103.81
509.021	91.81
509.238	89.81
509.454	96.81
509.67	111.81
509.887	99.81
510.103	119.81
510.319	158.81
510.536	544.81
510.752	1610.81
510.968	457.81
511.184	132.81
511.401	97.81
511.617	107.81
511.833	83.81
512.049	91.81
512.265	84.81
512.481	88.81
512.698	82.81
512.914	80.81
513.13	86.81
513.346	97.81
513.562	78.81
513.778	81.81
513.994	92.81
514.21	93.81
514.426	96.81
514.642	104.81
514.858	95.81
515.074	132.81
515.29	324.81
515.506	955.81
515.721	360.81
515.937	133.81
516.153	112.81
516.369	92.81
516.585	85.81
516.801	80.81
517.016	105.81
517.232	76.81
517.448	82.81
