Data from Circ_1983_H10_HRD10591_00088.txt Node
Date: Wed Jan 03 12:27:02 EST 2024
User: Yrep
Spectrometer: HR+D1059
Trigger mode: 1
Integration Time (sec): 1.000000E-1
Scans to average: 1
Electric dark correction enabled: true
Nonlinearity correction enabled: false
Boxcar width: 0
XAxis mode: Wavelengths
Number of Pixels in Spectrum: 2048
>>>>>Begin Spectral Data<<<<<
223.165	-11.69
223.4	-11.69
223.635	-11.69
223.869	-4.69
224.104	-14.69
224.338	-10.69
224.573	-17.69
224.808	-20.69
225.042	-10.69
225.277	-17.69
225.511	4.31
225.746	2.31
225.98	-2.69
226.215	6.31
226.449	14.31
226.683	27.31
226.918	23.31
227.152	33.31
227.387	42.31
227.621	32.31
227.856	42.31
228.09	55.31
228.324	54.31
228.559	63.31
228.793	65.31
229.027	58.31
229.262	90.31
229.496	80.31
229.73	82.31
229.964	86.31
230.199	87.31
230.433	95.31
230.667	96.31
230.901	77.31
231.136	56.31
231.37	76.31
231.604	81.31
231.838	88.31
232.072	88.31
232.306	92.31
232.541	81.31
232.775	88.31
233.009	94.31
233.243	77.31
233.477	88.31
233.711	92.31
233.945	97.31
234.179	91.31
234.413	88.31
234.647	77.31
234.881	86.31
235.115	85.31
235.349	95.31
235.583	84.31
235.817	90.31
236.051	82.31
236.285	88.31
236.519	84.31
236.753	90.31
236.987	71.31
237.221	78.31
237.455	82.31
237.689	76.31
237.922	92.31
238.156	75.31
238.39	89.31
238.624	86.31
238.858	88.31
239.091	77.31
239.325	81.31
239.559	75.31
239.793	100.31
240.027	80.31
240.26	70.31
240.494	60.31
240.728	81.31
240.961	71.31
241.195	90.31
241.429	88.31
241.662	88.31
241.896	80.31
242.13	73.31
242.363	102.31
242.597	81.31
242.83	85.31
243.064	78.31
243.298	68.31
243.531	69.31
243.765	78.31
243.998	84.31
244.232	97.31
244.465	96.31
244.699	79.31
244.932	79.31
245.166	92.31
245.399	94.31
245.633	88.31
245.866	96.31
246.099	101.31
246.333	94.31
246.566	78.31
246.8	80.31
247.033	90.31
247.266	86.31
247.5	85.31
247.733	84.31
247.966	87.31
248.2	93.31
248.433	84.31
248.666	87.31
248.899	77.31
249.133	87.31
249.366	88.31
249.599	100.31
249.832	91.31
250.066	92.31
250.299	89.31
250.532	84.31
250.765	86.31
250.998	88.31
251.231	81.31
251.465	90.31
251.698	92.31
251.931	80.31
252.164	84.31
252.397	96.31
252.63	88.31
252.863	89.31
253.096	89.31
253.329	82.31
253.562	59.31
253.795	94.31
254.028	89.31
254.261	82.31
254.494	91.31
254.727	91.31
254.96	91.31
255.193	106.31
255.426	88.31
255.659	100.31
255.892	94.31
256.124	89.31
256.357	89.31
256.59	80.31
256.823	71.31
257.056	85.31
257.289	86.31
257.521	88.31
257.754	84.31
257.987	86.31
258.22	78.31
258.452	89.31
258.685	84.31
258.918	77.31
259.151	99.31
259.383	85.31
259.616	82.31
259.849	89.31
260.081	84.31
260.314	81.31
260.547	94.31
260.779	98.31
261.012	89.31
261.244	101.31
261.477	89.31
261.71	81.31
261.942	128.31
262.175	114.31
262.407	84.31
262.64	103.31
262.872	101.31
263.105	80.31
263.337	89.31
263.57	79.31
263.802	82.31
264.035	100.31
264.267	76.31
264.499	88.31
264.732	91.31
264.964	97.31
265.197	88.31
265.429	84.31
265.661	80.31
265.894	92.31
266.126	101.31
266.358	103.31
266.591	103.31
266.823	94.31
267.055	90.31
267.287	76.31
267.52	90.31
267.752	92.31
267.984	93.31
268.216	88.31
268.448	86.31
268.681	86.31
268.913	83.31
269.145	92.31
269.377	77.31
269.609	97.31
269.841	93.31
270.073	98.31
270.306	101.31
270.538	90.31
270.77	84.31
271.002	92.31
271.234	89.31
271.466	91.31
271.698	98.31
271.93	83.31
272.162	94.31
272.394	93.31
272.626	90.31
272.858	77.31
273.09	92.31
273.322	100.31
273.553	76.31
273.785	90.31
274.017	91.31
274.249	97.31
274.481	86.31
274.713	95.31
274.945	96.31
275.176	91.31
275.408	104.31
275.64	93.31
275.872	81.31
276.104	94.31
276.335	90.31
276.567	116.31
276.799	110.31
277.031	96.31
277.262	102.31
277.494	104.31
277.726	81.31
277.957	88.31
278.189	108.31
278.421	96.31
278.652	86.31
278.884	84.31
279.115	98.31
279.347	77.31
279.579	95.31
279.81	101.31
280.042	113.31
280.273	113.31
280.505	98.31
280.736	104.31
280.968	85.31
281.199	76.31
281.431	102.31
281.662	84.31
281.894	90.31
282.125	105.31
282.356	121.31
282.588	151.31
282.819	105.31
283.051	111.31
283.282	93.31
283.513	101.31
283.745	96.31
283.976	94.31
284.207	86.31
284.439	108.31
284.67	103.31
284.901	86.31
285.132	94.31
285.364	93.31
285.595	93.31
285.826	88.31
286.057	87.31
286.288	93.31
286.52	98.31
286.751	92.31
286.982	87.31
287.213	90.31
287.444	101.31
287.675	92.31
287.906	93.31
288.138	94.31
288.369	95.31
288.6	93.31
288.831	94.31
289.062	93.31
289.293	86.31
289.524	97.31
289.755	89.31
289.986	84.31
290.217	90.31
290.448	92.31
290.679	99.31
290.91	91.31
291.141	92.31
291.371	88.31
291.602	90.31
291.833	92.31
292.064	92.31
292.295	89.31
292.526	100.31
292.757	89.31
292.987	102.31
293.218	87.31
293.449	108.31
293.68	105.31
293.91	102.31
294.141	101.31
294.372	92.31
294.603	98.31
294.833	93.31
295.064	107.31
295.295	96.31
295.525	91.31
295.756	97.31
295.987	109.31
296.217	137.31
296.448	120.31
296.679	100.31
296.909	100.31
297.14	98.31
297.37	117.31
297.601	96.31
297.831	89.31
298.062	100.31
298.292	94.31
298.523	94.31
298.753	89.31
298.984	98.31
299.214	106.31
299.445	96.31
299.675	106.31
299.905	89.31
300.136	86.31
300.366	88.31
300.597	100.31
300.827	90.31
301.057	105.31
301.288	101.31
301.518	86.31
301.748	97.31
301.979	107.31
302.209	93.31
302.439	94.31
302.669	93.31
302.9	80.31
303.13	93.31
303.36	101.31
303.59	99.31
303.82	97.31
304.051	103.31
304.281	81.31
304.511	97.31
304.741	100.31
304.971	86.31
305.201	113.31
305.431	92.31
305.661	110.31
305.891	98.31
306.121	109.31
306.352	95.31
306.582	110.31
306.812	112.31
307.042	99.31
307.272	111.31
307.502	112.31
307.731	101.31
307.961	100.31
308.191	95.31
308.421	82.31
308.651	113.31
308.881	104.31
309.111	105.31
309.341	108.31
309.571	100.31
309.8	92.31
310.03	102.31
310.26	94.31
310.49	104.31
310.72	108.31
310.949	112.31
311.179	106.31
311.409	87.31
311.639	91.31
311.868	106.31
312.098	87.31
312.328	101.31
312.557	90.31
312.787	117.31
313.017	106.31
313.246	100.31
313.476	86.31
313.706	99.31
313.935	88.31
314.165	109.31
314.394	93.31
314.624	113.31
314.853	103.31
315.083	102.31
315.312	95.31
315.542	98.31
315.771	100.31
316.001	102.31
316.23	94.31
316.46	98.31
316.689	103.31
316.919	100.31
317.148	89.31
317.377	106.31
317.607	90.31
317.836	92.31
318.065	82.31
318.295	88.31
318.524	97.31
318.753	93.31
318.983	106.31
319.212	93.31
319.441	98.31
319.67	101.31
319.9	91.31
320.129	94.31
320.358	108.31
320.587	109.31
320.816	103.31
321.046	109.31
321.275	105.31
321.504	100.31
321.733	106.31
321.962	94.31
322.191	98.31
322.42	113.31
322.649	109.31
322.878	105.31
323.108	96.31
323.337	121.31
323.566	114.31
323.795	136.31
324.024	169.31
324.253	307.31
324.482	640.31
324.71	1316.31
324.939	1668.31
325.168	650.31
325.397	206.31
325.626	153.31
325.855	125.31
326.084	113.31
326.313	130.31
326.542	143.31
326.77	219.31
326.999	374.31
327.228	764.31
327.457	1364.31
327.686	1065.31
327.914	316.31
328.143	206.31
328.372	195.31
328.6	164.31
328.829	108.31
329.058	131.31
329.287	121.31
329.515	111.31
329.744	140.31
329.972	165.31
330.201	218.31
330.43	285.31
330.658	178.31
330.887	150.31
331.115	114.31
331.344	101.31
331.572	93.31
331.801	113.31
332.03	98.31
332.258	106.31
332.486	94.31
332.715	104.31
332.943	94.31
333.172	96.31
333.4	107.31
333.629	120.31
333.857	126.31
334.085	144.31
334.314	207.31
334.542	325.31
334.771	296.31
334.999	135.31
335.227	103.31
335.455	113.31
335.684	95.31
335.912	112.31
336.14	105.31
336.369	109.31
336.597	109.31
336.825	111.31
337.053	106.31
337.281	104.31
337.51	102.31
337.738	96.31
337.966	95.31
338.194	98.31
338.422	103.31
338.65	92.31
338.878	97.31
339.106	108.31
339.334	106.31
339.562	101.31
339.79	89.31
340.018	90.31
340.246	97.31
340.474	98.31
340.702	111.31
340.93	107.31
341.158	91.31
341.386	84.31
341.614	119.31
341.842	112.31
342.07	96.31
342.298	107.31
342.526	94.31
342.754	82.31
342.981	84.31
343.209	92.31
343.437	101.31
343.665	93.31
343.893	97.31
344.12	86.31
344.348	86.31
344.576	104.31
344.804	103.31
345.031	106.31
345.259	101.31
345.487	103.31
345.714	106.31
345.942	86.31
346.17	97.31
346.397	110.31
346.625	97.31
346.853	87.31
347.08	99.31
347.308	93.31
347.535	109.31
347.763	98.31
347.99	101.31
348.218	94.31
348.445	109.31
348.673	108.31
348.9	95.31
349.128	106.31
349.355	104.31
349.583	94.31
349.81	96.31
350.037	105.31
350.265	96.31
350.492	104.31
350.72	79.31
350.947	85.31
351.174	100.31
351.402	104.31
351.629	114.31
351.856	118.31
352.083	106.31
352.311	89.31
352.538	100.31
352.765	125.31
352.992	129.31
353.22	108.31
353.447	102.31
353.674	103.31
353.901	113.31
354.128	96.31
354.355	109.31
354.583	104.31
354.81	104.31
355.037	115.31
355.264	109.31
355.491	97.31
355.718	105.31
355.945	96.31
356.172	71.31
356.399	99.31
356.626	87.31
356.853	102.31
357.08	106.31
357.307	99.31
357.534	100.31
357.761	105.31
357.988	91.31
358.215	79.31
358.441	103.31
358.668	81.31
358.895	91.31
359.122	101.31
359.349	92.31
359.576	104.31
359.802	99.31
360.029	118.31
360.256	103.31
360.483	96.31
360.709	97.31
360.936	94.31
361.163	98.31
361.39	89.31
361.616	98.31
361.843	105.31
362.07	102.31
362.296	91.31
362.523	101.31
362.749	93.31
362.976	81.31
363.203	102.31
363.429	102.31
363.656	105.31
363.882	94.31
364.109	95.31
364.335	102.31
364.562	95.31
364.788	96.31
365.015	80.31
365.241	89.31
365.468	106.31
365.694	95.31
365.92	84.31
366.147	104.31
366.373	98.31
366.599	86.31
366.826	91.31
367.052	85.31
367.278	81.31
367.505	82.31
367.731	89.31
367.957	93.31
368.184	87.31
368.41	100.31
368.636	97.31
368.862	107.31
369.089	99.31
369.315	95.31
369.541	92.31
369.767	92.31
369.993	88.31
370.219	99.31
370.445	79.31
370.672	84.31
370.898	110.31
371.124	102.31
371.35	102.31
371.576	88.31
371.802	95.31
372.028	88.31
372.254	100.31
372.48	90.31
372.706	76.31
372.932	82.31
373.158	103.31
373.384	97.31
373.61	102.31
373.835	90.31
374.061	100.31
374.287	97.31
374.513	89.31
374.739	86.31
374.965	87.31
375.191	88.31
375.416	112.31
375.642	77.31
375.868	84.31
376.094	97.31
376.319	104.31
376.545	84.31
376.771	94.31
376.997	86.31
377.222	108.31
377.448	97.31
377.674	92.31
377.899	93.31
378.125	92.31
378.35	84.31
378.576	102.31
378.802	94.31
379.027	100.31
379.253	99.31
379.478	89.31
379.704	80.31
379.929	90.31
380.155	81.31
380.38	84.31
380.606	106.31
380.831	99.31
381.057	102.31
381.282	89.31
381.507	92.31
381.733	93.31
381.958	92.31
382.184	89.31
382.409	90.31
382.634	104.31
382.86	102.31
383.085	116.31
383.31	110.31
383.535	111.31
383.761	110.31
383.986	106.31
384.211	87.31
384.436	111.31
384.662	109.31
384.887	111.31
385.112	88.31
385.337	96.31
385.562	112.31
385.787	114.31
386.013	109.31
386.238	119.31
386.463	96.31
386.688	112.31
386.913	102.31
387.138	92.31
387.363	95.31
387.588	104.31
387.813	91.31
388.038	103.31
388.263	112.31
388.488	109.31
388.713	100.31
388.938	85.31
389.163	101.31
389.387	99.31
389.612	110.31
389.837	90.31
390.062	92.31
390.287	96.31
390.512	93.31
390.736	99.31
390.961	98.31
391.186	96.31
391.411	96.31
391.636	103.31
391.86	96.31
392.085	81.31
392.31	86.31
392.534	97.31
392.759	94.31
392.984	97.31
393.208	89.31
393.433	112.31
393.658	98.31
393.882	91.31
394.107	94.31
394.331	90.31
394.556	89.31
394.78	85.31
395.005	107.31
395.229	86.31
395.454	93.31
395.678	105.31
395.903	101.31
396.127	87.31
396.352	103.31
396.576	87.31
396.801	88.31
397.025	109.31
397.249	92.31
397.474	80.31
397.698	84.31
397.922	90.31
398.147	81.31
398.371	80.31
398.595	97.31
398.82	101.31
399.044	90.31
399.268	80.31
399.492	87.31
399.717	93.31
399.941	97.31
400.165	98.31
400.389	87.31
400.613	74.31
400.837	91.31
401.062	96.31
401.286	94.31
401.51	86.31
401.734	91.31
401.958	91.31
402.182	112.31
402.406	141.31
402.63	122.31
402.854	85.31
403.078	98.31
403.302	93.31
403.526	95.31
403.75	84.31
403.974	75.31
404.198	74.31
404.422	90.31
404.645	80.31
404.869	105.31
405.093	101.31
405.317	102.31
405.541	99.31
405.765	106.31
405.988	123.31
406.212	153.31
406.436	179.31
406.66	125.31
406.883	102.31
407.107	97.31
407.331	100.31
407.555	94.31
407.778	100.31
408.002	102.31
408.226	80.31
408.449	86.31
408.673	88.31
408.896	106.31
409.12	92.31
409.344	89.31
409.567	92.31
409.791	78.31
410.014	88.31
410.238	116.31
410.461	90.31
410.685	100.31
410.908	98.31
411.132	103.31
411.355	92.31
411.578	85.31
411.802	93.31
412.025	101.31
412.249	91.31
412.472	100.31
412.695	104.31
412.919	99.31
413.142	101.31
413.365	92.31
413.589	82.31
413.812	91.31
414.035	112.31
414.258	94.31
414.482	101.31
414.705	90.31
414.928	103.31
415.151	98.31
415.374	100.31
415.597	84.31
415.821	95.31
416.044	88.31
416.267	95.31
416.49	97.31
416.713	88.31
416.936	94.31
417.159	86.31
417.382	87.31
417.605	88.31
417.828	88.31
418.051	88.31
418.274	99.31
418.497	85.31
418.72	89.31
418.943	87.31
419.166	90.31
419.389	93.31
419.611	90.31
419.834	82.31
420.057	100.31
420.28	99.31
420.503	105.31
420.726	100.31
420.948	101.31
421.171	96.31
421.394	102.31
421.617	104.31
421.839	82.31
422.062	83.31
422.285	96.31
422.507	109.31
422.73	97.31
422.953	89.31
423.175	77.31
423.398	94.31
423.621	108.31
423.843	90.31
424.066	94.31
424.288	97.31
424.511	98.31
424.733	105.31
424.956	100.31
425.178	99.31
425.401	95.31
425.623	91.31
425.846	78.31
426.068	92.31
426.291	92.31
426.513	98.31
426.735	82.31
426.958	113.31
427.18	110.31
427.402	130.31
427.625	160.31
427.847	122.31
428.069	136.31
428.292	111.31
428.514	88.31
428.736	93.31
428.958	80.31
429.181	86.31
429.403	106.31
429.625	79.31
429.847	92.31
430.069	92.31
430.292	91.31
430.514	96.31
430.736	92.31
430.958	93.31
431.18	86.31
431.402	91.31
431.624	95.31
431.846	91.31
432.068	102.31
432.29	86.31
432.512	96.31
432.734	109.31
432.956	104.31
433.178	103.31
433.4	95.31
433.622	90.31
433.844	87.31
434.066	89.31
434.287	93.31
434.509	99.31
434.731	95.31
434.953	86.31
435.175	89.31
435.397	87.31
435.618	100.31
435.84	95.31
436.062	119.31
436.284	118.31
436.505	89.31
436.727	91.31
436.949	111.31
437.17	100.31
437.392	89.31
437.614	100.31
437.835	96.31
438.057	105.31
438.278	110.31
438.5	104.31
438.721	113.31
438.943	99.31
439.165	90.31
439.386	87.31
439.608	103.31
439.829	95.31
440.05	129.31
440.272	122.31
440.493	84.31
440.715	83.31
440.936	109.31
441.158	91.31
441.379	99.31
441.6	96.31
441.822	93.31
442.043	97.31
442.264	123.31
442.486	97.31
442.707	104.31
442.928	115.31
443.149	120.31
443.371	115.31
443.592	120.31
443.813	110.31
444.034	94.31
444.255	100.31
444.476	96.31
444.698	80.31
444.919	88.31
445.14	137.31
445.361	125.31
445.582	109.31
445.803	141.31
446.024	126.31
446.245	127.31
446.466	103.31
446.687	103.31
446.908	86.31
447.129	86.31
447.35	76.31
447.571	96.31
447.792	100.31
448.013	102.31
448.234	108.31
448.455	100.31
448.675	113.31
448.896	124.31
449.117	92.31
449.338	96.31
449.559	122.31
449.779	128.31
450	92.31
450.221	111.31
450.442	95.31
450.662	102.31
450.883	105.31
451.104	113.31
451.324	93.31
451.545	92.31
451.766	106.31
451.986	94.31
452.207	88.31
452.428	84.31
452.648	101.31
452.869	101.31
453.089	110.31
453.31	110.31
453.53	102.31
453.751	103.31
453.971	101.31
454.192	120.31
454.412	90.31
454.633	89.31
454.853	90.31
455.073	93.31
455.294	80.31
455.514	99.31
455.734	79.31
455.955	88.31
456.175	86.31
456.395	84.31
456.616	80.31
456.836	83.31
457.056	97.31
457.276	88.31
457.497	94.31
457.717	97.31
457.937	79.31
458.157	106.31
458.377	102.31
458.598	109.31
458.818	134.31
459.038	149.31
459.258	98.31
459.478	101.31
459.698	85.31
459.918	93.31
460.138	95.31
460.358	91.31
460.578	95.31
460.798	95.31
461.018	98.31
461.238	96.31
461.458	97.31
461.678	92.31
461.898	84.31
462.118	97.31
462.338	98.31
462.558	93.31
462.777	79.31
462.997	98.31
463.217	91.31
463.437	90.31
463.657	93.31
463.876	104.31
464.096	96.31
464.316	85.31
464.536	101.31
464.755	109.31
464.975	104.31
465.195	150.31
465.414	142.31
465.634	96.31
465.854	92.31
466.073	108.31
466.293	95.31
466.512	100.31
466.732	89.31
466.951	84.31
467.171	88.31
467.391	101.31
467.61	98.31
467.829	122.31
468.049	156.31
468.268	191.31
468.488	114.31
468.707	92.31
468.927	80.31
469.146	80.31
469.365	107.31
469.585	101.31
469.804	113.31
470.023	104.31
470.243	95.31
470.462	93.31
470.681	105.31
470.901	107.31
471.12	103.31
471.339	91.31
471.558	98.31
471.777	106.31
471.997	113.31
472.216	253.31
472.435	411.31
472.654	164.31
472.873	105.31
473.092	95.31
473.311	99.31
473.53	79.31
473.749	92.31
473.968	86.31
474.187	97.31
474.406	93.31
474.625	92.31
474.844	90.31
475.063	89.31
475.282	92.31
475.501	105.31
475.72	100.31
475.939	103.31
476.158	78.31
476.377	89.31
476.596	90.31
476.814	84.31
477.033	87.31
477.252	104.31
477.471	101.31
477.69	110.31
477.908	92.31
478.127	110.31
478.346	86.31
478.564	102.31
478.783	82.31
479.002	98.31
479.22	102.31
479.439	108.31
479.658	114.31
479.876	95.31
480.095	96.31
480.313	102.31
480.532	103.31
480.751	132.31
480.969	261.31
481.188	761.31
481.406	443.31
481.624	128.31
481.843	91.31
482.061	98.31
482.28	100.31
482.498	101.31
482.717	83.31
482.935	90.31
483.153	90.31
483.372	85.31
483.59	96.31
483.808	118.31
484.027	91.31
484.245	99.31
484.463	96.31
484.681	98.31
484.9	103.31
485.118	109.31
485.336	114.31
485.554	110.31
485.772	105.31
485.99	108.31
486.209	112.31
486.427	100.31
486.645	114.31
486.863	112.31
487.081	114.31
487.299	99.31
487.517	104.31
487.735	88.31
487.953	100.31
488.171	86.31
488.389	96.31
488.607	113.31
488.825	103.31
489.043	93.31
489.261	96.31
489.479	88.31
489.696	88.31
489.914	84.31
490.132	88.31
490.35	94.31
490.568	95.31
490.786	93.31
491.003	103.31
491.221	92.31
491.439	91.31
491.657	112.31
491.874	106.31
492.092	109.31
492.31	96.31
492.527	97.31
492.745	93.31
492.963	99.31
493.18	93.31
493.398	110.31
493.615	109.31
493.833	97.31
494.05	85.31
494.268	90.31
494.485	90.31
494.703	86.31
494.92	105.31
495.138	97.31
495.355	96.31
495.573	102.31
495.79	104.31
496.008	94.31
496.225	90.31
496.442	98.31
496.66	85.31
496.877	103.31
497.094	110.31
497.312	93.31
497.529	94.31
497.746	98.31
497.963	111.31
498.181	98.31
498.398	96.31
498.615	105.31
498.832	101.31
499.049	96.31
499.267	97.31
499.484	100.31
499.701	104.31
499.918	98.31
500.135	71.31
500.352	101.31
500.569	98.31
500.786	83.31
501.003	93.31
501.22	96.31
501.437	87.31
501.654	91.31
501.871	101.31
502.088	108.31
502.305	112.31
502.522	110.31
502.739	103.31
502.956	93.31
503.172	104.31
503.389	98.31
503.606	103.31
503.823	105.31
504.04	100.31
504.256	103.31
504.473	107.31
504.69	85.31
504.907	98.31
505.123	90.31
505.34	98.31
505.557	78.31
505.773	97.31
505.99	105.31
506.207	116.31
506.423	83.31
506.64	100.31
506.856	100.31
507.073	96.31
507.289	100.31
507.506	93.31
507.722	113.31
507.939	106.31
508.155	98.31
508.372	96.31
508.588	82.31
508.805	98.31
509.021	92.31
509.238	90.31
509.454	83.31
509.67	101.31
509.887	120.31
510.103	143.31
510.319	196.31
510.536	597.31
510.752	1934.31
510.968	548.31
511.184	143.31
511.401	108.31
511.617	112.31
511.833	105.31
512.049	100.31
512.265	98.31
512.481	85.31
512.698	98.31
512.914	98.31
513.13	91.31
