Data from Circ_1983_H10_HRD10591_00035.txt Node
Date: Wed Jan 03 12:26:51 EST 2024
User: Yrep
Spectrometer: HR+D1059
Trigger mode: 1
Integration Time (sec): 1.000000E-1
Scans to average: 1
Electric dark correction enabled: true
Nonlinearity correction enabled: false
Boxcar width: 0
XAxis mode: Wavelengths
Number of Pixels in Spectrum: 2048
>>>>>Begin Spectral Data<<<<<
223.165	-25.38
223.4	-25.38
223.635	-25.38
223.869	-22.38
224.104	-12.38
224.338	-4.38
224.573	-10.38
224.808	-15.38
225.042	-2.38
225.277	-10.38
225.511	1.62
225.746	6.62
225.98	2.62
226.215	5.62
226.449	9.62
226.683	21.62
226.918	24.62
227.152	30.62
227.387	50.62
227.621	34.62
227.856	41.62
228.09	54.62
228.324	43.62
228.559	53.62
228.793	59.62
229.027	74.62
229.262	68.62
229.496	66.62
229.73	70.62
229.964	82.62
230.199	75.62
230.433	77.62
230.667	74.62
230.901	76.62
231.136	81.62
231.37	91.62
231.604	74.62
231.838	89.62
232.072	86.62
232.306	82.62
232.541	89.62
232.775	88.62
233.009	85.62
233.243	72.62
233.477	85.62
233.711	69.62
233.945	82.62
234.179	85.62
234.413	85.62
234.647	88.62
234.881	81.62
235.115	81.62
235.349	89.62
235.583	75.62
235.817	75.62
236.051	82.62
236.285	75.62
236.519	70.62
236.753	76.62
236.987	88.62
237.221	77.62
237.455	102.62
237.689	69.62
237.922	75.62
238.156	87.62
238.39	78.62
238.624	78.62
238.858	67.62
239.091	73.62
239.325	81.62
239.559	83.62
239.793	91.62
240.027	79.62
240.26	87.62
240.494	74.62
240.728	73.62
240.961	98.62
241.195	87.62
241.429	86.62
241.662	80.62
241.896	93.62
242.13	81.62
242.363	83.62
242.597	68.62
242.83	76.62
243.064	73.62
243.298	79.62
243.531	82.62
243.765	78.62
243.998	80.62
244.232	78.62
244.465	70.62
244.699	87.62
244.932	76.62
245.166	91.62
245.399	57.62
245.633	79.62
245.866	77.62
246.099	81.62
246.333	90.62
246.566	73.62
246.8	89.62
247.033	94.62
247.266	74.62
247.5	76.62
247.733	67.62
247.966	86.62
248.2	70.62
248.433	80.62
248.666	71.62
248.899	71.62
249.133	83.62
249.366	89.62
249.599	106.62
249.832	91.62
250.066	99.62
250.299	66.62
250.532	85.62
250.765	67.62
250.998	72.62
251.231	64.62
251.465	69.62
251.698	87.62
251.931	86.62
252.164	76.62
252.397	103.62
252.63	91.62
252.863	91.62
253.096	92.62
253.329	84.62
253.562	73.62
253.795	65.62
254.028	84.62
254.261	76.62
254.494	78.62
254.727	76.62
254.96	73.62
255.193	61.62
255.426	88.62
255.659	83.62
255.892	72.62
256.124	89.62
256.357	77.62
256.59	92.62
256.823	74.62
257.056	76.62
257.289	65.62
257.521	76.62
257.754	87.62
257.987	81.62
258.22	79.62
258.452	82.62
258.685	89.62
258.918	89.62
259.151	101.62
259.383	89.62
259.616	79.62
259.849	93.62
260.081	75.62
260.314	81.62
260.547	94.62
260.779	84.62
261.012	83.62
261.244	82.62
261.477	81.62
261.71	103.62
261.942	97.62
262.175	97.62
262.407	82.62
262.64	73.62
262.872	90.62
263.105	86.62
263.337	83.62
263.57	71.62
263.802	87.62
264.035	89.62
264.267	73.62
264.499	71.62
264.732	83.62
264.964	77.62
265.197	85.62
265.429	84.62
265.661	78.62
265.894	86.62
266.126	93.62
266.358	86.62
266.591	95.62
266.823	68.62
267.055	66.62
267.287	85.62
267.52	87.62
267.752	86.62
267.984	89.62
268.216	92.62
268.448	90.62
268.681	89.62
268.913	89.62
269.145	92.62
269.377	90.62
269.609	87.62
269.841	95.62
270.073	89.62
270.306	89.62
270.538	86.62
270.77	85.62
271.002	78.62
271.234	89.62
271.466	85.62
271.698	97.62
271.93	87.62
272.162	89.62
272.394	81.62
272.626	93.62
272.858	85.62
273.09	87.62
273.322	106.62
273.553	93.62
273.785	88.62
274.017	94.62
274.249	89.62
274.481	83.62
274.713	87.62
274.945	93.62
275.176	93.62
275.408	86.62
275.64	88.62
275.872	84.62
276.104	95.62
276.335	89.62
276.567	92.62
276.799	95.62
277.031	104.62
277.262	92.62
277.494	93.62
277.726	85.62
277.957	88.62
278.189	95.62
278.421	94.62
278.652	90.62
278.884	92.62
279.115	95.62
279.347	95.62
279.579	91.62
279.81	80.62
280.042	91.62
280.273	82.62
280.505	96.62
280.736	85.62
280.968	85.62
281.199	82.62
281.431	77.62
281.662	95.62
281.894	101.62
282.125	91.62
282.356	109.62
282.588	135.62
282.819	112.62
283.051	81.62
283.282	75.62
283.513	89.62
283.745	78.62
283.976	81.62
284.207	82.62
284.439	92.62
284.67	89.62
284.901	97.62
285.132	102.62
285.364	89.62
285.595	69.62
285.826	84.62
286.057	87.62
286.288	77.62
286.52	79.62
286.751	81.62
286.982	83.62
287.213	79.62
287.444	76.62
287.675	89.62
287.906	89.62
288.138	85.62
288.369	97.62
288.6	91.62
288.831	89.62
289.062	91.62
289.293	103.62
289.524	90.62
289.755	85.62
289.986	87.62
290.217	91.62
290.448	84.62
290.679	86.62
290.91	100.62
291.141	83.62
291.371	106.62
291.602	94.62
291.833	76.62
292.064	87.62
292.295	80.62
292.526	83.62
292.757	87.62
292.987	101.62
293.218	94.62
293.449	105.62
293.68	94.62
293.91	76.62
294.141	92.62
294.372	99.62
294.603	87.62
294.833	94.62
295.064	96.62
295.295	84.62
295.525	105.62
295.756	94.62
295.987	107.62
296.217	117.62
296.448	117.62
296.679	83.62
296.909	88.62
297.14	99.62
297.37	81.62
297.601	82.62
297.831	88.62
298.062	91.62
298.292	84.62
298.523	85.62
298.753	77.62
298.984	90.62
299.214	93.62
299.445	85.62
299.675	105.62
299.905	87.62
300.136	81.62
300.366	86.62
300.597	101.62
300.827	105.62
301.057	109.62
301.288	87.62
301.518	90.62
301.748	98.62
301.979	97.62
302.209	62.62
302.439	96.62
302.669	103.62
302.9	92.62
303.13	92.62
303.36	89.62
303.59	106.62
303.82	97.62
304.051	106.62
304.281	91.62
304.511	93.62
304.741	96.62
304.971	91.62
305.201	94.62
305.431	82.62
305.661	92.62
305.891	89.62
306.121	79.62
306.352	99.62
306.582	109.62
306.812	88.62
307.042	86.62
307.272	97.62
307.502	100.62
307.731	96.62
307.961	90.62
308.191	89.62
308.421	78.62
308.651	81.62
308.881	97.62
309.111	102.62
309.341	85.62
309.571	104.62
309.8	100.62
310.03	91.62
310.26	97.62
310.49	94.62
310.72	103.62
310.949	97.62
311.179	98.62
311.409	94.62
311.639	100.62
311.868	66.62
312.098	88.62
312.328	103.62
312.557	107.62
312.787	108.62
313.017	101.62
313.246	102.62
313.476	93.62
313.706	98.62
313.935	97.62
314.165	97.62
314.394	105.62
314.624	100.62
314.853	101.62
315.083	94.62
315.312	87.62
315.542	85.62
315.771	90.62
316.001	89.62
316.23	80.62
316.46	89.62
316.689	92.62
316.919	76.62
317.148	106.62
317.377	88.62
317.607	85.62
317.836	86.62
318.065	75.62
318.295	86.62
318.524	102.62
318.753	95.62
318.983	93.62
319.212	106.62
319.441	90.62
319.67	110.62
319.9	79.62
320.129	102.62
320.358	80.62
320.587	109.62
320.816	87.62
321.046	108.62
321.275	93.62
321.504	100.62
321.733	102.62
321.962	88.62
322.191	97.62
322.42	105.62
322.649	108.62
322.878	111.62
323.108	108.62
323.337	132.62
323.566	123.62
323.795	138.62
324.024	165.62
324.253	297.62
324.482	618.62
324.71	1285.62
324.939	1649.62
325.168	627.62
325.397	192.62
325.626	144.62
325.855	122.62
326.084	125.62
326.313	126.62
326.542	150.62
326.77	197.62
326.999	358.62
327.228	718.62
327.457	1298.62
327.686	1029.62
327.914	299.62
328.143	176.62
328.372	153.62
328.6	109.62
328.829	111.62
329.058	126.62
329.287	125.62
329.515	109.62
329.744	99.62
329.972	114.62
330.201	134.62
330.43	170.62
330.658	147.62
330.887	127.62
331.115	122.62
331.344	78.62
331.572	104.62
331.801	104.62
332.03	110.62
332.258	98.62
332.486	86.62
332.715	95.62
332.943	102.62
333.172	91.62
333.4	90.62
333.629	99.62
333.857	106.62
334.085	130.62
334.314	130.62
334.542	176.62
334.771	194.62
334.999	102.62
335.227	91.62
335.455	96.62
335.684	99.62
335.912	107.62
336.14	88.62
336.369	94.62
336.597	106.62
336.825	96.62
337.053	89.62
337.281	94.62
337.51	108.62
337.738	88.62
337.966	90.62
338.194	102.62
338.422	84.62
338.65	79.62
338.878	89.62
339.106	87.62
339.334	99.62
339.562	92.62
339.79	94.62
340.018	100.62
340.246	83.62
340.474	85.62
340.702	94.62
340.93	94.62
341.158	105.62
341.386	99.62
341.614	93.62
341.842	98.62
342.07	94.62
342.298	91.62
342.526	90.62
342.754	78.62
342.981	86.62
343.209	99.62
343.437	119.62
343.665	85.62
343.893	97.62
344.12	98.62
344.348	89.62
344.576	102.62
344.804	87.62
345.031	103.62
345.259	102.62
345.487	101.62
345.714	111.62
345.942	101.62
346.17	105.62
346.397	96.62
346.625	90.62
346.853	86.62
347.08	92.62
347.308	96.62
347.535	89.62
347.763	103.62
347.99	89.62
348.218	101.62
348.445	81.62
348.673	99.62
348.9	101.62
349.128	95.62
349.355	98.62
349.583	92.62
349.81	102.62
350.037	84.62
350.265	102.62
350.492	93.62
350.72	87.62
350.947	97.62
351.174	103.62
351.402	115.62
351.629	95.62
351.856	95.62
352.083	102.62
352.311	117.62
352.538	107.62
352.765	101.62
352.992	104.62
353.22	104.62
353.447	103.62
353.674	105.62
353.901	97.62
354.128	107.62
354.355	91.62
354.583	99.62
354.81	94.62
355.037	109.62
355.264	94.62
355.491	104.62
355.718	103.62
355.945	94.62
356.172	96.62
356.399	99.62
356.626	91.62
356.853	72.62
357.08	91.62
357.307	93.62
357.534	95.62
357.761	111.62
357.988	96.62
358.215	95.62
358.441	92.62
358.668	103.62
358.895	93.62
359.122	107.62
359.349	81.62
359.576	101.62
359.802	102.62
360.029	98.62
360.256	93.62
360.483	73.62
360.709	89.62
360.936	81.62
361.163	93.62
361.39	99.62
361.616	92.62
361.843	98.62
362.07	109.62
362.296	102.62
362.523	77.62
362.749	89.62
362.976	92.62
363.203	86.62
363.429	95.62
363.656	86.62
363.882	79.62
364.109	81.62
364.335	92.62
364.562	83.62
364.788	89.62
365.015	91.62
365.241	93.62
365.468	108.62
365.694	99.62
365.92	103.62
366.147	90.62
366.373	89.62
366.599	97.62
366.826	93.62
367.052	93.62
367.278	81.62
367.505	86.62
367.731	100.62
367.957	94.62
368.184	94.62
368.41	100.62
368.636	105.62
368.862	107.62
369.089	98.62
369.315	95.62
369.541	105.62
369.767	88.62
369.993	92.62
370.219	94.62
370.445	97.62
370.672	89.62
370.898	108.62
371.124	85.62
371.35	85.62
371.576	80.62
371.802	89.62
372.028	97.62
372.254	86.62
372.48	84.62
372.706	77.62
372.932	81.62
373.158	92.62
373.384	88.62
373.61	103.62
373.835	85.62
374.061	78.62
374.287	89.62
374.513	106.62
374.739	95.62
374.965	92.62
375.191	83.62
375.416	81.62
375.642	96.62
375.868	99.62
376.094	81.62
376.319	100.62
376.545	96.62
376.771	88.62
376.997	89.62
377.222	94.62
377.448	102.62
377.674	84.62
377.899	97.62
378.125	90.62
378.35	71.62
378.576	100.62
378.802	99.62
379.027	88.62
379.253	103.62
379.478	89.62
379.704	98.62
379.929	83.62
380.155	99.62
380.38	78.62
380.606	99.62
380.831	104.62
381.057	104.62
381.282	95.62
381.507	97.62
381.733	105.62
381.958	109.62
382.184	101.62
382.409	115.62
382.634	109.62
382.86	102.62
383.085	102.62
383.31	116.62
383.535	93.62
383.761	106.62
383.986	97.62
384.211	91.62
384.436	104.62
384.662	106.62
384.887	111.62
385.112	97.62
385.337	114.62
385.562	104.62
385.787	122.62
386.013	117.62
386.238	114.62
386.463	103.62
386.688	108.62
386.913	119.62
387.138	100.62
387.363	115.62
387.588	105.62
387.813	89.62
388.038	117.62
388.263	123.62
388.488	118.62
388.713	100.62
388.938	89.62
389.163	87.62
389.387	89.62
389.612	106.62
389.837	99.62
390.062	103.62
390.287	89.62
390.512	85.62
390.736	98.62
390.961	81.62
391.186	108.62
391.411	89.62
391.636	90.62
391.86	90.62
392.085	84.62
392.31	79.62
392.534	102.62
392.759	91.62
392.984	105.62
393.208	86.62
393.433	129.62
393.658	129.62
393.882	96.62
394.107	85.62
394.331	78.62
394.556	81.62
394.78	83.62
395.005	101.62
395.229	89.62
395.454	97.62
395.678	95.62
395.903	96.62
396.127	85.62
396.352	97.62
396.576	94.62
396.801	97.62
397.025	119.62
397.249	92.62
397.474	97.62
397.698	93.62
397.922	88.62
398.147	102.62
398.371	94.62
398.595	101.62
398.82	80.62
399.044	83.62
399.268	84.62
399.492	83.62
399.717	108.62
399.941	87.62
400.165	98.62
400.389	97.62
400.613	76.62
400.837	82.62
401.062	81.62
401.286	86.62
401.51	91.62
401.734	103.62
401.958	95.62
402.182	104.62
402.406	124.62
402.63	94.62
402.854	94.62
403.078	88.62
403.302	94.62
403.526	97.62
403.75	105.62
403.974	89.62
404.198	84.62
404.422	89.62
404.645	86.62
404.869	98.62
405.093	97.62
405.317	101.62
405.541	102.62
405.765	92.62
405.988	102.62
406.212	151.62
406.436	182.62
406.66	120.62
406.883	95.62
407.107	83.62
407.331	102.62
407.555	106.62
407.778	85.62
408.002	89.62
408.226	86.62
408.449	98.62
408.673	101.62
408.896	82.62
409.12	82.62
409.344	98.62
409.567	91.62
409.791	86.62
410.014	107.62
410.238	92.62
410.461	103.62
410.685	106.62
410.908	90.62
411.132	101.62
411.355	101.62
411.578	88.62
411.802	93.62
412.025	99.62
412.249	87.62
412.472	91.62
412.695	89.62
412.919	99.62
413.142	90.62
413.365	95.62
413.589	85.62
413.812	91.62
414.035	100.62
414.258	96.62
414.482	89.62
414.705	77.62
414.928	91.62
415.151	103.62
415.374	84.62
415.597	83.62
415.821	103.62
416.044	90.62
416.267	81.62
416.49	94.62
416.713	79.62
416.936	91.62
417.159	84.62
417.382	99.62
417.605	80.62
417.828	94.62
418.051	92.62
418.274	75.62
418.497	91.62
418.72	90.62
418.943	78.62
419.166	95.62
419.389	102.62
419.611	103.62
419.834	86.62
420.057	96.62
420.28	77.62
420.503	106.62
420.726	92.62
420.948	90.62
421.171	95.62
421.394	106.62
421.617	93.62
421.839	101.62
422.062	97.62
422.285	102.62
422.507	89.62
422.73	111.62
422.953	90.62
423.175	81.62
423.398	84.62
423.621	78.62
423.843	102.62
424.066	78.62
424.288	94.62
424.511	79.62
424.733	87.62
424.956	117.62
425.178	103.62
425.401	103.62
425.623	103.62
425.846	94.62
426.068	90.62
426.291	101.62
426.513	92.62
426.735	85.62
426.958	74.62
427.18	99.62
427.402	106.62
427.625	138.62
427.847	109.62
428.069	120.62
428.292	85.62
428.514	91.62
428.736	97.62
428.958	87.62
429.181	89.62
429.403	96.62
429.625	105.62
429.847	90.62
430.069	102.62
430.292	96.62
430.514	94.62
430.736	102.62
430.958	88.62
431.18	95.62
431.402	76.62
431.624	77.62
431.846	76.62
432.068	85.62
432.29	83.62
432.512	102.62
432.734	90.62
432.956	83.62
433.178	90.62
433.4	93.62
433.622	100.62
433.844	76.62
434.066	81.62
434.287	87.62
434.509	100.62
434.731	83.62
434.953	89.62
435.175	75.62
435.397	86.62
435.618	89.62
435.84	89.62
436.062	114.62
436.284	102.62
436.505	98.62
436.727	97.62
436.949	103.62
437.17	85.62
437.392	86.62
437.614	97.62
437.835	104.62
438.057	112.62
438.278	89.62
438.5	89.62
438.721	103.62
438.943	118.62
439.165	97.62
439.386	99.62
439.608	92.62
439.829	99.62
440.05	109.62
440.272	116.62
440.493	108.62
440.715	75.62
440.936	101.62
441.158	99.62
441.379	93.62
441.6	105.62
441.822	77.62
442.043	106.62
442.264	101.62
442.486	102.62
442.707	106.62
442.928	99.62
443.149	105.62
443.371	110.62
443.592	97.62
443.813	110.62
444.034	89.62
444.255	87.62
444.476	102.62
444.698	87.62
444.919	88.62
445.14	135.62
445.361	108.62
445.582	102.62
445.803	122.62
446.024	121.62
446.245	119.62
446.466	100.62
446.687	99.62
446.908	82.62
447.129	84.62
447.35	102.62
447.571	98.62
447.792	99.62
448.013	88.62
448.234	105.62
448.455	90.62
448.675	92.62
448.896	109.62
449.117	93.62
449.338	99.62
449.559	110.62
449.779	111.62
450	94.62
450.221	89.62
450.442	77.62
450.662	96.62
450.883	94.62
451.104	91.62
451.324	90.62
451.545	95.62
451.766	85.62
451.986	101.62
452.207	83.62
452.428	88.62
452.648	99.62
452.869	111.62
453.089	116.62
453.31	92.62
453.53	93.62
453.751	98.62
453.971	89.62
454.192	90.62
454.412	94.62
454.633	88.62
454.853	82.62
455.073	94.62
455.294	78.62
455.514	90.62
455.734	94.62
455.955	83.62
456.175	89.62
456.395	78.62
456.616	75.62
456.836	97.62
457.056	95.62
457.276	87.62
457.497	91.62
457.717	89.62
457.937	89.62
458.157	99.62
458.377	106.62
458.598	106.62
458.818	133.62
459.038	138.62
459.258	113.62
459.478	87.62
459.698	90.62
459.918	76.62
460.138	97.62
460.358	92.62
460.578	101.62
460.798	98.62
461.018	87.62
461.238	86.62
461.458	96.62
461.678	91.62
461.898	85.62
462.118	92.62
462.338	93.62
462.558	75.62
462.777	74.62
462.997	80.62
463.217	85.62
463.437	98.62
463.657	95.62
463.876	86.62
464.096	84.62
464.316	90.62
464.536	72.62
464.755	95.62
464.975	101.62
465.195	133.62
465.414	121.62
465.634	86.62
465.854	89.62
466.073	85.62
466.293	92.62
466.512	92.62
466.732	88.62
466.951	99.62
467.171	83.62
467.391	105.62
467.61	103.62
467.829	99.62
468.049	114.62
468.268	121.62
468.488	84.62
468.707	81.62
468.927	76.62
469.146	75.62
469.365	97.62
469.585	92.62
469.804	85.62
470.023	104.62
470.243	93.62
470.462	95.62
470.681	92.62
470.901	91.62
471.12	92.62
471.339	98.62
471.558	101.62
471.777	97.62
471.997	102.62
472.216	151.62
472.435	251.62
472.654	125.62
472.873	100.62
473.092	86.62
473.311	89.62
473.53	83.62
473.749	73.62
473.968	69.62
474.187	94.62
474.406	83.62
474.625	80.62
474.844	98.62
475.063	81.62
475.282	98.62
475.501	101.62
475.72	87.62
475.939	98.62
476.158	106.62
476.377	88.62
476.596	73.62
476.814	79.62
477.033	85.62
477.252	87.62
477.471	95.62
477.69	84.62
477.908	95.62
478.127	94.62
478.346	97.62
478.564	99.62
478.783	93.62
479.002	104.62
479.22	93.62
479.439	106.62
479.658	96.62
479.876	93.62
480.095	85.62
480.313	108.62
480.532	97.62
480.751	97.62
480.969	137.62
481.188	374.62
481.406	235.62
481.624	99.62
481.843	79.62
482.061	88.62
482.28	98.62
482.498	85.62
482.717	83.62
482.935	81.62
483.153	91.62
483.372	101.62
483.59	93.62
483.808	75.62
484.027	85.62
484.245	95.62
484.463	84.62
484.681	103.62
484.9	94.62
485.118	97.62
485.336	101.62
485.554	92.62
485.772	90.62
485.99	117.62
486.209	122.62
486.427	117.62
486.645	107.62
486.863	107.62
487.081	103.62
487.299	89.62
487.517	101.62
487.735	94.62
487.953	103.62
488.171	95.62
488.389	100.62
488.607	99.62
488.825	97.62
489.043	95.62
489.261	104.62
489.479	88.62
489.696	95.62
489.914	86.62
490.132	84.62
490.35	98.62
490.568	87.62
490.786	94.62
491.003	87.62
491.221	87.62
491.439	106.62
491.657	97.62
491.874	77.62
492.092	85.62
492.31	84.62
492.527	84.62
492.745	78.62
492.963	94.62
493.18	104.62
493.398	99.62
493.615	102.62
493.833	101.62
494.05	99.62
494.268	105.62
494.485	93.62
494.703	89.62
494.92	84.62
495.138	87.62
495.355	99.62
495.573	77.62
495.79	88.62
496.008	105.62
496.225	105.62
496.442	85.62
496.66	100.62
496.877	105.62
497.094	96.62
497.312	103.62
497.529	94.62
497.746	75.62
497.963	90.62
498.181	83.62
498.398	86.62
498.615	104.62
498.832	105.62
499.049	84.62
499.267	89.62
499.484	89.62
499.701	93.62
499.918	97.62
500.135	98.62
500.352	89.62
500.569	95.62
500.786	84.62
501.003	101.62
501.22	90.62
501.437	91.62
501.654	101.62
501.871	101.62
502.088	87.62
502.305	83.62
502.522	106.62
502.739	94.62
502.956	85.62
503.172	94.62
503.389	87.62
503.606	89.62
503.823	93.62
504.04	101.62
504.256	91.62
504.473	94.62
504.69	94.62
504.907	105.62
505.123	93.62
505.34	84.62
505.557	74.62
505.773	97.62
505.99	73.62
506.207	86.62
506.423	87.62
506.64	92.62
506.856	107.62
507.073	101.62
507.289	89.62
507.506	88.62
507.722	105.62
507.939	112.62
508.155	97.62
508.372	89.62
508.588	97.62
508.805	101.62
509.021	91.62
509.238	96.62
509.454	94.62
509.67	84.62
509.887	114.62
510.103	130.62
510.319	182.62
510.536	585.62
510.752	1706.62
510.968	495.62
511.184	138.62
511.401	102.62
511.617	93.62
511.833	101.62
512.049	92.62
512.265	94.62
512.481	83.62
512.698	91.62
512.914	87.62
513.13	86.62
513.346	76.62
513.562	84.62
513.778	66.62
513.994	88.62
514.21	90.62
514.426	106.62
514.642	121.62
514.858	124.62
515.074	136.62
