Data from Circ_1983_H10_HRD10591_00016.txt Node
Date: Wed Jan 03 12:26:48 EST 2024
User: Yrep
Spectrometer: HR+D1059
Trigger mode: 1
Integration Time (sec): 1.000000E-1
Scans to average: 1
Electric dark correction enabled: true
Nonlinearity correction enabled: false
Boxcar width: 0
XAxis mode: Wavelengths
Number of Pixels in Spectrum: 2048
>>>>>Begin Spectral Data<<<<<
223.165	-19.94
223.4	-19.94
223.635	-19.94
223.869	-29.94
224.104	-13.94
224.338	-19.94
224.573	-19.94
224.808	-6.94
225.042	1.06
225.277	0.06
225.511	-11.94
225.746	-11.94
225.98	12.06
226.215	18.06
226.449	11.06
226.683	22.06
226.918	36.06
227.152	34.06
227.387	41.06
227.621	40.06
227.856	44.06
228.09	57.06
228.324	38.06
228.559	61.06
228.793	67.06
229.027	51.06
229.262	51.06
229.496	70.06
229.73	85.06
229.964	82.06
230.199	86.06
230.433	86.06
230.667	86.06
230.901	75.06
231.136	82.06
231.37	89.06
231.604	84.06
231.838	94.06
232.072	70.06
232.306	78.06
232.541	77.06
232.775	76.06
233.009	72.06
233.243	66.06
233.477	74.06
233.711	94.06
233.945	84.06
234.179	77.06
234.413	74.06
234.647	68.06
234.881	72.06
235.115	74.06
235.349	67.06
235.583	82.06
235.817	71.06
236.051	83.06
236.285	74.06
236.519	74.06
236.753	72.06
236.987	80.06
237.221	77.06
237.455	73.06
237.689	77.06
237.922	91.06
238.156	81.06
238.39	77.06
238.624	65.06
238.858	73.06
239.091	79.06
239.325	82.06
239.559	84.06
239.793	89.06
240.027	65.06
240.26	86.06
240.494	98.06
240.728	86.06
240.961	93.06
241.195	83.06
241.429	74.06
241.662	88.06
241.896	80.06
242.13	80.06
242.363	81.06
242.597	83.06
242.83	96.06
243.064	84.06
243.298	82.06
243.531	77.06
243.765	83.06
243.998	83.06
244.232	81.06
244.465	80.06
244.699	83.06
244.932	71.06
245.166	67.06
245.399	76.06
245.633	62.06
245.866	78.06
246.099	76.06
246.333	78.06
246.566	83.06
246.8	88.06
247.033	86.06
247.266	90.06
247.5	85.06
247.733	73.06
247.966	86.06
248.2	71.06
248.433	99.06
248.666	76.06
248.899	94.06
249.133	87.06
249.366	95.06
249.599	76.06
249.832	80.06
250.066	88.06
250.299	94.06
250.532	92.06
250.765	88.06
250.998	94.06
251.231	84.06
251.465	77.06
251.698	90.06
251.931	74.06
252.164	78.06
252.397	97.06
252.63	88.06
252.863	82.06
253.096	83.06
253.329	77.06
253.562	88.06
253.795	80.06
254.028	77.06
254.261	84.06
254.494	75.06
254.727	84.06
254.96	82.06
255.193	89.06
255.426	82.06
255.659	78.06
255.892	75.06
256.124	85.06
256.357	74.06
256.59	75.06
256.823	81.06
257.056	82.06
257.289	82.06
257.521	98.06
257.754	89.06
257.987	81.06
258.22	94.06
258.452	75.06
258.685	80.06
258.918	103.06
259.151	81.06
259.383	75.06
259.616	86.06
259.849	67.06
260.081	106.06
260.314	77.06
260.547	75.06
260.779	81.06
261.012	88.06
261.244	93.06
261.477	92.06
261.71	90.06
261.942	107.06
262.175	111.06
262.407	96.06
262.64	85.06
262.872	74.06
263.105	88.06
263.337	87.06
263.57	85.06
263.802	98.06
264.035	70.06
264.267	89.06
264.499	85.06
264.732	102.06
264.964	94.06
265.197	103.06
265.429	86.06
265.661	76.06
265.894	91.06
266.126	84.06
266.358	91.06
266.591	97.06
266.823	78.06
267.055	81.06
267.287	97.06
267.52	92.06
267.752	88.06
267.984	97.06
268.216	78.06
268.448	80.06
268.681	76.06
268.913	93.06
269.145	72.06
269.377	75.06
269.609	88.06
269.841	92.06
270.073	94.06
270.306	81.06
270.538	93.06
270.77	109.06
271.002	73.06
271.234	84.06
271.466	96.06
271.698	86.06
271.93	79.06
272.162	81.06
272.394	100.06
272.626	76.06
272.858	80.06
273.09	82.06
273.322	84.06
273.553	88.06
273.785	98.06
274.017	89.06
274.249	80.06
274.481	67.06
274.713	86.06
274.945	81.06
275.176	85.06
275.408	97.06
275.64	94.06
275.872	83.06
276.104	86.06
276.335	84.06
276.567	89.06
276.799	109.06
277.031	106.06
277.262	92.06
277.494	102.06
277.726	98.06
277.957	94.06
278.189	87.06
278.421	83.06
278.652	74.06
278.884	87.06
279.115	90.06
279.347	88.06
279.579	74.06
279.81	89.06
280.042	91.06
280.273	89.06
280.505	100.06
280.736	109.06
280.968	95.06
281.199	92.06
281.431	76.06
281.662	75.06
281.894	94.06
282.125	98.06
282.356	105.06
282.588	112.06
282.819	100.06
283.051	91.06
283.282	99.06
283.513	94.06
283.745	86.06
283.976	92.06
284.207	75.06
284.439	89.06
284.67	95.06
284.901	81.06
285.132	95.06
285.364	106.06
285.595	96.06
285.826	91.06
286.057	108.06
286.288	94.06
286.52	90.06
286.751	86.06
286.982	74.06
287.213	99.06
287.444	92.06
287.675	73.06
287.906	89.06
288.138	89.06
288.369	100.06
288.6	92.06
288.831	91.06
289.062	92.06
289.293	84.06
289.524	81.06
289.755	94.06
289.986	102.06
290.217	89.06
290.448	92.06
290.679	100.06
290.91	90.06
291.141	87.06
291.371	91.06
291.602	90.06
291.833	88.06
292.064	103.06
292.295	94.06
292.526	106.06
292.757	92.06
292.987	93.06
293.218	96.06
293.449	104.06
293.68	90.06
293.91	102.06
294.141	96.06
294.372	82.06
294.603	93.06
294.833	72.06
295.064	95.06
295.295	96.06
295.525	102.06
295.756	95.06
295.987	112.06
296.217	133.06
296.448	117.06
296.679	97.06
296.909	96.06
297.14	79.06
297.37	93.06
297.601	100.06
297.831	86.06
298.062	108.06
298.292	93.06
298.523	83.06
298.753	85.06
298.984	103.06
299.214	89.06
299.445	103.06
299.675	90.06
299.905	88.06
300.136	84.06
300.366	94.06
300.597	84.06
300.827	108.06
301.057	94.06
301.288	92.06
301.518	93.06
301.748	108.06
301.979	98.06
302.209	93.06
302.439	88.06
302.669	79.06
302.9	96.06
303.13	96.06
303.36	78.06
303.59	115.06
303.82	98.06
304.051	100.06
304.281	94.06
304.511	96.06
304.741	64.06
304.971	87.06
305.201	76.06
305.431	104.06
305.661	100.06
305.891	100.06
306.121	91.06
306.352	104.06
306.582	82.06
306.812	77.06
307.042	92.06
307.272	103.06
307.502	92.06
307.731	88.06
307.961	111.06
308.191	97.06
308.421	86.06
308.651	88.06
308.881	97.06
309.111	91.06
309.341	101.06
309.571	97.06
309.8	99.06
310.03	92.06
310.26	92.06
310.49	91.06
310.72	84.06
310.949	89.06
311.179	107.06
311.409	99.06
311.639	84.06
311.868	104.06
312.098	96.06
312.328	81.06
312.557	89.06
312.787	105.06
313.017	86.06
313.246	91.06
313.476	98.06
313.706	87.06
313.935	93.06
314.165	97.06
314.394	96.06
314.624	82.06
314.853	101.06
315.083	93.06
315.312	97.06
315.542	92.06
315.771	86.06
316.001	81.06
316.23	92.06
316.46	92.06
316.689	82.06
316.919	105.06
317.148	88.06
317.377	100.06
317.607	94.06
317.836	97.06
318.065	97.06
318.295	92.06
318.524	104.06
318.753	97.06
318.983	90.06
319.212	101.06
319.441	113.06
319.67	118.06
319.9	89.06
320.129	84.06
320.358	89.06
320.587	98.06
320.816	101.06
321.046	100.06
321.275	85.06
321.504	99.06
321.733	98.06
321.962	101.06
322.191	96.06
322.42	94.06
322.649	100.06
322.878	98.06
323.108	109.06
323.337	109.06
323.566	120.06
323.795	136.06
324.024	175.06
324.253	317.06
324.482	704.06
324.71	1356.06
324.939	1794.06
325.168	682.06
325.397	205.06
325.626	139.06
325.855	109.06
326.084	129.06
326.313	125.06
326.542	142.06
326.77	214.06
326.999	376.06
327.228	773.06
327.457	1393.06
327.686	1112.06
327.914	316.06
328.143	179.06
328.372	144.06
328.6	114.06
328.829	115.06
329.058	113.06
329.287	113.06
329.515	113.06
329.744	108.06
329.972	90.06
330.201	113.06
330.43	138.06
330.658	119.06
330.887	123.06
331.115	107.06
331.344	106.06
331.572	106.06
331.801	84.06
332.03	101.06
332.258	93.06
332.486	98.06
332.715	97.06
332.943	90.06
333.172	84.06
333.4	104.06
333.629	115.06
333.857	113.06
334.085	121.06
334.314	115.06
334.542	141.06
334.771	151.06
334.999	106.06
335.227	100.06
335.455	100.06
335.684	101.06
335.912	96.06
336.14	96.06
336.369	101.06
336.597	109.06
336.825	87.06
337.053	83.06
337.281	106.06
337.51	88.06
337.738	95.06
337.966	105.06
338.194	96.06
338.422	92.06
338.65	96.06
338.878	91.06
339.106	84.06
339.334	98.06
339.562	82.06
339.79	102.06
340.018	85.06
340.246	106.06
340.474	104.06
340.702	101.06
340.93	101.06
341.158	94.06
341.386	91.06
341.614	110.06
341.842	91.06
342.07	80.06
342.298	72.06
342.526	94.06
342.754	94.06
342.981	91.06
343.209	80.06
343.437	98.06
343.665	86.06
343.893	103.06
344.12	89.06
344.348	96.06
344.576	97.06
344.804	80.06
345.031	91.06
345.259	91.06
345.487	90.06
345.714	97.06
345.942	87.06
346.17	96.06
346.397	85.06
346.625	97.06
346.853	93.06
347.08	89.06
347.308	92.06
347.535	93.06
347.763	93.06
347.99	97.06
348.218	93.06
348.445	107.06
348.673	103.06
348.9	97.06
349.128	96.06
349.355	89.06
349.583	96.06
349.81	98.06
350.037	97.06
350.265	109.06
350.492	89.06
350.72	96.06
350.947	98.06
351.174	108.06
351.402	99.06
351.629	92.06
351.856	111.06
352.083	101.06
352.311	98.06
352.538	103.06
352.765	96.06
352.992	109.06
353.22	106.06
353.447	106.06
353.674	92.06
353.901	93.06
354.128	103.06
354.355	101.06
354.583	94.06
354.81	88.06
355.037	105.06
355.264	107.06
355.491	102.06
355.718	92.06
355.945	107.06
356.172	101.06
356.399	98.06
356.626	100.06
356.853	94.06
357.08	101.06
357.307	102.06
357.534	90.06
357.761	85.06
357.988	94.06
358.215	101.06
358.441	100.06
358.668	85.06
358.895	88.06
359.122	109.06
359.349	103.06
359.576	98.06
359.802	87.06
360.029	85.06
360.256	101.06
360.483	117.06
360.709	85.06
360.936	89.06
361.163	86.06
361.39	91.06
361.616	100.06
361.843	89.06
362.07	88.06
362.296	101.06
362.523	99.06
362.749	95.06
362.976	91.06
363.203	88.06
363.429	85.06
363.656	102.06
363.882	87.06
364.109	88.06
364.335	106.06
364.562	89.06
364.788	97.06
365.015	85.06
365.241	82.06
365.468	100.06
365.694	99.06
365.92	102.06
366.147	98.06
366.373	93.06
366.599	82.06
366.826	103.06
367.052	88.06
367.278	82.06
367.505	88.06
367.731	93.06
367.957	85.06
368.184	82.06
368.41	86.06
368.636	106.06
368.862	117.06
369.089	100.06
369.315	85.06
369.541	66.06
369.767	81.06
369.993	94.06
370.219	97.06
370.445	94.06
370.672	76.06
370.898	87.06
371.124	91.06
371.35	96.06
371.576	94.06
371.802	99.06
372.028	87.06
372.254	92.06
372.48	78.06
372.706	80.06
372.932	78.06
373.158	96.06
373.384	88.06
373.61	96.06
373.835	96.06
374.061	87.06
374.287	91.06
374.513	100.06
374.739	76.06
374.965	90.06
375.191	97.06
375.416	82.06
375.642	89.06
375.868	98.06
376.094	83.06
376.319	96.06
376.545	81.06
376.771	91.06
376.997	104.06
377.222	92.06
377.448	101.06
377.674	114.06
377.899	97.06
378.125	81.06
378.35	86.06
378.576	89.06
378.802	93.06
379.027	94.06
379.253	92.06
379.478	93.06
379.704	102.06
379.929	97.06
380.155	97.06
380.38	105.06
380.606	109.06
380.831	99.06
381.057	109.06
381.282	114.06
381.507	107.06
381.733	100.06
381.958	99.06
382.184	105.06
382.409	104.06
382.634	107.06
382.86	102.06
383.085	109.06
383.31	103.06
383.535	108.06
383.761	109.06
383.986	117.06
384.211	121.06
384.436	108.06
384.662	116.06
384.887	108.06
385.112	132.06
385.337	121.06
385.562	132.06
385.787	121.06
386.013	131.06
386.238	122.06
386.463	107.06
386.688	126.06
386.913	108.06
387.138	118.06
387.363	113.06
387.588	115.06
387.813	115.06
388.038	138.06
388.263	132.06
388.488	133.06
388.713	107.06
388.938	93.06
389.163	82.06
389.387	92.06
389.612	97.06
389.837	91.06
390.062	109.06
390.287	87.06
390.512	102.06
390.736	97.06
390.961	103.06
391.186	97.06
391.411	100.06
391.636	83.06
391.86	104.06
392.085	89.06
392.31	93.06
392.534	91.06
392.759	97.06
392.984	101.06
393.208	114.06
393.433	172.06
393.658	128.06
393.882	91.06
394.107	81.06
394.331	93.06
394.556	89.06
394.78	92.06
395.005	82.06
395.229	92.06
395.454	81.06
395.678	92.06
395.903	83.06
396.127	93.06
396.352	89.06
396.576	92.06
396.801	103.06
397.025	116.06
397.249	103.06
397.474	70.06
397.698	89.06
397.922	89.06
398.147	91.06
398.371	77.06
398.595	71.06
398.82	89.06
399.044	92.06
399.268	92.06
399.492	88.06
399.717	81.06
399.941	86.06
400.165	102.06
400.389	90.06
400.613	95.06
400.837	77.06
401.062	92.06
401.286	98.06
401.51	74.06
401.734	91.06
401.958	98.06
402.182	101.06
402.406	150.06
402.63	112.06
402.854	91.06
403.078	78.06
403.302	97.06
403.526	98.06
403.75	89.06
403.974	76.06
404.198	91.06
404.422	104.06
404.645	90.06
404.869	84.06
405.093	90.06
405.317	106.06
405.541	86.06
405.765	98.06
405.988	128.06
406.212	152.06
406.436	184.06
406.66	117.06
406.883	104.06
407.107	86.06
407.331	94.06
407.555	108.06
407.778	101.06
408.002	92.06
408.226	108.06
408.449	91.06
408.673	96.06
408.896	103.06
409.12	89.06
409.344	90.06
409.567	92.06
409.791	91.06
410.014	108.06
410.238	101.06
410.461	97.06
410.685	91.06
410.908	102.06
411.132	110.06
411.355	109.06
411.578	89.06
411.802	90.06
412.025	83.06
412.249	90.06
412.472	88.06
412.695	97.06
412.919	80.06
413.142	95.06
413.365	81.06
413.589	80.06
413.812	97.06
414.035	107.06
414.258	90.06
414.482	99.06
414.705	88.06
414.928	87.06
415.151	101.06
415.374	93.06
415.597	78.06
415.821	94.06
416.044	93.06
416.267	77.06
416.49	83.06
416.713	88.06
416.936	100.06
417.159	102.06
417.382	92.06
417.605	88.06
417.828	118.06
418.051	91.06
418.274	93.06
418.497	83.06
418.72	86.06
418.943	90.06
419.166	89.06
419.389	94.06
419.611	98.06
419.834	101.06
420.057	91.06
420.28	77.06
420.503	91.06
420.726	96.06
420.948	87.06
421.171	92.06
421.394	96.06
421.617	94.06
421.839	100.06
422.062	97.06
422.285	88.06
422.507	109.06
422.73	118.06
422.953	91.06
423.175	101.06
423.398	92.06
423.621	85.06
423.843	91.06
424.066	78.06
424.288	79.06
424.511	90.06
424.733	93.06
424.956	80.06
425.178	95.06
425.401	85.06
425.623	90.06
425.846	82.06
426.068	92.06
426.291	96.06
426.513	97.06
426.735	100.06
426.958	78.06
427.18	93.06
427.402	125.06
427.625	129.06
427.847	123.06
428.069	110.06
428.292	82.06
428.514	97.06
428.736	88.06
428.958	100.06
429.181	83.06
429.403	87.06
429.625	95.06
429.847	96.06
430.069	90.06
430.292	94.06
430.514	100.06
430.736	94.06
430.958	89.06
431.18	104.06
431.402	77.06
431.624	93.06
431.846	87.06
432.068	84.06
432.29	75.06
432.512	89.06
432.734	89.06
432.956	89.06
433.178	93.06
433.4	85.06
433.622	83.06
433.844	91.06
434.066	88.06
434.287	93.06
434.509	85.06
434.731	104.06
434.953	89.06
435.175	83.06
435.397	89.06
435.618	92.06
435.84	97.06
436.062	110.06
436.284	89.06
436.505	86.06
436.727	101.06
436.949	93.06
437.17	80.06
437.392	100.06
437.614	91.06
437.835	112.06
438.057	108.06
438.278	93.06
438.5	90.06
438.721	109.06
438.943	96.06
439.165	78.06
439.386	103.06
439.608	101.06
439.829	100.06
440.05	96.06
440.272	126.06
440.493	88.06
440.715	100.06
440.936	91.06
441.158	96.06
441.379	96.06
441.6	98.06
441.822	96.06
442.043	90.06
442.264	105.06
442.486	101.06
442.707	98.06
442.928	107.06
443.149	109.06
443.371	115.06
443.592	105.06
443.813	106.06
444.034	108.06
444.255	89.06
444.476	82.06
444.698	86.06
444.919	94.06
445.14	138.06
445.361	122.06
445.582	106.06
445.803	108.06
446.024	121.06
446.245	125.06
446.466	95.06
446.687	83.06
446.908	90.06
447.129	102.06
447.35	86.06
447.571	101.06
447.792	105.06
448.013	106.06
448.234	95.06
448.455	97.06
448.675	98.06
448.896	122.06
449.117	107.06
449.338	106.06
449.559	109.06
449.779	113.06
450	89.06
450.221	87.06
450.442	89.06
450.662	92.06
450.883	104.06
451.104	93.06
451.324	84.06
451.545	94.06
451.766	79.06
451.986	92.06
452.207	104.06
452.428	94.06
452.648	96.06
452.869	90.06
453.089	109.06
453.31	99.06
453.53	86.06
453.751	94.06
453.971	94.06
454.192	89.06
454.412	86.06
454.633	77.06
454.853	92.06
455.073	80.06
455.294	88.06
455.514	90.06
455.734	81.06
455.955	81.06
456.175	76.06
456.395	84.06
456.616	95.06
456.836	84.06
457.056	92.06
457.276	80.06
457.497	84.06
457.717	79.06
457.937	78.06
458.157	91.06
458.377	92.06
458.598	102.06
458.818	119.06
459.038	140.06
459.258	93.06
459.478	82.06
459.698	99.06
459.918	86.06
460.138	89.06
460.358	76.06
460.578	94.06
460.798	98.06
461.018	85.06
461.238	99.06
461.458	74.06
461.678	84.06
461.898	88.06
462.118	93.06
462.338	95.06
462.558	88.06
462.777	86.06
462.997	93.06
463.217	91.06
463.437	89.06
463.657	86.06
463.876	94.06
464.096	81.06
464.316	98.06
464.536	76.06
464.755	91.06
464.975	99.06
465.195	132.06
465.414	145.06
465.634	105.06
465.854	77.06
466.073	107.06
466.293	89.06
466.512	87.06
466.732	89.06
466.951	90.06
467.171	77.06
467.391	91.06
467.61	106.06
467.829	108.06
468.049	94.06
468.268	97.06
468.488	86.06
468.707	82.06
468.927	81.06
469.146	93.06
469.365	87.06
469.585	102.06
469.804	86.06
470.023	105.06
470.243	88.06
470.462	92.06
470.681	98.06
470.901	82.06
471.12	84.06
471.339	76.06
471.558	89.06
471.777	80.06
471.997	87.06
472.216	125.06
472.435	160.06
472.654	114.06
472.873	94.06
473.092	105.06
473.311	88.06
473.53	88.06
473.749	91.06
473.968	116.06
474.187	95.06
474.406	102.06
474.625	82.06
474.844	78.06
475.063	91.06
475.282	98.06
475.501	82.06
475.72	86.06
475.939	99.06
476.158	84.06
476.377	89.06
476.596	97.06
476.814	85.06
477.033	84.06
477.252	88.06
477.471	88.06
477.69	98.06
477.908	82.06
478.127	88.06
478.346	76.06
478.564	95.06
478.783	99.06
479.002	92.06
479.22	80.06
479.439	100.06
479.658	102.06
479.876	98.06
480.095	91.06
480.313	84.06
480.532	84.06
480.751	98.06
480.969	133.06
481.188	222.06
481.406	182.06
481.624	100.06
481.843	82.06
482.061	87.06
482.28	77.06
482.498	98.06
482.717	91.06
482.935	86.06
483.153	95.06
483.372	90.06
483.59	99.06
483.808	95.06
484.027	77.06
484.245	74.06
484.463	94.06
484.681	106.06
484.9	95.06
485.118	90.06
485.336	89.06
485.554	94.06
485.772	102.06
485.99	99.06
486.209	115.06
486.427	108.06
486.645	106.06
486.863	118.06
487.081	103.06
487.299	98.06
487.517	90.06
487.735	99.06
487.953	115.06
488.171	90.06
488.389	94.06
488.607	91.06
488.825	97.06
489.043	86.06
489.261	86.06
489.479	77.06
489.696	84.06
489.914	106.06
490.132	99.06
490.35	99.06
490.568	89.06
490.786	90.06
491.003	94.06
491.221	93.06
491.439	88.06
491.657	85.06
491.874	101.06
492.092	94.06
492.31	92.06
492.527	83.06
492.745	89.06
492.963	89.06
493.18	94.06
493.398	99.06
493.615	96.06
493.833	86.06
494.05	84.06
494.268	81.06
494.485	81.06
494.703	83.06
494.92	100.06
495.138	93.06
495.355	92.06
495.573	80.06
495.79	92.06
496.008	104.06
496.225	82.06
496.442	90.06
496.66	96.06
496.877	88.06
497.094	101.06
497.312	96.06
497.529	85.06
497.746	104.06
497.963	80.06
498.181	85.06
498.398	108.06
498.615	114.06
498.832	99.06
499.049	92.06
499.267	107.06
499.484	76.06
499.701	85.06
499.918	86.06
500.135	82.06
500.352	96.06
500.569	101.06
500.786	103.06
501.003	99.06
501.22	95.06
501.437	91.06
501.654	89.06
501.871	100.06
502.088	83.06
502.305	92.06
502.522	94.06
502.739	92.06
502.956	99.06
503.172	92.06
503.389	101.06
503.606	100.06
503.823	78.06
504.04	89.06
504.256	88.06
504.473	97.06
504.69	84.06
504.907	101.06
505.123	91.06
505.34	83.06
505.557	91.06
505.773	91.06
505.99	94.06
506.207	104.06
506.423	95.06
506.64	93.06
506.856	84.06
507.073	112.06
507.289	90.06
507.506	92.06
507.722	101.06
507.939	106.06
508.155	109.06
508.372	84.06
508.588	96.06
508.805	90.06
509.021	106.06
509.238	91.06
509.454	85.06
509.67	106.06
509.887	103.06
510.103	121.06
510.319	189.06
510.536	603.06
510.752	1837.06
510.968	532.06
511.184	138.06
511.401	105.06
511.617	103.06
511.833	106.06
512.049	82.06
512.265	92.06
512.481	86.06
512.698	96.06
512.914	85.06
513.13	103.06
513.346	93.06
513.562	89.06
513.778	92.06
513.994	91.06
514.21	100.06
514.426	109.06
514.642	114.06
514.858	120.06
515.074	161.06
