Data from Circ_1983_H10_HRD10591_00050.txt Node
Date: Wed Jan 03 12:26:54 EST 2024
User: Yrep
Spectrometer: HR+D1059
Trigger mode: 1
Integration Time (sec): 1.000000E-1
Scans to average: 1
Electric dark correction enabled: true
Nonlinearity correction enabled: false
Boxcar width: 0
XAxis mode: Wavelengths
Number of Pixels in Spectrum: 2048
>>>>>Begin Spectral Data<<<<<
223.165	-21.38
223.4	-21.38
223.635	-21.38
223.869	-16.38
224.104	-24.38
224.338	-11.38
224.573	-20.38
224.808	-7.38
225.042	-8.38
225.277	-13.38
225.511	8.62
225.746	-2.38
225.98	7.62
226.215	7.62
226.449	18.62
226.683	27.62
226.918	21.62
227.152	33.62
227.387	45.62
227.621	37.62
227.856	34.62
228.09	39.62
228.324	42.62
228.559	52.62
228.793	53.62
229.027	77.62
229.262	74.62
229.496	88.62
229.73	78.62
229.964	89.62
230.199	78.62
230.433	72.62
230.667	81.62
230.901	82.62
231.136	85.62
231.37	74.62
231.604	82.62
231.838	64.62
232.072	86.62
232.306	78.62
232.541	94.62
232.775	72.62
233.009	78.62
233.243	86.62
233.477	74.62
233.711	79.62
233.945	74.62
234.179	81.62
234.413	81.62
234.647	77.62
234.881	81.62
235.115	93.62
235.349	100.62
235.583	87.62
235.817	76.62
236.051	83.62
236.285	75.62
236.519	79.62
236.753	68.62
236.987	78.62
237.221	70.62
237.455	86.62
237.689	76.62
237.922	80.62
238.156	73.62
238.39	78.62
238.624	82.62
238.858	93.62
239.091	71.62
239.325	83.62
239.559	91.62
239.793	82.62
240.027	67.62
240.26	68.62
240.494	71.62
240.728	83.62
240.961	78.62
241.195	83.62
241.429	83.62
241.662	88.62
241.896	81.62
242.13	76.62
242.363	81.62
242.597	93.62
242.83	77.62
243.064	95.62
243.298	77.62
243.531	69.62
243.765	74.62
243.998	83.62
244.232	93.62
244.465	78.62
244.699	75.62
244.932	62.62
245.166	71.62
245.399	77.62
245.633	89.62
245.866	82.62
246.099	89.62
246.333	81.62
246.566	86.62
246.8	85.62
247.033	81.62
247.266	72.62
247.5	77.62
247.733	76.62
247.966	76.62
248.2	87.62
248.433	77.62
248.666	75.62
248.899	91.62
249.133	90.62
249.366	99.62
249.599	90.62
249.832	71.62
250.066	74.62
250.299	91.62
250.532	91.62
250.765	83.62
250.998	91.62
251.231	89.62
251.465	71.62
251.698	79.62
251.931	82.62
252.164	83.62
252.397	92.62
252.63	89.62
252.863	77.62
253.096	89.62
253.329	81.62
253.562	87.62
253.795	79.62
254.028	88.62
254.261	87.62
254.494	83.62
254.727	93.62
254.96	71.62
255.193	81.62
255.426	74.62
255.659	77.62
255.892	79.62
256.124	85.62
256.357	74.62
256.59	84.62
256.823	85.62
257.056	82.62
257.289	89.62
257.521	81.62
257.754	79.62
257.987	76.62
258.22	89.62
258.452	83.62
258.685	76.62
258.918	81.62
259.151	89.62
259.383	87.62
259.616	86.62
259.849	84.62
260.081	86.62
260.314	90.62
260.547	78.62
260.779	81.62
261.012	93.62
261.244	91.62
261.477	90.62
261.71	93.62
261.942	110.62
262.175	113.62
262.407	80.62
262.64	85.62
262.872	85.62
263.105	85.62
263.337	74.62
263.57	93.62
263.802	87.62
264.035	79.62
264.267	83.62
264.499	75.62
264.732	83.62
264.964	81.62
265.197	89.62
265.429	85.62
265.661	86.62
265.894	72.62
266.126	85.62
266.358	85.62
266.591	89.62
266.823	88.62
267.055	72.62
267.287	81.62
267.52	98.62
267.752	68.62
267.984	81.62
268.216	75.62
268.448	89.62
268.681	88.62
268.913	85.62
269.145	82.62
269.377	93.62
269.609	76.62
269.841	77.62
270.073	92.62
270.306	92.62
270.538	83.62
270.77	86.62
271.002	83.62
271.234	78.62
271.466	88.62
271.698	82.62
271.93	77.62
272.162	89.62
272.394	77.62
272.626	101.62
272.858	89.62
273.09	90.62
273.322	93.62
273.553	83.62
273.785	90.62
274.017	87.62
274.249	85.62
274.481	89.62
274.713	84.62
274.945	79.62
275.176	92.62
275.408	77.62
275.64	87.62
275.872	82.62
276.104	99.62
276.335	99.62
276.567	90.62
276.799	103.62
277.031	89.62
277.262	104.62
277.494	92.62
277.726	85.62
277.957	95.62
278.189	92.62
278.421	77.62
278.652	92.62
278.884	84.62
279.115	86.62
279.347	90.62
279.579	83.62
279.81	85.62
280.042	81.62
280.273	92.62
280.505	90.62
280.736	97.62
280.968	81.62
281.199	93.62
281.431	84.62
281.662	74.62
281.894	82.62
282.125	97.62
282.356	122.62
282.588	131.62
282.819	117.62
283.051	85.62
283.282	97.62
283.513	96.62
283.745	97.62
283.976	87.62
284.207	81.62
284.439	83.62
284.67	69.62
284.901	81.62
285.132	74.62
285.364	85.62
285.595	89.62
285.826	91.62
286.057	98.62
286.288	90.62
286.52	86.62
286.751	94.62
286.982	101.62
287.213	89.62
287.444	87.62
287.675	98.62
287.906	96.62
288.138	81.62
288.369	97.62
288.6	94.62
288.831	89.62
289.062	84.62
289.293	81.62
289.524	74.62
289.755	97.62
289.986	93.62
290.217	108.62
290.448	90.62
290.679	81.62
290.91	96.62
291.141	85.62
291.371	86.62
291.602	92.62
291.833	98.62
292.064	88.62
292.295	78.62
292.526	83.62
292.757	77.62
292.987	81.62
293.218	90.62
293.449	94.62
293.68	93.62
293.91	85.62
294.141	88.62
294.372	101.62
294.603	100.62
294.833	78.62
295.064	86.62
295.295	95.62
295.525	92.62
295.756	110.62
295.987	110.62
296.217	137.62
296.448	108.62
296.679	97.62
296.909	77.62
297.14	88.62
297.37	86.62
297.601	90.62
297.831	87.62
298.062	89.62
298.292	101.62
298.523	97.62
298.753	90.62
298.984	86.62
299.214	89.62
299.445	97.62
299.675	83.62
299.905	88.62
300.136	100.62
300.366	91.62
300.597	74.62
300.827	89.62
301.057	77.62
301.288	100.62
301.518	93.62
301.748	93.62
301.979	101.62
302.209	100.62
302.439	101.62
302.669	79.62
302.9	89.62
303.13	102.62
303.36	100.62
303.59	89.62
303.82	94.62
304.051	95.62
304.281	101.62
304.511	93.62
304.741	79.62
304.971	83.62
305.201	90.62
305.431	97.62
305.661	89.62
305.891	93.62
306.121	82.62
306.352	94.62
306.582	121.62
306.812	103.62
307.042	108.62
307.272	105.62
307.502	104.62
307.731	101.62
307.961	101.62
308.191	101.62
308.421	95.62
308.651	98.62
308.881	100.62
309.111	93.62
309.341	85.62
309.571	94.62
309.8	102.62
310.03	95.62
310.26	98.62
310.49	79.62
310.72	99.62
310.949	105.62
311.179	99.62
311.409	95.62
311.639	93.62
311.868	99.62
312.098	91.62
312.328	93.62
312.557	95.62
312.787	96.62
313.017	99.62
313.246	86.62
313.476	92.62
313.706	106.62
313.935	91.62
314.165	98.62
314.394	95.62
314.624	95.62
314.853	83.62
315.083	100.62
315.312	85.62
315.542	90.62
315.771	89.62
316.001	90.62
316.23	85.62
316.46	90.62
316.689	75.62
316.919	91.62
317.148	91.62
317.377	106.62
317.607	89.62
317.836	90.62
318.065	105.62
318.295	92.62
318.524	91.62
318.753	86.62
318.983	90.62
319.212	91.62
319.441	98.62
319.67	95.62
319.9	99.62
320.129	88.62
320.358	93.62
320.587	102.62
320.816	87.62
321.046	95.62
321.275	96.62
321.504	97.62
321.733	88.62
321.962	85.62
322.191	103.62
322.42	98.62
322.649	102.62
322.878	83.62
323.108	98.62
323.337	115.62
323.566	130.62
323.795	148.62
324.024	169.62
324.253	325.62
324.482	652.62
324.71	1293.62
324.939	1701.62
325.168	623.62
325.397	205.62
325.626	134.62
325.855	125.62
326.084	125.62
326.313	110.62
326.542	127.62
326.77	206.62
326.999	382.62
327.228	731.62
327.457	1326.62
327.686	1075.62
327.914	301.62
328.143	211.62
328.372	155.62
328.6	136.62
328.829	116.62
329.058	121.62
329.287	109.62
329.515	109.62
329.744	104.62
329.972	136.62
330.201	165.62
330.43	203.62
330.658	149.62
330.887	139.62
331.115	119.62
331.344	111.62
331.572	93.62
331.801	102.62
332.03	102.62
332.258	100.62
332.486	100.62
332.715	97.62
332.943	94.62
333.172	101.62
333.4	99.62
333.629	107.62
333.857	127.62
334.085	117.62
334.314	180.62
334.542	237.62
334.771	225.62
334.999	120.62
335.227	93.62
335.455	108.62
335.684	109.62
335.912	92.62
336.14	94.62
336.369	92.62
336.597	105.62
336.825	107.62
337.053	91.62
337.281	91.62
337.51	106.62
337.738	85.62
337.966	86.62
338.194	90.62
338.422	92.62
338.65	83.62
338.878	107.62
339.106	95.62
339.334	87.62
339.562	90.62
339.79	85.62
340.018	95.62
340.246	91.62
340.474	95.62
340.702	115.62
340.93	74.62
341.158	93.62
341.386	83.62
341.614	90.62
341.842	87.62
342.07	91.62
342.298	99.62
342.526	92.62
342.754	93.62
342.981	83.62
343.209	87.62
343.437	113.62
343.665	93.62
343.893	98.62
344.12	90.62
344.348	105.62
344.576	91.62
344.804	83.62
345.031	77.62
345.259	103.62
345.487	96.62
345.714	85.62
345.942	119.62
346.17	99.62
346.397	99.62
346.625	83.62
346.853	108.62
347.08	99.62
347.308	99.62
347.535	109.62
347.763	81.62
347.99	108.62
348.218	100.62
348.445	90.62
348.673	118.62
348.9	99.62
349.128	88.62
349.355	99.62
349.583	107.62
349.81	98.62
350.037	88.62
350.265	103.62
350.492	95.62
350.72	84.62
350.947	87.62
351.174	98.62
351.402	100.62
351.629	97.62
351.856	86.62
352.083	100.62
352.311	102.62
352.538	101.62
352.765	102.62
352.992	103.62
353.22	106.62
353.447	93.62
353.674	105.62
353.901	107.62
354.128	112.62
354.355	110.62
354.583	103.62
354.81	102.62
355.037	93.62
355.264	101.62
355.491	111.62
355.718	99.62
355.945	91.62
356.172	93.62
356.399	94.62
356.626	96.62
356.853	83.62
357.08	109.62
357.307	89.62
357.534	90.62
357.761	99.62
357.988	100.62
358.215	109.62
358.441	110.62
358.668	90.62
358.895	91.62
359.122	93.62
359.349	101.62
359.576	92.62
359.802	98.62
360.029	99.62
360.256	91.62
360.483	99.62
360.709	94.62
360.936	88.62
361.163	93.62
361.39	106.62
361.616	104.62
361.843	92.62
362.07	105.62
362.296	105.62
362.523	107.62
362.749	87.62
362.976	105.62
363.203	105.62
363.429	88.62
363.656	103.62
363.882	94.62
364.109	86.62
364.335	83.62
364.562	100.62
364.788	94.62
365.015	93.62
365.241	81.62
365.468	104.62
365.694	100.62
365.92	99.62
366.147	91.62
366.373	101.62
366.599	92.62
366.826	88.62
367.052	79.62
367.278	97.62
367.505	102.62
367.731	93.62
367.957	73.62
368.184	83.62
368.41	103.62
368.636	110.62
368.862	111.62
369.089	92.62
369.315	81.62
369.541	95.62
369.767	86.62
369.993	84.62
370.219	89.62
370.445	83.62
370.672	107.62
370.898	93.62
371.124	92.62
371.35	86.62
371.576	92.62
371.802	94.62
372.028	85.62
372.254	99.62
372.48	98.62
372.706	90.62
372.932	83.62
373.158	88.62
373.384	103.62
373.61	90.62
373.835	88.62
374.061	89.62
374.287	100.62
374.513	84.62
374.739	89.62
374.965	87.62
375.191	88.62
375.416	88.62
375.642	107.62
375.868	94.62
376.094	84.62
376.319	104.62
376.545	108.62
376.771	77.62
376.997	100.62
377.222	109.62
377.448	93.62
377.674	90.62
377.899	88.62
378.125	100.62
378.35	93.62
378.576	96.62
378.802	91.62
379.027	91.62
379.253	103.62
379.478	99.62
379.704	94.62
379.929	104.62
380.155	92.62
380.38	117.62
380.606	93.62
380.831	99.62
381.057	102.62
381.282	98.62
381.507	105.62
381.733	111.62
381.958	106.62
382.184	106.62
382.409	93.62
382.634	102.62
382.86	104.62
383.085	107.62
383.31	114.62
383.535	111.62
383.761	106.62
383.986	114.62
384.211	111.62
384.436	108.62
384.662	114.62
384.887	104.62
385.112	103.62
385.337	103.62
385.562	109.62
385.787	104.62
386.013	101.62
386.238	108.62
386.463	106.62
386.688	120.62
386.913	103.62
387.138	117.62
387.363	109.62
387.588	97.62
387.813	103.62
388.038	116.62
388.263	130.62
388.488	110.62
388.713	99.62
388.938	84.62
389.163	95.62
389.387	98.62
389.612	93.62
389.837	67.62
390.062	103.62
390.287	82.62
390.512	98.62
390.736	83.62
390.961	102.62
391.186	101.62
391.411	102.62
391.636	96.62
391.86	92.62
392.085	96.62
392.31	86.62
392.534	85.62
392.759	89.62
392.984	96.62
393.208	104.62
393.433	116.62
393.658	108.62
393.882	100.62
394.107	99.62
394.331	99.62
394.556	91.62
394.78	103.62
395.005	98.62
395.229	76.62
395.454	91.62
395.678	96.62
395.903	92.62
396.127	106.62
396.352	95.62
396.576	95.62
396.801	102.62
397.025	104.62
397.249	98.62
397.474	81.62
397.698	89.62
397.922	96.62
398.147	85.62
398.371	79.62
398.595	91.62
398.82	87.62
399.044	85.62
399.268	86.62
399.492	88.62
399.717	109.62
399.941	83.62
400.165	100.62
400.389	97.62
400.613	90.62
400.837	90.62
401.062	110.62
401.286	88.62
401.51	87.62
401.734	99.62
401.958	92.62
402.182	115.62
402.406	143.62
402.63	109.62
402.854	95.62
403.078	83.62
403.302	83.62
403.526	93.62
403.75	95.62
403.974	93.62
404.198	94.62
404.422	84.62
404.645	85.62
404.869	84.62
405.093	104.62
405.317	102.62
405.541	103.62
405.765	104.62
405.988	118.62
406.212	157.62
406.436	195.62
406.66	99.62
406.883	92.62
407.107	91.62
407.331	94.62
407.555	91.62
407.778	98.62
408.002	91.62
408.226	87.62
408.449	85.62
408.673	111.62
408.896	92.62
409.12	98.62
409.344	102.62
409.567	98.62
409.791	86.62
410.014	102.62
410.238	90.62
410.461	90.62
410.685	102.62
410.908	93.62
411.132	102.62
411.355	93.62
411.578	81.62
411.802	98.62
412.025	86.62
412.249	82.62
412.472	89.62
412.695	97.62
412.919	91.62
413.142	97.62
413.365	88.62
413.589	107.62
413.812	94.62
414.035	97.62
414.258	84.62
414.482	100.62
414.705	93.62
414.928	97.62
415.151	97.62
415.374	91.62
415.597	98.62
415.821	101.62
416.044	101.62
416.267	88.62
416.49	102.62
416.713	90.62
416.936	88.62
417.159	92.62
417.382	92.62
417.605	83.62
417.828	90.62
418.051	95.62
418.274	93.62
418.497	91.62
418.72	94.62
418.943	102.62
419.166	96.62
419.389	85.62
419.611	88.62
419.834	94.62
420.057	97.62
420.28	104.62
420.503	89.62
420.726	89.62
420.948	77.62
421.171	85.62
421.394	89.62
421.617	93.62
421.839	85.62
422.062	99.62
422.285	91.62
422.507	89.62
422.73	102.62
422.953	86.62
423.175	102.62
423.398	87.62
423.621	102.62
423.843	87.62
424.066	103.62
424.288	78.62
424.511	98.62
424.733	89.62
424.956	110.62
425.178	90.62
425.401	108.62
425.623	94.62
425.846	82.62
426.068	85.62
426.291	77.62
426.513	97.62
426.735	110.62
426.958	103.62
427.18	99.62
427.402	129.62
427.625	145.62
427.847	140.62
428.069	113.62
428.292	75.62
428.514	99.62
428.736	81.62
428.958	94.62
429.181	92.62
429.403	97.62
429.625	98.62
429.847	73.62
430.069	101.62
430.292	92.62
430.514	87.62
430.736	82.62
430.958	74.62
431.18	76.62
431.402	71.62
431.624	86.62
431.846	73.62
432.068	84.62
432.29	78.62
432.512	85.62
432.734	81.62
432.956	84.62
433.178	102.62
433.4	108.62
433.622	93.62
433.844	97.62
434.066	89.62
434.287	83.62
434.509	86.62
434.731	94.62
434.953	73.62
435.175	89.62
435.397	84.62
435.618	106.62
435.84	102.62
436.062	119.62
436.284	106.62
436.505	87.62
436.727	103.62
436.949	93.62
437.17	85.62
437.392	96.62
437.614	74.62
437.835	101.62
438.057	109.62
438.278	111.62
438.5	102.62
438.721	102.62
438.943	93.62
439.165	89.62
439.386	98.62
439.608	95.62
439.829	113.62
440.05	125.62
440.272	129.62
440.493	100.62
440.715	91.62
440.936	88.62
441.158	85.62
441.379	97.62
441.6	101.62
441.822	90.62
442.043	102.62
442.264	103.62
442.486	96.62
442.707	86.62
442.928	97.62
443.149	107.62
443.371	117.62
443.592	107.62
443.813	101.62
444.034	106.62
444.255	93.62
444.476	89.62
444.698	91.62
444.919	93.62
445.14	127.62
445.361	114.62
445.582	101.62
445.803	129.62
446.024	105.62
446.245	109.62
446.466	102.62
446.687	84.62
446.908	97.62
447.129	110.62
447.35	85.62
447.571	98.62
447.792	85.62
448.013	93.62
448.234	93.62
448.455	94.62
448.675	95.62
448.896	114.62
449.117	99.62
449.338	117.62
449.559	112.62
449.779	101.62
450	97.62
450.221	83.62
450.442	94.62
450.662	98.62
450.883	100.62
451.104	108.62
451.324	95.62
451.545	83.62
451.766	86.62
451.986	91.62
452.207	97.62
452.428	86.62
452.648	101.62
452.869	115.62
453.089	105.62
453.31	105.62
453.53	90.62
453.751	102.62
453.971	108.62
454.192	98.62
454.412	87.62
454.633	83.62
454.853	96.62
455.073	89.62
455.294	86.62
455.514	97.62
455.734	85.62
455.955	83.62
456.175	89.62
456.395	81.62
456.616	76.62
456.836	91.62
457.056	85.62
457.276	92.62
457.497	76.62
457.717	77.62
457.937	74.62
458.157	83.62
458.377	84.62
458.598	89.62
458.818	143.62
459.038	135.62
459.258	92.62
459.478	95.62
459.698	77.62
459.918	103.62
460.138	94.62
460.358	85.62
460.578	95.62
460.798	101.62
461.018	91.62
461.238	71.62
461.458	95.62
461.678	102.62
461.898	103.62
462.118	88.62
462.338	98.62
462.558	82.62
462.777	76.62
462.997	89.62
463.217	91.62
463.437	86.62
463.657	86.62
463.876	81.62
464.096	89.62
464.316	105.62
464.536	97.62
464.755	94.62
464.975	98.62
465.195	156.62
465.414	145.62
465.634	97.62
465.854	85.62
466.073	97.62
466.293	85.62
466.512	75.62
466.732	88.62
466.951	90.62
467.171	92.62
467.391	93.62
467.61	98.62
467.829	111.62
468.049	141.62
468.268	138.62
468.488	95.62
468.707	77.62
468.927	76.62
469.146	100.62
469.365	87.62
469.585	118.62
469.804	101.62
470.023	92.62
470.243	88.62
470.462	90.62
470.681	111.62
470.901	84.62
471.12	70.62
471.339	93.62
471.558	86.62
471.777	105.62
471.997	102.62
472.216	196.62
472.435	294.62
472.654	116.62
472.873	86.62
473.092	83.62
473.311	86.62
473.53	89.62
473.749	76.62
473.968	94.62
474.187	109.62
474.406	101.62
474.625	90.62
474.844	88.62
475.063	92.62
475.282	98.62
475.501	85.62
475.72	91.62
475.939	90.62
476.158	84.62
476.377	87.62
476.596	98.62
476.814	107.62
477.033	96.62
477.252	91.62
477.471	104.62
477.69	83.62
477.908	90.62
478.127	83.62
478.346	93.62
478.564	78.62
478.783	103.62
479.002	101.62
479.22	97.62
479.439	99.62
479.658	95.62
479.876	101.62
480.095	93.62
480.313	89.62
480.532	101.62
480.751	108.62
480.969	205.62
481.188	508.62
481.406	341.62
481.624	110.62
481.843	93.62
482.061	81.62
482.28	90.62
482.498	91.62
482.717	93.62
482.935	102.62
483.153	91.62
483.372	95.62
483.59	90.62
483.808	96.62
484.027	100.62
484.245	95.62
484.463	85.62
484.681	89.62
484.9	80.62
485.118	97.62
485.336	110.62
485.554	108.62
485.772	101.62
485.99	115.62
486.209	114.62
486.427	98.62
486.645	109.62
486.863	118.62
487.081	98.62
487.299	96.62
487.517	98.62
487.735	103.62
487.953	88.62
488.171	97.62
488.389	112.62
488.607	103.62
488.825	96.62
489.043	93.62
489.261	82.62
489.479	76.62
489.696	82.62
489.914	93.62
490.132	107.62
490.35	93.62
490.568	89.62
490.786	85.62
491.003	90.62
491.221	90.62
491.439	96.62
491.657	103.62
491.874	101.62
492.092	94.62
492.31	70.62
492.527	86.62
492.745	87.62
492.963	92.62
493.18	96.62
493.398	84.62
493.615	104.62
493.833	94.62
494.05	87.62
494.268	99.62
494.485	85.62
494.703	94.62
494.92	102.62
495.138	81.62
495.355	87.62
495.573	82.62
495.79	81.62
496.008	91.62
496.225	87.62
496.442	82.62
496.66	93.62
496.877	101.62
497.094	90.62
497.312	93.62
497.529	92.62
497.746	86.62
497.963	95.62
498.181	88.62
498.398	107.62
498.615	92.62
498.832	101.62
499.049	92.62
499.267	94.62
499.484	85.62
499.701	87.62
499.918	92.62
500.135	79.62
500.352	74.62
500.569	93.62
500.786	96.62
501.003	109.62
501.22	105.62
501.437	95.62
501.654	84.62
501.871	97.62
502.088	97.62
502.305	110.62
502.522	89.62
502.739	97.62
502.956	86.62
503.172	99.62
503.389	98.62
503.606	109.62
503.823	105.62
504.04	103.62
504.256	95.62
504.473	93.62
504.69	93.62
504.907	77.62
505.123	81.62
505.34	84.62
505.557	100.62
505.773	105.62
505.99	91.62
506.207	98.62
506.423	93.62
506.64	85.62
506.856	104.62
507.073	86.62
507.289	85.62
507.506	88.62
507.722	117.62
507.939	106.62
508.155	89.62
508.372	89.62
508.588	87.62
508.805	98.62
509.021	97.62
509.238	106.62
509.454	101.62
509.67	101.62
509.887	104.62
510.103	117.62
510.319	185.62
510.536	612.62
510.752	1837.62
510.968	531.62
511.184	142.62
511.401	116.62
511.617	99.62
511.833	92.62
512.049	85.62
512.265	90.62
512.481	93.62
512.698	95.62
512.914	103.62
513.13	107.62
513.346	89.62
513.562	98.62
513.778	95.62
513.994	109.62
514.21	104.62
514.426	109.62
514.642	119.62
514.858	118.62
