Data from Circ_1983_H10_HRD10591_00036.txt Node
Date: Wed Jan 03 12:26:52 EST 2024
User: Yrep
Spectrometer: HR+D1059
Trigger mode: 1
Integration Time (sec): 1.000000E-1
Scans to average: 1
Electric dark correction enabled: true
Nonlinearity correction enabled: false
Boxcar width: 0
XAxis mode: Wavelengths
Number of Pixels in Spectrum: 2048
>>>>>Begin Spectral Data<<<<<
223.165	-23.81
223.4	-23.81
223.635	-23.81
223.869	-19.81
224.104	-3.81
224.338	-16.81
224.573	-11.81
224.808	-22.81
225.042	-6.81
225.277	-15.81
225.511	11.19
225.746	3.19
225.98	3.19
226.215	14.19
226.449	22.19
226.683	12.19
226.918	22.19
227.152	33.19
227.387	37.19
227.621	34.19
227.856	41.19
228.09	55.19
228.324	59.19
228.559	68.19
228.793	65.19
229.027	59.19
229.262	72.19
229.496	69.19
229.73	87.19
229.964	85.19
230.199	75.19
230.433	81.19
230.667	71.19
230.901	70.19
231.136	78.19
231.37	79.19
231.604	78.19
231.838	84.19
232.072	99.19
232.306	85.19
232.541	90.19
232.775	89.19
233.009	89.19
233.243	76.19
233.477	88.19
233.711	86.19
233.945	79.19
234.179	86.19
234.413	97.19
234.647	75.19
234.881	68.19
235.115	80.19
235.349	91.19
235.583	91.19
235.817	95.19
236.051	71.19
236.285	78.19
236.519	61.19
236.753	72.19
236.987	63.19
237.221	65.19
237.455	82.19
237.689	87.19
237.922	57.19
238.156	81.19
238.39	69.19
238.624	95.19
238.858	74.19
239.091	84.19
239.325	62.19
239.559	65.19
239.793	75.19
240.027	87.19
240.26	73.19
240.494	82.19
240.728	81.19
240.961	75.19
241.195	90.19
241.429	82.19
241.662	83.19
241.896	81.19
242.13	82.19
242.363	90.19
242.597	84.19
242.83	79.19
243.064	83.19
243.298	74.19
243.531	85.19
243.765	77.19
243.998	87.19
244.232	83.19
244.465	75.19
244.699	79.19
244.932	71.19
245.166	79.19
245.399	73.19
245.633	85.19
245.866	90.19
246.099	92.19
246.333	97.19
246.566	67.19
246.8	72.19
247.033	76.19
247.266	85.19
247.5	86.19
247.733	83.19
247.966	84.19
248.2	83.19
248.433	70.19
248.666	84.19
248.899	84.19
249.133	98.19
249.366	92.19
249.599	97.19
249.832	74.19
250.066	89.19
250.299	97.19
250.532	78.19
250.765	92.19
250.998	88.19
251.231	94.19
251.465	79.19
251.698	86.19
251.931	99.19
252.164	71.19
252.397	87.19
252.63	74.19
252.863	76.19
253.096	85.19
253.329	74.19
253.562	83.19
253.795	86.19
254.028	77.19
254.261	94.19
254.494	75.19
254.727	67.19
254.96	72.19
255.193	79.19
255.426	69.19
255.659	73.19
255.892	83.19
256.124	94.19
256.357	72.19
256.59	84.19
256.823	97.19
257.056	86.19
257.289	64.19
257.521	74.19
257.754	93.19
257.987	83.19
258.22	84.19
258.452	86.19
258.685	81.19
258.918	95.19
259.151	83.19
259.383	68.19
259.616	85.19
259.849	81.19
260.081	81.19
260.314	74.19
260.547	73.19
260.779	86.19
261.012	97.19
261.244	78.19
261.477	101.19
261.71	78.19
261.942	95.19
262.175	96.19
262.407	82.19
262.64	73.19
262.872	65.19
263.105	94.19
263.337	83.19
263.57	76.19
263.802	90.19
264.035	84.19
264.267	88.19
264.499	72.19
264.732	96.19
264.964	89.19
265.197	85.19
265.429	79.19
265.661	87.19
265.894	78.19
266.126	85.19
266.358	92.19
266.591	90.19
266.823	84.19
267.055	78.19
267.287	81.19
267.52	98.19
267.752	85.19
267.984	82.19
268.216	84.19
268.448	85.19
268.681	82.19
268.913	97.19
269.145	90.19
269.377	76.19
269.609	84.19
269.841	81.19
270.073	74.19
270.306	71.19
270.538	82.19
270.77	81.19
271.002	93.19
271.234	101.19
271.466	81.19
271.698	74.19
271.93	85.19
272.162	81.19
272.394	94.19
272.626	73.19
272.858	78.19
273.09	87.19
273.322	81.19
273.553	77.19
273.785	88.19
274.017	96.19
274.249	86.19
274.481	91.19
274.713	89.19
274.945	86.19
275.176	85.19
275.408	87.19
275.64	87.19
275.872	95.19
276.104	92.19
276.335	99.19
276.567	99.19
276.799	89.19
277.031	97.19
277.262	96.19
277.494	86.19
277.726	90.19
277.957	81.19
278.189	82.19
278.421	89.19
278.652	93.19
278.884	82.19
279.115	73.19
279.347	86.19
279.579	83.19
279.81	80.19
280.042	88.19
280.273	86.19
280.505	87.19
280.736	77.19
280.968	71.19
281.199	81.19
281.431	94.19
281.662	101.19
281.894	92.19
282.125	95.19
282.356	106.19
282.588	107.19
282.819	104.19
283.051	81.19
283.282	90.19
283.513	87.19
283.745	75.19
283.976	99.19
284.207	85.19
284.439	97.19
284.67	96.19
284.901	95.19
285.132	81.19
285.364	91.19
285.595	86.19
285.826	82.19
286.057	90.19
286.288	95.19
286.52	88.19
286.751	93.19
286.982	87.19
287.213	98.19
287.444	88.19
287.675	74.19
287.906	96.19
288.138	85.19
288.369	99.19
288.6	92.19
288.831	86.19
289.062	101.19
289.293	92.19
289.524	81.19
289.755	83.19
289.986	76.19
290.217	83.19
290.448	81.19
290.679	89.19
290.91	98.19
291.141	72.19
291.371	80.19
291.602	94.19
291.833	102.19
292.064	83.19
292.295	85.19
292.526	83.19
292.757	98.19
292.987	91.19
293.218	82.19
293.449	98.19
293.68	89.19
293.91	83.19
294.141	83.19
294.372	95.19
294.603	94.19
294.833	89.19
295.064	88.19
295.295	69.19
295.525	89.19
295.756	97.19
295.987	88.19
296.217	114.19
296.448	117.19
296.679	94.19
296.909	89.19
297.14	85.19
297.37	82.19
297.601	91.19
297.831	94.19
298.062	94.19
298.292	78.19
298.523	86.19
298.753	86.19
298.984	84.19
299.214	90.19
299.445	93.19
299.675	87.19
299.905	98.19
300.136	93.19
300.366	95.19
300.597	94.19
300.827	97.19
301.057	102.19
301.288	90.19
301.518	96.19
301.748	102.19
301.979	104.19
302.209	87.19
302.439	92.19
302.669	93.19
302.9	72.19
303.13	83.19
303.36	101.19
303.59	96.19
303.82	107.19
304.051	101.19
304.281	88.19
304.511	85.19
304.741	90.19
304.971	83.19
305.201	95.19
305.431	103.19
305.661	89.19
305.891	92.19
306.121	91.19
306.352	95.19
306.582	90.19
306.812	84.19
307.042	104.19
307.272	99.19
307.502	116.19
307.731	93.19
307.961	97.19
308.191	94.19
308.421	94.19
308.651	95.19
308.881	89.19
309.111	98.19
309.341	83.19
309.571	99.19
309.8	96.19
310.03	96.19
310.26	99.19
310.49	93.19
310.72	100.19
310.949	99.19
311.179	93.19
311.409	105.19
311.639	104.19
311.868	98.19
312.098	85.19
312.328	103.19
312.557	97.19
312.787	107.19
313.017	88.19
313.246	83.19
313.476	89.19
313.706	91.19
313.935	87.19
314.165	96.19
314.394	102.19
314.624	70.19
314.853	97.19
315.083	102.19
315.312	97.19
315.542	79.19
315.771	92.19
316.001	97.19
316.23	99.19
316.46	90.19
316.689	101.19
316.919	91.19
317.148	87.19
317.377	103.19
317.607	100.19
317.836	98.19
318.065	103.19
318.295	96.19
318.524	78.19
318.753	70.19
318.983	99.19
319.212	97.19
319.441	109.19
319.67	107.19
319.9	98.19
320.129	85.19
320.358	97.19
320.587	97.19
320.816	106.19
321.046	103.19
321.275	104.19
321.504	93.19
321.733	94.19
321.962	89.19
322.191	109.19
322.42	95.19
322.649	105.19
322.878	109.19
323.108	124.19
323.337	123.19
323.566	122.19
323.795	119.19
324.024	165.19
324.253	312.19
324.482	625.19
324.71	1265.19
324.939	1679.19
325.168	632.19
325.397	203.19
325.626	140.19
325.855	124.19
326.084	112.19
326.313	131.19
326.542	124.19
326.77	199.19
326.999	386.19
327.228	724.19
327.457	1318.19
327.686	1058.19
327.914	290.19
328.143	184.19
328.372	147.19
328.6	122.19
328.829	110.19
329.058	111.19
329.287	122.19
329.515	103.19
329.744	108.19
329.972	130.19
330.201	146.19
330.43	188.19
330.658	137.19
330.887	134.19
331.115	102.19
331.344	94.19
331.572	90.19
331.801	107.19
332.03	109.19
332.258	106.19
332.486	100.19
332.715	95.19
332.943	90.19
333.172	101.19
333.4	105.19
333.629	108.19
333.857	105.19
334.085	125.19
334.314	168.19
334.542	195.19
334.771	210.19
334.999	100.19
335.227	87.19
335.455	98.19
335.684	108.19
335.912	95.19
336.14	88.19
336.369	107.19
336.597	87.19
336.825	97.19
337.053	91.19
337.281	95.19
337.51	86.19
337.738	85.19
337.966	105.19
338.194	91.19
338.422	87.19
338.65	82.19
338.878	92.19
339.106	83.19
339.334	86.19
339.562	97.19
339.79	92.19
340.018	86.19
340.246	84.19
340.474	93.19
340.702	99.19
340.93	98.19
341.158	91.19
341.386	91.19
341.614	97.19
341.842	105.19
342.07	97.19
342.298	90.19
342.526	88.19
342.754	102.19
342.981	90.19
343.209	95.19
343.437	98.19
343.665	74.19
343.893	92.19
344.12	97.19
344.348	85.19
344.576	92.19
344.804	83.19
345.031	100.19
345.259	97.19
345.487	92.19
345.714	96.19
345.942	87.19
346.17	85.19
346.397	89.19
346.625	94.19
346.853	102.19
347.08	87.19
347.308	88.19
347.535	102.19
347.763	93.19
347.99	93.19
348.218	101.19
348.445	111.19
348.673	109.19
348.9	94.19
349.128	96.19
349.355	92.19
349.583	107.19
349.81	101.19
350.037	100.19
350.265	79.19
350.492	93.19
350.72	97.19
350.947	101.19
351.174	102.19
351.402	95.19
351.629	98.19
351.856	94.19
352.083	99.19
352.311	89.19
352.538	101.19
352.765	100.19
352.992	108.19
353.22	107.19
353.447	106.19
353.674	110.19
353.901	95.19
354.128	102.19
354.355	87.19
354.583	76.19
354.81	97.19
355.037	100.19
355.264	111.19
355.491	108.19
355.718	95.19
355.945	92.19
356.172	86.19
356.399	94.19
356.626	94.19
356.853	86.19
357.08	85.19
357.307	107.19
357.534	90.19
357.761	95.19
357.988	111.19
358.215	89.19
358.441	101.19
358.668	76.19
358.895	81.19
359.122	77.19
359.349	96.19
359.576	93.19
359.802	91.19
360.029	108.19
360.256	102.19
360.483	101.19
360.709	94.19
360.936	104.19
361.163	102.19
361.39	110.19
361.616	97.19
361.843	105.19
362.07	103.19
362.296	92.19
362.523	101.19
362.749	90.19
362.976	83.19
363.203	95.19
363.429	88.19
363.656	95.19
363.882	78.19
364.109	97.19
364.335	106.19
364.562	94.19
364.788	89.19
365.015	102.19
365.241	99.19
365.468	103.19
365.694	102.19
365.92	89.19
366.147	90.19
366.373	96.19
366.599	95.19
366.826	91.19
367.052	84.19
367.278	97.19
367.505	88.19
367.731	85.19
367.957	93.19
368.184	95.19
368.41	93.19
368.636	111.19
368.862	101.19
369.089	86.19
369.315	85.19
369.541	91.19
369.767	87.19
369.993	97.19
370.219	93.19
370.445	105.19
370.672	85.19
370.898	93.19
371.124	102.19
371.35	98.19
371.576	98.19
371.802	92.19
372.028	86.19
372.254	107.19
372.48	89.19
372.706	84.19
372.932	87.19
373.158	84.19
373.384	106.19
373.61	87.19
373.835	85.19
374.061	87.19
374.287	103.19
374.513	105.19
374.739	94.19
374.965	91.19
375.191	97.19
375.416	99.19
375.642	86.19
375.868	91.19
376.094	89.19
376.319	103.19
376.545	92.19
376.771	86.19
376.997	85.19
377.222	89.19
377.448	104.19
377.674	90.19
377.899	95.19
378.125	107.19
378.35	109.19
378.576	97.19
378.802	81.19
379.027	79.19
379.253	101.19
379.478	88.19
379.704	92.19
379.929	93.19
380.155	93.19
380.38	106.19
380.606	109.19
380.831	100.19
381.057	116.19
381.282	96.19
381.507	101.19
381.733	89.19
381.958	97.19
382.184	99.19
382.409	107.19
382.634	98.19
382.86	90.19
383.085	102.19
383.31	107.19
383.535	103.19
383.761	103.19
383.986	116.19
384.211	109.19
384.436	100.19
384.662	97.19
384.887	114.19
385.112	115.19
385.337	104.19
385.562	98.19
385.787	123.19
386.013	130.19
386.238	117.19
386.463	121.19
386.688	115.19
386.913	123.19
387.138	118.19
387.363	108.19
387.588	99.19
387.813	102.19
388.038	113.19
388.263	125.19
388.488	108.19
388.713	101.19
388.938	93.19
389.163	107.19
389.387	98.19
389.612	97.19
389.837	93.19
390.062	101.19
390.287	108.19
390.512	94.19
390.736	93.19
390.961	99.19
391.186	98.19
391.411	89.19
391.636	105.19
391.86	81.19
392.085	86.19
392.31	86.19
392.534	97.19
392.759	92.19
392.984	102.19
393.208	102.19
393.433	131.19
393.658	117.19
393.882	85.19
394.107	83.19
394.331	94.19
394.556	86.19
394.78	90.19
395.005	90.19
395.229	79.19
395.454	84.19
395.678	97.19
395.903	88.19
396.127	95.19
396.352	98.19
396.576	100.19
396.801	111.19
397.025	107.19
397.249	94.19
397.474	87.19
397.698	98.19
397.922	94.19
398.147	74.19
398.371	75.19
398.595	93.19
398.82	97.19
399.044	83.19
399.268	87.19
399.492	86.19
399.717	102.19
399.941	85.19
400.165	84.19
400.389	93.19
400.613	100.19
400.837	93.19
401.062	97.19
401.286	84.19
401.51	78.19
401.734	86.19
401.958	99.19
402.182	120.19
402.406	131.19
402.63	117.19
402.854	92.19
403.078	100.19
403.302	101.19
403.526	78.19
403.75	81.19
403.974	94.19
404.198	95.19
404.422	76.19
404.645	78.19
404.869	99.19
405.093	85.19
405.317	92.19
405.541	89.19
405.765	87.19
405.988	106.19
406.212	148.19
406.436	205.19
406.66	132.19
406.883	88.19
407.107	90.19
407.331	94.19
407.555	100.19
407.778	87.19
408.002	98.19
408.226	104.19
408.449	93.19
408.673	94.19
408.896	81.19
409.12	88.19
409.344	94.19
409.567	87.19
409.791	103.19
410.014	94.19
410.238	100.19
410.461	90.19
410.685	76.19
410.908	93.19
411.132	109.19
411.355	91.19
411.578	102.19
411.802	100.19
412.025	102.19
412.249	93.19
412.472	101.19
412.695	99.19
412.919	92.19
413.142	85.19
413.365	88.19
413.589	103.19
413.812	89.19
414.035	91.19
414.258	99.19
414.482	87.19
414.705	85.19
414.928	91.19
415.151	108.19
415.374	97.19
415.597	99.19
415.821	101.19
416.044	86.19
416.267	88.19
416.49	97.19
416.713	85.19
416.936	86.19
417.159	89.19
417.382	99.19
417.605	89.19
417.828	103.19
418.051	98.19
418.274	95.19
418.497	87.19
418.72	88.19
418.943	96.19
419.166	85.19
419.389	91.19
419.611	93.19
419.834	93.19
420.057	94.19
420.28	81.19
420.503	93.19
420.726	76.19
420.948	101.19
421.171	98.19
421.394	92.19
421.617	100.19
421.839	93.19
422.062	97.19
422.285	99.19
422.507	105.19
422.73	95.19
422.953	97.19
423.175	88.19
423.398	90.19
423.621	109.19
423.843	106.19
424.066	101.19
424.288	86.19
424.511	84.19
424.733	103.19
424.956	102.19
425.178	107.19
425.401	110.19
425.623	115.19
425.846	94.19
426.068	97.19
426.291	87.19
426.513	100.19
426.735	93.19
426.958	89.19
427.18	100.19
427.402	122.19
427.625	151.19
427.847	115.19
428.069	107.19
428.292	87.19
428.514	91.19
428.736	68.19
428.958	91.19
429.181	88.19
429.403	101.19
429.625	71.19
429.847	97.19
430.069	93.19
430.292	104.19
430.514	91.19
430.736	81.19
430.958	69.19
431.18	91.19
431.402	78.19
431.624	77.19
431.846	84.19
432.068	85.19
432.29	93.19
432.512	91.19
432.734	87.19
432.956	91.19
433.178	88.19
433.4	90.19
433.622	82.19
433.844	92.19
434.066	87.19
434.287	90.19
434.509	91.19
434.731	89.19
434.953	76.19
435.175	103.19
435.397	95.19
435.618	107.19
435.84	100.19
436.062	104.19
436.284	102.19
436.505	99.19
436.727	101.19
436.949	85.19
437.17	90.19
437.392	97.19
437.614	106.19
437.835	107.19
438.057	95.19
438.278	104.19
438.5	95.19
438.721	108.19
438.943	100.19
439.165	100.19
439.386	93.19
439.608	108.19
439.829	109.19
440.05	111.19
440.272	130.19
440.493	87.19
440.715	73.19
440.936	85.19
441.158	86.19
441.379	80.19
441.6	75.19
441.822	80.19
442.043	93.19
442.264	92.19
442.486	90.19
442.707	92.19
442.928	100.19
443.149	117.19
443.371	116.19
443.592	99.19
443.813	110.19
444.034	97.19
444.255	87.19
444.476	91.19
444.698	86.19
444.919	90.19
445.14	134.19
445.361	139.19
445.582	110.19
445.803	119.19
446.024	115.19
446.245	116.19
446.466	98.19
446.687	85.19
446.908	101.19
447.129	92.19
447.35	101.19
447.571	101.19
447.792	82.19
448.013	82.19
448.234	101.19
448.455	97.19
448.675	97.19
448.896	100.19
449.117	88.19
449.338	86.19
449.559	111.19
449.779	103.19
450	91.19
450.221	89.19
450.442	84.19
450.662	100.19
450.883	93.19
451.104	103.19
451.324	94.19
451.545	95.19
451.766	94.19
451.986	76.19
452.207	100.19
452.428	91.19
452.648	95.19
452.869	96.19
453.089	100.19
453.31	106.19
453.53	73.19
453.751	86.19
453.971	88.19
454.192	101.19
454.412	95.19
454.633	93.19
454.853	83.19
455.073	69.19
455.294	90.19
455.514	93.19
455.734	83.19
455.955	89.19
456.175	91.19
456.395	91.19
456.616	95.19
456.836	93.19
457.056	74.19
457.276	81.19
457.497	83.19
457.717	87.19
457.937	84.19
458.157	88.19
458.377	89.19
458.598	99.19
458.818	118.19
459.038	145.19
459.258	114.19
459.478	87.19
459.698	88.19
459.918	90.19
460.138	84.19
460.358	85.19
460.578	100.19
460.798	81.19
461.018	82.19
461.238	91.19
461.458	81.19
461.678	79.19
461.898	86.19
462.118	103.19
462.338	91.19
462.558	81.19
462.777	73.19
462.997	85.19
463.217	88.19
463.437	83.19
463.657	76.19
463.876	94.19
464.096	108.19
464.316	86.19
464.536	101.19
464.755	101.19
464.975	94.19
465.195	144.19
465.414	135.19
465.634	112.19
465.854	90.19
466.073	88.19
466.293	95.19
466.512	85.19
466.732	93.19
466.951	93.19
467.171	86.19
467.391	94.19
467.61	112.19
467.829	104.19
468.049	125.19
468.268	135.19
468.488	83.19
468.707	81.19
468.927	90.19
469.146	86.19
469.365	85.19
469.585	81.19
469.804	91.19
470.023	91.19
470.243	92.19
470.462	111.19
470.681	94.19
470.901	95.19
471.12	90.19
471.339	85.19
471.558	102.19
471.777	91.19
471.997	88.19
472.216	182.19
472.435	266.19
472.654	112.19
472.873	100.19
473.092	87.19
473.311	95.19
473.53	86.19
473.749	82.19
473.968	97.19
474.187	93.19
474.406	85.19
474.625	91.19
474.844	85.19
475.063	86.19
475.282	91.19
475.501	94.19
475.72	110.19
475.939	90.19
476.158	83.19
476.377	94.19
476.596	73.19
476.814	99.19
477.033	95.19
477.252	89.19
477.471	92.19
477.69	90.19
477.908	94.19
478.127	81.19
478.346	81.19
478.564	91.19
478.783	95.19
479.002	88.19
479.22	90.19
479.439	99.19
479.658	107.19
479.876	87.19
480.095	99.19
480.313	91.19
480.532	89.19
480.751	87.19
480.969	152.19
481.188	403.19
481.406	263.19
481.624	105.19
481.843	90.19
482.061	107.19
482.28	88.19
482.498	91.19
482.717	90.19
482.935	97.19
483.153	76.19
483.372	91.19
483.59	84.19
483.808	83.19
484.027	88.19
484.245	93.19
484.463	96.19
484.681	86.19
484.9	82.19
485.118	112.19
485.336	91.19
485.554	110.19
485.772	101.19
485.99	103.19
486.209	102.19
486.427	114.19
486.645	116.19
486.863	114.19
487.081	88.19
487.299	103.19
487.517	94.19
487.735	90.19
487.953	92.19
488.171	90.19
488.389	92.19
488.607	93.19
488.825	95.19
489.043	95.19
489.261	92.19
489.479	79.19
489.696	97.19
489.914	88.19
490.132	96.19
490.35	93.19
490.568	107.19
490.786	89.19
491.003	91.19
491.221	93.19
491.439	89.19
491.657	96.19
491.874	81.19
492.092	84.19
492.31	95.19
492.527	75.19
492.745	85.19
492.963	108.19
493.18	114.19
493.398	96.19
493.615	91.19
493.833	91.19
494.05	103.19
494.268	111.19
494.485	101.19
494.703	97.19
494.92	89.19
495.138	84.19
495.355	109.19
495.573	98.19
495.79	87.19
496.008	87.19
496.225	91.19
496.442	93.19
496.66	89.19
496.877	86.19
497.094	96.19
497.312	98.19
497.529	90.19
497.746	82.19
497.963	97.19
498.181	81.19
498.398	98.19
498.615	112.19
498.832	110.19
499.049	104.19
499.267	86.19
499.484	98.19
499.701	85.19
499.918	89.19
500.135	101.19
500.352	81.19
500.569	90.19
500.786	101.19
501.003	88.19
501.22	92.19
501.437	92.19
501.654	73.19
501.871	104.19
502.088	87.19
502.305	98.19
502.522	99.19
502.739	94.19
502.956	78.19
503.172	89.19
503.389	93.19
503.606	100.19
503.823	89.19
504.04	93.19
504.256	99.19
504.473	85.19
504.69	93.19
504.907	97.19
505.123	109.19
505.34	90.19
505.557	71.19
505.773	87.19
505.99	109.19
506.207	102.19
506.423	83.19
506.64	102.19
506.856	93.19
507.073	93.19
507.289	91.19
507.506	91.19
507.722	97.19
507.939	92.19
508.155	101.19
508.372	88.19
508.588	89.19
508.805	101.19
509.021	90.19
509.238	104.19
509.454	91.19
509.67	97.19
509.887	92.19
510.103	113.19
510.319	187.19
510.536	588.19
510.752	1793.19
510.968	512.19
511.184	158.19
511.401	103.19
511.617	98.19
511.833	99.19
512.049	97.19
512.265	75.19
512.481	99.19
512.698	91.19
512.914	89.19
513.13	92.19
513.346	85.19
513.562	97.19
513.778	95.19
513.994	94.19
514.21	102.19
514.426	114.19
514.642	131.19
514.858	115.19
515.074	137.19
515.29	359.19
