Data from Circ_1983_H10_HRD10591_00092.txt Node
Date: Wed Jan 03 12:27:03 EST 2024
User: Yrep
Spectrometer: HR+D1059
Trigger mode: 1
Integration Time (sec): 1.000000E-1
Scans to average: 1
Electric dark correction enabled: true
Nonlinearity correction enabled: false
Boxcar width: 0
XAxis mode: Wavelengths
Number of Pixels in Spectrum: 2048
>>>>>Begin Spectral Data<<<<<
223.165	-24.81
223.4	-24.81
223.635	-24.81
223.869	-11.81
224.104	-19.81
224.338	-15.81
224.573	-13.81
224.808	-6.81
225.042	-18.81
225.277	-10.81
225.511	-1.81
225.746	2.19
225.98	23.19
226.215	3.19
226.449	9.19
226.683	13.19
226.918	38.19
227.152	35.19
227.387	33.19
227.621	39.19
227.856	49.19
228.09	43.19
228.324	49.19
228.559	55.19
228.793	50.19
229.027	70.19
229.262	45.19
229.496	64.19
229.73	70.19
229.964	77.19
230.199	76.19
230.433	81.19
230.667	85.19
230.901	79.19
231.136	75.19
231.37	75.19
231.604	80.19
231.838	76.19
232.072	80.19
232.306	80.19
232.541	65.19
232.775	85.19
233.009	77.19
233.243	78.19
233.477	86.19
233.711	82.19
233.945	75.19
234.179	84.19
234.413	75.19
234.647	82.19
234.881	77.19
235.115	68.19
235.349	68.19
235.583	71.19
235.817	76.19
236.051	80.19
236.285	76.19
236.519	83.19
236.753	85.19
236.987	67.19
237.221	66.19
237.455	87.19
237.689	76.19
237.922	76.19
238.156	69.19
238.39	84.19
238.624	88.19
238.858	83.19
239.091	76.19
239.325	69.19
239.559	84.19
239.793	56.19
240.027	84.19
240.26	74.19
240.494	78.19
240.728	69.19
240.961	70.19
241.195	70.19
241.429	72.19
241.662	82.19
241.896	72.19
242.13	78.19
242.363	82.19
242.597	78.19
242.83	69.19
243.064	60.19
243.298	82.19
243.531	79.19
243.765	88.19
243.998	63.19
244.232	64.19
244.465	85.19
244.699	77.19
244.932	79.19
245.166	72.19
245.399	61.19
245.633	71.19
245.866	85.19
246.099	73.19
246.333	64.19
246.566	72.19
246.8	77.19
247.033	80.19
247.266	83.19
247.5	68.19
247.733	74.19
247.966	64.19
248.2	77.19
248.433	82.19
248.666	84.19
248.899	94.19
249.133	72.19
249.366	82.19
249.599	95.19
249.832	65.19
250.066	85.19
250.299	68.19
250.532	87.19
250.765	62.19
250.998	80.19
251.231	76.19
251.465	67.19
251.698	76.19
251.931	90.19
252.164	71.19
252.397	78.19
252.63	79.19
252.863	85.19
253.096	83.19
253.329	82.19
253.562	82.19
253.795	74.19
254.028	82.19
254.261	84.19
254.494	86.19
254.727	82.19
254.96	88.19
255.193	82.19
255.426	96.19
255.659	77.19
255.892	87.19
256.124	74.19
256.357	69.19
256.59	85.19
256.823	75.19
257.056	80.19
257.289	80.19
257.521	65.19
257.754	73.19
257.987	78.19
258.22	85.19
258.452	74.19
258.685	96.19
258.918	85.19
259.151	90.19
259.383	80.19
259.616	92.19
259.849	71.19
260.081	70.19
260.314	73.19
260.547	68.19
260.779	92.19
261.012	92.19
261.244	98.19
261.477	84.19
261.71	79.19
261.942	89.19
262.175	106.19
262.407	74.19
262.64	76.19
262.872	90.19
263.105	87.19
263.337	74.19
263.57	72.19
263.802	80.19
264.035	66.19
264.267	85.19
264.499	84.19
264.732	87.19
264.964	81.19
265.197	79.19
265.429	101.19
265.661	88.19
265.894	73.19
266.126	69.19
266.358	82.19
266.591	74.19
266.823	80.19
267.055	77.19
267.287	89.19
267.52	74.19
267.752	89.19
267.984	69.19
268.216	93.19
268.448	71.19
268.681	85.19
268.913	70.19
269.145	84.19
269.377	73.19
269.609	75.19
269.841	74.19
270.073	73.19
270.306	80.19
270.538	72.19
270.77	82.19
271.002	87.19
271.234	81.19
271.466	85.19
271.698	79.19
271.93	82.19
272.162	91.19
272.394	76.19
272.626	86.19
272.858	72.19
273.09	85.19
273.322	85.19
273.553	71.19
273.785	84.19
274.017	82.19
274.249	73.19
274.481	72.19
274.713	84.19
274.945	80.19
275.176	74.19
275.408	73.19
275.64	87.19
275.872	76.19
276.104	88.19
276.335	81.19
276.567	92.19
276.799	86.19
277.031	94.19
277.262	89.19
277.494	81.19
277.726	79.19
277.957	82.19
278.189	79.19
278.421	82.19
278.652	77.19
278.884	88.19
279.115	94.19
279.347	86.19
279.579	83.19
279.81	102.19
280.042	101.19
280.273	85.19
280.505	90.19
280.736	77.19
280.968	79.19
281.199	86.19
281.431	78.19
281.662	87.19
281.894	73.19
282.125	98.19
282.356	105.19
282.588	104.19
282.819	102.19
283.051	85.19
283.282	86.19
283.513	88.19
283.745	78.19
283.976	78.19
284.207	71.19
284.439	76.19
284.67	71.19
284.901	92.19
285.132	65.19
285.364	96.19
285.595	88.19
285.826	68.19
286.057	92.19
286.288	96.19
286.52	89.19
286.751	85.19
286.982	85.19
287.213	66.19
287.444	77.19
287.675	84.19
287.906	76.19
288.138	78.19
288.369	99.19
288.6	85.19
288.831	71.19
289.062	74.19
289.293	95.19
289.524	82.19
289.755	88.19
289.986	78.19
290.217	87.19
290.448	93.19
290.679	77.19
290.91	90.19
291.141	82.19
291.371	83.19
291.602	72.19
291.833	88.19
292.064	81.19
292.295	80.19
292.526	80.19
292.757	85.19
292.987	75.19
293.218	83.19
293.449	87.19
293.68	76.19
293.91	87.19
294.141	84.19
294.372	94.19
294.603	74.19
294.833	89.19
295.064	74.19
295.295	100.19
295.525	80.19
295.756	113.19
295.987	105.19
296.217	130.19
296.448	116.19
296.679	85.19
296.909	84.19
297.14	80.19
297.37	81.19
297.601	89.19
297.831	73.19
298.062	99.19
298.292	88.19
298.523	89.19
298.753	72.19
298.984	66.19
299.214	88.19
299.445	90.19
299.675	88.19
299.905	92.19
300.136	77.19
300.366	73.19
300.597	92.19
300.827	97.19
301.057	80.19
301.288	95.19
301.518	95.19
301.748	93.19
301.979	97.19
302.209	92.19
302.439	80.19
302.669	88.19
302.9	92.19
303.13	82.19
303.36	86.19
303.59	100.19
303.82	91.19
304.051	87.19
304.281	101.19
304.511	82.19
304.741	81.19
304.971	84.19
305.201	84.19
305.431	77.19
305.661	93.19
305.891	90.19
306.121	93.19
306.352	88.19
306.582	92.19
306.812	66.19
307.042	94.19
307.272	110.19
307.502	95.19
307.731	92.19
307.961	91.19
308.191	78.19
308.421	83.19
308.651	94.19
308.881	96.19
309.111	82.19
309.341	94.19
309.571	96.19
309.8	95.19
310.03	102.19
310.26	95.19
310.49	90.19
310.72	97.19
310.949	71.19
311.179	92.19
311.409	95.19
311.639	99.19
311.868	85.19
312.098	96.19
312.328	104.19
312.557	113.19
312.787	90.19
313.017	93.19
313.246	84.19
313.476	91.19
313.706	80.19
313.935	94.19
314.165	107.19
314.394	116.19
314.624	96.19
314.853	93.19
315.083	83.19
315.312	95.19
315.542	94.19
315.771	92.19
316.001	98.19
316.23	95.19
316.46	91.19
316.689	85.19
316.919	90.19
317.148	76.19
317.377	95.19
317.607	88.19
317.836	80.19
318.065	84.19
318.295	82.19
318.524	83.19
318.753	91.19
318.983	105.19
319.212	93.19
319.441	84.19
319.67	101.19
319.9	86.19
320.129	84.19
320.358	88.19
320.587	94.19
320.816	98.19
321.046	102.19
321.275	89.19
321.504	86.19
321.733	89.19
321.962	94.19
322.191	89.19
322.42	100.19
322.649	96.19
322.878	112.19
323.108	89.19
323.337	106.19
323.566	121.19
323.795	120.19
324.024	152.19
324.253	280.19
324.482	546.19
324.71	1123.19
324.939	1450.19
325.168	563.19
325.397	181.19
325.626	118.19
325.855	104.19
326.084	103.19
326.313	111.19
326.542	135.19
326.77	190.19
326.999	308.19
327.228	617.19
327.457	1104.19
327.686	902.19
327.914	290.19
328.143	208.19
328.372	167.19
328.6	130.19
328.829	110.19
329.058	111.19
329.287	100.19
329.515	110.19
329.744	96.19
329.972	134.19
330.201	206.19
330.43	256.19
330.658	152.19
330.887	129.19
331.115	110.19
331.344	96.19
331.572	93.19
331.801	87.19
332.03	93.19
332.258	87.19
332.486	101.19
332.715	88.19
332.943	94.19
333.172	85.19
333.4	95.19
333.629	94.19
333.857	117.19
334.085	144.19
334.314	201.19
334.542	300.19
334.771	275.19
334.999	130.19
335.227	99.19
335.455	82.19
335.684	107.19
335.912	101.19
336.14	96.19
336.369	85.19
336.597	87.19
336.825	99.19
337.053	92.19
337.281	77.19
337.51	82.19
337.738	97.19
337.966	93.19
338.194	92.19
338.422	90.19
338.65	81.19
338.878	73.19
339.106	102.19
339.334	88.19
339.562	94.19
339.79	94.19
340.018	89.19
340.246	89.19
340.474	102.19
340.702	89.19
340.93	95.19
341.158	84.19
341.386	93.19
341.614	78.19
341.842	93.19
342.07	86.19
342.298	99.19
342.526	87.19
342.754	89.19
342.981	84.19
343.209	81.19
343.437	109.19
343.665	97.19
343.893	88.19
344.12	81.19
344.348	78.19
344.576	86.19
344.804	79.19
345.031	85.19
345.259	105.19
345.487	101.19
345.714	89.19
345.942	87.19
346.17	94.19
346.397	95.19
346.625	85.19
346.853	82.19
347.08	79.19
347.308	78.19
347.535	80.19
347.763	82.19
347.99	97.19
348.218	96.19
348.445	110.19
348.673	93.19
348.9	84.19
349.128	80.19
349.355	86.19
349.583	78.19
349.81	86.19
350.037	100.19
350.265	78.19
350.492	99.19
350.72	89.19
350.947	82.19
351.174	94.19
351.402	92.19
351.629	80.19
351.856	105.19
352.083	97.19
352.311	98.19
352.538	101.19
352.765	101.19
352.992	108.19
353.22	114.19
353.447	86.19
353.674	73.19
353.901	96.19
354.128	96.19
354.355	106.19
354.583	85.19
354.81	87.19
355.037	104.19
355.264	88.19
355.491	91.19
355.718	100.19
355.945	95.19
356.172	92.19
356.399	92.19
356.626	93.19
356.853	88.19
357.08	95.19
357.307	74.19
357.534	88.19
357.761	96.19
357.988	76.19
358.215	85.19
358.441	87.19
358.668	91.19
358.895	81.19
359.122	89.19
359.349	87.19
359.576	82.19
359.802	84.19
360.029	92.19
360.256	92.19
360.483	92.19
360.709	77.19
360.936	82.19
361.163	83.19
361.39	80.19
361.616	84.19
361.843	89.19
362.07	85.19
362.296	89.19
362.523	78.19
362.749	79.19
362.976	91.19
363.203	74.19
363.429	82.19
363.656	81.19
363.882	87.19
364.109	98.19
364.335	97.19
364.562	74.19
364.788	74.19
365.015	72.19
365.241	94.19
365.468	100.19
365.694	92.19
365.92	92.19
366.147	82.19
366.373	81.19
366.599	98.19
366.826	84.19
367.052	74.19
367.278	103.19
367.505	95.19
367.731	85.19
367.957	84.19
368.184	95.19
368.41	85.19
368.636	105.19
368.862	98.19
369.089	88.19
369.315	87.19
369.541	72.19
369.767	91.19
369.993	105.19
370.219	81.19
370.445	104.19
370.672	98.19
370.898	75.19
371.124	90.19
371.35	73.19
371.576	86.19
371.802	71.19
372.028	90.19
372.254	95.19
372.48	79.19
372.706	87.19
372.932	74.19
373.158	81.19
373.384	79.19
373.61	91.19
373.835	81.19
374.061	88.19
374.287	82.19
374.513	86.19
374.739	79.19
374.965	86.19
375.191	86.19
375.416	95.19
375.642	96.19
375.868	92.19
376.094	90.19
376.319	87.19
376.545	82.19
376.771	78.19
376.997	76.19
377.222	78.19
377.448	83.19
377.674	69.19
377.899	86.19
378.125	91.19
378.35	78.19
378.576	78.19
378.802	83.19
379.027	94.19
379.253	86.19
379.478	95.19
379.704	97.19
379.929	84.19
380.155	89.19
380.38	97.19
380.606	89.19
380.831	91.19
381.057	93.19
381.282	84.19
381.507	84.19
381.733	92.19
381.958	85.19
382.184	92.19
382.409	92.19
382.634	95.19
382.86	82.19
383.085	85.19
383.31	92.19
383.535	93.19
383.761	77.19
383.986	97.19
384.211	86.19
384.436	88.19
384.662	90.19
384.887	86.19
385.112	93.19
385.337	95.19
385.562	97.19
385.787	93.19
386.013	93.19
386.238	109.19
386.463	110.19
386.688	105.19
386.913	93.19
387.138	95.19
387.363	85.19
387.588	97.19
387.813	90.19
388.038	97.19
388.263	103.19
388.488	115.19
388.713	84.19
388.938	89.19
389.163	87.19
389.387	90.19
389.612	98.19
389.837	77.19
390.062	95.19
390.287	95.19
390.512	94.19
390.736	92.19
390.961	81.19
391.186	91.19
391.411	87.19
391.636	86.19
391.86	81.19
392.085	72.19
392.31	78.19
392.534	67.19
392.759	85.19
392.984	83.19
393.208	84.19
393.433	97.19
393.658	92.19
393.882	76.19
394.107	89.19
394.331	95.19
394.556	90.19
394.78	85.19
395.005	82.19
395.229	69.19
395.454	92.19
395.678	82.19
395.903	78.19
396.127	99.19
396.352	92.19
396.576	73.19
396.801	87.19
397.025	88.19
397.249	89.19
397.474	89.19
397.698	78.19
397.922	80.19
398.147	97.19
398.371	91.19
398.595	77.19
398.82	82.19
399.044	69.19
399.268	76.19
399.492	88.19
399.717	93.19
399.941	76.19
400.165	80.19
400.389	83.19
400.613	88.19
400.837	80.19
401.062	87.19
401.286	79.19
401.51	83.19
401.734	85.19
401.958	81.19
402.182	104.19
402.406	109.19
402.63	97.19
402.854	78.19
403.078	78.19
403.302	80.19
403.526	93.19
403.75	76.19
403.974	82.19
404.198	90.19
404.422	87.19
404.645	78.19
404.869	89.19
405.093	86.19
405.317	92.19
405.541	94.19
405.765	91.19
405.988	105.19
406.212	137.19
406.436	167.19
406.66	125.19
406.883	101.19
407.107	69.19
407.331	83.19
407.555	89.19
407.778	89.19
408.002	89.19
408.226	84.19
408.449	61.19
408.673	82.19
408.896	90.19
409.12	94.19
409.344	74.19
409.567	92.19
409.791	78.19
410.014	84.19
410.238	87.19
410.461	85.19
410.685	92.19
410.908	88.19
411.132	94.19
411.355	92.19
411.578	85.19
411.802	90.19
412.025	83.19
412.249	93.19
412.472	95.19
412.695	103.19
412.919	86.19
413.142	89.19
413.365	76.19
413.589	80.19
413.812	90.19
414.035	87.19
414.258	81.19
414.482	69.19
414.705	81.19
414.928	74.19
415.151	78.19
415.374	78.19
415.597	102.19
415.821	109.19
416.044	94.19
416.267	96.19
416.49	70.19
416.713	85.19
416.936	81.19
417.159	82.19
417.382	84.19
417.605	72.19
417.828	92.19
418.051	102.19
418.274	82.19
418.497	80.19
418.72	86.19
418.943	84.19
419.166	76.19
419.389	102.19
419.611	78.19
419.834	87.19
420.057	86.19
420.28	89.19
420.503	81.19
420.726	71.19
420.948	96.19
421.171	80.19
421.394	81.19
421.617	95.19
421.839	73.19
422.062	83.19
422.285	93.19
422.507	104.19
422.73	82.19
422.953	92.19
423.175	77.19
423.398	76.19
423.621	95.19
423.843	84.19
424.066	79.19
424.288	83.19
424.511	82.19
424.733	69.19
424.956	89.19
425.178	89.19
425.401	88.19
425.623	86.19
425.846	88.19
426.068	91.19
426.291	78.19
426.513	70.19
426.735	78.19
426.958	87.19
427.18	93.19
427.402	117.19
427.625	127.19
427.847	120.19
428.069	122.19
428.292	92.19
428.514	94.19
428.736	83.19
428.958	81.19
429.181	88.19
429.403	77.19
429.625	78.19
429.847	86.19
430.069	93.19
430.292	85.19
430.514	89.19
430.736	92.19
430.958	81.19
431.18	80.19
431.402	76.19
431.624	76.19
431.846	89.19
432.068	88.19
432.29	63.19
432.512	82.19
432.734	76.19
432.956	73.19
433.178	87.19
433.4	89.19
433.622	99.19
433.844	98.19
434.066	79.19
434.287	81.19
434.509	89.19
434.731	87.19
434.953	85.19
435.175	94.19
435.397	82.19
435.618	86.19
435.84	95.19
436.062	99.19
436.284	85.19
436.505	94.19
436.727	78.19
436.949	80.19
437.17	62.19
437.392	84.19
437.614	79.19
437.835	86.19
438.057	94.19
438.278	69.19
438.5	105.19
438.721	98.19
438.943	97.19
439.165	80.19
439.386	68.19
439.608	80.19
439.829	85.19
440.05	101.19
440.272	108.19
440.493	82.19
440.715	95.19
440.936	83.19
441.158	88.19
441.379	92.19
441.6	83.19
441.822	84.19
442.043	79.19
442.264	96.19
442.486	95.19
442.707	102.19
442.928	94.19
443.149	109.19
443.371	101.19
443.592	110.19
443.813	88.19
444.034	106.19
444.255	82.19
444.476	100.19
444.698	68.19
444.919	62.19
445.14	129.19
445.361	114.19
445.582	111.19
445.803	97.19
446.024	116.19
446.245	92.19
446.466	86.19
446.687	81.19
446.908	88.19
447.129	87.19
447.35	82.19
447.571	89.19
447.792	88.19
448.013	85.19
448.234	89.19
448.455	73.19
448.675	90.19
448.896	96.19
449.117	89.19
449.338	108.19
449.559	108.19
449.779	117.19
450	88.19
450.221	77.19
450.442	78.19
450.662	81.19
450.883	89.19
451.104	100.19
451.324	98.19
451.545	81.19
451.766	85.19
451.986	87.19
452.207	76.19
452.428	95.19
452.648	103.19
452.869	82.19
453.089	90.19
453.31	93.19
453.53	88.19
453.751	85.19
453.971	95.19
454.192	98.19
454.412	81.19
454.633	92.19
454.853	94.19
455.073	87.19
455.294	78.19
455.514	82.19
455.734	84.19
455.955	95.19
456.175	91.19
456.395	73.19
456.616	80.19
456.836	90.19
457.056	82.19
457.276	84.19
457.497	85.19
457.717	65.19
457.937	78.19
458.157	88.19
458.377	84.19
458.598	90.19
458.818	122.19
459.038	127.19
459.258	88.19
459.478	76.19
459.698	71.19
459.918	82.19
460.138	87.19
460.358	80.19
460.578	74.19
460.798	90.19
461.018	85.19
461.238	69.19
461.458	84.19
461.678	69.19
461.898	84.19
462.118	87.19
462.338	78.19
462.558	98.19
462.777	87.19
462.997	78.19
463.217	84.19
463.437	93.19
463.657	78.19
463.876	95.19
464.096	83.19
464.316	86.19
464.536	88.19
464.755	85.19
464.975	98.19
465.195	127.19
465.414	112.19
465.634	92.19
465.854	83.19
466.073	75.19
466.293	83.19
466.512	80.19
466.732	84.19
466.951	87.19
467.171	89.19
467.391	84.19
467.61	82.19
467.829	94.19
468.049	137.19
468.268	168.19
468.488	115.19
468.707	80.19
468.927	71.19
469.146	80.19
469.365	76.19
469.585	87.19
469.804	90.19
470.023	87.19
470.243	93.19
470.462	101.19
470.681	92.19
470.901	77.19
471.12	87.19
471.339	92.19
471.558	70.19
471.777	98.19
471.997	118.19
472.216	227.19
472.435	400.19
472.654	153.19
472.873	93.19
473.092	81.19
473.311	84.19
473.53	80.19
473.749	84.19
473.968	73.19
474.187	95.19
474.406	77.19
474.625	86.19
474.844	76.19
475.063	86.19
475.282	83.19
475.501	80.19
475.72	87.19
475.939	91.19
476.158	72.19
476.377	86.19
476.596	80.19
476.814	67.19
477.033	86.19
477.252	88.19
477.471	87.19
477.69	86.19
477.908	69.19
478.127	82.19
478.346	78.19
478.564	84.19
478.783	92.19
479.002	88.19
479.22	85.19
479.439	87.19
479.658	94.19
479.876	94.19
480.095	90.19
480.313	95.19
480.532	104.19
480.751	122.19
480.969	220.19
481.188	694.19
481.406	391.19
481.624	113.19
481.843	94.19
482.061	78.19
482.28	79.19
482.498	78.19
482.717	85.19
482.935	92.19
483.153	91.19
483.372	82.19
483.59	78.19
483.808	92.19
484.027	77.19
484.245	91.19
484.463	98.19
484.681	104.19
484.9	93.19
485.118	89.19
485.336	104.19
485.554	89.19
485.772	104.19
485.99	94.19
486.209	93.19
486.427	96.19
486.645	93.19
486.863	97.19
487.081	104.19
487.299	96.19
487.517	96.19
487.735	90.19
487.953	90.19
488.171	104.19
488.389	106.19
488.607	91.19
488.825	86.19
489.043	71.19
489.261	84.19
489.479	103.19
489.696	92.19
489.914	80.19
490.132	86.19
490.35	84.19
490.568	91.19
490.786	80.19
491.003	80.19
491.221	78.19
491.439	70.19
491.657	103.19
491.874	81.19
492.092	80.19
492.31	85.19
492.527	80.19
492.745	84.19
492.963	95.19
493.18	91.19
493.398	93.19
493.615	93.19
493.833	100.19
494.05	92.19
494.268	92.19
494.485	94.19
494.703	87.19
494.92	88.19
495.138	95.19
495.355	85.19
495.573	85.19
495.79	81.19
496.008	90.19
496.225	92.19
496.442	74.19
496.66	89.19
496.877	95.19
497.094	87.19
497.312	89.19
497.529	91.19
497.746	80.19
497.963	83.19
498.181	78.19
498.398	92.19
498.615	104.19
498.832	86.19
499.049	85.19
499.267	106.19
499.484	88.19
499.701	84.19
499.918	97.19
500.135	92.19
500.352	92.19
500.569	86.19
500.786	86.19
501.003	83.19
501.22	92.19
501.437	88.19
501.654	92.19
501.871	98.19
502.088	95.19
502.305	85.19
502.522	94.19
502.739	86.19
502.956	88.19
503.172	90.19
503.389	77.19
503.606	85.19
503.823	91.19
504.04	88.19
504.256	89.19
504.473	88.19
504.69	86.19
504.907	74.19
505.123	81.19
505.34	98.19
505.557	86.19
505.773	100.19
505.99	85.19
506.207	89.19
506.423	87.19
506.64	98.19
506.856	92.19
507.073	89.19
507.289	93.19
507.506	80.19
507.722	84.19
507.939	86.19
508.155	97.19
508.372	77.19
508.588	88.19
508.805	101.19
509.021	97.19
509.238	83.19
509.454	94.19
509.67	81.19
509.887	80.19
510.103	112.19
510.319	167.19
510.536	513.19
510.752	1572.19
510.968	444.19
511.184	115.19
511.401	93.19
511.617	100.19
511.833	93.19
512.049	86.19
512.265	89.19
512.481	94.19
512.698	87.19
512.914	92.19
513.13	102.19
513.346	76.19
513.562	101.19
513.778	90.19
513.994	88.19
514.21	98.19
514.426	92.19
514.642	104.19
514.858	106.19
515.074	129.19
515.29	302.19
515.506	933.19
515.721	376.19
515.937	114.19
516.153	86.19
516.369	79.19
516.585	87.19
516.801	89.19
517.016	93.19
517.232	84.19
517.448	88.19
517.664	81.19
