Data from Circ_1983_H10_HRD10591_00012.txt Node
Date: Wed Jan 03 12:26:47 EST 2024
User: Yrep
Spectrometer: HR+D1059
Trigger mode: 1
Integration Time (sec): 1.000000E-1
Scans to average: 1
Electric dark correction enabled: true
Nonlinearity correction enabled: false
Boxcar width: 0
XAxis mode: Wavelengths
Number of Pixels in Spectrum: 2048
>>>>>Begin Spectral Data<<<<<
223.165	-10.31
223.4	-10.31
223.635	-10.31
223.869	-4.31
224.104	-21.31
224.338	-9.31
224.573	-28.31
224.808	-25.31
225.042	-12.31
225.277	-3.31
225.511	-6.31
225.746	12.69
225.98	1.69
226.215	7.69
226.449	21.69
226.683	21.69
226.918	21.69
227.152	33.69
227.387	33.69
227.621	37.69
227.856	38.69
228.09	44.69
228.324	50.69
228.559	68.69
228.793	37.69
229.027	63.69
229.262	65.69
229.496	90.69
229.73	77.69
229.964	85.69
230.199	69.69
230.433	76.69
230.667	87.69
230.901	76.69
231.136	74.69
231.37	72.69
231.604	91.69
231.838	78.69
232.072	99.69
232.306	69.69
232.541	90.69
232.775	81.69
233.009	72.69
233.243	89.69
233.477	83.69
233.711	90.69
233.945	77.69
234.179	75.69
234.413	78.69
234.647	85.69
234.881	93.69
235.115	70.69
235.349	74.69
235.583	79.69
235.817	70.69
236.051	68.69
236.285	73.69
236.519	82.69
236.753	71.69
236.987	83.69
237.221	84.69
237.455	75.69
237.689	72.69
237.922	79.69
238.156	73.69
238.39	65.69
238.624	65.69
238.858	71.69
239.091	85.69
239.325	71.69
239.559	78.69
239.793	81.69
240.027	74.69
240.26	88.69
240.494	71.69
240.728	77.69
240.961	67.69
241.195	84.69
241.429	77.69
241.662	70.69
241.896	67.69
242.13	74.69
242.363	87.69
242.597	69.69
242.83	79.69
243.064	71.69
243.298	75.69
243.531	73.69
243.765	81.69
243.998	66.69
244.232	69.69
244.465	81.69
244.699	74.69
244.932	75.69
245.166	85.69
245.399	74.69
245.633	83.69
245.866	68.69
246.099	73.69
246.333	78.69
246.566	89.69
246.8	81.69
247.033	70.69
247.266	76.69
247.5	70.69
247.733	89.69
247.966	75.69
248.2	73.69
248.433	72.69
248.666	82.69
248.899	86.69
249.133	88.69
249.366	86.69
249.599	83.69
249.832	84.69
250.066	79.69
250.299	74.69
250.532	88.69
250.765	75.69
250.998	78.69
251.231	90.69
251.465	91.69
251.698	97.69
251.931	83.69
252.164	74.69
252.397	81.69
252.63	65.69
252.863	72.69
253.096	84.69
253.329	77.69
253.562	73.69
253.795	78.69
254.028	95.69
254.261	81.69
254.494	77.69
254.727	91.69
254.96	81.69
255.193	76.69
255.426	79.69
255.659	90.69
255.892	84.69
256.124	83.69
256.357	87.69
256.59	82.69
256.823	70.69
257.056	83.69
257.289	81.69
257.521	79.69
257.754	90.69
257.987	87.69
258.22	72.69
258.452	92.69
258.685	81.69
258.918	78.69
259.151	75.69
259.383	75.69
259.616	84.69
259.849	66.69
260.081	83.69
260.314	86.69
260.547	82.69
260.779	90.69
261.012	77.69
261.244	85.69
261.477	95.69
261.71	78.69
261.942	94.69
262.175	100.69
262.407	82.69
262.64	83.69
262.872	96.69
263.105	85.69
263.337	83.69
263.57	89.69
263.802	92.69
264.035	89.69
264.267	96.69
264.499	87.69
264.732	89.69
264.964	79.69
265.197	75.69
265.429	82.69
265.661	67.69
265.894	89.69
266.126	97.69
266.358	86.69
266.591	84.69
266.823	77.69
267.055	81.69
267.287	82.69
267.52	77.69
267.752	73.69
267.984	86.69
268.216	93.69
268.448	83.69
268.681	101.69
268.913	87.69
269.145	84.69
269.377	74.69
269.609	77.69
269.841	84.69
270.073	74.69
270.306	84.69
270.538	88.69
270.77	83.69
271.002	92.69
271.234	71.69
271.466	80.69
271.698	84.69
271.93	101.69
272.162	70.69
272.394	90.69
272.626	76.69
272.858	91.69
273.09	91.69
273.322	88.69
273.553	93.69
273.785	92.69
274.017	85.69
274.249	74.69
274.481	90.69
274.713	93.69
274.945	81.69
275.176	75.69
275.408	89.69
275.64	71.69
275.872	78.69
276.104	92.69
276.335	55.69
276.567	90.69
276.799	96.69
277.031	99.69
277.262	82.69
277.494	91.69
277.726	85.69
277.957	79.69
278.189	74.69
278.421	83.69
278.652	77.69
278.884	89.69
279.115	70.69
279.347	78.69
279.579	80.69
279.81	93.69
280.042	95.69
280.273	74.69
280.505	93.69
280.736	85.69
280.968	90.69
281.199	83.69
281.431	83.69
281.662	107.69
281.894	79.69
282.125	85.69
282.356	106.69
282.588	130.69
282.819	105.69
283.051	89.69
283.282	94.69
283.513	88.69
283.745	88.69
283.976	85.69
284.207	72.69
284.439	97.69
284.67	110.69
284.901	91.69
285.132	81.69
285.364	85.69
285.595	89.69
285.826	79.69
286.057	79.69
286.288	95.69
286.52	88.69
286.751	106.69
286.982	95.69
287.213	87.69
287.444	99.69
287.675	91.69
287.906	86.69
288.138	98.69
288.369	102.69
288.6	87.69
288.831	96.69
289.062	92.69
289.293	82.69
289.524	91.69
289.755	84.69
289.986	89.69
290.217	77.69
290.448	97.69
290.679	84.69
290.91	88.69
291.141	100.69
291.371	71.69
291.602	90.69
291.833	88.69
292.064	80.69
292.295	88.69
292.526	79.69
292.757	88.69
292.987	89.69
293.218	101.69
293.449	81.69
293.68	99.69
293.91	86.69
294.141	86.69
294.372	90.69
294.603	82.69
294.833	90.69
295.064	81.69
295.295	79.69
295.525	76.69
295.756	99.69
295.987	102.69
296.217	118.69
296.448	107.69
296.679	85.69
296.909	94.69
297.14	102.69
297.37	93.69
297.601	78.69
297.831	89.69
298.062	89.69
298.292	85.69
298.523	94.69
298.753	91.69
298.984	105.69
299.214	94.69
299.445	99.69
299.675	98.69
299.905	95.69
300.136	97.69
300.366	99.69
300.597	78.69
300.827	85.69
301.057	103.69
301.288	111.69
301.518	88.69
301.748	102.69
301.979	98.69
302.209	89.69
302.439	84.69
302.669	92.69
302.9	95.69
303.13	93.69
303.36	94.69
303.59	106.69
303.82	95.69
304.051	88.69
304.281	95.69
304.511	84.69
304.741	92.69
304.971	88.69
305.201	102.69
305.431	80.69
305.661	93.69
305.891	86.69
306.121	88.69
306.352	91.69
306.582	104.69
306.812	90.69
307.042	101.69
307.272	79.69
307.502	103.69
307.731	105.69
307.961	87.69
308.191	82.69
308.421	90.69
308.651	96.69
308.881	90.69
309.111	83.69
309.341	99.69
309.571	88.69
309.8	98.69
310.03	87.69
310.26	104.69
310.49	87.69
310.72	90.69
310.949	91.69
311.179	92.69
311.409	97.69
311.639	100.69
311.868	95.69
312.098	106.69
312.328	108.69
312.557	100.69
312.787	103.69
313.017	102.69
313.246	101.69
313.476	101.69
313.706	92.69
313.935	98.69
314.165	89.69
314.394	97.69
314.624	89.69
314.853	88.69
315.083	105.69
315.312	93.69
315.542	93.69
315.771	88.69
316.001	89.69
316.23	90.69
316.46	84.69
316.689	71.69
316.919	100.69
317.148	89.69
317.377	85.69
317.607	102.69
317.836	101.69
318.065	79.69
318.295	90.69
318.524	92.69
318.753	89.69
318.983	92.69
319.212	109.69
319.441	110.69
319.67	103.69
319.9	97.69
320.129	102.69
320.358	100.69
320.587	100.69
320.816	95.69
321.046	98.69
321.275	105.69
321.504	94.69
321.733	85.69
321.962	94.69
322.191	100.69
322.42	91.69
322.649	95.69
322.878	106.69
323.108	109.69
323.337	122.69
323.566	121.69
323.795	145.69
324.024	166.69
324.253	306.69
324.482	590.69
324.71	1180.69
324.939	1504.69
325.168	564.69
325.397	189.69
325.626	134.69
325.855	108.69
326.084	112.69
326.313	135.69
326.542	135.69
326.77	201.69
326.999	347.69
327.228	669.69
327.457	1199.69
327.686	942.69
327.914	282.69
328.143	164.69
328.372	139.69
328.6	115.69
328.829	105.69
329.058	121.69
329.287	92.69
329.515	98.69
329.744	113.69
329.972	111.69
330.201	113.69
330.43	141.69
330.658	129.69
330.887	124.69
331.115	111.69
331.344	102.69
331.572	106.69
331.801	97.69
332.03	94.69
332.258	93.69
332.486	93.69
332.715	86.69
332.943	83.69
333.172	93.69
333.4	90.69
333.629	97.69
333.857	110.69
334.085	98.69
334.314	119.69
334.542	125.69
334.771	117.69
334.999	89.69
335.227	86.69
335.455	96.69
335.684	84.69
335.912	105.69
336.14	94.69
336.369	105.69
336.597	111.69
336.825	89.69
337.053	88.69
337.281	84.69
337.51	89.69
337.738	95.69
337.966	85.69
338.194	81.69
338.422	109.69
338.65	99.69
338.878	80.69
339.106	89.69
339.334	93.69
339.562	83.69
339.79	86.69
340.018	91.69
340.246	102.69
340.474	84.69
340.702	91.69
340.93	78.69
341.158	95.69
341.386	83.69
341.614	94.69
341.842	101.69
342.07	99.69
342.298	78.69
342.526	105.69
342.754	89.69
342.981	94.69
343.209	98.69
343.437	98.69
343.665	106.69
343.893	94.69
344.12	103.69
344.348	96.69
344.576	99.69
344.804	94.69
345.031	95.69
345.259	102.69
345.487	89.69
345.714	100.69
345.942	88.69
346.17	108.69
346.397	107.69
346.625	74.69
346.853	88.69
347.08	95.69
347.308	101.69
347.535	94.69
347.763	95.69
347.99	92.69
348.218	82.69
348.445	89.69
348.673	76.69
348.9	95.69
349.128	87.69
349.355	91.69
349.583	91.69
349.81	94.69
350.037	91.69
350.265	105.69
350.492	108.69
350.72	82.69
350.947	110.69
351.174	106.69
351.402	104.69
351.629	110.69
351.856	118.69
352.083	95.69
352.311	105.69
352.538	87.69
352.765	115.69
352.992	116.69
353.22	128.69
353.447	123.69
353.674	90.69
353.901	110.69
354.128	88.69
354.355	94.69
354.583	109.69
354.81	104.69
355.037	106.69
355.264	99.69
355.491	95.69
355.718	92.69
355.945	110.69
356.172	101.69
356.399	99.69
356.626	97.69
356.853	90.69
357.08	108.69
357.307	95.69
357.534	94.69
357.761	88.69
357.988	95.69
358.215	110.69
358.441	101.69
358.668	97.69
358.895	92.69
359.122	90.69
359.349	103.69
359.576	95.69
359.802	99.69
360.029	106.69
360.256	98.69
360.483	92.69
360.709	83.69
360.936	100.69
361.163	102.69
361.39	104.69
361.616	85.69
361.843	98.69
362.07	91.69
362.296	84.69
362.523	100.69
362.749	100.69
362.976	88.69
363.203	92.69
363.429	89.69
363.656	94.69
363.882	78.69
364.109	100.69
364.335	111.69
364.562	84.69
364.788	90.69
365.015	98.69
365.241	106.69
365.468	105.69
365.694	107.69
365.92	94.69
366.147	89.69
366.373	88.69
366.599	81.69
366.826	97.69
367.052	90.69
367.278	88.69
367.505	95.69
367.731	85.69
367.957	72.69
368.184	94.69
368.41	98.69
368.636	98.69
368.862	108.69
369.089	113.69
369.315	90.69
369.541	97.69
369.767	95.69
369.993	98.69
370.219	74.69
370.445	84.69
370.672	83.69
370.898	86.69
371.124	90.69
371.35	82.69
371.576	93.69
371.802	85.69
372.028	82.69
372.254	90.69
372.48	84.69
372.706	82.69
372.932	95.69
373.158	91.69
373.384	84.69
373.61	105.69
373.835	112.69
374.061	89.69
374.287	92.69
374.513	89.69
374.739	78.69
374.965	101.69
375.191	93.69
375.416	83.69
375.642	105.69
375.868	103.69
376.094	113.69
376.319	94.69
376.545	102.69
376.771	103.69
376.997	95.69
377.222	103.69
377.448	95.69
377.674	95.69
377.899	98.69
378.125	89.69
378.35	91.69
378.576	98.69
378.802	101.69
379.027	98.69
379.253	98.69
379.478	102.69
379.704	101.69
379.929	101.69
380.155	110.69
380.38	93.69
380.606	103.69
380.831	97.69
381.057	114.69
381.282	112.69
381.507	107.69
381.733	105.69
381.958	116.69
382.184	102.69
382.409	129.69
382.634	116.69
382.86	95.69
383.085	89.69
383.31	123.69
383.535	116.69
383.761	120.69
383.986	115.69
384.211	125.69
384.436	103.69
384.662	106.69
384.887	110.69
385.112	127.69
385.337	119.69
385.562	128.69
385.787	132.69
386.013	118.69
386.238	115.69
386.463	118.69
386.688	129.69
386.913	121.69
387.138	135.69
387.363	122.69
387.588	121.69
387.813	117.69
388.038	115.69
388.263	146.69
388.488	141.69
388.713	101.69
388.938	103.69
389.163	114.69
389.387	100.69
389.612	99.69
389.837	110.69
390.062	107.69
390.287	95.69
390.512	83.69
390.736	106.69
390.961	102.69
391.186	107.69
391.411	109.69
391.636	86.69
391.86	84.69
392.085	98.69
392.31	87.69
392.534	78.69
392.759	91.69
392.984	100.69
393.208	132.69
393.433	171.69
393.658	133.69
393.882	98.69
394.107	79.69
394.331	81.69
394.556	88.69
394.78	78.69
395.005	81.69
395.229	83.69
395.454	74.69
395.678	81.69
395.903	102.69
396.127	105.69
396.352	96.69
396.576	94.69
396.801	123.69
397.025	132.69
397.249	100.69
397.474	106.69
397.698	89.69
397.922	83.69
398.147	94.69
398.371	82.69
398.595	91.69
398.82	91.69
399.044	86.69
399.268	97.69
399.492	76.69
399.717	91.69
399.941	98.69
400.165	88.69
400.389	102.69
400.613	74.69
400.837	85.69
401.062	85.69
401.286	97.69
401.51	104.69
401.734	92.69
401.958	93.69
402.182	100.69
402.406	117.69
402.63	93.69
402.854	103.69
403.078	86.69
403.302	87.69
403.526	91.69
403.75	95.69
403.974	87.69
404.198	91.69
404.422	93.69
404.645	85.69
404.869	86.69
405.093	92.69
405.317	94.69
405.541	87.69
405.765	89.69
405.988	111.69
406.212	138.69
406.436	146.69
406.66	112.69
406.883	96.69
407.107	79.69
407.331	109.69
407.555	86.69
407.778	103.69
408.002	92.69
408.226	94.69
408.449	93.69
408.673	88.69
408.896	105.69
409.12	103.69
409.344	97.69
409.567	80.69
409.791	99.69
410.014	103.69
410.238	87.69
410.461	97.69
410.685	97.69
410.908	98.69
411.132	110.69
411.355	91.69
411.578	102.69
411.802	99.69
412.025	91.69
412.249	91.69
412.472	95.69
412.695	91.69
412.919	95.69
413.142	91.69
413.365	89.69
413.589	82.69
413.812	95.69
414.035	106.69
414.258	94.69
414.482	100.69
414.705	94.69
414.928	95.69
415.151	96.69
415.374	103.69
415.597	84.69
415.821	93.69
416.044	96.69
416.267	109.69
416.49	87.69
416.713	85.69
416.936	86.69
417.159	97.69
417.382	106.69
417.605	97.69
417.828	91.69
418.051	104.69
418.274	88.69
418.497	92.69
418.72	109.69
418.943	94.69
419.166	92.69
419.389	98.69
419.611	99.69
419.834	92.69
420.057	85.69
420.28	92.69
420.503	95.69
420.726	84.69
420.948	74.69
421.171	97.69
421.394	97.69
421.617	71.69
421.839	86.69
422.062	102.69
422.285	99.69
422.507	92.69
422.73	117.69
422.953	105.69
423.175	96.69
423.398	81.69
423.621	84.69
423.843	88.69
424.066	86.69
424.288	78.69
424.511	87.69
424.733	100.69
424.956	102.69
425.178	105.69
425.401	100.69
425.623	94.69
425.846	79.69
426.068	103.69
426.291	92.69
426.513	88.69
426.735	111.69
426.958	86.69
427.18	98.69
427.402	117.69
427.625	124.69
427.847	116.69
428.069	91.69
428.292	81.69
428.514	83.69
428.736	95.69
428.958	85.69
429.181	88.69
429.403	82.69
429.625	78.69
429.847	93.69
430.069	85.69
430.292	93.69
430.514	78.69
430.736	79.69
430.958	78.69
431.18	83.69
431.402	81.69
431.624	82.69
431.846	86.69
432.068	84.69
432.29	83.69
432.512	92.69
432.734	85.69
432.956	92.69
433.178	104.69
433.4	93.69
433.622	84.69
433.844	85.69
434.066	98.69
434.287	93.69
434.509	82.69
434.731	86.69
434.953	92.69
435.175	83.69
435.397	90.69
435.618	93.69
435.84	86.69
436.062	111.69
436.284	112.69
436.505	105.69
436.727	87.69
436.949	85.69
437.17	90.69
437.392	110.69
437.614	105.69
437.835	83.69
438.057	97.69
438.278	98.69
438.5	95.69
438.721	98.69
438.943	103.69
439.165	98.69
439.386	92.69
439.608	85.69
439.829	95.69
440.05	92.69
440.272	115.69
440.493	85.69
440.715	77.69
440.936	92.69
441.158	90.69
441.379	89.69
441.6	87.69
441.822	90.69
442.043	93.69
442.264	90.69
442.486	102.69
442.707	84.69
442.928	96.69
443.149	129.69
443.371	102.69
443.592	97.69
443.813	99.69
444.034	108.69
444.255	101.69
444.476	93.69
444.698	99.69
444.919	82.69
445.14	133.69
445.361	122.69
445.582	115.69
445.803	97.69
446.024	120.69
446.245	115.69
446.466	112.69
446.687	92.69
446.908	83.69
447.129	98.69
447.35	102.69
447.571	90.69
447.792	92.69
448.013	86.69
448.234	117.69
448.455	97.69
448.675	97.69
448.896	117.69
449.117	97.69
449.338	94.69
449.559	116.69
449.779	110.69
450	106.69
450.221	90.69
450.442	93.69
450.662	90.69
450.883	112.69
451.104	97.69
451.324	105.69
451.545	87.69
451.766	108.69
451.986	90.69
452.207	89.69
452.428	99.69
452.648	76.69
452.869	97.69
453.089	87.69
453.31	97.69
453.53	88.69
453.751	85.69
453.971	88.69
454.192	106.69
454.412	89.69
454.633	82.69
454.853	86.69
455.073	94.69
455.294	84.69
455.514	102.69
455.734	93.69
455.955	82.69
456.175	86.69
456.395	100.69
456.616	91.69
456.836	93.69
457.056	93.69
457.276	95.69
457.497	86.69
457.717	88.69
457.937	99.69
458.157	102.69
458.377	87.69
458.598	96.69
458.818	118.69
459.038	119.69
459.258	100.69
459.478	93.69
459.698	93.69
459.918	85.69
460.138	94.69
460.358	100.69
460.578	86.69
460.798	87.69
461.018	91.69
461.238	81.69
461.458	88.69
461.678	78.69
461.898	93.69
462.118	79.69
462.338	87.69
462.558	102.69
462.777	88.69
462.997	91.69
463.217	99.69
463.437	82.69
463.657	80.69
463.876	87.69
464.096	99.69
464.316	87.69
464.536	101.69
464.755	96.69
464.975	114.69
465.195	140.69
465.414	119.69
465.634	113.69
465.854	92.69
466.073	98.69
466.293	80.69
466.512	92.69
466.732	72.69
466.951	88.69
467.171	83.69
467.391	92.69
467.61	109.69
467.829	106.69
468.049	105.69
468.268	110.69
468.488	98.69
468.707	88.69
468.927	81.69
469.146	84.69
469.365	98.69
469.585	103.69
469.804	102.69
470.023	98.69
470.243	97.69
470.462	90.69
470.681	98.69
470.901	109.69
471.12	97.69
471.339	73.69
471.558	92.69
471.777	101.69
471.997	99.69
472.216	107.69
472.435	146.69
472.654	94.69
472.873	94.69
473.092	90.69
473.311	90.69
473.53	82.69
473.749	90.69
473.968	94.69
474.187	88.69
474.406	91.69
474.625	94.69
474.844	87.69
475.063	85.69
475.282	74.69
475.501	101.69
475.72	96.69
475.939	80.69
476.158	76.69
476.377	76.69
476.596	94.69
476.814	90.69
477.033	78.69
477.252	95.69
477.471	94.69
477.69	83.69
477.908	83.69
478.127	86.69
478.346	93.69
478.564	88.69
478.783	84.69
479.002	88.69
479.22	86.69
479.439	89.69
479.658	109.69
479.876	105.69
480.095	81.69
480.313	84.69
480.532	91.69
480.751	92.69
480.969	114.69
481.188	201.69
481.406	147.69
481.624	106.69
481.843	86.69
482.061	88.69
482.28	92.69
482.498	76.69
482.717	81.69
482.935	83.69
483.153	86.69
483.372	100.69
483.59	85.69
483.808	101.69
484.027	96.69
484.245	100.69
484.463	86.69
484.681	93.69
484.9	97.69
485.118	96.69
485.336	105.69
485.554	102.69
485.772	115.69
485.99	95.69
486.209	110.69
486.427	115.69
486.645	97.69
486.863	123.69
487.081	102.69
487.299	101.69
487.517	100.69
487.735	93.69
487.953	97.69
488.171	87.69
488.389	95.69
488.607	111.69
488.825	99.69
489.043	97.69
489.261	98.69
489.479	99.69
489.696	88.69
489.914	75.69
490.132	83.69
490.35	95.69
490.568	96.69
490.786	101.69
491.003	99.69
491.221	88.69
491.439	87.69
491.657	89.69
491.874	93.69
492.092	86.69
492.31	86.69
492.527	109.69
492.745	101.69
492.963	100.69
493.18	92.69
493.398	86.69
493.615	102.69
493.833	109.69
494.05	93.69
494.268	99.69
494.485	101.69
494.703	89.69
494.92	89.69
495.138	88.69
495.355	91.69
495.573	101.69
495.79	81.69
496.008	97.69
496.225	85.69
496.442	84.69
496.66	100.69
496.877	98.69
497.094	87.69
497.312	97.69
497.529	90.69
497.746	97.69
497.963	71.69
498.181	84.69
498.398	96.69
498.615	90.69
498.832	98.69
499.049	101.69
499.267	86.69
499.484	88.69
499.701	95.69
499.918	86.69
500.135	85.69
500.352	97.69
500.569	85.69
500.786	94.69
501.003	104.69
501.22	103.69
501.437	90.69
501.654	96.69
501.871	101.69
502.088	98.69
502.305	89.69
502.522	95.69
502.739	101.69
502.956	85.69
503.172	106.69
503.389	102.69
503.606	97.69
503.823	95.69
504.04	92.69
504.256	93.69
504.473	77.69
504.69	77.69
504.907	87.69
505.123	87.69
505.34	98.69
505.557	89.69
505.773	92.69
505.99	86.69
506.207	93.69
506.423	89.69
506.64	93.69
506.856	93.69
507.073	100.69
507.289	92.69
507.506	106.69
507.722	95.69
507.939	109.69
508.155	103.69
508.372	102.69
508.588	86.69
508.805	91.69
509.021	101.69
509.238	99.69
509.454	102.69
509.67	106.69
509.887	104.69
510.103	114.69
510.319	179.69
510.536	529.69
510.752	1548.69
510.968	456.69
511.184	126.69
511.401	102.69
511.617	82.69
511.833	88.69
512.049	87.69
512.265	92.69
512.481	94.69
512.698	94.69
512.914	88.69
513.13	93.69
513.346	97.69
513.562	101.69
513.778	84.69
513.994	103.69
514.21	84.69
514.426	97.69
514.642	99.69
514.858	102.69
515.074	129.69
