Data from Circ_1983_H10_HRD10591_00082.txt Node
Date: Wed Jan 03 12:27:01 EST 2024
User: Yrep
Spectrometer: HR+D1059
Trigger mode: 1
Integration Time (sec): 1.000000E-1
Scans to average: 1
Electric dark correction enabled: true
Nonlinearity correction enabled: false
Boxcar width: 0
XAxis mode: Wavelengths
Number of Pixels in Spectrum: 2048
>>>>>Begin Spectral Data<<<<<
223.165	-30.44
223.4	-30.44
223.635	-30.44
223.869	-10.44
224.104	-16.44
224.338	-30.44
224.573	-22.44
224.808	-9.44
225.042	-15.44
225.277	-4.44
225.511	-2.44
225.746	1.56
225.98	7.56
226.215	8.56
226.449	19.56
226.683	34.56
226.918	31.56
227.152	38.56
227.387	33.56
227.621	29.56
227.856	50.56
228.09	37.56
228.324	49.56
228.559	53.56
228.793	51.56
229.027	61.56
229.262	62.56
229.496	67.56
229.73	77.56
229.964	71.56
230.199	85.56
230.433	68.56
230.667	69.56
230.901	89.56
231.136	89.56
231.37	81.56
231.604	86.56
231.838	65.56
232.072	87.56
232.306	74.56
232.541	89.56
232.775	83.56
233.009	91.56
233.243	77.56
233.477	83.56
233.711	81.56
233.945	87.56
234.179	81.56
234.413	79.56
234.647	82.56
234.881	89.56
235.115	89.56
235.349	81.56
235.583	59.56
235.817	87.56
236.051	75.56
236.285	77.56
236.519	69.56
236.753	77.56
236.987	85.56
237.221	79.56
237.455	73.56
237.689	71.56
237.922	64.56
238.156	70.56
238.39	66.56
238.624	85.56
238.858	74.56
239.091	78.56
239.325	97.56
239.559	70.56
239.793	59.56
240.027	89.56
240.26	80.56
240.494	70.56
240.728	77.56
240.961	77.56
241.195	82.56
241.429	87.56
241.662	68.56
241.896	81.56
242.13	71.56
242.363	77.56
242.597	72.56
242.83	65.56
243.064	68.56
243.298	87.56
243.531	81.56
243.765	70.56
243.998	71.56
244.232	78.56
244.465	88.56
244.699	63.56
244.932	83.56
245.166	66.56
245.399	72.56
245.633	84.56
245.866	62.56
246.099	80.56
246.333	83.56
246.566	72.56
246.8	72.56
247.033	86.56
247.266	71.56
247.5	82.56
247.733	72.56
247.966	67.56
248.2	72.56
248.433	89.56
248.666	69.56
248.899	86.56
249.133	85.56
249.366	77.56
249.599	92.56
249.832	86.56
250.066	82.56
250.299	95.56
250.532	70.56
250.765	88.56
250.998	74.56
251.231	65.56
251.465	77.56
251.698	78.56
251.931	78.56
252.164	83.56
252.397	69.56
252.63	71.56
252.863	83.56
253.096	81.56
253.329	80.56
253.562	72.56
253.795	74.56
254.028	82.56
254.261	80.56
254.494	68.56
254.727	88.56
254.96	82.56
255.193	73.56
255.426	93.56
255.659	79.56
255.892	95.56
256.124	85.56
256.357	74.56
256.59	86.56
256.823	68.56
257.056	94.56
257.289	86.56
257.521	71.56
257.754	77.56
257.987	94.56
258.22	71.56
258.452	75.56
258.685	59.56
258.918	89.56
259.151	78.56
259.383	81.56
259.616	82.56
259.849	85.56
260.081	66.56
260.314	87.56
260.547	87.56
260.779	92.56
261.012	73.56
261.244	66.56
261.477	80.56
261.71	91.56
261.942	99.56
262.175	95.56
262.407	89.56
262.64	82.56
262.872	89.56
263.105	91.56
263.337	95.56
263.57	86.56
263.802	77.56
264.035	95.56
264.267	91.56
264.499	81.56
264.732	85.56
264.964	72.56
265.197	98.56
265.429	77.56
265.661	75.56
265.894	73.56
266.126	85.56
266.358	83.56
266.591	74.56
266.823	80.56
267.055	62.56
267.287	69.56
267.52	80.56
267.752	81.56
267.984	88.56
268.216	79.56
268.448	85.56
268.681	74.56
268.913	88.56
269.145	95.56
269.377	87.56
269.609	89.56
269.841	83.56
270.073	89.56
270.306	90.56
270.538	88.56
270.77	106.56
271.002	88.56
271.234	77.56
271.466	73.56
271.698	99.56
271.93	90.56
272.162	80.56
272.394	94.56
272.626	80.56
272.858	89.56
273.09	81.56
273.322	98.56
273.553	79.56
273.785	77.56
274.017	86.56
274.249	84.56
274.481	85.56
274.713	84.56
274.945	82.56
275.176	93.56
275.408	80.56
275.64	79.56
275.872	89.56
276.104	87.56
276.335	84.56
276.567	90.56
276.799	95.56
277.031	115.56
277.262	93.56
277.494	100.56
277.726	90.56
277.957	75.56
278.189	82.56
278.421	95.56
278.652	83.56
278.884	73.56
279.115	73.56
279.347	87.56
279.579	90.56
279.81	87.56
280.042	88.56
280.273	94.56
280.505	79.56
280.736	83.56
280.968	75.56
281.199	93.56
281.431	84.56
281.662	77.56
281.894	93.56
282.125	83.56
282.356	98.56
282.588	111.56
282.819	103.56
283.051	85.56
283.282	83.56
283.513	93.56
283.745	83.56
283.976	79.56
284.207	89.56
284.439	74.56
284.67	93.56
284.901	81.56
285.132	85.56
285.364	99.56
285.595	77.56
285.826	84.56
286.057	81.56
286.288	80.56
286.52	92.56
286.751	75.56
286.982	87.56
287.213	83.56
287.444	86.56
287.675	84.56
287.906	89.56
288.138	81.56
288.369	96.56
288.6	87.56
288.831	85.56
289.062	89.56
289.293	86.56
289.524	84.56
289.755	85.56
289.986	93.56
290.217	83.56
290.448	91.56
290.679	79.56
290.91	87.56
291.141	90.56
291.371	85.56
291.602	87.56
291.833	97.56
292.064	95.56
292.295	83.56
292.526	91.56
292.757	89.56
292.987	78.56
293.218	74.56
293.449	91.56
293.68	82.56
293.91	85.56
294.141	82.56
294.372	83.56
294.603	86.56
294.833	88.56
295.064	95.56
295.295	89.56
295.525	104.56
295.756	95.56
295.987	86.56
296.217	102.56
296.448	115.56
296.679	80.56
296.909	82.56
297.14	85.56
297.37	67.56
297.601	96.56
297.831	96.56
298.062	90.56
298.292	81.56
298.523	85.56
298.753	96.56
298.984	91.56
299.214	81.56
299.445	96.56
299.675	85.56
299.905	83.56
300.136	72.56
300.366	67.56
300.597	89.56
300.827	72.56
301.057	101.56
301.288	108.56
301.518	102.56
301.748	88.56
301.979	97.56
302.209	83.56
302.439	79.56
302.669	84.56
302.9	64.56
303.13	77.56
303.36	102.56
303.59	107.56
303.82	97.56
304.051	92.56
304.281	102.56
304.511	88.56
304.741	88.56
304.971	84.56
305.201	100.56
305.431	91.56
305.661	83.56
305.891	93.56
306.121	79.56
306.352	105.56
306.582	86.56
306.812	95.56
307.042	105.56
307.272	96.56
307.502	109.56
307.731	103.56
307.961	96.56
308.191	93.56
308.421	85.56
308.651	98.56
308.881	83.56
309.111	88.56
309.341	100.56
309.571	96.56
309.8	93.56
310.03	101.56
310.26	93.56
310.49	91.56
310.72	97.56
310.949	85.56
311.179	80.56
311.409	77.56
311.639	93.56
311.868	99.56
312.098	87.56
312.328	81.56
312.557	99.56
312.787	99.56
313.017	103.56
313.246	93.56
313.476	92.56
313.706	108.56
313.935	100.56
314.165	80.56
314.394	98.56
314.624	92.56
314.853	81.56
315.083	79.56
315.312	82.56
315.542	90.56
315.771	87.56
316.001	88.56
316.23	84.56
316.46	82.56
316.689	88.56
316.919	95.56
317.148	95.56
317.377	111.56
317.607	104.56
317.836	90.56
318.065	77.56
318.295	70.56
318.524	97.56
318.753	95.56
318.983	86.56
319.212	97.56
319.441	97.56
319.67	93.56
319.9	80.56
320.129	81.56
320.358	87.56
320.587	95.56
320.816	107.56
321.046	96.56
321.275	91.56
321.504	80.56
321.733	102.56
321.962	94.56
322.191	91.56
322.42	83.56
322.649	94.56
322.878	113.56
323.108	122.56
323.337	105.56
323.566	127.56
323.795	143.56
324.024	175.56
324.253	293.56
324.482	634.56
324.71	1253.56
324.939	1637.56
325.168	616.56
325.397	181.56
325.626	133.56
325.855	131.56
326.084	111.56
326.313	116.56
326.542	133.56
326.77	185.56
326.999	348.56
327.228	719.56
327.457	1263.56
327.686	1001.56
327.914	302.56
328.143	189.56
328.372	168.56
328.6	135.56
328.829	103.56
329.058	105.56
329.287	105.56
329.515	120.56
329.744	120.56
329.972	138.56
330.201	187.56
330.43	244.56
330.658	161.56
330.887	130.56
331.115	116.56
331.344	109.56
331.572	87.56
331.801	98.56
332.03	98.56
332.258	83.56
332.486	90.56
332.715	86.56
332.943	87.56
333.172	84.56
333.4	105.56
333.629	110.56
333.857	121.56
334.085	143.56
334.314	189.56
334.542	295.56
334.771	275.56
334.999	123.56
335.227	98.56
335.455	103.56
335.684	103.56
335.912	96.56
336.14	101.56
336.369	104.56
336.597	93.56
336.825	88.56
337.053	96.56
337.281	106.56
337.51	101.56
337.738	81.56
337.966	98.56
338.194	91.56
338.422	99.56
338.65	98.56
338.878	97.56
339.106	90.56
339.334	89.56
339.562	80.56
339.79	93.56
340.018	98.56
340.246	101.56
340.474	83.56
340.702	99.56
340.93	84.56
341.158	105.56
341.386	87.56
341.614	96.56
341.842	91.56
342.07	92.56
342.298	95.56
342.526	78.56
342.754	96.56
342.981	86.56
343.209	89.56
343.437	95.56
343.665	97.56
343.893	95.56
344.12	90.56
344.348	87.56
344.576	80.56
344.804	102.56
345.031	83.56
345.259	93.56
345.487	105.56
345.714	91.56
345.942	75.56
346.17	85.56
346.397	89.56
346.625	89.56
346.853	93.56
347.08	87.56
347.308	80.56
347.535	83.56
347.763	89.56
347.99	91.56
348.218	89.56
348.445	89.56
348.673	91.56
348.9	95.56
349.128	83.56
349.355	72.56
349.583	93.56
349.81	83.56
350.037	77.56
350.265	102.56
350.492	91.56
350.72	78.56
350.947	75.56
351.174	96.56
351.402	95.56
351.629	104.56
351.856	98.56
352.083	99.56
352.311	109.56
352.538	104.56
352.765	98.56
352.992	112.56
353.22	98.56
353.447	86.56
353.674	89.56
353.901	94.56
354.128	98.56
354.355	86.56
354.583	104.56
354.81	97.56
355.037	97.56
355.264	86.56
355.491	94.56
355.718	94.56
355.945	104.56
356.172	91.56
356.399	99.56
356.626	85.56
356.853	85.56
357.08	90.56
357.307	91.56
357.534	91.56
357.761	88.56
357.988	95.56
358.215	83.56
358.441	94.56
358.668	80.56
358.895	79.56
359.122	86.56
359.349	87.56
359.576	95.56
359.802	79.56
360.029	115.56
360.256	112.56
360.483	102.56
360.709	97.56
360.936	98.56
361.163	90.56
361.39	100.56
361.616	87.56
361.843	100.56
362.07	86.56
362.296	97.56
362.523	86.56
362.749	97.56
362.976	80.56
363.203	104.56
363.429	103.56
363.656	89.56
363.882	92.56
364.109	77.56
364.335	96.56
364.562	96.56
364.788	88.56
365.015	86.56
365.241	100.56
365.468	106.56
365.694	99.56
365.92	100.56
366.147	94.56
366.373	80.56
366.599	81.56
366.826	75.56
367.052	80.56
367.278	72.56
367.505	89.56
367.731	81.56
367.957	85.56
368.184	80.56
368.41	93.56
368.636	101.56
368.862	98.56
369.089	93.56
369.315	86.56
369.541	97.56
369.767	79.56
369.993	79.56
370.219	89.56
370.445	91.56
370.672	89.56
370.898	85.56
371.124	89.56
371.35	93.56
371.576	94.56
371.802	94.56
372.028	89.56
372.254	80.56
372.48	88.56
372.706	81.56
372.932	75.56
373.158	91.56
373.384	71.56
373.61	94.56
373.835	93.56
374.061	72.56
374.287	81.56
374.513	96.56
374.739	78.56
374.965	95.56
375.191	107.56
375.416	79.56
375.642	96.56
375.868	85.56
376.094	88.56
376.319	93.56
376.545	71.56
376.771	83.56
376.997	86.56
377.222	80.56
377.448	95.56
377.674	105.56
377.899	84.56
378.125	87.56
378.35	96.56
378.576	89.56
378.802	101.56
379.027	93.56
379.253	88.56
379.478	79.56
379.704	100.56
379.929	87.56
380.155	90.56
380.38	72.56
380.606	101.56
380.831	91.56
381.057	91.56
381.282	97.56
381.507	91.56
381.733	90.56
381.958	105.56
382.184	108.56
382.409	99.56
382.634	90.56
382.86	107.56
383.085	98.56
383.31	98.56
383.535	104.56
383.761	96.56
383.986	103.56
384.211	100.56
384.436	90.56
384.662	91.56
384.887	86.56
385.112	103.56
385.337	101.56
385.562	84.56
385.787	98.56
386.013	103.56
386.238	101.56
386.463	94.56
386.688	97.56
386.913	95.56
387.138	113.56
387.363	104.56
387.588	94.56
387.813	88.56
388.038	109.56
388.263	101.56
388.488	94.56
388.713	87.56
388.938	96.56
389.163	81.56
389.387	101.56
389.612	83.56
389.837	89.56
390.062	110.56
390.287	89.56
390.512	75.56
390.736	89.56
390.961	91.56
391.186	81.56
391.411	83.56
391.636	91.56
391.86	80.56
392.085	88.56
392.31	83.56
392.534	80.56
392.759	99.56
392.984	76.56
393.208	98.56
393.433	111.56
393.658	100.56
393.882	93.56
394.107	88.56
394.331	66.56
394.556	89.56
394.78	81.56
395.005	95.56
395.229	82.56
395.454	80.56
395.678	84.56
395.903	90.56
396.127	87.56
396.352	90.56
396.576	85.56
396.801	82.56
397.025	74.56
397.249	84.56
397.474	87.56
397.698	86.56
397.922	85.56
398.147	82.56
398.371	86.56
398.595	83.56
398.82	82.56
399.044	75.56
399.268	78.56
399.492	87.56
399.717	94.56
399.941	90.56
400.165	91.56
400.389	102.56
400.613	85.56
400.837	92.56
401.062	94.56
401.286	81.56
401.51	99.56
401.734	87.56
401.958	95.56
402.182	120.56
402.406	125.56
402.63	108.56
402.854	98.56
403.078	93.56
403.302	97.56
403.526	85.56
403.75	74.56
403.974	91.56
404.198	89.56
404.422	79.56
404.645	82.56
404.869	73.56
405.093	93.56
405.317	103.56
405.541	100.56
405.765	102.56
405.988	110.56
406.212	141.56
406.436	155.56
406.66	114.56
406.883	101.56
407.107	95.56
407.331	88.56
407.555	90.56
407.778	98.56
408.002	103.56
408.226	75.56
408.449	96.56
408.673	88.56
408.896	95.56
409.12	94.56
409.344	81.56
409.567	82.56
409.791	92.56
410.014	112.56
410.238	86.56
410.461	68.56
410.685	83.56
410.908	81.56
411.132	91.56
411.355	92.56
411.578	89.56
411.802	81.56
412.025	90.56
412.249	95.56
412.472	90.56
412.695	97.56
412.919	103.56
413.142	77.56
413.365	72.56
413.589	75.56
413.812	102.56
414.035	100.56
414.258	74.56
414.482	97.56
414.705	78.56
414.928	93.56
415.151	82.56
415.374	105.56
415.597	87.56
415.821	90.56
416.044	88.56
416.267	84.56
416.49	91.56
416.713	101.56
416.936	92.56
417.159	93.56
417.382	98.56
417.605	87.56
417.828	111.56
418.051	100.56
418.274	64.56
418.497	85.56
418.72	101.56
418.943	85.56
419.166	78.56
419.389	88.56
419.611	93.56
419.834	80.56
420.057	86.56
420.28	79.56
420.503	89.56
420.726	98.56
420.948	90.56
421.171	73.56
421.394	83.56
421.617	81.56
421.839	92.56
422.062	105.56
422.285	71.56
422.507	85.56
422.73	114.56
422.953	90.56
423.175	94.56
423.398	93.56
423.621	85.56
423.843	81.56
424.066	73.56
424.288	79.56
424.511	83.56
424.733	88.56
424.956	105.56
425.178	86.56
425.401	107.56
425.623	104.56
425.846	71.56
426.068	77.56
426.291	89.56
426.513	103.56
426.735	94.56
426.958	97.56
427.18	79.56
427.402	98.56
427.625	138.56
427.847	122.56
428.069	124.56
428.292	85.56
428.514	83.56
428.736	83.56
428.958	99.56
429.181	81.56
429.403	86.56
429.625	90.56
429.847	83.56
430.069	89.56
430.292	79.56
430.514	90.56
430.736	81.56
430.958	80.56
431.18	70.56
431.402	91.56
431.624	81.56
431.846	82.56
432.068	86.56
432.29	82.56
432.512	72.56
432.734	67.56
432.956	82.56
433.178	89.56
433.4	96.56
433.622	79.56
433.844	86.56
434.066	96.56
434.287	85.56
434.509	73.56
434.731	102.56
434.953	74.56
435.175	89.56
435.397	93.56
435.618	88.56
435.84	92.56
436.062	93.56
436.284	99.56
436.505	108.56
436.727	95.56
436.949	94.56
437.17	90.56
437.392	81.56
437.614	90.56
437.835	96.56
438.057	102.56
438.278	114.56
438.5	118.56
438.721	101.56
438.943	90.56
439.165	90.56
439.386	88.56
439.608	93.56
439.829	88.56
440.05	106.56
440.272	125.56
440.493	94.56
440.715	79.56
440.936	87.56
441.158	87.56
441.379	80.56
441.6	79.56
441.822	92.56
442.043	85.56
442.264	89.56
442.486	88.56
442.707	93.56
442.928	85.56
443.149	126.56
443.371	115.56
443.592	119.56
443.813	110.56
444.034	90.56
444.255	89.56
444.476	83.56
444.698	87.56
444.919	98.56
445.14	136.56
445.361	114.56
445.582	109.56
445.803	120.56
446.024	118.56
446.245	114.56
446.466	91.56
446.687	80.56
446.908	84.56
447.129	91.56
447.35	86.56
447.571	86.56
447.792	80.56
448.013	94.56
448.234	101.56
448.455	98.56
448.675	115.56
448.896	98.56
449.117	102.56
449.338	91.56
449.559	104.56
449.779	116.56
450	92.56
450.221	72.56
450.442	85.56
450.662	87.56
450.883	87.56
451.104	120.56
451.324	91.56
451.545	104.56
451.766	86.56
451.986	93.56
452.207	103.56
452.428	94.56
452.648	91.56
452.869	91.56
453.089	88.56
453.31	95.56
453.53	85.56
453.751	77.56
453.971	106.56
454.192	98.56
454.412	89.56
454.633	103.56
454.853	86.56
455.073	90.56
455.294	74.56
455.514	97.56
455.734	89.56
455.955	91.56
456.175	82.56
456.395	80.56
456.616	92.56
456.836	80.56
457.056	97.56
457.276	92.56
457.497	86.56
457.717	84.56
457.937	90.56
458.157	86.56
458.377	91.56
458.598	105.56
458.818	117.56
459.038	116.56
459.258	97.56
459.478	93.56
459.698	82.56
459.918	80.56
460.138	76.56
460.358	80.56
460.578	89.56
460.798	90.56
461.018	94.56
461.238	81.56
461.458	81.56
461.678	79.56
461.898	87.56
462.118	86.56
462.338	92.56
462.558	94.56
462.777	83.56
462.997	72.56
463.217	83.56
463.437	93.56
463.657	86.56
463.876	74.56
464.096	85.56
464.316	90.56
464.536	89.56
464.755	76.56
464.975	81.56
465.195	125.56
465.414	131.56
465.634	92.56
465.854	100.56
466.073	85.56
466.293	91.56
466.512	85.56
466.732	88.56
466.951	91.56
467.171	84.56
467.391	92.56
467.61	108.56
467.829	100.56
468.049	138.56
468.268	164.56
468.488	86.56
468.707	87.56
468.927	92.56
469.146	81.56
469.365	82.56
469.585	97.56
469.804	98.56
470.023	83.56
470.243	81.56
470.462	93.56
470.681	69.56
470.901	90.56
471.12	74.56
471.339	81.56
471.558	92.56
471.777	95.56
471.997	122.56
472.216	203.56
472.435	380.56
472.654	143.56
472.873	87.56
473.092	86.56
473.311	82.56
473.53	84.56
473.749	86.56
473.968	101.56
474.187	91.56
474.406	86.56
474.625	68.56
474.844	95.56
475.063	80.56
475.282	86.56
475.501	95.56
475.72	74.56
475.939	83.56
476.158	88.56
476.377	71.56
476.596	83.56
476.814	88.56
477.033	96.56
477.252	72.56
477.471	83.56
477.69	91.56
477.908	80.56
478.127	99.56
478.346	87.56
478.564	90.56
478.783	99.56
479.002	85.56
479.22	86.56
479.439	98.56
479.658	89.56
479.876	97.56
480.095	93.56
480.313	84.56
480.532	100.56
480.751	116.56
480.969	218.56
481.188	622.56
481.406	386.56
481.624	126.56
481.843	93.56
482.061	101.56
482.28	89.56
482.498	98.56
482.717	93.56
482.935	91.56
483.153	90.56
483.372	106.56
483.59	95.56
483.808	95.56
484.027	102.56
484.245	74.56
484.463	83.56
484.681	82.56
484.9	104.56
485.118	98.56
485.336	86.56
485.554	103.56
485.772	103.56
485.99	113.56
486.209	94.56
486.427	100.56
486.645	106.56
486.863	111.56
487.081	95.56
487.299	87.56
487.517	91.56
487.735	90.56
487.953	85.56
488.171	93.56
488.389	107.56
488.607	86.56
488.825	88.56
489.043	84.56
489.261	85.56
489.479	81.56
489.696	97.56
489.914	101.56
490.132	89.56
490.35	74.56
490.568	87.56
490.786	88.56
491.003	77.56
491.221	82.56
491.439	97.56
491.657	84.56
491.874	80.56
492.092	93.56
492.31	99.56
492.527	86.56
492.745	71.56
492.963	84.56
493.18	85.56
493.398	103.56
493.615	100.56
493.833	73.56
494.05	92.56
494.268	89.56
494.485	105.56
494.703	88.56
494.92	89.56
495.138	90.56
495.355	99.56
495.573	94.56
495.79	81.56
496.008	83.56
496.225	86.56
496.442	77.56
496.66	89.56
496.877	81.56
497.094	86.56
497.312	89.56
497.529	83.56
497.746	91.56
497.963	80.56
498.181	83.56
498.398	94.56
498.615	100.56
498.832	94.56
499.049	87.56
499.267	88.56
499.484	93.56
499.701	85.56
499.918	99.56
500.135	97.56
500.352	101.56
500.569	76.56
500.786	106.56
501.003	99.56
501.22	83.56
501.437	86.56
501.654	74.56
501.871	94.56
502.088	97.56
502.305	94.56
502.522	88.56
502.739	91.56
502.956	77.56
503.172	89.56
503.389	90.56
503.606	106.56
503.823	88.56
504.04	78.56
504.256	102.56
504.473	81.56
504.69	83.56
504.907	98.56
505.123	83.56
505.34	92.56
505.557	87.56
505.773	84.56
505.99	89.56
506.207	79.56
506.423	80.56
506.64	77.56
506.856	85.56
507.073	89.56
507.289	82.56
507.506	81.56
507.722	92.56
507.939	100.56
508.155	96.56
508.372	98.56
508.588	76.56
508.805	82.56
509.021	89.56
509.238	90.56
509.454	86.56
509.67	77.56
509.887	85.56
510.103	115.56
510.319	171.56
510.536	565.56
510.752	1706.56
510.968	489.56
511.184	137.56
511.401	100.56
511.617	99.56
511.833	87.56
512.049	97.56
512.265	88.56
512.481	85.56
512.698	82.56
512.914	81.56
513.13	95.56
513.346	102.56
513.562	81.56
513.778	91.56
513.994	94.56
514.21	88.56
514.426	114.56
514.642	114.56
514.858	116.56
515.074	146.56
515.29	335.56
515.506	1025.56
515.721	389.56
515.937	139.56
516.153	109.56
516.369	87.56
516.585	82.56
