Data from Circ_1983_H10_HRD10591_00040.txt Node
Date: Wed Jan 03 12:26:52 EST 2024
User: Yrep
Spectrometer: HR+D1059
Trigger mode: 1
Integration Time (sec): 1.000000E-1
Scans to average: 1
Electric dark correction enabled: true
Nonlinearity correction enabled: false
Boxcar width: 0
XAxis mode: Wavelengths
Number of Pixels in Spectrum: 2048
>>>>>Begin Spectral Data<<<<<
223.165	-24.12
223.4	-24.12
223.635	-24.12
223.869	-11.12
224.104	-11.12
224.338	-23.12
224.573	-7.12
224.808	-1.12
225.042	-3.12
225.277	-1.12
225.511	-8.12
225.746	5.88
225.98	14.88
226.215	4.88
226.449	20.88
226.683	9.88
226.918	13.88
227.152	19.88
227.387	32.88
227.621	36.88
227.856	41.88
228.09	41.88
228.324	53.88
228.559	46.88
228.793	60.88
229.027	57.88
229.262	72.88
229.496	59.88
229.73	68.88
229.964	82.88
230.199	73.88
230.433	70.88
230.667	81.88
230.901	74.88
231.136	68.88
231.37	62.88
231.604	71.88
231.838	76.88
232.072	69.88
232.306	78.88
232.541	73.88
232.775	82.88
233.009	75.88
233.243	93.88
233.477	82.88
233.711	87.88
233.945	92.88
234.179	88.88
234.413	77.88
234.647	97.88
234.881	82.88
235.115	87.88
235.349	82.88
235.583	73.88
235.817	76.88
236.051	76.88
236.285	78.88
236.519	61.88
236.753	69.88
236.987	91.88
237.221	80.88
237.455	80.88
237.689	77.88
237.922	82.88
238.156	66.88
238.39	86.88
238.624	82.88
238.858	77.88
239.091	82.88
239.325	75.88
239.559	88.88
239.793	100.88
240.027	80.88
240.26	70.88
240.494	87.88
240.728	75.88
240.961	78.88
241.195	75.88
241.429	72.88
241.662	72.88
241.896	78.88
242.13	70.88
242.363	73.88
242.597	72.88
242.83	77.88
243.064	70.88
243.298	90.88
243.531	77.88
243.765	91.88
243.998	85.88
244.232	87.88
244.465	92.88
244.699	82.88
244.932	84.88
245.166	68.88
245.399	86.88
245.633	76.88
245.866	84.88
246.099	84.88
246.333	85.88
246.566	80.88
246.8	77.88
247.033	88.88
247.266	61.88
247.5	74.88
247.733	90.88
247.966	82.88
248.2	85.88
248.433	68.88
248.666	82.88
248.899	87.88
249.133	84.88
249.366	71.88
249.599	82.88
249.832	75.88
250.066	88.88
250.299	73.88
250.532	98.88
250.765	77.88
250.998	80.88
251.231	66.88
251.465	71.88
251.698	80.88
251.931	86.88
252.164	83.88
252.397	73.88
252.63	84.88
252.863	85.88
253.096	78.88
253.329	91.88
253.562	75.88
253.795	68.88
254.028	101.88
254.261	74.88
254.494	74.88
254.727	86.88
254.96	64.88
255.193	73.88
255.426	70.88
255.659	74.88
255.892	93.88
256.124	85.88
256.357	81.88
256.59	75.88
256.823	82.88
257.056	89.88
257.289	76.88
257.521	88.88
257.754	78.88
257.987	98.88
258.22	78.88
258.452	82.88
258.685	85.88
258.918	88.88
259.151	82.88
259.383	72.88
259.616	78.88
259.849	81.88
260.081	82.88
260.314	88.88
260.547	89.88
260.779	96.88
261.012	96.88
261.244	78.88
261.477	91.88
261.71	102.88
261.942	112.88
262.175	115.88
262.407	85.88
262.64	78.88
262.872	96.88
263.105	94.88
263.337	88.88
263.57	94.88
263.802	72.88
264.035	89.88
264.267	91.88
264.499	82.88
264.732	90.88
264.964	84.88
265.197	101.88
265.429	82.88
265.661	84.88
265.894	88.88
266.126	85.88
266.358	73.88
266.591	85.88
266.823	84.88
267.055	88.88
267.287	82.88
267.52	85.88
267.752	77.88
267.984	73.88
268.216	92.88
268.448	74.88
268.681	82.88
268.913	80.88
269.145	75.88
269.377	88.88
269.609	91.88
269.841	92.88
270.073	84.88
270.306	99.88
270.538	72.88
270.77	86.88
271.002	77.88
271.234	75.88
271.466	105.88
271.698	84.88
271.93	83.88
272.162	92.88
272.394	83.88
272.626	75.88
272.858	73.88
273.09	85.88
273.322	82.88
273.553	82.88
273.785	88.88
274.017	87.88
274.249	91.88
274.481	85.88
274.713	91.88
274.945	84.88
275.176	83.88
275.408	92.88
275.64	81.88
275.872	88.88
276.104	89.88
276.335	82.88
276.567	91.88
276.799	97.88
277.031	97.88
277.262	95.88
277.494	86.88
277.726	92.88
277.957	91.88
278.189	102.88
278.421	87.88
278.652	88.88
278.884	89.88
279.115	90.88
279.347	84.88
279.579	86.88
279.81	98.88
280.042	101.88
280.273	94.88
280.505	85.88
280.736	81.88
280.968	82.88
281.199	90.88
281.431	91.88
281.662	92.88
281.894	87.88
282.125	98.88
282.356	113.88
282.588	137.88
282.819	110.88
283.051	87.88
283.282	77.88
283.513	90.88
283.745	80.88
283.976	94.88
284.207	94.88
284.439	76.88
284.67	92.88
284.901	109.88
285.132	79.88
285.364	103.88
285.595	88.88
285.826	68.88
286.057	80.88
286.288	78.88
286.52	73.88
286.751	72.88
286.982	89.88
287.213	86.88
287.444	76.88
287.675	89.88
287.906	84.88
288.138	87.88
288.369	89.88
288.6	89.88
288.831	89.88
289.062	88.88
289.293	88.88
289.524	87.88
289.755	89.88
289.986	86.88
290.217	90.88
290.448	81.88
290.679	91.88
290.91	93.88
291.141	87.88
291.371	92.88
291.602	89.88
291.833	94.88
292.064	101.88
292.295	84.88
292.526	96.88
292.757	69.88
292.987	94.88
293.218	96.88
293.449	93.88
293.68	89.88
293.91	95.88
294.141	110.88
294.372	96.88
294.603	91.88
294.833	89.88
295.064	87.88
295.295	89.88
295.525	89.88
295.756	90.88
295.987	97.88
296.217	139.88
296.448	124.88
296.679	86.88
296.909	86.88
297.14	87.88
297.37	84.88
297.601	93.88
297.831	80.88
298.062	77.88
298.292	94.88
298.523	98.88
298.753	92.88
298.984	94.88
299.214	84.88
299.445	108.88
299.675	96.88
299.905	92.88
300.136	101.88
300.366	82.88
300.597	94.88
300.827	98.88
301.057	100.88
301.288	110.88
301.518	84.88
301.748	88.88
301.979	100.88
302.209	88.88
302.439	75.88
302.669	88.88
302.9	84.88
303.13	90.88
303.36	101.88
303.59	103.88
303.82	102.88
304.051	108.88
304.281	86.88
304.511	84.88
304.741	78.88
304.971	94.88
305.201	92.88
305.431	85.88
305.661	91.88
305.891	90.88
306.121	99.88
306.352	108.88
306.582	108.88
306.812	101.88
307.042	93.88
307.272	96.88
307.502	92.88
307.731	98.88
307.961	98.88
308.191	94.88
308.421	88.88
308.651	94.88
308.881	87.88
309.111	96.88
309.341	94.88
309.571	102.88
309.8	106.88
310.03	105.88
310.26	92.88
310.49	79.88
310.72	86.88
310.949	110.88
311.179	93.88
311.409	105.88
311.639	101.88
311.868	108.88
312.098	86.88
312.328	93.88
312.557	89.88
312.787	105.88
313.017	89.88
313.246	92.88
313.476	91.88
313.706	99.88
313.935	111.88
314.165	125.88
314.394	112.88
314.624	81.88
314.853	101.88
315.083	93.88
315.312	108.88
315.542	87.88
315.771	93.88
316.001	92.88
316.23	104.88
316.46	92.88
316.689	77.88
316.919	88.88
317.148	99.88
317.377	103.88
317.607	100.88
317.836	100.88
318.065	73.88
318.295	88.88
318.524	92.88
318.753	89.88
318.983	91.88
319.212	87.88
319.441	108.88
319.67	100.88
319.9	87.88
320.129	88.88
320.358	88.88
320.587	104.88
320.816	89.88
321.046	91.88
321.275	103.88
321.504	86.88
321.733	114.88
321.962	88.88
322.191	84.88
322.42	104.88
322.649	114.88
322.878	105.88
323.108	109.88
323.337	110.88
323.566	117.88
323.795	146.88
324.024	176.88
324.253	316.88
324.482	642.88
324.71	1290.88
324.939	1691.88
325.168	639.88
325.397	206.88
325.626	121.88
325.855	119.88
326.084	126.88
326.313	117.88
326.542	153.88
326.77	210.88
326.999	355.88
327.228	741.88
327.457	1289.88
327.686	1015.88
327.914	321.88
328.143	179.88
328.372	170.88
328.6	124.88
328.829	128.88
329.058	116.88
329.287	129.88
329.515	114.88
329.744	121.88
329.972	115.88
330.201	163.88
330.43	187.88
330.658	139.88
330.887	125.88
331.115	121.88
331.344	100.88
331.572	108.88
331.801	90.88
332.03	102.88
332.258	98.88
332.486	99.88
332.715	106.88
332.943	98.88
333.172	109.88
333.4	90.88
333.629	114.88
333.857	107.88
334.085	110.88
334.314	167.88
334.542	228.88
334.771	212.88
334.999	109.88
335.227	96.88
335.455	103.88
335.684	96.88
335.912	106.88
336.14	105.88
336.369	93.88
336.597	99.88
336.825	115.88
337.053	93.88
337.281	101.88
337.51	84.88
337.738	100.88
337.966	101.88
338.194	87.88
338.422	73.88
338.65	94.88
338.878	91.88
339.106	89.88
339.334	82.88
339.562	93.88
339.79	106.88
340.018	86.88
340.246	87.88
340.474	93.88
340.702	73.88
340.93	68.88
341.158	96.88
341.386	93.88
341.614	100.88
341.842	89.88
342.07	102.88
342.298	104.88
342.526	92.88
342.754	92.88
342.981	78.88
343.209	97.88
343.437	106.88
343.665	89.88
343.893	100.88
344.12	98.88
344.348	88.88
344.576	89.88
344.804	90.88
345.031	93.88
345.259	94.88
345.487	89.88
345.714	89.88
345.942	97.88
346.17	94.88
346.397	97.88
346.625	93.88
346.853	107.88
347.08	104.88
347.308	78.88
347.535	103.88
347.763	100.88
347.99	98.88
348.218	88.88
348.445	109.88
348.673	104.88
348.9	96.88
349.128	105.88
349.355	92.88
349.583	94.88
349.81	108.88
350.037	92.88
350.265	82.88
350.492	105.88
350.72	102.88
350.947	82.88
351.174	124.88
351.402	109.88
351.629	90.88
351.856	118.88
352.083	104.88
352.311	96.88
352.538	113.88
352.765	101.88
352.992	110.88
353.22	99.88
353.447	106.88
353.674	104.88
353.901	93.88
354.128	92.88
354.355	92.88
354.583	93.88
354.81	94.88
355.037	91.88
355.264	106.88
355.491	103.88
355.718	101.88
355.945	82.88
356.172	109.88
356.399	95.88
356.626	94.88
356.853	78.88
357.08	98.88
357.307	96.88
357.534	87.88
357.761	88.88
357.988	97.88
358.215	87.88
358.441	99.88
358.668	98.88
358.895	94.88
359.122	101.88
359.349	98.88
359.576	89.88
359.802	91.88
360.029	106.88
360.256	94.88
360.483	100.88
360.709	94.88
360.936	83.88
361.163	101.88
361.39	91.88
361.616	93.88
361.843	109.88
362.07	98.88
362.296	94.88
362.523	88.88
362.749	90.88
362.976	82.88
363.203	102.88
363.429	75.88
363.656	93.88
363.882	88.88
364.109	89.88
364.335	97.88
364.562	91.88
364.788	92.88
365.015	69.88
365.241	89.88
365.468	102.88
365.694	91.88
365.92	91.88
366.147	87.88
366.373	72.88
366.599	80.88
366.826	90.88
367.052	88.88
367.278	92.88
367.505	87.88
367.731	106.88
367.957	100.88
368.184	82.88
368.41	92.88
368.636	104.88
368.862	121.88
369.089	100.88
369.315	95.88
369.541	106.88
369.767	97.88
369.993	92.88
370.219	84.88
370.445	94.88
370.672	93.88
370.898	93.88
371.124	91.88
371.35	92.88
371.576	90.88
371.802	92.88
372.028	83.88
372.254	86.88
372.48	91.88
372.706	70.88
372.932	89.88
373.158	86.88
373.384	78.88
373.61	95.88
373.835	102.88
374.061	77.88
374.287	89.88
374.513	77.88
374.739	94.88
374.965	96.88
375.191	92.88
375.416	83.88
375.642	99.88
375.868	92.88
376.094	94.88
376.319	84.88
376.545	92.88
376.771	90.88
376.997	88.88
377.222	103.88
377.448	100.88
377.674	101.88
377.899	89.88
378.125	88.88
378.35	85.88
378.576	88.88
378.802	81.88
379.027	96.88
379.253	98.88
379.478	96.88
379.704	90.88
379.929	94.88
380.155	90.88
380.38	91.88
380.606	94.88
380.831	110.88
381.057	91.88
381.282	96.88
381.507	104.88
381.733	101.88
381.958	108.88
382.184	102.88
382.409	100.88
382.634	105.88
382.86	94.88
383.085	106.88
383.31	97.88
383.535	95.88
383.761	103.88
383.986	99.88
384.211	92.88
384.436	113.88
384.662	98.88
384.887	108.88
385.112	113.88
385.337	103.88
385.562	97.88
385.787	101.88
386.013	121.88
386.238	118.88
386.463	103.88
386.688	114.88
386.913	104.88
387.138	102.88
387.363	107.88
387.588	104.88
387.813	104.88
388.038	113.88
388.263	119.88
388.488	113.88
388.713	82.88
388.938	98.88
389.163	91.88
389.387	86.88
389.612	91.88
389.837	105.88
390.062	95.88
390.287	104.88
390.512	87.88
390.736	91.88
390.961	84.88
391.186	99.88
391.411	103.88
391.636	84.88
391.86	98.88
392.085	97.88
392.31	93.88
392.534	80.88
392.759	94.88
392.984	91.88
393.208	99.88
393.433	120.88
393.658	111.88
393.882	81.88
394.107	97.88
394.331	81.88
394.556	105.88
394.78	84.88
395.005	94.88
395.229	88.88
395.454	96.88
395.678	78.88
395.903	91.88
396.127	97.88
396.352	92.88
396.576	85.88
396.801	106.88
397.025	104.88
397.249	86.88
397.474	104.88
397.698	71.88
397.922	75.88
398.147	76.88
398.371	83.88
398.595	100.88
398.82	80.88
399.044	87.88
399.268	96.88
399.492	88.88
399.717	91.88
399.941	93.88
400.165	82.88
400.389	92.88
400.613	89.88
400.837	82.88
401.062	88.88
401.286	90.88
401.51	103.88
401.734	90.88
401.958	96.88
402.182	117.88
402.406	148.88
402.63	129.88
402.854	89.88
403.078	97.88
403.302	94.88
403.526	96.88
403.75	91.88
403.974	92.88
404.198	71.88
404.422	84.88
404.645	72.88
404.869	103.88
405.093	90.88
405.317	106.88
405.541	101.88
405.765	91.88
405.988	102.88
406.212	151.88
406.436	195.88
406.66	136.88
406.883	98.88
407.107	81.88
407.331	91.88
407.555	85.88
407.778	92.88
408.002	100.88
408.226	66.88
408.449	90.88
408.673	93.88
408.896	89.88
409.12	97.88
409.344	95.88
409.567	109.88
409.791	90.88
410.014	107.88
410.238	96.88
410.461	95.88
410.685	98.88
410.908	96.88
411.132	88.88
411.355	93.88
411.578	99.88
411.802	86.88
412.025	92.88
412.249	92.88
412.472	99.88
412.695	94.88
412.919	98.88
413.142	102.88
413.365	99.88
413.589	107.88
413.812	81.88
414.035	92.88
414.258	82.88
414.482	77.88
414.705	90.88
414.928	83.88
415.151	81.88
415.374	93.88
415.597	92.88
415.821	81.88
416.044	89.88
416.267	88.88
416.49	107.88
416.713	90.88
416.936	72.88
417.159	88.88
417.382	102.88
417.605	77.88
417.828	101.88
418.051	104.88
418.274	81.88
418.497	94.88
418.72	90.88
418.943	90.88
419.166	105.88
419.389	90.88
419.611	96.88
419.834	99.88
420.057	99.88
420.28	89.88
420.503	82.88
420.726	77.88
420.948	86.88
421.171	92.88
421.394	92.88
421.617	89.88
421.839	93.88
422.062	76.88
422.285	80.88
422.507	86.88
422.73	104.88
422.953	90.88
423.175	88.88
423.398	78.88
423.621	86.88
423.843	77.88
424.066	90.88
424.288	87.88
424.511	73.88
424.733	105.88
424.956	101.88
425.178	88.88
425.401	106.88
425.623	86.88
425.846	89.88
426.068	93.88
426.291	80.88
426.513	88.88
426.735	97.88
426.958	94.88
427.18	101.88
427.402	132.88
427.625	135.88
427.847	124.88
428.069	122.88
428.292	95.88
428.514	92.88
428.736	85.88
428.958	74.88
429.181	85.88
429.403	87.88
429.625	83.88
429.847	92.88
430.069	98.88
430.292	102.88
430.514	77.88
430.736	94.88
430.958	89.88
431.18	86.88
431.402	103.88
431.624	88.88
431.846	89.88
432.068	108.88
432.29	87.88
432.512	104.88
432.734	88.88
432.956	97.88
433.178	99.88
433.4	99.88
433.622	98.88
433.844	89.88
434.066	92.88
434.287	85.88
434.509	76.88
434.731	88.88
434.953	89.88
435.175	96.88
435.397	101.88
435.618	90.88
435.84	96.88
436.062	105.88
436.284	106.88
436.505	85.88
436.727	101.88
436.949	95.88
437.17	94.88
437.392	80.88
437.614	86.88
437.835	97.88
438.057	102.88
438.278	103.88
438.5	92.88
438.721	117.88
438.943	90.88
439.165	90.88
439.386	93.88
439.608	105.88
439.829	97.88
440.05	123.88
440.272	119.88
440.493	98.88
440.715	82.88
440.936	97.88
441.158	106.88
441.379	94.88
441.6	103.88
441.822	91.88
442.043	91.88
442.264	85.88
442.486	93.88
442.707	89.88
442.928	100.88
443.149	128.88
443.371	132.88
443.592	93.88
443.813	102.88
444.034	107.88
444.255	89.88
444.476	88.88
444.698	90.88
444.919	96.88
445.14	122.88
445.361	118.88
445.582	111.88
445.803	121.88
446.024	118.88
446.245	126.88
446.466	117.88
446.687	88.88
446.908	92.88
447.129	96.88
447.35	91.88
447.571	88.88
447.792	89.88
448.013	94.88
448.234	106.88
448.455	82.88
448.675	96.88
448.896	106.88
449.117	91.88
449.338	90.88
449.559	93.88
449.779	109.88
450	85.88
450.221	72.88
450.442	82.88
450.662	86.88
450.883	85.88
451.104	91.88
451.324	100.88
451.545	101.88
451.766	82.88
451.986	82.88
452.207	87.88
452.428	96.88
452.648	104.88
452.869	99.88
453.089	108.88
453.31	104.88
453.53	97.88
453.751	86.88
453.971	97.88
454.192	105.88
454.412	97.88
454.633	86.88
454.853	96.88
455.073	87.88
455.294	83.88
455.514	104.88
455.734	76.88
455.955	104.88
456.175	97.88
456.395	75.88
456.616	90.88
456.836	88.88
457.056	68.88
457.276	76.88
457.497	83.88
457.717	82.88
457.937	93.88
458.157	88.88
458.377	79.88
458.598	105.88
458.818	133.88
459.038	148.88
459.258	105.88
459.478	96.88
459.698	75.88
459.918	88.88
460.138	74.88
460.358	92.88
460.578	90.88
460.798	91.88
461.018	92.88
461.238	89.88
461.458	84.88
461.678	96.88
461.898	83.88
462.118	88.88
462.338	93.88
462.558	78.88
462.777	89.88
462.997	92.88
463.217	90.88
463.437	87.88
463.657	84.88
463.876	97.88
464.096	96.88
464.316	82.88
464.536	102.88
464.755	91.88
464.975	96.88
465.195	143.88
465.414	130.88
465.634	103.88
465.854	85.88
466.073	83.88
466.293	100.88
466.512	84.88
466.732	74.88
466.951	94.88
467.171	91.88
467.391	92.88
467.61	106.88
467.829	110.88
468.049	115.88
468.268	129.88
468.488	107.88
468.707	83.88
468.927	97.88
469.146	82.88
469.365	71.88
469.585	84.88
469.804	81.88
470.023	87.88
470.243	91.88
470.462	113.88
470.681	109.88
470.901	79.88
471.12	83.88
471.339	88.88
471.558	101.88
471.777	85.88
471.997	104.88
472.216	169.88
472.435	268.88
472.654	113.88
472.873	92.88
473.092	84.88
473.311	85.88
473.53	98.88
473.749	103.88
473.968	108.88
474.187	91.88
474.406	83.88
474.625	82.88
474.844	75.88
475.063	83.88
475.282	94.88
475.501	80.88
475.72	102.88
475.939	95.88
476.158	91.88
476.377	70.88
476.596	92.88
476.814	94.88
477.033	83.88
477.252	73.88
477.471	82.88
477.69	94.88
477.908	88.88
478.127	97.88
478.346	82.88
478.564	106.88
478.783	106.88
479.002	89.88
479.22	97.88
479.439	102.88
479.658	96.88
479.876	85.88
480.095	84.88
480.313	107.88
480.532	92.88
480.751	120.88
480.969	170.88
481.188	451.88
481.406	302.88
481.624	114.88
481.843	104.88
482.061	100.88
482.28	82.88
482.498	85.88
482.717	96.88
482.935	87.88
483.153	102.88
483.372	86.88
483.59	94.88
483.808	78.88
484.027	97.88
484.245	89.88
484.463	83.88
484.681	105.88
484.9	76.88
485.118	88.88
485.336	98.88
485.554	106.88
485.772	110.88
485.99	94.88
486.209	96.88
486.427	106.88
486.645	101.88
486.863	99.88
487.081	95.88
487.299	94.88
487.517	95.88
487.735	102.88
487.953	97.88
488.171	103.88
488.389	111.88
488.607	108.88
488.825	90.88
489.043	99.88
489.261	94.88
489.479	84.88
489.696	104.88
489.914	75.88
490.132	89.88
490.35	88.88
490.568	91.88
490.786	79.88
491.003	88.88
491.221	96.88
491.439	87.88
491.657	108.88
491.874	84.88
492.092	94.88
492.31	81.88
492.527	96.88
492.745	73.88
492.963	84.88
493.18	102.88
493.398	84.88
493.615	96.88
493.833	104.88
494.05	97.88
494.268	84.88
494.485	89.88
494.703	91.88
494.92	95.88
495.138	95.88
495.355	98.88
495.573	93.88
495.79	97.88
496.008	95.88
496.225	107.88
496.442	98.88
496.66	92.88
496.877	97.88
497.094	86.88
497.312	92.88
497.529	88.88
497.746	99.88
497.963	94.88
498.181	91.88
498.398	102.88
498.615	101.88
498.832	96.88
499.049	92.88
499.267	96.88
499.484	84.88
499.701	80.88
499.918	88.88
500.135	94.88
500.352	87.88
500.569	93.88
500.786	91.88
501.003	95.88
501.22	91.88
501.437	93.88
501.654	104.88
501.871	97.88
502.088	100.88
502.305	98.88
502.522	98.88
502.739	91.88
502.956	96.88
503.172	106.88
503.389	84.88
503.606	109.88
503.823	92.88
504.04	91.88
504.256	88.88
504.473	97.88
504.69	96.88
504.907	90.88
505.123	84.88
505.34	88.88
505.557	91.88
505.773	104.88
505.99	94.88
506.207	85.88
506.423	86.88
506.64	108.88
506.856	83.88
507.073	97.88
507.289	85.88
507.506	90.88
507.722	96.88
507.939	91.88
508.155	92.88
508.372	95.88
508.588	92.88
508.805	97.88
509.021	93.88
509.238	84.88
509.454	90.88
509.67	85.88
509.887	105.88
510.103	118.88
510.319	183.88
510.536	627.88
510.752	1884.88
510.968	544.88
511.184	136.88
511.401	94.88
511.617	108.88
511.833	84.88
512.049	98.88
512.265	83.88
512.481	96.88
512.698	107.88
512.914	98.88
513.13	100.88
513.346	96.88
513.562	96.88
513.778	97.88
513.994	100.88
514.21	100.88
514.426	115.88
514.642	123.88
514.858	99.88
515.074	157.88
515.29	367.88
