Data from Circ_1983_H10_HRD10591_00020.txt Node
Date: Wed Jan 03 12:26:48 EST 2024
User: Yrep
Spectrometer: HR+D1059
Trigger mode: 1
Integration Time (sec): 1.000000E-1
Scans to average: 1
Electric dark correction enabled: true
Nonlinearity correction enabled: false
Boxcar width: 0
XAxis mode: Wavelengths
Number of Pixels in Spectrum: 2048
>>>>>Begin Spectral Data<<<<<
223.165	-25.5
223.4	-25.5
223.635	-25.5
223.869	-26.5
224.104	-14.5
224.338	-9.5
224.573	-16.5
224.808	-22.5
225.042	-8.5
225.277	-7.5
225.511	-2.5
225.746	12.5
225.98	15.5
226.215	2.5
226.449	18.5
226.683	21.5
226.918	27.5
227.152	35.5
227.387	36.5
227.621	35.5
227.856	54.5
228.09	50.5
228.324	49.5
228.559	59.5
228.793	59.5
229.027	64.5
229.262	67.5
229.496	48.5
229.73	69.5
229.964	70.5
230.199	61.5
230.433	62.5
230.667	93.5
230.901	77.5
231.136	83.5
231.37	84.5
231.604	83.5
231.838	86.5
232.072	73.5
232.306	96.5
232.541	91.5
232.775	83.5
233.009	93.5
233.243	77.5
233.477	75.5
233.711	73.5
233.945	72.5
234.179	86.5
234.413	78.5
234.647	82.5
234.881	89.5
235.115	78.5
235.349	79.5
235.583	82.5
235.817	76.5
236.051	70.5
236.285	75.5
236.519	89.5
236.753	72.5
236.987	87.5
237.221	83.5
237.455	83.5
237.689	95.5
237.922	77.5
238.156	83.5
238.39	94.5
238.624	72.5
238.858	84.5
239.091	76.5
239.325	85.5
239.559	84.5
239.793	72.5
240.027	76.5
240.26	53.5
240.494	87.5
240.728	79.5
240.961	84.5
241.195	94.5
241.429	75.5
241.662	82.5
241.896	93.5
242.13	73.5
242.363	71.5
242.597	80.5
242.83	106.5
243.064	70.5
243.298	84.5
243.531	92.5
243.765	84.5
243.998	84.5
244.232	91.5
244.465	96.5
244.699	85.5
244.932	93.5
245.166	83.5
245.399	78.5
245.633	93.5
245.866	74.5
246.099	74.5
246.333	63.5
246.566	78.5
246.8	80.5
247.033	73.5
247.266	98.5
247.5	86.5
247.733	77.5
247.966	84.5
248.2	90.5
248.433	84.5
248.666	86.5
248.899	82.5
249.133	91.5
249.366	86.5
249.599	95.5
249.832	89.5
250.066	76.5
250.299	76.5
250.532	86.5
250.765	84.5
250.998	79.5
251.231	77.5
251.465	78.5
251.698	79.5
251.931	84.5
252.164	86.5
252.397	68.5
252.63	84.5
252.863	83.5
253.096	83.5
253.329	94.5
253.562	92.5
253.795	89.5
254.028	83.5
254.261	94.5
254.494	72.5
254.727	79.5
254.96	82.5
255.193	89.5
255.426	86.5
255.659	94.5
255.892	83.5
256.124	93.5
256.357	88.5
256.59	82.5
256.823	87.5
257.056	76.5
257.289	93.5
257.521	77.5
257.754	97.5
257.987	90.5
258.22	99.5
258.452	77.5
258.685	98.5
258.918	76.5
259.151	74.5
259.383	91.5
259.616	96.5
259.849	83.5
260.081	83.5
260.314	79.5
260.547	88.5
260.779	79.5
261.012	86.5
261.244	76.5
261.477	89.5
261.71	96.5
261.942	97.5
262.175	110.5
262.407	102.5
262.64	95.5
262.872	88.5
263.105	87.5
263.337	101.5
263.57	89.5
263.802	99.5
264.035	89.5
264.267	90.5
264.499	87.5
264.732	86.5
264.964	84.5
265.197	91.5
265.429	94.5
265.661	84.5
265.894	75.5
266.126	86.5
266.358	88.5
266.591	82.5
266.823	90.5
267.055	88.5
267.287	96.5
267.52	88.5
267.752	92.5
267.984	87.5
268.216	93.5
268.448	79.5
268.681	78.5
268.913	95.5
269.145	81.5
269.377	80.5
269.609	77.5
269.841	76.5
270.073	82.5
270.306	92.5
270.538	83.5
270.77	103.5
271.002	72.5
271.234	94.5
271.466	86.5
271.698	77.5
271.93	94.5
272.162	90.5
272.394	102.5
272.626	103.5
272.858	86.5
273.09	82.5
273.322	89.5
273.553	94.5
273.785	91.5
274.017	94.5
274.249	87.5
274.481	97.5
274.713	86.5
274.945	102.5
275.176	76.5
275.408	94.5
275.64	88.5
275.872	84.5
276.104	85.5
276.335	105.5
276.567	93.5
276.799	101.5
277.031	91.5
277.262	114.5
277.494	82.5
277.726	98.5
277.957	90.5
278.189	90.5
278.421	86.5
278.652	86.5
278.884	95.5
279.115	85.5
279.347	92.5
279.579	91.5
279.81	84.5
280.042	93.5
280.273	92.5
280.505	90.5
280.736	75.5
280.968	90.5
281.199	105.5
281.431	79.5
281.662	83.5
281.894	99.5
282.125	92.5
282.356	131.5
282.588	122.5
282.819	102.5
283.051	84.5
283.282	107.5
283.513	92.5
283.745	88.5
283.976	91.5
284.207	80.5
284.439	106.5
284.67	94.5
284.901	88.5
285.132	87.5
285.364	82.5
285.595	88.5
285.826	71.5
286.057	82.5
286.288	94.5
286.52	93.5
286.751	95.5
286.982	90.5
287.213	91.5
287.444	93.5
287.675	102.5
287.906	95.5
288.138	87.5
288.369	92.5
288.6	94.5
288.831	85.5
289.062	94.5
289.293	93.5
289.524	103.5
289.755	92.5
289.986	89.5
290.217	103.5
290.448	86.5
290.679	88.5
290.91	102.5
291.141	86.5
291.371	94.5
291.602	86.5
291.833	88.5
292.064	101.5
292.295	85.5
292.526	72.5
292.757	88.5
292.987	87.5
293.218	87.5
293.449	85.5
293.68	96.5
293.91	101.5
294.141	95.5
294.372	92.5
294.603	100.5
294.833	88.5
295.064	99.5
295.295	88.5
295.525	89.5
295.756	100.5
295.987	111.5
296.217	120.5
296.448	124.5
296.679	100.5
296.909	98.5
297.14	115.5
297.37	80.5
297.601	75.5
297.831	95.5
298.062	81.5
298.292	91.5
298.523	94.5
298.753	85.5
298.984	93.5
299.214	86.5
299.445	91.5
299.675	84.5
299.905	87.5
300.136	73.5
300.366	90.5
300.597	75.5
300.827	86.5
301.057	102.5
301.288	100.5
301.518	100.5
301.748	88.5
301.979	103.5
302.209	96.5
302.439	84.5
302.669	93.5
302.9	100.5
303.13	86.5
303.36	90.5
303.59	83.5
303.82	94.5
304.051	108.5
304.281	88.5
304.511	111.5
304.741	87.5
304.971	94.5
305.201	88.5
305.431	104.5
305.661	97.5
305.891	87.5
306.121	102.5
306.352	105.5
306.582	100.5
306.812	109.5
307.042	117.5
307.272	94.5
307.502	102.5
307.731	99.5
307.961	92.5
308.191	90.5
308.421	97.5
308.651	116.5
308.881	103.5
309.111	80.5
309.341	81.5
309.571	110.5
309.8	95.5
310.03	101.5
310.26	102.5
310.49	101.5
310.72	87.5
310.949	115.5
311.179	102.5
311.409	86.5
311.639	106.5
311.868	105.5
312.098	89.5
312.328	103.5
312.557	102.5
312.787	90.5
313.017	95.5
313.246	105.5
313.476	84.5
313.706	91.5
313.935	91.5
314.165	90.5
314.394	96.5
314.624	103.5
314.853	96.5
315.083	99.5
315.312	95.5
315.542	96.5
315.771	103.5
316.001	87.5
316.23	87.5
316.46	83.5
316.689	88.5
316.919	79.5
317.148	98.5
317.377	89.5
317.607	103.5
317.836	98.5
318.065	95.5
318.295	93.5
318.524	93.5
318.753	104.5
318.983	103.5
319.212	98.5
319.441	95.5
319.67	104.5
319.9	98.5
320.129	103.5
320.358	100.5
320.587	99.5
320.816	91.5
321.046	94.5
321.275	98.5
321.504	94.5
321.733	78.5
321.962	108.5
322.191	109.5
322.42	100.5
322.649	101.5
322.878	100.5
323.108	111.5
323.337	121.5
323.566	114.5
323.795	130.5
324.024	188.5
324.253	324.5
324.482	649.5
324.71	1288.5
324.939	1737.5
325.168	629.5
325.397	208.5
325.626	143.5
325.855	122.5
326.084	114.5
326.313	127.5
326.542	134.5
326.77	211.5
326.999	386.5
327.228	730.5
327.457	1316.5
327.686	1045.5
327.914	294.5
328.143	190.5
328.372	150.5
328.6	124.5
328.829	104.5
329.058	114.5
329.287	114.5
329.515	109.5
329.744	119.5
329.972	119.5
330.201	143.5
330.43	137.5
330.658	125.5
330.887	106.5
331.115	113.5
331.344	106.5
331.572	98.5
331.801	109.5
332.03	89.5
332.258	108.5
332.486	94.5
332.715	94.5
332.943	97.5
333.172	106.5
333.4	101.5
333.629	121.5
333.857	121.5
334.085	123.5
334.314	146.5
334.542	155.5
334.771	159.5
334.999	98.5
335.227	107.5
335.455	94.5
335.684	82.5
335.912	94.5
336.14	93.5
336.369	101.5
336.597	103.5
336.825	112.5
337.053	89.5
337.281	108.5
337.51	86.5
337.738	100.5
337.966	91.5
338.194	106.5
338.422	102.5
338.65	107.5
338.878	109.5
339.106	93.5
339.334	93.5
339.562	87.5
339.79	70.5
340.018	95.5
340.246	95.5
340.474	98.5
340.702	94.5
340.93	100.5
341.158	79.5
341.386	112.5
341.614	100.5
341.842	97.5
342.07	86.5
342.298	94.5
342.526	101.5
342.754	101.5
342.981	90.5
343.209	76.5
343.437	104.5
343.665	98.5
343.893	80.5
344.12	86.5
344.348	94.5
344.576	95.5
344.804	96.5
345.031	101.5
345.259	103.5
345.487	96.5
345.714	91.5
345.942	95.5
346.17	85.5
346.397	97.5
346.625	93.5
346.853	87.5
347.08	90.5
347.308	90.5
347.535	89.5
347.763	106.5
347.99	112.5
348.218	108.5
348.445	93.5
348.673	96.5
348.9	102.5
349.128	91.5
349.355	87.5
349.583	93.5
349.81	100.5
350.037	101.5
350.265	95.5
350.492	91.5
350.72	95.5
350.947	101.5
351.174	95.5
351.402	110.5
351.629	107.5
351.856	92.5
352.083	100.5
352.311	103.5
352.538	106.5
352.765	105.5
352.992	122.5
353.22	113.5
353.447	103.5
353.674	107.5
353.901	93.5
354.128	94.5
354.355	94.5
354.583	94.5
354.81	112.5
355.037	101.5
355.264	96.5
355.491	102.5
355.718	103.5
355.945	99.5
356.172	94.5
356.399	86.5
356.626	100.5
356.853	99.5
357.08	89.5
357.307	96.5
357.534	106.5
357.761	85.5
357.988	114.5
358.215	103.5
358.441	99.5
358.668	100.5
358.895	98.5
359.122	86.5
359.349	99.5
359.576	88.5
359.802	108.5
360.029	88.5
360.256	101.5
360.483	90.5
360.709	105.5
360.936	110.5
361.163	99.5
361.39	97.5
361.616	96.5
361.843	72.5
362.07	87.5
362.296	90.5
362.523	101.5
362.749	95.5
362.976	91.5
363.203	92.5
363.429	82.5
363.656	103.5
363.882	85.5
364.109	89.5
364.335	94.5
364.562	88.5
364.788	89.5
365.015	96.5
365.241	107.5
365.468	93.5
365.694	104.5
365.92	85.5
366.147	90.5
366.373	92.5
366.599	100.5
366.826	100.5
367.052	108.5
367.278	84.5
367.505	99.5
367.731	100.5
367.957	87.5
368.184	94.5
368.41	96.5
368.636	96.5
368.862	105.5
369.089	118.5
369.315	102.5
369.541	93.5
369.767	91.5
369.993	102.5
370.219	104.5
370.445	95.5
370.672	83.5
370.898	91.5
371.124	99.5
371.35	95.5
371.576	78.5
371.802	99.5
372.028	80.5
372.254	92.5
372.48	91.5
372.706	86.5
372.932	86.5
373.158	78.5
373.384	103.5
373.61	91.5
373.835	92.5
374.061	90.5
374.287	101.5
374.513	95.5
374.739	97.5
374.965	93.5
375.191	101.5
375.416	96.5
375.642	88.5
375.868	72.5
376.094	99.5
376.319	99.5
376.545	100.5
376.771	82.5
376.997	87.5
377.222	84.5
377.448	92.5
377.674	95.5
377.899	97.5
378.125	81.5
378.35	96.5
378.576	93.5
378.802	108.5
379.027	110.5
379.253	103.5
379.478	102.5
379.704	110.5
379.929	102.5
380.155	101.5
380.38	102.5
380.606	98.5
380.831	108.5
381.057	109.5
381.282	111.5
381.507	98.5
381.733	92.5
381.958	102.5
382.184	102.5
382.409	98.5
382.634	121.5
382.86	118.5
383.085	108.5
383.31	121.5
383.535	107.5
383.761	99.5
383.986	98.5
384.211	107.5
384.436	104.5
384.662	116.5
384.887	102.5
385.112	126.5
385.337	122.5
385.562	112.5
385.787	117.5
386.013	132.5
386.238	133.5
386.463	113.5
386.688	128.5
386.913	120.5
387.138	134.5
387.363	125.5
387.588	109.5
387.813	118.5
388.038	120.5
388.263	119.5
388.488	131.5
388.713	110.5
388.938	115.5
389.163	92.5
389.387	97.5
389.612	100.5
389.837	85.5
390.062	96.5
390.287	103.5
390.512	83.5
390.736	104.5
390.961	91.5
391.186	85.5
391.411	108.5
391.636	91.5
391.86	83.5
392.085	95.5
392.31	84.5
392.534	86.5
392.759	98.5
392.984	100.5
393.208	120.5
393.433	136.5
393.658	126.5
393.882	98.5
394.107	97.5
394.331	73.5
394.556	72.5
394.78	84.5
395.005	84.5
395.229	93.5
395.454	88.5
395.678	75.5
395.903	100.5
396.127	102.5
396.352	94.5
396.576	103.5
396.801	106.5
397.025	109.5
397.249	92.5
397.474	90.5
397.698	88.5
397.922	85.5
398.147	101.5
398.371	87.5
398.595	96.5
398.82	88.5
399.044	92.5
399.268	99.5
399.492	83.5
399.717	84.5
399.941	90.5
400.165	83.5
400.389	98.5
400.613	90.5
400.837	104.5
401.062	96.5
401.286	91.5
401.51	84.5
401.734	95.5
401.958	108.5
402.182	122.5
402.406	143.5
402.63	108.5
402.854	99.5
403.078	74.5
403.302	91.5
403.526	90.5
403.75	76.5
403.974	87.5
404.198	87.5
404.422	78.5
404.645	90.5
404.869	98.5
405.093	97.5
405.317	108.5
405.541	94.5
405.765	109.5
405.988	108.5
406.212	143.5
406.436	187.5
406.66	123.5
406.883	95.5
407.107	95.5
407.331	93.5
407.555	99.5
407.778	96.5
408.002	105.5
408.226	96.5
408.449	102.5
408.673	95.5
408.896	112.5
409.12	98.5
409.344	98.5
409.567	101.5
409.791	101.5
410.014	105.5
410.238	101.5
410.461	101.5
410.685	84.5
410.908	102.5
411.132	113.5
411.355	90.5
411.578	88.5
411.802	77.5
412.025	89.5
412.249	86.5
412.472	101.5
412.695	97.5
412.919	94.5
413.142	108.5
413.365	89.5
413.589	80.5
413.812	87.5
414.035	104.5
414.258	97.5
414.482	91.5
414.705	85.5
414.928	94.5
415.151	102.5
415.374	96.5
415.597	92.5
415.821	84.5
416.044	93.5
416.267	89.5
416.49	82.5
416.713	92.5
416.936	82.5
417.159	90.5
417.382	98.5
417.605	82.5
417.828	96.5
418.051	89.5
418.274	100.5
418.497	112.5
418.72	89.5
418.943	98.5
419.166	93.5
419.389	104.5
419.611	91.5
419.834	96.5
420.057	87.5
420.28	76.5
420.503	88.5
420.726	82.5
420.948	86.5
421.171	93.5
421.394	103.5
421.617	79.5
421.839	84.5
422.062	91.5
422.285	94.5
422.507	92.5
422.73	108.5
422.953	95.5
423.175	97.5
423.398	89.5
423.621	86.5
423.843	106.5
424.066	88.5
424.288	95.5
424.511	101.5
424.733	109.5
424.956	90.5
425.178	76.5
425.401	89.5
425.623	100.5
425.846	93.5
426.068	94.5
426.291	101.5
426.513	89.5
426.735	102.5
426.958	75.5
427.18	91.5
427.402	122.5
427.625	115.5
427.847	140.5
428.069	122.5
428.292	86.5
428.514	86.5
428.736	99.5
428.958	96.5
429.181	101.5
429.403	91.5
429.625	94.5
429.847	100.5
430.069	110.5
430.292	92.5
430.514	84.5
430.736	86.5
430.958	76.5
431.18	87.5
431.402	96.5
431.624	76.5
431.846	94.5
432.068	91.5
432.29	106.5
432.512	97.5
432.734	92.5
432.956	91.5
433.178	100.5
433.4	94.5
433.622	110.5
433.844	103.5
434.066	101.5
434.287	98.5
434.509	92.5
434.731	82.5
434.953	90.5
435.175	105.5
435.397	96.5
435.618	94.5
435.84	88.5
436.062	119.5
436.284	115.5
436.505	105.5
436.727	99.5
436.949	101.5
437.17	75.5
437.392	79.5
437.614	95.5
437.835	92.5
438.057	104.5
438.278	104.5
438.5	94.5
438.721	108.5
438.943	88.5
439.165	90.5
439.386	86.5
439.608	97.5
439.829	110.5
440.05	112.5
440.272	128.5
440.493	84.5
440.715	85.5
440.936	95.5
441.158	100.5
441.379	98.5
441.6	96.5
441.822	78.5
442.043	93.5
442.264	91.5
442.486	88.5
442.707	86.5
442.928	108.5
443.149	119.5
443.371	129.5
443.592	98.5
443.813	107.5
444.034	102.5
444.255	92.5
444.476	82.5
444.698	83.5
444.919	79.5
445.14	128.5
445.361	110.5
445.582	112.5
445.803	131.5
446.024	118.5
446.245	138.5
446.466	114.5
446.687	87.5
446.908	86.5
447.129	94.5
447.35	101.5
447.571	91.5
447.792	88.5
448.013	98.5
448.234	101.5
448.455	99.5
448.675	102.5
448.896	102.5
449.117	94.5
449.338	90.5
449.559	116.5
449.779	115.5
450	98.5
450.221	87.5
450.442	102.5
450.662	85.5
450.883	111.5
451.104	114.5
451.324	84.5
451.545	116.5
451.766	88.5
451.986	91.5
452.207	84.5
452.428	97.5
452.648	100.5
452.869	102.5
453.089	92.5
453.31	101.5
453.53	91.5
453.751	90.5
453.971	105.5
454.192	91.5
454.412	88.5
454.633	88.5
454.853	84.5
455.073	84.5
455.294	93.5
455.514	108.5
455.734	86.5
455.955	85.5
456.175	87.5
456.395	75.5
456.616	91.5
456.836	88.5
457.056	91.5
457.276	74.5
457.497	78.5
457.717	89.5
457.937	74.5
458.157	81.5
458.377	98.5
458.598	103.5
458.818	126.5
459.038	147.5
459.258	110.5
459.478	92.5
459.698	82.5
459.918	90.5
460.138	79.5
460.358	75.5
460.578	86.5
460.798	107.5
461.018	85.5
461.238	86.5
461.458	74.5
461.678	76.5
461.898	84.5
462.118	82.5
462.338	89.5
462.558	92.5
462.777	95.5
462.997	98.5
463.217	86.5
463.437	80.5
463.657	102.5
463.876	87.5
464.096	94.5
464.316	93.5
464.536	95.5
464.755	98.5
464.975	99.5
465.195	140.5
465.414	126.5
465.634	108.5
465.854	87.5
466.073	84.5
466.293	100.5
466.512	81.5
466.732	95.5
466.951	97.5
467.171	101.5
467.391	85.5
467.61	101.5
467.829	112.5
468.049	103.5
468.268	121.5
468.488	100.5
468.707	86.5
468.927	80.5
469.146	92.5
469.365	76.5
469.585	82.5
469.804	107.5
470.023	89.5
470.243	98.5
470.462	101.5
470.681	103.5
470.901	93.5
471.12	80.5
471.339	86.5
471.558	99.5
471.777	91.5
471.997	110.5
472.216	134.5
472.435	183.5
472.654	120.5
472.873	103.5
473.092	91.5
473.311	85.5
473.53	102.5
473.749	90.5
473.968	95.5
474.187	103.5
474.406	84.5
474.625	91.5
474.844	107.5
475.063	96.5
475.282	86.5
475.501	86.5
475.72	105.5
475.939	80.5
476.158	90.5
476.377	107.5
476.596	96.5
476.814	111.5
477.033	103.5
477.252	94.5
477.471	92.5
477.69	97.5
477.908	95.5
478.127	97.5
478.346	97.5
478.564	101.5
478.783	70.5
479.002	101.5
479.22	99.5
479.439	109.5
479.658	90.5
479.876	93.5
480.095	89.5
480.313	94.5
480.532	76.5
480.751	102.5
480.969	133.5
481.188	291.5
481.406	208.5
481.624	112.5
481.843	90.5
482.061	96.5
482.28	88.5
482.498	87.5
482.717	98.5
482.935	99.5
483.153	79.5
483.372	90.5
483.59	82.5
483.808	85.5
484.027	94.5
484.245	106.5
484.463	92.5
484.681	94.5
484.9	86.5
485.118	93.5
485.336	98.5
485.554	112.5
485.772	96.5
485.99	121.5
486.209	110.5
486.427	112.5
486.645	119.5
486.863	117.5
487.081	103.5
487.299	101.5
487.517	95.5
487.735	116.5
487.953	98.5
488.171	87.5
488.389	98.5
488.607	98.5
488.825	107.5
489.043	93.5
489.261	104.5
489.479	82.5
489.696	87.5
489.914	99.5
490.132	93.5
490.35	86.5
490.568	88.5
490.786	93.5
491.003	103.5
491.221	91.5
491.439	93.5
491.657	98.5
491.874	87.5
492.092	98.5
492.31	85.5
492.527	92.5
492.745	99.5
492.963	96.5
493.18	93.5
493.398	99.5
493.615	99.5
493.833	96.5
494.05	95.5
494.268	96.5
494.485	96.5
494.703	95.5
494.92	87.5
495.138	88.5
495.355	93.5
495.573	89.5
495.79	77.5
496.008	88.5
496.225	101.5
496.442	84.5
496.66	92.5
496.877	109.5
497.094	87.5
497.312	88.5
497.529	75.5
497.746	86.5
497.963	99.5
498.181	107.5
498.398	91.5
498.615	111.5
498.832	100.5
499.049	90.5
499.267	97.5
499.484	107.5
499.701	90.5
499.918	96.5
500.135	91.5
500.352	87.5
500.569	91.5
500.786	101.5
501.003	106.5
501.22	107.5
501.437	92.5
501.654	87.5
501.871	116.5
502.088	101.5
502.305	110.5
502.522	103.5
502.739	88.5
502.956	102.5
503.172	89.5
503.389	103.5
503.606	96.5
503.823	86.5
504.04	102.5
504.256	93.5
504.473	87.5
504.69	91.5
504.907	103.5
505.123	100.5
505.34	103.5
505.557	93.5
505.773	82.5
505.99	89.5
506.207	89.5
506.423	103.5
506.64	91.5
506.856	97.5
507.073	99.5
507.289	111.5
507.506	96.5
507.722	102.5
507.939	108.5
508.155	99.5
508.372	98.5
508.588	108.5
508.805	91.5
509.021	94.5
509.238	105.5
509.454	102.5
509.67	102.5
509.887	104.5
510.103	131.5
510.319	186.5
510.536	624.5
510.752	1797.5
510.968	543.5
511.184	151.5
511.401	105.5
511.617	111.5
511.833	94.5
512.049	90.5
512.265	91.5
512.481	102.5
512.698	93.5
512.914	83.5
513.13	96.5
513.346	97.5
513.562	98.5
513.778	107.5
513.994	92.5
514.21	105.5
514.426	113.5
514.642	120.5
514.858	117.5
515.074	146.5
515.29	346.5
515.506	1059.5
515.721	404.5
515.937	136.5
516.153	112.5
516.369	107.5
516.585	90.5
516.801	112.5
517.016	80.5
517.232	95.5
517.448	90.5
517.664	91.5
517.879	102.5
518.095	102.5
518.311	88.5
518.527	93.5
518.742	93.5
518.958	108.5
519.173	95.5
519.389	91.5
519.605	110.5
519.82	98.5
520.036	109.5
520.251	103.5
520.467	111.5
520.682	112.5
520.898	122.5
521.113	114.5
521.329	140.5
521.544	180.5
521.76	427.5
521.975	1743.5
522.19	1048.5
522.406	242.5
522.621	110.5
522.836	103.5
523.052	98.5
523.267	101.5
523.482	109.5
523.698	98.5
523.913	111.5
524.128	95.5
524.343	87.5
524.559	85.5
524.774	108.5
524.989	91.5
525.204	94.5
525.419	99.5
525.634	91.5
525.849	96.5
526.064	105.5
526.28	96.5
526.495	88.5
526.71	83.5
526.925	99.5
527.14	94.5
527.355	91.5
527.57	103.5
527.785	97.5
527.999	89.5
528.214	97.5
528.429	91.5
528.644	90.5
528.859	94.5
529.074	94.5
529.289	108.5
529.503	137.5
529.718	108.5
529.933	107.5
530.148	91.5
530.363	84.5
530.577	84.5
530.792	94.5
531.007	76.5
531.221	96.5
531.436	104.5
531.651	84.5
531.865	86.5
532.08	83.5
532.295	94.5
532.509	113.5
532.724	96.5
532.938	92.5
533.153	117.5
533.367	95.5
