Data from Circ_1983_H10_HRD10591_00024.txt Node
Date: Wed Jan 03 12:26:49 EST 2024
User: Yrep
Spectrometer: HR+D1059
Trigger mode: 1
Integration Time (sec): 1.000000E-1
Scans to average: 1
Electric dark correction enabled: true
Nonlinearity correction enabled: false
Boxcar width: 0
XAxis mode: Wavelengths
Number of Pixels in Spectrum: 2048
>>>>>Begin Spectral Data<<<<<
223.165	-20.56
223.4	-20.56
223.635	-20.56
223.869	-15.56
224.104	-4.56
224.338	-12.56
224.573	-11.56
224.808	-4.56
225.042	-0.56
225.277	-12.56
225.511	-14.56
225.746	-3.56
225.98	0.44
226.215	15.44
226.449	11.44
226.683	23.44
226.918	25.44
227.152	24.44
227.387	24.44
227.621	34.44
227.856	46.44
228.09	37.44
228.324	51.44
228.559	51.44
228.793	44.44
229.027	61.44
229.262	55.44
229.496	54.44
229.73	74.44
229.964	77.44
230.199	83.44
230.433	82.44
230.667	77.44
230.901	69.44
231.136	62.44
231.37	67.44
231.604	60.44
231.838	93.44
232.072	84.44
232.306	69.44
232.541	79.44
232.775	81.44
233.009	72.44
233.243	87.44
233.477	72.44
233.711	45.44
233.945	74.44
234.179	71.44
234.413	68.44
234.647	84.44
234.881	84.44
235.115	79.44
235.349	73.44
235.583	87.44
235.817	84.44
236.051	81.44
236.285	70.44
236.519	88.44
236.753	86.44
236.987	80.44
237.221	70.44
237.455	79.44
237.689	70.44
237.922	71.44
238.156	88.44
238.39	85.44
238.624	82.44
238.858	63.44
239.091	72.44
239.325	73.44
239.559	96.44
239.793	65.44
240.027	69.44
240.26	65.44
240.494	80.44
240.728	86.44
240.961	76.44
241.195	99.44
241.429	77.44
241.662	79.44
241.896	66.44
242.13	79.44
242.363	67.44
242.597	91.44
242.83	79.44
243.064	83.44
243.298	74.44
243.531	63.44
243.765	73.44
243.998	77.44
244.232	76.44
244.465	87.44
244.699	81.44
244.932	83.44
245.166	76.44
245.399	74.44
245.633	81.44
245.866	75.44
246.099	79.44
246.333	87.44
246.566	60.44
246.8	92.44
247.033	79.44
247.266	82.44
247.5	77.44
247.733	81.44
247.966	72.44
248.2	87.44
248.433	83.44
248.666	72.44
248.899	85.44
249.133	79.44
249.366	82.44
249.599	90.44
249.832	84.44
250.066	68.44
250.299	74.44
250.532	91.44
250.765	73.44
250.998	83.44
251.231	83.44
251.465	81.44
251.698	89.44
251.931	90.44
252.164	63.44
252.397	87.44
252.63	69.44
252.863	81.44
253.096	84.44
253.329	83.44
253.562	62.44
253.795	76.44
254.028	88.44
254.261	83.44
254.494	76.44
254.727	80.44
254.96	67.44
255.193	71.44
255.426	94.44
255.659	72.44
255.892	103.44
256.124	82.44
256.357	67.44
256.59	72.44
256.823	81.44
257.056	69.44
257.289	83.44
257.521	83.44
257.754	82.44
257.987	86.44
258.22	80.44
258.452	72.44
258.685	83.44
258.918	79.44
259.151	79.44
259.383	73.44
259.616	86.44
259.849	84.44
260.081	88.44
260.314	80.44
260.547	88.44
260.779	82.44
261.012	82.44
261.244	81.44
261.477	95.44
261.71	79.44
261.942	96.44
262.175	91.44
262.407	83.44
262.64	90.44
262.872	90.44
263.105	87.44
263.337	84.44
263.57	85.44
263.802	85.44
264.035	80.44
264.267	80.44
264.499	78.44
264.732	79.44
264.964	89.44
265.197	92.44
265.429	99.44
265.661	87.44
265.894	89.44
266.126	91.44
266.358	82.44
266.591	85.44
266.823	79.44
267.055	69.44
267.287	77.44
267.52	88.44
267.752	83.44
267.984	78.44
268.216	77.44
268.448	68.44
268.681	71.44
268.913	96.44
269.145	81.44
269.377	87.44
269.609	71.44
269.841	79.44
270.073	93.44
270.306	87.44
270.538	72.44
270.77	76.44
271.002	91.44
271.234	91.44
271.466	88.44
271.698	76.44
271.93	83.44
272.162	105.44
272.394	85.44
272.626	79.44
272.858	83.44
273.09	76.44
273.322	97.44
273.553	81.44
273.785	81.44
274.017	90.44
274.249	98.44
274.481	91.44
274.713	75.44
274.945	87.44
275.176	84.44
275.408	79.44
275.64	81.44
275.872	92.44
276.104	81.44
276.335	82.44
276.567	80.44
276.799	92.44
277.031	97.44
277.262	94.44
277.494	80.44
277.726	89.44
277.957	87.44
278.189	73.44
278.421	93.44
278.652	91.44
278.884	96.44
279.115	81.44
279.347	66.44
279.579	101.44
279.81	91.44
280.042	79.44
280.273	85.44
280.505	89.44
280.736	93.44
280.968	84.44
281.199	91.44
281.431	77.44
281.662	83.44
281.894	99.44
282.125	92.44
282.356	106.44
282.588	112.44
282.819	128.44
283.051	96.44
283.282	87.44
283.513	103.44
283.745	94.44
283.976	98.44
284.207	103.44
284.439	90.44
284.67	83.44
284.901	93.44
285.132	92.44
285.364	94.44
285.595	96.44
285.826	86.44
286.057	85.44
286.288	89.44
286.52	79.44
286.751	88.44
286.982	87.44
287.213	81.44
287.444	83.44
287.675	97.44
287.906	97.44
288.138	95.44
288.369	92.44
288.6	85.44
288.831	92.44
289.062	96.44
289.293	101.44
289.524	82.44
289.755	89.44
289.986	93.44
290.217	84.44
290.448	91.44
290.679	95.44
290.91	94.44
291.141	89.44
291.371	85.44
291.602	82.44
291.833	77.44
292.064	87.44
292.295	82.44
292.526	88.44
292.757	84.44
292.987	82.44
293.218	90.44
293.449	86.44
293.68	88.44
293.91	91.44
294.141	90.44
294.372	96.44
294.603	92.44
294.833	93.44
295.064	96.44
295.295	99.44
295.525	86.44
295.756	85.44
295.987	99.44
296.217	121.44
296.448	108.44
296.679	101.44
296.909	83.44
297.14	86.44
297.37	89.44
297.601	92.44
297.831	95.44
298.062	79.44
298.292	81.44
298.523	79.44
298.753	88.44
298.984	89.44
299.214	89.44
299.445	90.44
299.675	104.44
299.905	101.44
300.136	97.44
300.366	73.44
300.597	96.44
300.827	79.44
301.057	91.44
301.288	89.44
301.518	88.44
301.748	105.44
301.979	114.44
302.209	91.44
302.439	79.44
302.669	88.44
302.9	83.44
303.13	97.44
303.36	95.44
303.59	82.44
303.82	103.44
304.051	98.44
304.281	94.44
304.511	95.44
304.741	82.44
304.971	80.44
305.201	86.44
305.431	89.44
305.661	88.44
305.891	94.44
306.121	94.44
306.352	96.44
306.582	110.44
306.812	82.44
307.042	88.44
307.272	97.44
307.502	99.44
307.731	104.44
307.961	90.44
308.191	87.44
308.421	89.44
308.651	100.44
308.881	97.44
309.111	89.44
309.341	99.44
309.571	99.44
309.8	101.44
310.03	103.44
310.26	80.44
310.49	90.44
310.72	92.44
310.949	97.44
311.179	83.44
311.409	99.44
311.639	101.44
311.868	90.44
312.098	89.44
312.328	84.44
312.557	109.44
312.787	105.44
313.017	101.44
313.246	98.44
313.476	95.44
313.706	91.44
313.935	93.44
314.165	108.44
314.394	105.44
314.624	107.44
314.853	93.44
315.083	89.44
315.312	107.44
315.542	95.44
315.771	87.44
316.001	80.44
316.23	101.44
316.46	97.44
316.689	90.44
316.919	90.44
317.148	89.44
317.377	79.44
317.607	94.44
317.836	97.44
318.065	104.44
318.295	85.44
318.524	93.44
318.753	89.44
318.983	95.44
319.212	106.44
319.441	94.44
319.67	90.44
319.9	88.44
320.129	89.44
320.358	85.44
320.587	90.44
320.816	89.44
321.046	97.44
321.275	104.44
321.504	87.44
321.733	88.44
321.962	98.44
322.191	104.44
322.42	94.44
322.649	107.44
322.878	100.44
323.108	119.44
323.337	119.44
323.566	127.44
323.795	130.44
324.024	170.44
324.253	309.44
324.482	675.44
324.71	1333.44
324.939	1719.44
325.168	632.44
325.397	207.44
325.626	115.44
325.855	116.44
326.084	133.44
326.313	126.44
326.542	133.44
326.77	198.44
326.999	375.44
327.228	754.44
327.457	1365.44
327.686	1043.44
327.914	303.44
328.143	177.44
328.372	158.44
328.6	124.44
328.829	95.44
329.058	118.44
329.287	109.44
329.515	98.44
329.744	94.44
329.972	107.44
330.201	134.44
330.43	161.44
330.658	127.44
330.887	129.44
331.115	106.44
331.344	107.44
331.572	90.44
331.801	98.44
332.03	105.44
332.258	88.44
332.486	95.44
332.715	97.44
332.943	100.44
333.172	108.44
333.4	97.44
333.629	103.44
333.857	108.44
334.085	106.44
334.314	136.44
334.542	177.44
334.771	169.44
334.999	104.44
335.227	100.44
335.455	100.44
335.684	89.44
335.912	103.44
336.14	103.44
336.369	102.44
336.597	93.44
336.825	93.44
337.053	96.44
337.281	90.44
337.51	101.44
337.738	95.44
337.966	112.44
338.194	93.44
338.422	101.44
338.65	90.44
338.878	91.44
339.106	98.44
339.334	109.44
339.562	96.44
339.79	99.44
340.018	81.44
340.246	83.44
340.474	94.44
340.702	87.44
340.93	99.44
341.158	92.44
341.386	93.44
341.614	96.44
341.842	81.44
342.07	79.44
342.298	90.44
342.526	85.44
342.754	69.44
342.981	96.44
343.209	103.44
343.437	100.44
343.665	93.44
343.893	98.44
344.12	101.44
344.348	91.44
344.576	100.44
344.804	94.44
345.031	99.44
345.259	99.44
345.487	105.44
345.714	85.44
345.942	77.44
346.17	99.44
346.397	118.44
346.625	96.44
346.853	114.44
347.08	100.44
347.308	95.44
347.535	104.44
347.763	91.44
347.99	105.44
348.218	97.44
348.445	100.44
348.673	99.44
348.9	95.44
349.128	107.44
349.355	99.44
349.583	102.44
349.81	88.44
350.037	97.44
350.265	99.44
350.492	84.44
350.72	87.44
350.947	102.44
351.174	99.44
351.402	99.44
351.629	95.44
351.856	81.44
352.083	92.44
352.311	86.44
352.538	97.44
352.765	96.44
352.992	121.44
353.22	131.44
353.447	91.44
353.674	101.44
353.901	100.44
354.128	91.44
354.355	92.44
354.583	101.44
354.81	98.44
355.037	99.44
355.264	95.44
355.491	93.44
355.718	87.44
355.945	103.44
356.172	92.44
356.399	96.44
356.626	100.44
356.853	80.44
357.08	95.44
357.307	97.44
357.534	100.44
357.761	92.44
357.988	98.44
358.215	96.44
358.441	102.44
358.668	104.44
358.895	83.44
359.122	95.44
359.349	97.44
359.576	72.44
359.802	76.44
360.029	85.44
360.256	97.44
360.483	99.44
360.709	79.44
360.936	104.44
361.163	101.44
361.39	92.44
361.616	96.44
361.843	93.44
362.07	99.44
362.296	88.44
362.523	97.44
362.749	85.44
362.976	79.44
363.203	97.44
363.429	80.44
363.656	71.44
363.882	89.44
364.109	97.44
364.335	91.44
364.562	92.44
364.788	95.44
365.015	103.44
365.241	99.44
365.468	113.44
365.694	96.44
365.92	91.44
366.147	81.44
366.373	89.44
366.599	84.44
366.826	89.44
367.052	87.44
367.278	101.44
367.505	98.44
367.731	82.44
367.957	84.44
368.184	83.44
368.41	88.44
368.636	106.44
368.862	119.44
369.089	97.44
369.315	94.44
369.541	87.44
369.767	99.44
369.993	92.44
370.219	83.44
370.445	87.44
370.672	90.44
370.898	99.44
371.124	86.44
371.35	89.44
371.576	84.44
371.802	71.44
372.028	88.44
372.254	87.44
372.48	85.44
372.706	79.44
372.932	79.44
373.158	92.44
373.384	77.44
373.61	97.44
373.835	95.44
374.061	87.44
374.287	90.44
374.513	79.44
374.739	82.44
374.965	87.44
375.191	91.44
375.416	89.44
375.642	95.44
375.868	91.44
376.094	100.44
376.319	93.44
376.545	82.44
376.771	91.44
376.997	94.44
377.222	110.44
377.448	90.44
377.674	92.44
377.899	95.44
378.125	93.44
378.35	96.44
378.576	103.44
378.802	85.44
379.027	103.44
379.253	99.44
379.478	89.44
379.704	95.44
379.929	87.44
380.155	95.44
380.38	100.44
380.606	100.44
380.831	104.44
381.057	103.44
381.282	103.44
381.507	95.44
381.733	100.44
381.958	95.44
382.184	101.44
382.409	102.44
382.634	105.44
382.86	89.44
383.085	104.44
383.31	100.44
383.535	100.44
383.761	107.44
383.986	92.44
384.211	99.44
384.436	112.44
384.662	100.44
384.887	118.44
385.112	111.44
385.337	117.44
385.562	104.44
385.787	116.44
386.013	118.44
386.238	120.44
386.463	115.44
386.688	128.44
386.913	106.44
387.138	116.44
387.363	108.44
387.588	99.44
387.813	123.44
388.038	120.44
388.263	111.44
388.488	125.44
388.713	104.44
388.938	92.44
389.163	86.44
389.387	100.44
389.612	94.44
389.837	93.44
390.062	89.44
390.287	103.44
390.512	105.44
390.736	103.44
390.961	89.44
391.186	98.44
391.411	98.44
391.636	94.44
391.86	91.44
392.085	95.44
392.31	84.44
392.534	101.44
392.759	77.44
392.984	97.44
393.208	113.44
393.433	144.44
393.658	120.44
393.882	87.44
394.107	79.44
394.331	105.44
394.556	98.44
394.78	97.44
395.005	82.44
395.229	84.44
395.454	84.44
395.678	90.44
395.903	80.44
396.127	92.44
396.352	88.44
396.576	88.44
396.801	112.44
397.025	113.44
397.249	99.44
397.474	96.44
397.698	84.44
397.922	90.44
398.147	88.44
398.371	93.44
398.595	85.44
398.82	85.44
399.044	97.44
399.268	92.44
399.492	80.44
399.717	70.44
399.941	88.44
400.165	87.44
400.389	80.44
400.613	88.44
400.837	82.44
401.062	98.44
401.286	95.44
401.51	81.44
401.734	91.44
401.958	103.44
402.182	105.44
402.406	143.44
402.63	118.44
402.854	91.44
403.078	82.44
403.302	104.44
403.526	88.44
403.75	92.44
403.974	89.44
404.198	92.44
404.422	93.44
404.645	74.44
404.869	76.44
405.093	82.44
405.317	96.44
405.541	98.44
405.765	105.44
405.988	107.44
406.212	161.44
406.436	203.44
406.66	141.44
406.883	111.44
407.107	87.44
407.331	74.44
407.555	89.44
407.778	76.44
408.002	89.44
408.226	97.44
408.449	89.44
408.673	102.44
408.896	97.44
409.12	92.44
409.344	97.44
409.567	91.44
409.791	85.44
410.014	87.44
410.238	102.44
410.461	89.44
410.685	95.44
410.908	87.44
411.132	114.44
411.355	89.44
411.578	89.44
411.802	91.44
412.025	101.44
412.249	92.44
412.472	96.44
412.695	98.44
412.919	100.44
413.142	89.44
413.365	97.44
413.589	89.44
413.812	92.44
414.035	92.44
414.258	79.44
414.482	99.44
414.705	103.44
414.928	93.44
415.151	81.44
415.374	117.44
415.597	91.44
415.821	99.44
416.044	99.44
416.267	81.44
416.49	87.44
416.713	106.44
416.936	97.44
417.159	76.44
417.382	76.44
417.605	89.44
417.828	91.44
418.051	93.44
418.274	76.44
418.497	77.44
418.72	90.44
418.943	91.44
419.166	93.44
419.389	101.44
419.611	90.44
419.834	92.44
420.057	82.44
420.28	81.44
420.503	95.44
420.726	83.44
420.948	98.44
421.171	88.44
421.394	81.44
421.617	89.44
421.839	98.44
422.062	100.44
422.285	81.44
422.507	91.44
422.73	100.44
422.953	109.44
423.175	110.44
423.398	107.44
423.621	90.44
423.843	99.44
424.066	101.44
424.288	91.44
424.511	99.44
424.733	86.44
424.956	84.44
425.178	97.44
425.401	85.44
425.623	87.44
425.846	84.44
426.068	86.44
426.291	83.44
426.513	77.44
426.735	86.44
426.958	88.44
427.18	95.44
427.402	112.44
427.625	137.44
427.847	126.44
428.069	118.44
428.292	89.44
428.514	91.44
428.736	79.44
428.958	77.44
429.181	93.44
429.403	85.44
429.625	83.44
429.847	88.44
430.069	95.44
430.292	89.44
430.514	85.44
430.736	86.44
430.958	79.44
431.18	68.44
431.402	76.44
431.624	89.44
431.846	95.44
432.068	102.44
432.29	87.44
432.512	85.44
432.734	91.44
432.956	95.44
433.178	101.44
433.4	98.44
433.622	101.44
433.844	87.44
434.066	95.44
434.287	84.44
434.509	79.44
434.731	93.44
434.953	94.44
435.175	95.44
435.397	88.44
435.618	87.44
435.84	94.44
436.062	101.44
436.284	88.44
436.505	96.44
436.727	83.44
436.949	90.44
437.17	97.44
437.392	70.44
437.614	75.44
437.835	96.44
438.057	103.44
438.278	99.44
438.5	96.44
438.721	101.44
438.943	88.44
439.165	92.44
439.386	95.44
439.608	85.44
439.829	84.44
440.05	115.44
440.272	104.44
440.493	81.44
440.715	85.44
440.936	93.44
441.158	74.44
441.379	93.44
441.6	102.44
441.822	88.44
442.043	83.44
442.264	93.44
442.486	95.44
442.707	97.44
442.928	103.44
443.149	115.44
443.371	124.44
443.592	103.44
443.813	104.44
444.034	98.44
444.255	90.44
444.476	97.44
444.698	82.44
444.919	86.44
445.14	140.44
445.361	133.44
445.582	98.44
445.803	126.44
446.024	114.44
446.245	129.44
446.466	102.44
446.687	85.44
446.908	85.44
447.129	79.44
447.35	78.44
447.571	96.44
447.792	85.44
448.013	97.44
448.234	103.44
448.455	99.44
448.675	99.44
448.896	99.44
449.117	101.44
449.338	98.44
449.559	120.44
449.779	110.44
450	80.44
450.221	76.44
450.442	69.44
450.662	94.44
450.883	103.44
451.104	114.44
451.324	90.44
451.545	97.44
451.766	74.44
451.986	83.44
452.207	99.44
452.428	79.44
452.648	83.44
452.869	84.44
453.089	98.44
453.31	116.44
453.53	99.44
453.751	99.44
453.971	83.44
454.192	106.44
454.412	104.44
454.633	90.44
454.853	92.44
455.073	95.44
455.294	97.44
455.514	86.44
455.734	95.44
455.955	81.44
456.175	89.44
456.395	84.44
456.616	83.44
456.836	81.44
457.056	82.44
457.276	85.44
457.497	88.44
457.717	84.44
457.937	72.44
458.157	87.44
458.377	76.44
458.598	93.44
458.818	137.44
459.038	131.44
459.258	99.44
459.478	106.44
459.698	91.44
459.918	83.44
460.138	85.44
460.358	82.44
460.578	74.44
460.798	97.44
461.018	82.44
461.238	83.44
461.458	89.44
461.678	83.44
461.898	78.44
462.118	103.44
462.338	86.44
462.558	75.44
462.777	83.44
462.997	92.44
463.217	85.44
463.437	77.44
463.657	87.44
463.876	99.44
464.096	80.44
464.316	88.44
464.536	88.44
464.755	90.44
464.975	112.44
465.195	136.44
465.414	125.44
465.634	90.44
465.854	86.44
466.073	98.44
466.293	98.44
466.512	89.44
466.732	81.44
466.951	94.44
467.171	104.44
467.391	100.44
467.61	106.44
467.829	88.44
468.049	106.44
468.268	112.44
468.488	96.44
468.707	74.44
468.927	90.44
469.146	79.44
469.365	104.44
469.585	90.44
469.804	92.44
470.023	99.44
470.243	93.44
470.462	95.44
470.681	97.44
470.901	82.44
471.12	89.44
471.339	85.44
471.558	95.44
471.777	81.44
471.997	92.44
472.216	151.44
472.435	210.44
472.654	110.44
472.873	84.44
473.092	84.44
473.311	91.44
473.53	90.44
473.749	92.44
473.968	88.44
474.187	101.44
474.406	90.44
474.625	98.44
474.844	102.44
475.063	87.44
475.282	79.44
475.501	83.44
475.72	84.44
475.939	93.44
476.158	84.44
476.377	90.44
476.596	83.44
476.814	93.44
477.033	86.44
477.252	93.44
477.471	75.44
477.69	97.44
477.908	81.44
478.127	80.44
478.346	82.44
478.564	92.44
478.783	85.44
479.002	92.44
479.22	87.44
479.439	103.44
479.658	110.44
479.876	100.44
480.095	88.44
480.313	102.44
480.532	90.44
480.751	92.44
480.969	136.44
481.188	342.44
481.406	220.44
481.624	103.44
481.843	99.44
482.061	105.44
482.28	85.44
482.498	75.44
482.717	77.44
482.935	86.44
483.153	77.44
483.372	87.44
483.59	74.44
483.808	79.44
484.027	73.44
484.245	89.44
484.463	84.44
484.681	101.44
484.9	103.44
485.118	88.44
485.336	95.44
485.554	90.44
485.772	102.44
485.99	107.44
486.209	104.44
486.427	99.44
486.645	103.44
486.863	102.44
487.081	96.44
487.299	104.44
487.517	97.44
487.735	90.44
487.953	95.44
488.171	106.44
488.389	101.44
488.607	100.44
488.825	103.44
489.043	77.44
489.261	94.44
489.479	85.44
489.696	79.44
489.914	100.44
490.132	90.44
490.35	92.44
490.568	69.44
490.786	73.44
491.003	83.44
491.221	79.44
491.439	97.44
491.657	103.44
491.874	86.44
492.092	87.44
492.31	85.44
492.527	90.44
492.745	98.44
492.963	82.44
493.18	81.44
493.398	97.44
493.615	84.44
493.833	93.44
494.05	89.44
494.268	79.44
494.485	69.44
494.703	81.44
494.92	83.44
495.138	86.44
495.355	93.44
495.573	76.44
495.79	93.44
496.008	100.44
496.225	89.44
496.442	97.44
496.66	85.44
496.877	89.44
497.094	94.44
497.312	81.44
497.529	98.44
497.746	96.44
497.963	80.44
498.181	81.44
498.398	95.44
498.615	107.44
498.832	96.44
499.049	93.44
499.267	90.44
499.484	89.44
499.701	97.44
499.918	85.44
500.135	84.44
500.352	99.44
500.569	99.44
500.786	84.44
501.003	99.44
501.22	93.44
501.437	95.44
501.654	93.44
501.871	106.44
502.088	94.44
502.305	103.44
502.522	98.44
502.739	84.44
502.956	100.44
503.172	97.44
503.389	87.44
503.606	100.44
503.823	104.44
504.04	92.44
504.256	92.44
504.473	77.44
504.69	97.44
504.907	99.44
505.123	86.44
505.34	91.44
505.557	84.44
505.773	84.44
505.99	96.44
506.207	82.44
506.423	97.44
506.64	74.44
506.856	85.44
507.073	79.44
507.289	84.44
507.506	95.44
507.722	110.44
507.939	105.44
508.155	99.44
508.372	87.44
508.588	76.44
508.805	86.44
509.021	92.44
509.238	101.44
509.454	89.44
509.67	103.44
509.887	98.44
510.103	123.44
510.319	191.44
510.536	612.44
510.752	1887.44
510.968	530.44
511.184	137.44
511.401	101.44
511.617	106.44
511.833	108.44
512.049	92.44
512.265	86.44
512.481	87.44
512.698	89.44
512.914	92.44
513.13	85.44
513.346	98.44
513.562	90.44
513.778	94.44
513.994	83.44
514.21	99.44
514.426	129.44
514.642	117.44
514.858	108.44
515.074	137.44
515.29	345.44
515.506	1095.44
515.721	421.44
515.937	131.44
