Data from Circ_1983_H10_HRD10591_00026.txt Node
Date: Wed Jan 03 12:26:50 EST 2024
User: Yrep
Spectrometer: HR+D1059
Trigger mode: 1
Integration Time (sec): 1.000000E-1
Scans to average: 1
Electric dark correction enabled: true
Nonlinearity correction enabled: false
Boxcar width: 0
XAxis mode: Wavelengths
Number of Pixels in Spectrum: 2048
>>>>>Begin Spectral Data<<<<<
223.165	-31
223.4	-31
223.635	-31
223.869	-26
224.104	-7
224.338	-14
224.573	-29
224.808	-12
225.042	-16
225.277	-5
225.511	14
225.746	7
225.98	16
226.215	14
226.449	10
226.683	13
226.918	29
227.152	37
227.387	33
227.621	43
227.856	37
228.09	24
228.324	54
228.559	62
228.793	41
229.027	54
229.262	60
229.496	70
229.73	76
229.964	87
230.199	78
230.433	68
230.667	68
230.901	81
231.136	75
231.37	86
231.604	74
231.838	79
232.072	73
232.306	82
232.541	84
232.775	91
233.009	81
233.243	80
233.477	68
233.711	80
233.945	75
234.179	93
234.413	90
234.647	67
234.881	76
235.115	73
235.349	77
235.583	74
235.817	77
236.051	86
236.285	90
236.519	87
236.753	85
236.987	74
237.221	76
237.455	94
237.689	89
237.922	66
238.156	85
238.39	74
238.624	67
238.858	82
239.091	73
239.325	76
239.559	76
239.793	77
240.027	85
240.26	83
240.494	74
240.728	68
240.961	76
241.195	63
241.429	82
241.662	69
241.896	66
242.13	74
242.363	77
242.597	77
242.83	73
243.064	77
243.298	73
243.531	81
243.765	73
243.998	70
244.232	91
244.465	81
244.699	84
244.932	71
245.166	78
245.399	70
245.633	65
245.866	87
246.099	91
246.333	78
246.566	86
246.8	84
247.033	86
247.266	85
247.5	87
247.733	76
247.966	98
248.2	89
248.433	74
248.666	80
248.899	77
249.133	96
249.366	81
249.599	102
249.832	88
250.066	88
250.299	91
250.532	82
250.765	70
250.998	68
251.231	68
251.465	68
251.698	78
251.931	74
252.164	77
252.397	73
252.63	70
252.863	80
253.096	85
253.329	82
253.562	84
253.795	78
254.028	66
254.261	78
254.494	69
254.727	88
254.96	74
255.193	82
255.426	77
255.659	77
255.892	76
256.124	89
256.357	92
256.59	76
256.823	86
257.056	82
257.289	87
257.521	74
257.754	82
257.987	85
258.22	91
258.452	88
258.685	82
258.918	82
259.151	75
259.383	65
259.616	81
259.849	85
260.081	94
260.314	74
260.547	88
260.779	93
261.012	87
261.244	93
261.477	95
261.71	81
261.942	98
262.175	104
262.407	89
262.64	94
262.872	82
263.105	82
263.337	85
263.57	92
263.802	70
264.035	84
264.267	84
264.499	88
264.732	77
264.964	80
265.197	84
265.429	74
265.661	90
265.894	71
266.126	89
266.358	83
266.591	102
266.823	85
267.055	83
267.287	70
267.52	76
267.752	85
267.984	83
268.216	77
268.448	92
268.681	96
268.913	101
269.145	84
269.377	96
269.609	92
269.841	71
270.073	73
270.306	83
270.538	72
270.77	86
271.002	94
271.234	88
271.466	77
271.698	76
271.93	82
272.162	84
272.394	95
272.626	86
272.858	97
273.09	83
273.322	90
273.553	85
273.785	74
274.017	89
274.249	91
274.481	75
274.713	85
274.945	70
275.176	92
275.408	111
275.64	78
275.872	77
276.104	78
276.335	84
276.567	109
276.799	113
277.031	96
277.262	93
277.494	88
277.726	95
277.957	74
278.189	85
278.421	82
278.652	93
278.884	82
279.115	85
279.347	93
279.579	81
279.81	70
280.042	82
280.273	89
280.505	93
280.736	87
280.968	82
281.199	75
281.431	92
281.662	90
281.894	91
282.125	92
282.356	92
282.588	120
282.819	103
283.051	95
283.282	77
283.513	91
283.745	88
283.976	66
284.207	61
284.439	77
284.67	91
284.901	90
285.132	98
285.364	98
285.595	94
285.826	93
286.057	93
286.288	77
286.52	92
286.751	93
286.982	107
287.213	92
287.444	92
287.675	74
287.906	89
288.138	89
288.369	85
288.6	97
288.831	90
289.062	75
289.293	96
289.524	86
289.755	88
289.986	96
290.217	101
290.448	92
290.679	84
290.91	86
291.141	76
291.371	104
291.602	101
291.833	70
292.064	91
292.295	99
292.526	93
292.757	92
292.987	84
293.218	89
293.449	72
293.68	83
293.91	80
294.141	94
294.372	82
294.603	84
294.833	78
295.064	84
295.295	94
295.525	96
295.756	86
295.987	116
296.217	120
296.448	118
296.679	82
296.909	84
297.14	90
297.37	92
297.601	89
297.831	69
298.062	88
298.292	94
298.523	101
298.753	82
298.984	91
299.214	82
299.445	100
299.675	100
299.905	80
300.136	101
300.366	84
300.597	83
300.827	88
301.057	96
301.288	104
301.518	88
301.748	90
301.979	95
302.209	93
302.439	99
302.669	84
302.9	91
303.13	103
303.36	91
303.59	101
303.82	104
304.051	104
304.281	91
304.511	105
304.741	83
304.971	100
305.201	88
305.431	99
305.661	78
305.891	94
306.121	86
306.352	111
306.582	73
306.812	93
307.042	100
307.272	96
307.502	100
307.731	101
307.961	92
308.191	89
308.421	96
308.651	94
308.881	87
309.111	89
309.341	95
309.571	101
309.8	93
310.03	110
310.26	97
310.49	106
310.72	87
310.949	101
311.179	92
311.409	85
311.639	93
311.868	89
312.098	85
312.328	79
312.557	93
312.787	99
313.017	104
313.246	99
313.476	106
313.706	100
313.935	94
314.165	101
314.394	112
314.624	99
314.853	88
315.083	100
315.312	96
315.542	96
315.771	97
316.001	94
316.23	99
316.46	85
316.689	94
316.919	93
317.148	91
317.377	91
317.607	99
317.836	97
318.065	90
318.295	86
318.524	87
318.753	94
318.983	78
319.212	101
319.441	110
319.67	109
319.9	94
320.129	98
320.358	96
320.587	92
320.816	102
321.046	89
321.275	99
321.504	94
321.733	101
321.962	86
322.191	87
322.42	106
322.649	100
322.878	111
323.108	112
323.337	110
323.566	124
323.795	138
324.024	171
324.253	336
324.482	672
324.71	1300
324.939	1706
325.168	644
325.397	222
325.626	140
325.855	114
326.084	108
326.313	123
326.542	140
326.77	186
326.999	361
327.228	732
327.457	1350
327.686	1074
327.914	306
328.143	188
328.372	145
328.6	113
328.829	112
329.058	104
329.287	114
329.515	109
329.744	99
329.972	103
330.201	137
330.43	157
330.658	147
330.887	123
331.115	104
331.344	115
331.572	102
331.801	90
332.03	89
332.258	97
332.486	93
332.715	104
332.943	92
333.172	94
333.4	107
333.629	109
333.857	113
334.085	117
334.314	134
334.542	170
334.771	182
334.999	115
335.227	105
335.455	93
335.684	109
335.912	93
336.14	100
336.369	109
336.597	102
336.825	96
337.053	88
337.281	80
337.51	92
337.738	91
337.966	84
338.194	102
338.422	92
338.65	101
338.878	92
339.106	73
339.334	95
339.562	98
339.79	83
340.018	76
340.246	88
340.474	96
340.702	94
340.93	106
341.158	84
341.386	93
341.614	105
341.842	86
342.07	76
342.298	98
342.526	92
342.754	92
342.981	92
343.209	89
343.437	100
343.665	98
343.893	99
344.12	101
344.348	94
344.576	88
344.804	87
345.031	99
345.259	82
345.487	88
345.714	98
345.942	85
346.17	102
346.397	95
346.625	99
346.853	85
347.08	107
347.308	108
347.535	102
347.763	84
347.99	100
348.218	91
348.445	107
348.673	94
348.9	89
349.128	90
349.355	92
349.583	102
349.81	103
350.037	97
350.265	95
350.492	92
350.72	97
350.947	99
351.174	100
351.402	109
351.629	95
351.856	94
352.083	106
352.311	107
352.538	93
352.765	108
352.992	106
353.22	97
353.447	97
353.674	108
353.901	91
354.128	97
354.355	100
354.583	110
354.81	102
355.037	92
355.264	100
355.491	96
355.718	101
355.945	102
356.172	107
356.399	95
356.626	90
356.853	105
357.08	85
357.307	89
357.534	87
357.761	101
357.988	112
358.215	102
358.441	110
358.668	95
358.895	80
359.122	76
359.349	105
359.576	96
359.802	120
360.029	106
360.256	107
360.483	93
360.709	81
360.936	97
361.163	93
361.39	90
361.616	93
361.843	103
362.07	96
362.296	102
362.523	92
362.749	90
362.976	98
363.203	87
363.429	86
363.656	96
363.882	85
364.109	91
364.335	100
364.562	78
364.788	102
365.015	88
365.241	84
365.468	111
365.694	112
365.92	86
366.147	98
366.373	84
366.599	77
366.826	90
367.052	89
367.278	93
367.505	88
367.731	97
367.957	92
368.184	95
368.41	104
368.636	104
368.862	109
369.089	101
369.315	92
369.541	92
369.767	103
369.993	76
370.219	93
370.445	85
370.672	91
370.898	82
371.124	80
371.35	90
371.576	86
371.802	96
372.028	98
372.254	84
372.48	98
372.706	102
372.932	85
373.158	87
373.384	92
373.61	106
373.835	96
374.061	86
374.287	69
374.513	101
374.739	98
374.965	93
375.191	92
375.416	106
375.642	105
375.868	84
376.094	88
376.319	85
376.545	91
376.771	85
376.997	89
377.222	93
377.448	98
377.674	99
377.899	100
378.125	97
378.35	104
378.576	90
378.802	93
379.027	85
379.253	100
379.478	106
379.704	90
379.929	109
380.155	92
380.38	92
380.606	102
380.831	107
381.057	108
381.282	94
381.507	100
381.733	109
381.958	101
382.184	110
382.409	99
382.634	114
382.86	104
383.085	103
383.31	105
383.535	118
383.761	102
383.986	97
384.211	116
384.436	116
384.662	115
384.887	106
385.112	114
385.337	110
385.562	112
385.787	118
386.013	114
386.238	123
386.463	110
386.688	123
386.913	122
387.138	105
387.363	116
387.588	112
387.813	102
388.038	109
388.263	126
388.488	127
388.713	100
388.938	100
389.163	100
389.387	92
389.612	98
389.837	110
390.062	95
390.287	98
390.512	90
390.736	93
390.961	89
391.186	84
391.411	78
391.636	87
391.86	92
392.085	76
392.31	85
392.534	90
392.759	90
392.984	86
393.208	109
393.433	121
393.658	108
393.882	98
394.107	88
394.331	96
394.556	94
394.78	104
395.005	96
395.229	103
395.454	92
395.678	86
395.903	84
396.127	81
396.352	88
396.576	88
396.801	95
397.025	104
397.249	92
397.474	96
397.698	91
397.922	87
398.147	74
398.371	100
398.595	83
398.82	69
399.044	97
399.268	82
399.492	82
399.717	102
399.941	105
400.165	89
400.389	78
400.613	85
400.837	91
401.062	84
401.286	97
401.51	91
401.734	79
401.958	93
402.182	109
402.406	140
402.63	105
402.854	88
403.078	93
403.302	89
403.526	93
403.75	93
403.974	84
404.198	88
404.422	85
404.645	88
404.869	96
405.093	101
405.317	97
405.541	99
405.765	76
405.988	105
406.212	152
406.436	176
406.66	135
406.883	104
407.107	101
407.331	105
407.555	104
407.778	104
408.002	96
408.226	84
408.449	93
408.673	81
408.896	83
409.12	95
409.344	92
409.567	99
409.791	86
410.014	113
410.238	94
410.461	98
410.685	98
410.908	86
411.132	89
411.355	108
411.578	102
411.802	102
412.025	104
412.249	91
412.472	84
412.695	97
412.919	94
413.142	86
413.365	97
413.589	80
413.812	85
414.035	100
414.258	93
414.482	97
414.705	85
414.928	106
415.151	92
415.374	92
415.597	81
415.821	92
416.044	90
416.267	98
416.49	100
416.713	84
416.936	82
417.159	77
417.382	102
417.605	78
417.828	101
418.051	103
418.274	98
418.497	91
418.72	92
418.943	91
419.166	93
419.389	89
419.611	92
419.834	102
420.057	101
420.28	78
420.503	91
420.726	99
420.948	90
421.171	82
421.394	84
421.617	94
421.839	91
422.062	88
422.285	94
422.507	96
422.73	107
422.953	89
423.175	96
423.398	90
423.621	88
423.843	82
424.066	88
424.288	70
424.511	85
424.733	97
424.956	107
425.178	97
425.401	105
425.623	100
425.846	83
426.068	83
426.291	86
426.513	93
426.735	87
426.958	88
427.18	113
427.402	133
427.625	127
427.847	123
428.069	101
428.292	83
428.514	117
428.736	89
428.958	81
429.181	91
429.403	78
429.625	96
429.847	91
430.069	91
430.292	77
430.514	82
430.736	99
430.958	98
431.18	89
431.402	96
431.624	86
431.846	88
432.068	78
432.29	92
432.512	81
432.734	82
432.956	110
433.178	100
433.4	98
433.622	94
433.844	94
434.066	100
434.287	106
434.509	89
434.731	97
434.953	80
435.175	93
435.397	96
435.618	104
435.84	102
436.062	108
436.284	96
436.505	99
436.727	92
436.949	93
437.17	103
437.392	105
437.614	98
437.835	109
438.057	112
438.278	101
438.5	98
438.721	107
438.943	98
439.165	99
439.386	88
439.608	84
439.829	86
440.05	108
440.272	124
440.493	94
440.715	77
440.936	84
441.158	76
441.379	94
441.6	91
441.822	102
442.043	86
442.264	78
442.486	80
442.707	104
442.928	98
443.149	123
443.371	112
443.592	99
443.813	90
444.034	101
444.255	96
444.476	84
444.698	97
444.919	78
445.14	121
445.361	111
445.582	114
445.803	122
446.024	115
446.245	114
446.466	107
446.687	91
446.908	76
447.129	87
447.35	98
447.571	93
447.792	92
448.013	95
448.234	88
448.455	108
448.675	102
448.896	97
449.117	94
449.338	107
449.559	114
449.779	130
450	110
450.221	82
450.442	97
450.662	92
450.883	98
451.104	99
451.324	86
451.545	89
451.766	94
451.986	91
452.207	88
452.428	80
452.648	97
452.869	107
453.089	116
453.31	109
453.53	98
453.751	90
453.971	101
454.192	120
454.412	82
454.633	80
454.853	89
455.073	90
455.294	84
455.514	85
455.734	100
455.955	88
456.175	90
456.395	95
456.616	82
456.836	89
457.056	88
457.276	90
457.497	93
457.717	85
457.937	88
458.157	98
458.377	105
458.598	93
458.818	129
459.038	153
459.258	120
459.478	91
459.698	83
459.918	91
460.138	87
460.358	98
460.578	88
460.798	89
461.018	88
461.238	84
461.458	91
461.678	94
461.898	82
462.118	78
462.338	84
462.558	85
462.777	75
462.997	78
463.217	104
463.437	82
463.657	97
463.876	77
464.096	90
464.316	92
464.536	107
464.755	89
464.975	106
465.195	135
465.414	145
465.634	96
465.854	92
466.073	107
466.293	102
466.512	77
466.732	82
466.951	83
467.171	101
467.391	92
467.61	98
467.829	96
468.049	105
468.268	122
468.488	97
468.707	80
468.927	75
469.146	92
469.365	97
469.585	85
469.804	95
470.023	106
470.243	94
470.462	100
470.681	106
470.901	87
471.12	94
471.339	84
471.558	99
471.777	80
471.997	101
472.216	150
472.435	232
472.654	106
472.873	104
473.092	71
473.311	86
473.53	80
473.749	84
473.968	77
474.187	93
474.406	104
474.625	90
474.844	86
475.063	94
475.282	93
475.501	84
475.72	96
475.939	89
476.158	82
476.377	94
476.596	96
476.814	98
477.033	84
477.252	90
477.471	96
477.69	86
477.908	86
478.127	90
478.346	88
478.564	93
478.783	86
479.002	91
479.22	99
479.439	97
479.658	113
479.876	91
480.095	95
480.313	107
480.532	91
480.751	102
480.969	148
481.188	329
481.406	232
481.624	106
481.843	93
482.061	85
482.28	73
482.498	89
482.717	92
482.935	89
483.153	88
483.372	82
483.59	94
483.808	84
484.027	100
484.245	98
484.463	96
484.681	97
484.9	79
485.118	88
485.336	97
485.554	101
485.772	121
485.99	111
486.209	112
486.427	110
486.645	116
486.863	122
487.081	104
487.299	103
487.517	96
487.735	86
487.953	91
488.171	98
488.389	105
488.607	90
488.825	99
489.043	80
489.261	101
489.479	108
489.696	99
489.914	102
490.132	91
490.35	89
490.568	101
490.786	92
491.003	100
491.221	88
491.439	76
491.657	99
491.874	105
492.092	92
492.31	98
492.527	87
492.745	91
492.963	73
493.18	85
493.398	108
493.615	106
493.833	89
494.05	82
494.268	101
494.485	98
494.703	86
494.92	90
495.138	86
495.355	91
495.573	98
495.79	87
496.008	97
496.225	93
496.442	67
496.66	98
496.877	92
497.094	94
497.312	70
497.529	104
497.746	97
497.963	81
498.181	85
498.398	102
498.615	114
498.832	102
499.049	91
499.267	104
499.484	69
499.701	81
499.918	85
500.135	87
500.352	82
500.569	89
500.786	97
501.003	98
501.22	89
501.437	92
501.654	100
501.871	85
502.088	88
502.305	96
502.522	88
502.739	93
502.956	89
503.172	85
503.389	100
503.606	97
503.823	89
504.04	101
504.256	80
504.473	72
504.69	110
504.907	90
505.123	94
505.34	93
505.557	105
505.773	77
505.99	98
506.207	88
506.423	84
506.64	97
506.856	107
507.073	93
507.289	104
507.506	106
507.722	114
507.939	100
508.155	96
508.372	97
508.588	89
508.805	100
509.021	101
509.238	87
509.454	92
509.67	85
509.887	111
510.103	120
510.319	184
510.536	650
510.752	1866
510.968	521
511.184	141
511.401	104
511.617	108
511.833	96
512.049	98
512.265	88
512.481	109
512.698	93
512.914	79
513.13	75
513.346	106
513.562	87
513.778	88
513.994	99
514.21	96
514.426	106
514.642	116
514.858	114
515.074	136
515.29	346
515.506	1117
515.721	419
515.937	138
516.153	84
516.369	75
516.585	89
516.801	91
517.016	88
517.232	97
517.448	77
517.664	87
517.879	93
518.095	92
518.311	91
518.527	105
518.742	104
518.958	97
519.173	88
519.389	97
519.605	94
519.82	111
520.036	97
520.251	103
520.467	112
520.682	106
520.898	94
521.113	116
521.329	122
521.544	153
521.76	438
521.975	1760
522.19	1074
522.406	251
522.621	109
522.836	88
523.052	82
523.267	89
523.482	96
523.698	98
523.913	120
524.128	107
524.343	86
524.559	84
524.774	93
524.989	91
525.204	100
525.419	104
525.634	93
525.849	92
526.064	95
526.28	88
526.495	95
526.71	90
526.925	98
527.14	83
527.355	84
527.57	92
527.785	84
527.999	85
528.214	92
528.429	98
528.644	96
528.859	84
529.074	84
529.289	105
529.503	152
529.718	90
529.933	92
530.148	91
530.363	80
530.577	92
530.792	110
531.007	96
531.221	88
531.436	88
531.651	99
531.865	106
532.08	91
532.295	93
532.509	91
532.724	92
532.938	105
533.153	92
533.367	82
533.582	75
533.796	93
534.011	86
534.225	89
534.44	80
534.654	79
534.868	99
535.083	104
535.297	109
535.511	94
535.726	91
535.94	97
536.154	92
536.369	90
536.583	86
536.797	105
537.011	100
537.225	86
537.44	91
537.654	88
537.868	82
538.082	93
538.296	95
538.51	92
538.724	107
538.938	91
539.153	95
539.367	92
539.581	87
539.795	91
540.009	94
540.222	92
540.436	106
540.65	85
540.864	86
541.078	91
541.292	89
541.506	82
541.72	90
541.934	82
542.147	83
542.361	93
542.575	88
542.789	91
543.002	72
543.216	106
543.43	89
543.644	74
543.857	96
544.071	88
544.285	96
544.498	87
544.712	99
544.925	83
545.139	87
545.352	97
545.566	88
545.779	81
545.993	85
546.206	95
546.42	103
546.633	93
546.847	90
547.06	100
547.274	102
547.487	86
547.7	87
547.914	88
548.127	96
548.34	94
548.554	79
548.767	83
548.98	89
549.193	91
549.407	101
549.62	98
549.833	90
550.046	77
550.259	82
550.473	99
550.686	100
550.899	97
551.112	96
551.325	93
551.538	82
551.751	91
551.964	94
552.177	88
552.39	81
552.603	80
552.816	94
553.029	101
553.242	84
553.455	95
553.667	88
553.88	92
554.093	84
554.306	99
554.519	83
554.732	96
554.944	74
555.157	88
555.37	92
555.583	99
555.795	104
556.008	87
556.221	92
556.433	101
556.646	86
556.859	100
557.071	106
557.284	109
557.496	89
557.709	88
557.921	82
558.134	82
558.346	87
558.559	92
558.771	94
558.984	91
559.196	97
559.409	112
559.621	89
559.833	79
560.046	73
560.258	88
560.47	84
560.683	92
560.895	92
561.107	76
561.32	85
561.532	94
561.744	74
561.956	84
562.168	91
562.381	91
562.593	100
562.805	94
563.017	98
563.229	92
563.441	96
563.653	93
563.865	85
564.077	97
564.289	87
564.501	93
564.713	94
564.925	102
565.137	101
565.349	86
565.561	97
565.773	86
565.985	94
566.197	84
566.408	91
566.62	92
566.832	73
567.044	84
567.255	76
567.467	79
567.679	80
567.891	88
568.102	86
568.314	80
568.526	82
568.737	84
568.949	82
569.161	85
569.372	83
569.584	90
569.795	84
570.007	107
570.218	203
570.43	122
570.641	97
570.853	86
571.064	89
571.276	85
571.487	78
571.698	76
571.91	77
572.121	75
572.333	85
572.544	98
572.755	87
572.966	93
573.178	91
573.389	96
573.6	84
573.811	72
574.023	88
574.234	108
574.445	91
574.656	80
574.867	92
575.078	94
575.289	91
575.501	88
575.712	83
575.923	82
576.134	100
576.345	96
576.556	101
576.767	85
576.978	90
577.188	89
577.399	92
577.61	83
577.821	96
578.032	109
578.243	222
578.454	552
578.665	188
578.875	96
579.086	84
579.297	98
579.508	98
579.718	84
579.929	88
580.14	68
580.35	86
580.561	70
580.772	90
580.982	75
581.193	86
581.403	94
581.614	80
581.825	89
582.035	88
582.246	92
582.456	81
582.667	85
582.877	92
583.087	93
583.298	98
583.508	93
