Data from Circ_1983_H10_HRD10591_00063.txt Node
Date: Wed Jan 03 12:26:57 EST 2024
User: Yrep
Spectrometer: HR+D1059
Trigger mode: 1
Integration Time (sec): 1.000000E-1
Scans to average: 1
Electric dark correction enabled: true
Nonlinearity correction enabled: false
Boxcar width: 0
XAxis mode: Wavelengths
Number of Pixels in Spectrum: 2048
>>>>>Begin Spectral Data<<<<<
223.165	-4.19
223.4	-4.19
223.635	-4.19
223.869	-26.19
224.104	-18.19
224.338	2.81
224.573	-16.19
224.808	-20.19
225.042	-15.19
225.277	-4.19
225.511	8.81
225.746	0.81
225.98	9.81
226.215	3.81
226.449	22.81
226.683	6.81
226.918	17.81
227.152	30.81
227.387	37.81
227.621	35.81
227.856	29.81
228.09	50.81
228.324	54.81
228.559	70.81
228.793	47.81
229.027	66.81
229.262	57.81
229.496	70.81
229.73	79.81
229.964	81.81
230.199	71.81
230.433	75.81
230.667	70.81
230.901	84.81
231.136	77.81
231.37	82.81
231.604	73.81
231.838	68.81
232.072	80.81
232.306	72.81
232.541	91.81
232.775	95.81
233.009	86.81
233.243	84.81
233.477	77.81
233.711	86.81
233.945	91.81
234.179	81.81
234.413	66.81
234.647	82.81
234.881	73.81
235.115	79.81
235.349	68.81
235.583	75.81
235.817	69.81
236.051	68.81
236.285	66.81
236.519	64.81
236.753	72.81
236.987	80.81
237.221	87.81
237.455	74.81
237.689	81.81
237.922	81.81
238.156	71.81
238.39	83.81
238.624	77.81
238.858	84.81
239.091	86.81
239.325	64.81
239.559	71.81
239.793	72.81
240.027	71.81
240.26	75.81
240.494	72.81
240.728	82.81
240.961	66.81
241.195	89.81
241.429	75.81
241.662	63.81
241.896	71.81
242.13	69.81
242.363	78.81
242.597	67.81
242.83	78.81
243.064	66.81
243.298	82.81
243.531	92.81
243.765	79.81
243.998	83.81
244.232	81.81
244.465	65.81
244.699	69.81
244.932	82.81
245.166	75.81
245.399	79.81
245.633	81.81
245.866	71.81
246.099	70.81
246.333	82.81
246.566	72.81
246.8	85.81
247.033	73.81
247.266	76.81
247.5	69.81
247.733	72.81
247.966	66.81
248.2	113.81
248.433	83.81
248.666	72.81
248.899	77.81
249.133	65.81
249.366	82.81
249.599	93.81
249.832	72.81
250.066	83.81
250.299	59.81
250.532	78.81
250.765	71.81
250.998	84.81
251.231	68.81
251.465	68.81
251.698	82.81
251.931	81.81
252.164	73.81
252.397	84.81
252.63	74.81
252.863	81.81
253.096	57.81
253.329	92.81
253.562	74.81
253.795	79.81
254.028	88.81
254.261	77.81
254.494	75.81
254.727	72.81
254.96	74.81
255.193	77.81
255.426	69.81
255.659	81.81
255.892	82.81
256.124	71.81
256.357	96.81
256.59	93.81
256.823	85.81
257.056	78.81
257.289	69.81
257.521	72.81
257.754	82.81
257.987	79.81
258.22	74.81
258.452	97.81
258.685	73.81
258.918	89.81
259.151	90.81
259.383	75.81
259.616	75.81
259.849	70.81
260.081	84.81
260.314	77.81
260.547	65.81
260.779	85.81
261.012	80.81
261.244	82.81
261.477	91.81
261.71	98.81
261.942	100.81
262.175	105.81
262.407	88.81
262.64	82.81
262.872	83.81
263.105	81.81
263.337	87.81
263.57	90.81
263.802	77.81
264.035	88.81
264.267	85.81
264.499	88.81
264.732	86.81
264.964	79.81
265.197	75.81
265.429	80.81
265.661	79.81
265.894	82.81
266.126	77.81
266.358	91.81
266.591	87.81
266.823	74.81
267.055	82.81
267.287	73.81
267.52	86.81
267.752	87.81
267.984	84.81
268.216	90.81
268.448	85.81
268.681	85.81
268.913	75.81
269.145	84.81
269.377	96.81
269.609	84.81
269.841	85.81
270.073	76.81
270.306	94.81
270.538	82.81
270.77	77.81
271.002	72.81
271.234	89.81
271.466	71.81
271.698	74.81
271.93	92.81
272.162	97.81
272.394	94.81
272.626	88.81
272.858	78.81
273.09	89.81
273.322	89.81
273.553	96.81
273.785	102.81
274.017	71.81
274.249	88.81
274.481	99.81
274.713	85.81
274.945	109.81
275.176	83.81
275.408	81.81
275.64	91.81
275.872	91.81
276.104	84.81
276.335	81.81
276.567	101.81
276.799	107.81
277.031	110.81
277.262	101.81
277.494	74.81
277.726	81.81
277.957	103.81
278.189	95.81
278.421	90.81
278.652	86.81
278.884	77.81
279.115	89.81
279.347	89.81
279.579	89.81
279.81	69.81
280.042	81.81
280.273	85.81
280.505	81.81
280.736	85.81
280.968	81.81
281.199	77.81
281.431	98.81
281.662	86.81
281.894	61.81
282.125	101.81
282.356	107.81
282.588	127.81
282.819	105.81
283.051	80.81
283.282	88.81
283.513	96.81
283.745	78.81
283.976	81.81
284.207	80.81
284.439	84.81
284.67	79.81
284.901	77.81
285.132	95.81
285.364	89.81
285.595	98.81
285.826	73.81
286.057	86.81
286.288	78.81
286.52	86.81
286.751	79.81
286.982	84.81
287.213	77.81
287.444	95.81
287.675	91.81
287.906	84.81
288.138	71.81
288.369	93.81
288.6	87.81
288.831	82.81
289.062	86.81
289.293	86.81
289.524	77.81
289.755	82.81
289.986	74.81
290.217	91.81
290.448	85.81
290.679	81.81
290.91	71.81
291.141	79.81
291.371	91.81
291.602	90.81
291.833	83.81
292.064	87.81
292.295	77.81
292.526	83.81
292.757	83.81
292.987	73.81
293.218	82.81
293.449	94.81
293.68	96.81
293.91	90.81
294.141	84.81
294.372	80.81
294.603	79.81
294.833	80.81
295.064	85.81
295.295	81.81
295.525	99.81
295.756	96.81
295.987	96.81
296.217	127.81
296.448	103.81
296.679	93.81
296.909	85.81
297.14	93.81
297.37	84.81
297.601	87.81
297.831	80.81
298.062	105.81
298.292	98.81
298.523	73.81
298.753	89.81
298.984	93.81
299.214	98.81
299.445	83.81
299.675	95.81
299.905	95.81
300.136	98.81
300.366	94.81
300.597	89.81
300.827	84.81
301.057	104.81
301.288	91.81
301.518	82.81
301.748	95.81
301.979	96.81
302.209	74.81
302.439	91.81
302.669	96.81
302.9	85.81
303.13	95.81
303.36	88.81
303.59	82.81
303.82	103.81
304.051	94.81
304.281	90.81
304.511	80.81
304.741	80.81
304.971	86.81
305.201	91.81
305.431	78.81
305.661	83.81
305.891	86.81
306.121	91.81
306.352	90.81
306.582	81.81
306.812	88.81
307.042	81.81
307.272	95.81
307.502	106.81
307.731	106.81
307.961	101.81
308.191	91.81
308.421	90.81
308.651	98.81
308.881	96.81
309.111	95.81
309.341	90.81
309.571	91.81
309.8	71.81
310.03	89.81
310.26	97.81
310.49	104.81
310.72	97.81
310.949	80.81
311.179	97.81
311.409	86.81
311.639	82.81
311.868	83.81
312.098	81.81
312.328	96.81
312.557	85.81
312.787	105.81
313.017	98.81
313.246	90.81
313.476	82.81
313.706	83.81
313.935	90.81
314.165	90.81
314.394	89.81
314.624	89.81
314.853	101.81
315.083	83.81
315.312	94.81
315.542	86.81
315.771	91.81
316.001	97.81
316.23	77.81
316.46	88.81
316.689	91.81
316.919	82.81
317.148	95.81
317.377	96.81
317.607	84.81
317.836	97.81
318.065	79.81
318.295	83.81
318.524	77.81
318.753	93.81
318.983	85.81
319.212	101.81
319.441	97.81
319.67	109.81
319.9	105.81
320.129	81.81
320.358	93.81
320.587	98.81
320.816	85.81
321.046	94.81
321.275	96.81
321.504	97.81
321.733	100.81
321.962	88.81
322.191	88.81
322.42	94.81
322.649	109.81
322.878	98.81
323.108	99.81
323.337	107.81
323.566	118.81
323.795	154.81
324.024	173.81
324.253	319.81
324.482	636.81
324.71	1258.81
324.939	1653.81
325.168	621.81
325.397	186.81
325.626	125.81
325.855	117.81
326.084	115.81
326.313	111.81
326.542	134.81
326.77	196.81
326.999	372.81
327.228	715.81
327.457	1301.81
327.686	1022.81
327.914	289.81
328.143	191.81
328.372	160.81
328.6	137.81
328.829	112.81
329.058	104.81
329.287	113.81
329.515	104.81
329.744	114.81
329.972	123.81
330.201	183.81
330.43	221.81
330.658	141.81
330.887	119.81
331.115	128.81
331.344	104.81
331.572	93.81
331.801	111.81
332.03	98.81
332.258	101.81
332.486	98.81
332.715	91.81
332.943	91.81
333.172	111.81
333.4	100.81
333.629	101.81
333.857	121.81
334.085	123.81
334.314	185.81
334.542	289.81
334.771	247.81
334.999	126.81
335.227	107.81
335.455	95.81
335.684	90.81
335.912	91.81
336.14	87.81
336.369	87.81
336.597	88.81
336.825	95.81
337.053	83.81
337.281	76.81
337.51	96.81
337.738	87.81
337.966	87.81
338.194	96.81
338.422	91.81
338.65	87.81
338.878	90.81
339.106	97.81
339.334	95.81
339.562	89.81
339.79	94.81
340.018	83.81
340.246	75.81
340.474	96.81
340.702	89.81
340.93	97.81
341.158	98.81
341.386	98.81
341.614	94.81
341.842	91.81
342.07	79.81
342.298	101.81
342.526	82.81
342.754	81.81
342.981	84.81
343.209	65.81
343.437	88.81
343.665	84.81
343.893	93.81
344.12	102.81
344.348	86.81
344.576	86.81
344.804	95.81
345.031	84.81
345.259	102.81
345.487	83.81
345.714	86.81
345.942	94.81
346.17	95.81
346.397	90.81
346.625	77.81
346.853	88.81
347.08	85.81
347.308	92.81
347.535	102.81
347.763	86.81
347.99	83.81
348.218	87.81
348.445	94.81
348.673	87.81
348.9	98.81
349.128	100.81
349.355	84.81
349.583	97.81
349.81	92.81
350.037	103.81
350.265	93.81
350.492	84.81
350.72	77.81
350.947	86.81
351.174	103.81
351.402	97.81
351.629	95.81
351.856	104.81
352.083	103.81
352.311	107.81
352.538	105.81
352.765	105.81
352.992	110.81
353.22	94.81
353.447	93.81
353.674	88.81
353.901	97.81
354.128	96.81
354.355	89.81
354.583	88.81
354.81	89.81
355.037	101.81
355.264	91.81
355.491	95.81
355.718	83.81
355.945	107.81
356.172	89.81
356.399	97.81
356.626	84.81
356.853	82.81
357.08	94.81
357.307	99.81
357.534	87.81
357.761	91.81
357.988	80.81
358.215	87.81
358.441	88.81
358.668	81.81
358.895	70.81
359.122	79.81
359.349	81.81
359.576	88.81
359.802	89.81
360.029	96.81
360.256	105.81
360.483	94.81
360.709	93.81
360.936	95.81
361.163	87.81
361.39	94.81
361.616	84.81
361.843	90.81
362.07	98.81
362.296	90.81
362.523	85.81
362.749	70.81
362.976	83.81
363.203	90.81
363.429	84.81
363.656	81.81
363.882	80.81
364.109	92.81
364.335	95.81
364.562	83.81
364.788	82.81
365.015	85.81
365.241	100.81
365.468	100.81
365.694	93.81
365.92	83.81
366.147	88.81
366.373	95.81
366.599	77.81
366.826	86.81
367.052	86.81
367.278	78.81
367.505	97.81
367.731	89.81
367.957	84.81
368.184	87.81
368.41	79.81
368.636	93.81
368.862	101.81
369.089	83.81
369.315	90.81
369.541	85.81
369.767	85.81
369.993	78.81
370.219	74.81
370.445	89.81
370.672	83.81
370.898	93.81
371.124	89.81
371.35	85.81
371.576	84.81
371.802	97.81
372.028	86.81
372.254	69.81
372.48	88.81
372.706	74.81
372.932	79.81
373.158	94.81
373.384	92.81
373.61	90.81
373.835	79.81
374.061	89.81
374.287	93.81
374.513	85.81
374.739	80.81
374.965	82.81
375.191	99.81
375.416	80.81
375.642	90.81
375.868	94.81
376.094	83.81
376.319	83.81
376.545	81.81
376.771	83.81
376.997	81.81
377.222	88.81
377.448	93.81
377.674	83.81
377.899	100.81
378.125	89.81
378.35	90.81
378.576	102.81
378.802	81.81
379.027	78.81
379.253	104.81
379.478	81.81
379.704	96.81
379.929	72.81
380.155	88.81
380.38	88.81
380.606	88.81
380.831	82.81
381.057	90.81
381.282	99.81
381.507	85.81
381.733	92.81
381.958	101.81
382.184	100.81
382.409	96.81
382.634	84.81
382.86	94.81
383.085	104.81
383.31	99.81
383.535	100.81
383.761	84.81
383.986	111.81
384.211	103.81
384.436	105.81
384.662	81.81
384.887	89.81
385.112	96.81
385.337	95.81
385.562	105.81
385.787	107.81
386.013	96.81
386.238	94.81
386.463	101.81
386.688	101.81
386.913	97.81
387.138	99.81
387.363	83.81
387.588	95.81
387.813	82.81
388.038	115.81
388.263	94.81
388.488	105.81
388.713	97.81
388.938	99.81
389.163	104.81
389.387	98.81
389.612	94.81
389.837	77.81
390.062	87.81
390.287	101.81
390.512	89.81
390.736	82.81
390.961	88.81
391.186	93.81
391.411	79.81
391.636	93.81
391.86	89.81
392.085	89.81
392.31	78.81
392.534	93.81
392.759	98.81
392.984	88.81
393.208	91.81
393.433	106.81
393.658	99.81
393.882	90.81
394.107	93.81
394.331	85.81
394.556	77.81
394.78	87.81
395.005	93.81
395.229	70.81
395.454	93.81
395.678	77.81
395.903	95.81
396.127	85.81
396.352	75.81
396.576	89.81
396.801	79.81
397.025	103.81
397.249	78.81
397.474	83.81
397.698	92.81
397.922	90.81
398.147	84.81
398.371	84.81
398.595	54.81
398.82	84.81
399.044	78.81
399.268	79.81
399.492	69.81
399.717	85.81
399.941	79.81
400.165	85.81
400.389	96.81
400.613	83.81
400.837	93.81
401.062	88.81
401.286	91.81
401.51	87.81
401.734	84.81
401.958	84.81
402.182	98.81
402.406	132.81
402.63	101.81
402.854	91.81
403.078	72.81
403.302	75.81
403.526	90.81
403.75	82.81
403.974	84.81
404.198	88.81
404.422	82.81
404.645	60.81
404.869	85.81
405.093	85.81
405.317	85.81
405.541	94.81
405.765	94.81
405.988	116.81
406.212	137.81
406.436	191.81
406.66	122.81
406.883	83.81
407.107	92.81
407.331	96.81
407.555	85.81
407.778	90.81
408.002	95.81
408.226	88.81
408.449	83.81
408.673	93.81
408.896	83.81
409.12	107.81
409.344	83.81
409.567	85.81
409.791	99.81
410.014	95.81
410.238	79.81
410.461	79.81
410.685	89.81
410.908	90.81
411.132	98.81
411.355	97.81
411.578	86.81
411.802	80.81
412.025	90.81
412.249	86.81
412.472	92.81
412.695	90.81
412.919	97.81
413.142	87.81
413.365	80.81
413.589	84.81
413.812	81.81
414.035	95.81
414.258	101.81
414.482	100.81
414.705	83.81
414.928	86.81
415.151	84.81
415.374	96.81
415.597	100.81
415.821	84.81
416.044	97.81
416.267	94.81
416.49	89.81
416.713	84.81
416.936	81.81
417.159	88.81
417.382	83.81
417.605	97.81
417.828	96.81
418.051	77.81
418.274	81.81
418.497	82.81
418.72	82.81
418.943	94.81
419.166	89.81
419.389	86.81
419.611	81.81
419.834	83.81
420.057	97.81
420.28	82.81
420.503	82.81
420.726	75.81
420.948	104.81
421.171	90.81
421.394	98.81
421.617	83.81
421.839	85.81
422.062	91.81
422.285	83.81
422.507	86.81
422.73	85.81
422.953	95.81
423.175	91.81
423.398	88.81
423.621	86.81
423.843	84.81
424.066	81.81
424.288	81.81
424.511	74.81
424.733	89.81
424.956	85.81
425.178	100.81
425.401	98.81
425.623	86.81
425.846	83.81
426.068	84.81
426.291	91.81
426.513	84.81
426.735	93.81
426.958	70.81
427.18	81.81
427.402	127.81
427.625	148.81
427.847	125.81
428.069	124.81
428.292	85.81
428.514	85.81
428.736	83.81
428.958	77.81
429.181	73.81
429.403	78.81
429.625	75.81
429.847	79.81
430.069	88.81
430.292	89.81
430.514	75.81
430.736	88.81
430.958	81.81
431.18	91.81
431.402	103.81
431.624	81.81
431.846	75.81
432.068	73.81
432.29	83.81
432.512	88.81
432.734	84.81
432.956	97.81
433.178	98.81
433.4	91.81
433.622	66.81
433.844	107.81
434.066	79.81
434.287	77.81
434.509	89.81
434.731	83.81
434.953	95.81
435.175	85.81
435.397	78.81
435.618	95.81
435.84	91.81
436.062	99.81
436.284	104.81
436.505	74.81
436.727	105.81
436.949	87.81
437.17	88.81
437.392	92.81
437.614	91.81
437.835	84.81
438.057	104.81
438.278	100.81
438.5	89.81
438.721	99.81
438.943	78.81
439.165	83.81
439.386	78.81
439.608	79.81
439.829	99.81
440.05	108.81
440.272	103.81
440.493	97.81
440.715	76.81
440.936	83.81
441.158	91.81
441.379	88.81
441.6	84.81
441.822	89.81
442.043	92.81
442.264	90.81
442.486	87.81
442.707	91.81
442.928	99.81
443.149	113.81
443.371	119.81
443.592	100.81
443.813	95.81
444.034	90.81
444.255	87.81
444.476	95.81
444.698	71.81
444.919	93.81
445.14	137.81
445.361	114.81
445.582	113.81
445.803	118.81
446.024	120.81
446.245	118.81
446.466	101.81
446.687	81.81
446.908	80.81
447.129	76.81
447.35	81.81
447.571	93.81
447.792	90.81
448.013	81.81
448.234	105.81
448.455	86.81
448.675	97.81
448.896	89.81
449.117	83.81
449.338	80.81
449.559	111.81
449.779	98.81
450	86.81
450.221	77.81
450.442	85.81
450.662	90.81
450.883	102.81
451.104	106.81
451.324	84.81
451.545	87.81
451.766	95.81
451.986	90.81
452.207	92.81
452.428	82.81
452.648	78.81
452.869	102.81
453.089	98.81
453.31	106.81
453.53	102.81
453.751	77.81
453.971	88.81
454.192	101.81
454.412	98.81
454.633	88.81
454.853	93.81
455.073	78.81
455.294	75.81
455.514	75.81
455.734	79.81
455.955	93.81
456.175	97.81
456.395	81.81
456.616	87.81
456.836	94.81
457.056	89.81
457.276	83.81
457.497	96.81
457.717	66.81
457.937	101.81
458.157	91.81
458.377	100.81
458.598	91.81
458.818	125.81
459.038	129.81
459.258	105.81
459.478	74.81
459.698	68.81
459.918	71.81
460.138	82.81
460.358	87.81
460.578	84.81
460.798	91.81
461.018	83.81
461.238	80.81
461.458	74.81
461.678	79.81
461.898	74.81
462.118	90.81
462.338	77.81
462.558	87.81
462.777	76.81
462.997	79.81
463.217	71.81
463.437	91.81
463.657	85.81
463.876	88.81
464.096	94.81
464.316	89.81
464.536	73.81
464.755	87.81
464.975	107.81
465.195	127.81
465.414	111.81
465.634	93.81
465.854	99.81
466.073	84.81
466.293	76.81
466.512	89.81
466.732	80.81
466.951	79.81
467.171	93.81
467.391	81.81
467.61	92.81
467.829	99.81
468.049	145.81
468.268	169.81
468.488	102.81
468.707	82.81
468.927	81.81
469.146	71.81
469.365	88.81
469.585	85.81
469.804	81.81
470.023	91.81
470.243	98.81
470.462	107.81
470.681	92.81
470.901	85.81
471.12	83.81
471.339	94.81
471.558	86.81
471.777	99.81
471.997	97.81
472.216	205.81
472.435	321.81
472.654	133.81
472.873	95.81
473.092	82.81
473.311	74.81
473.53	82.81
473.749	86.81
473.968	67.81
474.187	88.81
474.406	89.81
474.625	90.81
474.844	75.81
475.063	72.81
475.282	74.81
475.501	85.81
475.72	99.81
475.939	75.81
476.158	79.81
476.377	63.81
476.596	88.81
476.814	85.81
477.033	98.81
477.252	82.81
477.471	76.81
477.69	84.81
477.908	91.81
478.127	83.81
478.346	95.81
478.564	99.81
478.783	86.81
479.002	96.81
479.22	90.81
479.439	92.81
479.658	97.81
479.876	85.81
480.095	85.81
480.313	90.81
480.532	97.81
480.751	124.81
480.969	206.81
481.188	577.81
481.406	360.81
481.624	115.81
481.843	90.81
482.061	83.81
482.28	85.81
482.498	76.81
482.717	81.81
482.935	70.81
483.153	92.81
483.372	74.81
483.59	87.81
483.808	101.81
484.027	85.81
484.245	85.81
484.463	73.81
484.681	97.81
484.9	83.81
485.118	99.81
485.336	104.81
485.554	107.81
485.772	94.81
485.99	92.81
486.209	89.81
486.427	109.81
486.645	106.81
486.863	118.81
487.081	107.81
487.299	96.81
487.517	82.81
487.735	91.81
487.953	75.81
488.171	98.81
488.389	83.81
488.607	106.81
488.825	88.81
489.043	81.81
489.261	97.81
489.479	83.81
489.696	87.81
489.914	101.81
490.132	84.81
490.35	89.81
490.568	84.81
490.786	107.81
491.003	82.81
491.221	75.81
491.439	87.81
491.657	86.81
491.874	82.81
492.092	77.81
492.31	90.81
492.527	84.81
492.745	103.81
492.963	83.81
493.18	98.81
493.398	89.81
493.615	93.81
493.833	85.81
494.05	87.81
494.268	74.81
494.485	87.81
494.703	95.81
494.92	80.81
495.138	70.81
495.355	71.81
495.573	81.81
495.79	82.81
496.008	78.81
496.225	93.81
496.442	91.81
496.66	81.81
496.877	84.81
497.094	91.81
497.312	95.81
497.529	101.81
497.746	83.81
497.963	87.81
498.181	84.81
498.398	97.81
498.615	102.81
498.832	93.81
499.049	86.81
499.267	90.81
499.484	100.81
499.701	83.81
499.918	89.81
500.135	87.81
500.352	95.81
500.569	79.81
500.786	96.81
501.003	90.81
501.22	96.81
501.437	94.81
501.654	88.81
501.871	111.81
502.088	88.81
502.305	93.81
502.522	81.81
502.739	97.81
502.956	85.81
503.172	94.81
503.389	82.81
503.606	93.81
503.823	94.81
504.04	94.81
504.256	90.81
504.473	95.81
504.69	92.81
504.907	87.81
505.123	85.81
505.34	79.81
505.557	81.81
505.773	98.81
505.99	92.81
506.207	96.81
506.423	84.81
506.64	80.81
506.856	85.81
507.073	96.81
507.289	89.81
507.506	81.81
507.722	101.81
507.939	97.81
508.155	90.81
508.372	93.81
508.588	86.81
508.805	93.81
509.021	90.81
509.238	91.81
509.454	74.81
509.67	89.81
509.887	103.81
510.103	126.81
510.319	183.81
510.536	592.81
510.752	1821.81
510.968	512.81
511.184	131.81
511.401	94.81
511.617	86.81
511.833	95.81
512.049	88.81
512.265	87.81
512.481	77.81
512.698	79.81
512.914	82.81
513.13	89.81
513.346	86.81
513.562	93.81
513.778	85.81
513.994	85.81
514.21	95.81
514.426	102.81
514.642	122.81
514.858	100.81
515.074	128.81
515.29	344.81
515.506	1085.81
515.721	409.81
515.937	139.81
516.153	86.81
516.369	94.81
516.585	84.81
516.801	95.81
517.016	86.81
517.232	87.81
