Data from Circ_1983_H10_HRD10591_00023.txt Node
Date: Wed Jan 03 12:26:49 EST 2024
User: Yrep
Spectrometer: HR+D1059
Trigger mode: 1
Integration Time (sec): 1.000000E-1
Scans to average: 1
Electric dark correction enabled: true
Nonlinearity correction enabled: false
Boxcar width: 0
XAxis mode: Wavelengths
Number of Pixels in Spectrum: 2048
>>>>>Begin Spectral Data<<<<<
223.165	-19.56
223.4	-19.56
223.635	-19.56
223.869	-20.56
224.104	-9.56
224.338	-15.56
224.573	-14.56
224.808	-21.56
225.042	-17.56
225.277	-1.56
225.511	12.44
225.746	-3.56
225.98	11.44
226.215	5.44
226.449	25.44
226.683	1.44
226.918	32.44
227.152	35.44
227.387	30.44
227.621	35.44
227.856	50.44
228.09	46.44
228.324	54.44
228.559	49.44
228.793	57.44
229.027	60.44
229.262	67.44
229.496	58.44
229.73	85.44
229.964	84.44
230.199	79.44
230.433	81.44
230.667	98.44
230.901	63.44
231.136	81.44
231.37	97.44
231.604	95.44
231.838	91.44
232.072	78.44
232.306	88.44
232.541	71.44
232.775	78.44
233.009	76.44
233.243	80.44
233.477	91.44
233.711	72.44
233.945	95.44
234.179	87.44
234.413	85.44
234.647	92.44
234.881	83.44
235.115	80.44
235.349	70.44
235.583	85.44
235.817	62.44
236.051	86.44
236.285	93.44
236.519	75.44
236.753	83.44
236.987	77.44
237.221	78.44
237.455	79.44
237.689	79.44
237.922	74.44
238.156	74.44
238.39	81.44
238.624	67.44
238.858	91.44
239.091	80.44
239.325	66.44
239.559	78.44
239.793	79.44
240.027	88.44
240.26	82.44
240.494	90.44
240.728	90.44
240.961	85.44
241.195	80.44
241.429	70.44
241.662	77.44
241.896	78.44
242.13	85.44
242.363	81.44
242.597	72.44
242.83	81.44
243.064	74.44
243.298	84.44
243.531	85.44
243.765	75.44
243.998	86.44
244.232	81.44
244.465	93.44
244.699	81.44
244.932	89.44
245.166	86.44
245.399	79.44
245.633	86.44
245.866	83.44
246.099	86.44
246.333	73.44
246.566	83.44
246.8	73.44
247.033	74.44
247.266	78.44
247.5	65.44
247.733	89.44
247.966	89.44
248.2	84.44
248.433	77.44
248.666	90.44
248.899	71.44
249.133	73.44
249.366	96.44
249.599	97.44
249.832	104.44
250.066	78.44
250.299	81.44
250.532	91.44
250.765	81.44
250.998	88.44
251.231	75.44
251.465	76.44
251.698	84.44
251.931	91.44
252.164	70.44
252.397	87.44
252.63	82.44
252.863	95.44
253.096	78.44
253.329	81.44
253.562	88.44
253.795	77.44
254.028	94.44
254.261	85.44
254.494	75.44
254.727	92.44
254.96	74.44
255.193	75.44
255.426	81.44
255.659	65.44
255.892	97.44
256.124	88.44
256.357	90.44
256.59	93.44
256.823	84.44
257.056	83.44
257.289	74.44
257.521	82.44
257.754	86.44
257.987	85.44
258.22	83.44
258.452	90.44
258.685	78.44
258.918	76.44
259.151	89.44
259.383	90.44
259.616	74.44
259.849	82.44
260.081	95.44
260.314	93.44
260.547	84.44
260.779	81.44
261.012	78.44
261.244	83.44
261.477	74.44
261.71	78.44
261.942	101.44
262.175	99.44
262.407	95.44
262.64	78.44
262.872	87.44
263.105	86.44
263.337	72.44
263.57	91.44
263.802	101.44
264.035	75.44
264.267	95.44
264.499	90.44
264.732	85.44
264.964	69.44
265.197	91.44
265.429	91.44
265.661	86.44
265.894	90.44
266.126	83.44
266.358	77.44
266.591	90.44
266.823	71.44
267.055	94.44
267.287	84.44
267.52	80.44
267.752	85.44
267.984	76.44
268.216	76.44
268.448	89.44
268.681	81.44
268.913	89.44
269.145	83.44
269.377	91.44
269.609	97.44
269.841	83.44
270.073	82.44
270.306	92.44
270.538	87.44
270.77	93.44
271.002	88.44
271.234	92.44
271.466	82.44
271.698	76.44
271.93	79.44
272.162	96.44
272.394	91.44
272.626	94.44
272.858	68.44
273.09	78.44
273.322	82.44
273.553	87.44
273.785	95.44
274.017	94.44
274.249	82.44
274.481	89.44
274.713	85.44
274.945	91.44
275.176	89.44
275.408	97.44
275.64	86.44
275.872	91.44
276.104	86.44
276.335	90.44
276.567	99.44
276.799	109.44
277.031	99.44
277.262	88.44
277.494	95.44
277.726	85.44
277.957	90.44
278.189	77.44
278.421	90.44
278.652	101.44
278.884	99.44
279.115	83.44
279.347	100.44
279.579	83.44
279.81	116.44
280.042	101.44
280.273	74.44
280.505	91.44
280.736	76.44
280.968	98.44
281.199	76.44
281.431	89.44
281.662	100.44
281.894	106.44
282.125	92.44
282.356	105.44
282.588	105.44
282.819	111.44
283.051	105.44
283.282	77.44
283.513	84.44
283.745	85.44
283.976	95.44
284.207	90.44
284.439	95.44
284.67	73.44
284.901	80.44
285.132	89.44
285.364	73.44
285.595	86.44
285.826	96.44
286.057	89.44
286.288	93.44
286.52	97.44
286.751	88.44
286.982	92.44
287.213	78.44
287.444	94.44
287.675	85.44
287.906	92.44
288.138	76.44
288.369	81.44
288.6	95.44
288.831	77.44
289.062	76.44
289.293	82.44
289.524	87.44
289.755	98.44
289.986	77.44
290.217	85.44
290.448	81.44
290.679	84.44
290.91	93.44
291.141	91.44
291.371	81.44
291.602	89.44
291.833	98.44
292.064	87.44
292.295	81.44
292.526	92.44
292.757	75.44
292.987	107.44
293.218	89.44
293.449	93.44
293.68	89.44
293.91	85.44
294.141	87.44
294.372	82.44
294.603	86.44
294.833	97.44
295.064	112.44
295.295	111.44
295.525	97.44
295.756	91.44
295.987	114.44
296.217	118.44
296.448	96.44
296.679	105.44
296.909	89.44
297.14	82.44
297.37	99.44
297.601	94.44
297.831	97.44
298.062	85.44
298.292	94.44
298.523	82.44
298.753	86.44
298.984	87.44
299.214	89.44
299.445	85.44
299.675	92.44
299.905	89.44
300.136	82.44
300.366	100.44
300.597	95.44
300.827	101.44
301.057	99.44
301.288	94.44
301.518	109.44
301.748	95.44
301.979	101.44
302.209	89.44
302.439	89.44
302.669	85.44
302.9	86.44
303.13	79.44
303.36	87.44
303.59	102.44
303.82	100.44
304.051	88.44
304.281	93.44
304.511	104.44
304.741	103.44
304.971	88.44
305.201	95.44
305.431	105.44
305.661	76.44
305.891	88.44
306.121	100.44
306.352	107.44
306.582	117.44
306.812	89.44
307.042	97.44
307.272	99.44
307.502	90.44
307.731	92.44
307.961	97.44
308.191	84.44
308.421	69.44
308.651	85.44
308.881	101.44
309.111	95.44
309.341	109.44
309.571	97.44
309.8	102.44
310.03	105.44
310.26	93.44
310.49	98.44
310.72	101.44
310.949	94.44
311.179	95.44
311.409	89.44
311.639	106.44
311.868	108.44
312.098	96.44
312.328	105.44
312.557	95.44
312.787	99.44
313.017	95.44
313.246	82.44
313.476	85.44
313.706	93.44
313.935	78.44
314.165	88.44
314.394	102.44
314.624	107.44
314.853	100.44
315.083	104.44
315.312	91.44
315.542	89.44
315.771	91.44
316.001	87.44
316.23	92.44
316.46	76.44
316.689	86.44
316.919	85.44
317.148	99.44
317.377	87.44
317.607	90.44
317.836	82.44
318.065	89.44
318.295	103.44
318.524	86.44
318.753	83.44
318.983	91.44
319.212	84.44
319.441	85.44
319.67	102.44
319.9	93.44
320.129	91.44
320.358	89.44
320.587	107.44
320.816	74.44
321.046	85.44
321.275	89.44
321.504	95.44
321.733	91.44
321.962	90.44
322.191	87.44
322.42	108.44
322.649	103.44
322.878	118.44
323.108	106.44
323.337	101.44
323.566	106.44
323.795	136.44
324.024	172.44
324.253	315.44
324.482	627.44
324.71	1269.44
324.939	1668.44
325.168	620.44
325.397	201.44
325.626	124.44
325.855	118.44
326.084	125.44
326.313	130.44
326.542	132.44
326.77	188.44
326.999	373.44
327.228	741.44
327.457	1311.44
327.686	1025.44
327.914	281.44
328.143	171.44
328.372	141.44
328.6	116.44
328.829	114.44
329.058	103.44
329.287	102.44
329.515	111.44
329.744	116.44
329.972	120.44
330.201	127.44
330.43	146.44
330.658	132.44
330.887	124.44
331.115	112.44
331.344	99.44
331.572	99.44
331.801	93.44
332.03	97.44
332.258	97.44
332.486	94.44
332.715	82.44
332.943	100.44
333.172	97.44
333.4	86.44
333.629	121.44
333.857	102.44
334.085	103.44
334.314	135.44
334.542	167.44
334.771	168.44
334.999	110.44
335.227	86.44
335.455	90.44
335.684	101.44
335.912	98.44
336.14	93.44
336.369	96.44
336.597	119.44
336.825	109.44
337.053	102.44
337.281	86.44
337.51	87.44
337.738	92.44
337.966	90.44
338.194	90.44
338.422	109.44
338.65	100.44
338.878	107.44
339.106	97.44
339.334	102.44
339.562	105.44
339.79	98.44
340.018	90.44
340.246	92.44
340.474	93.44
340.702	99.44
340.93	78.44
341.158	82.44
341.386	94.44
341.614	100.44
341.842	100.44
342.07	107.44
342.298	89.44
342.526	105.44
342.754	88.44
342.981	98.44
343.209	103.44
343.437	102.44
343.665	90.44
343.893	85.44
344.12	96.44
344.348	78.44
344.576	101.44
344.804	97.44
345.031	107.44
345.259	103.44
345.487	106.44
345.714	92.44
345.942	103.44
346.17	97.44
346.397	99.44
346.625	90.44
346.853	86.44
347.08	107.44
347.308	83.44
347.535	93.44
347.763	106.44
347.99	97.44
348.218	104.44
348.445	107.44
348.673	96.44
348.9	85.44
349.128	98.44
349.355	105.44
349.583	96.44
349.81	87.44
350.037	97.44
350.265	102.44
350.492	104.44
350.72	100.44
350.947	104.44
351.174	105.44
351.402	118.44
351.629	103.44
351.856	98.44
352.083	96.44
352.311	103.44
352.538	105.44
352.765	104.44
352.992	107.44
353.22	118.44
353.447	113.44
353.674	104.44
353.901	99.44
354.128	91.44
354.355	97.44
354.583	85.44
354.81	100.44
355.037	96.44
355.264	89.44
355.491	98.44
355.718	95.44
355.945	108.44
356.172	98.44
356.399	106.44
356.626	87.44
356.853	98.44
357.08	94.44
357.307	97.44
357.534	90.44
357.761	106.44
357.988	107.44
358.215	99.44
358.441	97.44
358.668	94.44
358.895	84.44
359.122	103.44
359.349	90.44
359.576	93.44
359.802	93.44
360.029	95.44
360.256	115.44
360.483	93.44
360.709	85.44
360.936	75.44
361.163	86.44
361.39	86.44
361.616	106.44
361.843	95.44
362.07	93.44
362.296	90.44
362.523	105.44
362.749	92.44
362.976	77.44
363.203	94.44
363.429	89.44
363.656	90.44
363.882	90.44
364.109	105.44
364.335	90.44
364.562	85.44
364.788	90.44
365.015	89.44
365.241	81.44
365.468	118.44
365.694	96.44
365.92	104.44
366.147	94.44
366.373	78.44
366.599	107.44
366.826	87.44
367.052	88.44
367.278	78.44
367.505	86.44
367.731	89.44
367.957	93.44
368.184	83.44
368.41	105.44
368.636	97.44
368.862	102.44
369.089	85.44
369.315	105.44
369.541	94.44
369.767	85.44
369.993	73.44
370.219	103.44
370.445	85.44
370.672	85.44
370.898	110.44
371.124	99.44
371.35	107.44
371.576	108.44
371.802	91.44
372.028	114.44
372.254	86.44
372.48	92.44
372.706	93.44
372.932	86.44
373.158	82.44
373.384	84.44
373.61	91.44
373.835	100.44
374.061	95.44
374.287	89.44
374.513	94.44
374.739	85.44
374.965	90.44
375.191	91.44
375.416	83.44
375.642	107.44
375.868	100.44
376.094	105.44
376.319	93.44
376.545	102.44
376.771	97.44
376.997	102.44
377.222	93.44
377.448	95.44
377.674	103.44
377.899	87.44
378.125	106.44
378.35	111.44
378.576	90.44
378.802	97.44
379.027	85.44
379.253	104.44
379.478	89.44
379.704	108.44
379.929	101.44
380.155	99.44
380.38	103.44
380.606	92.44
380.831	100.44
381.057	101.44
381.282	111.44
381.507	98.44
381.733	98.44
381.958	93.44
382.184	99.44
382.409	109.44
382.634	114.44
382.86	104.44
383.085	114.44
383.31	101.44
383.535	105.44
383.761	108.44
383.986	103.44
384.211	101.44
384.436	110.44
384.662	119.44
384.887	117.44
385.112	120.44
385.337	114.44
385.562	114.44
385.787	117.44
386.013	124.44
386.238	133.44
386.463	109.44
386.688	119.44
386.913	124.44
387.138	120.44
387.363	107.44
387.588	102.44
387.813	104.44
388.038	121.44
388.263	129.44
388.488	129.44
388.713	108.44
388.938	99.44
389.163	106.44
389.387	101.44
389.612	101.44
389.837	100.44
390.062	89.44
390.287	79.44
390.512	90.44
390.736	91.44
390.961	81.44
391.186	89.44
391.411	91.44
391.636	85.44
391.86	98.44
392.085	109.44
392.31	97.44
392.534	95.44
392.759	90.44
392.984	99.44
393.208	113.44
393.433	145.44
393.658	122.44
393.882	91.44
394.107	88.44
394.331	85.44
394.556	87.44
394.78	101.44
395.005	82.44
395.229	100.44
395.454	78.44
395.678	93.44
395.903	82.44
396.127	86.44
396.352	88.44
396.576	90.44
396.801	106.44
397.025	111.44
397.249	103.44
397.474	77.44
397.698	105.44
397.922	100.44
398.147	96.44
398.371	93.44
398.595	91.44
398.82	81.44
399.044	85.44
399.268	75.44
399.492	91.44
399.717	85.44
399.941	90.44
400.165	85.44
400.389	87.44
400.613	90.44
400.837	87.44
401.062	93.44
401.286	98.44
401.51	85.44
401.734	89.44
401.958	98.44
402.182	115.44
402.406	129.44
402.63	105.44
402.854	93.44
403.078	81.44
403.302	86.44
403.526	84.44
403.75	82.44
403.974	99.44
404.198	82.44
404.422	82.44
404.645	76.44
404.869	102.44
405.093	91.44
405.317	94.44
405.541	92.44
405.765	96.44
405.988	98.44
406.212	157.44
406.436	184.44
406.66	125.44
406.883	102.44
407.107	87.44
407.331	95.44
407.555	96.44
407.778	96.44
408.002	85.44
408.226	99.44
408.449	86.44
408.673	91.44
408.896	88.44
409.12	97.44
409.344	84.44
409.567	93.44
409.791	93.44
410.014	107.44
410.238	99.44
410.461	110.44
410.685	97.44
410.908	102.44
411.132	106.44
411.355	93.44
411.578	103.44
411.802	107.44
412.025	88.44
412.249	98.44
412.472	93.44
412.695	94.44
412.919	89.44
413.142	89.44
413.365	87.44
413.589	81.44
413.812	83.44
414.035	85.44
414.258	85.44
414.482	92.44
414.705	95.44
414.928	81.44
415.151	97.44
415.374	82.44
415.597	82.44
415.821	89.44
416.044	92.44
416.267	78.44
416.49	86.44
416.713	81.44
416.936	95.44
417.159	91.44
417.382	97.44
417.605	97.44
417.828	99.44
418.051	87.44
418.274	89.44
418.497	75.44
418.72	95.44
418.943	99.44
419.166	94.44
419.389	69.44
419.611	96.44
419.834	90.44
420.057	89.44
420.28	89.44
420.503	93.44
420.726	75.44
420.948	91.44
421.171	107.44
421.394	91.44
421.617	98.44
421.839	101.44
422.062	82.44
422.285	89.44
422.507	109.44
422.73	106.44
422.953	82.44
423.175	93.44
423.398	88.44
423.621	81.44
423.843	79.44
424.066	87.44
424.288	82.44
424.511	81.44
424.733	87.44
424.956	111.44
425.178	96.44
425.401	93.44
425.623	99.44
425.846	103.44
426.068	84.44
426.291	83.44
426.513	92.44
426.735	90.44
426.958	86.44
427.18	104.44
427.402	123.44
427.625	129.44
427.847	139.44
428.069	110.44
428.292	94.44
428.514	91.44
428.736	89.44
428.958	77.44
429.181	84.44
429.403	79.44
429.625	78.44
429.847	95.44
430.069	91.44
430.292	89.44
430.514	77.44
430.736	88.44
430.958	91.44
431.18	94.44
431.402	91.44
431.624	78.44
431.846	79.44
432.068	89.44
432.29	82.44
432.512	94.44
432.734	92.44
432.956	87.44
433.178	101.44
433.4	111.44
433.622	96.44
433.844	87.44
434.066	87.44
434.287	88.44
434.509	94.44
434.731	82.44
434.953	93.44
435.175	93.44
435.397	89.44
435.618	100.44
435.84	98.44
436.062	107.44
436.284	106.44
436.505	93.44
436.727	104.44
436.949	97.44
437.17	89.44
437.392	94.44
437.614	88.44
437.835	108.44
438.057	101.44
438.278	87.44
438.5	95.44
438.721	111.44
438.943	102.44
439.165	85.44
439.386	105.44
439.608	85.44
439.829	90.44
440.05	113.44
440.272	117.44
440.493	90.44
440.715	78.44
440.936	74.44
441.158	83.44
441.379	85.44
441.6	93.44
441.822	112.44
442.043	93.44
442.264	91.44
442.486	85.44
442.707	82.44
442.928	93.44
443.149	110.44
443.371	132.44
443.592	103.44
443.813	99.44
444.034	95.44
444.255	94.44
444.476	85.44
444.698	94.44
444.919	78.44
445.14	135.44
445.361	123.44
445.582	108.44
445.803	117.44
446.024	124.44
446.245	129.44
446.466	111.44
446.687	93.44
446.908	72.44
447.129	93.44
447.35	83.44
447.571	101.44
447.792	102.44
448.013	84.44
448.234	99.44
448.455	85.44
448.675	98.44
448.896	98.44
449.117	78.44
449.338	96.44
449.559	109.44
449.779	118.44
450	93.44
450.221	82.44
450.442	88.44
450.662	94.44
450.883	109.44
451.104	98.44
451.324	83.44
451.545	83.44
451.766	86.44
451.986	85.44
452.207	96.44
452.428	83.44
452.648	98.44
452.869	106.44
453.089	105.44
453.31	98.44
453.53	86.44
453.751	86.44
453.971	97.44
454.192	107.44
454.412	85.44
454.633	81.44
454.853	89.44
455.073	85.44
455.294	84.44
455.514	89.44
455.734	87.44
455.955	84.44
456.175	82.44
456.395	86.44
456.616	97.44
456.836	96.44
457.056	85.44
457.276	100.44
457.497	85.44
457.717	80.44
457.937	89.44
458.157	81.44
458.377	82.44
458.598	119.44
458.818	142.44
459.038	149.44
459.258	107.44
459.478	95.44
459.698	87.44
459.918	95.44
460.138	71.44
460.358	95.44
460.578	85.44
460.798	93.44
461.018	99.44
461.238	78.44
461.458	85.44
461.678	93.44
461.898	83.44
462.118	86.44
462.338	77.44
462.558	92.44
462.777	110.44
462.997	87.44
463.217	91.44
463.437	86.44
463.657	79.44
463.876	76.44
464.096	84.44
464.316	93.44
464.536	96.44
464.755	89.44
464.975	97.44
465.195	136.44
465.414	124.44
465.634	98.44
465.854	93.44
466.073	92.44
466.293	93.44
466.512	76.44
466.732	79.44
466.951	83.44
467.171	74.44
467.391	99.44
467.61	107.44
467.829	96.44
468.049	101.44
468.268	103.44
468.488	91.44
468.707	93.44
468.927	79.44
469.146	101.44
469.365	90.44
469.585	90.44
469.804	86.44
470.023	93.44
470.243	92.44
470.462	99.44
470.681	110.44
470.901	85.44
471.12	89.44
471.339	88.44
471.558	95.44
471.777	99.44
471.997	104.44
472.216	129.44
472.435	177.44
472.654	91.44
472.873	97.44
473.092	86.44
473.311	70.44
473.53	82.44
473.749	87.44
473.968	98.44
474.187	91.44
474.406	92.44
474.625	95.44
474.844	93.44
475.063	80.44
475.282	78.44
475.501	89.44
475.72	86.44
475.939	86.44
476.158	93.44
476.377	92.44
476.596	89.44
476.814	89.44
477.033	82.44
477.252	92.44
477.471	82.44
477.69	100.44
477.908	83.44
478.127	79.44
478.346	76.44
478.564	85.44
478.783	101.44
479.002	90.44
479.22	104.44
479.439	98.44
479.658	85.44
479.876	99.44
480.095	89.44
480.313	102.44
480.532	84.44
480.751	98.44
480.969	139.44
481.188	297.44
481.406	191.44
481.624	92.44
481.843	85.44
482.061	78.44
482.28	93.44
482.498	99.44
482.717	97.44
482.935	99.44
483.153	78.44
483.372	85.44
483.59	93.44
483.808	99.44
484.027	89.44
484.245	87.44
484.463	93.44
484.681	94.44
484.9	97.44
485.118	101.44
485.336	89.44
485.554	101.44
485.772	91.44
485.99	112.44
486.209	111.44
486.427	113.44
486.645	119.44
486.863	107.44
487.081	94.44
487.299	93.44
487.517	98.44
487.735	101.44
487.953	105.44
488.171	100.44
488.389	101.44
488.607	100.44
488.825	78.44
489.043	86.44
489.261	94.44
489.479	85.44
489.696	86.44
489.914	85.44
490.132	102.44
490.35	82.44
490.568	89.44
490.786	90.44
491.003	93.44
491.221	89.44
491.439	94.44
491.657	83.44
491.874	92.44
492.092	97.44
492.31	104.44
492.527	89.44
492.745	95.44
492.963	97.44
493.18	95.44
493.398	95.44
493.615	102.44
493.833	106.44
494.05	75.44
494.268	93.44
494.485	105.44
494.703	88.44
494.92	98.44
495.138	104.44
495.355	91.44
495.573	79.44
495.79	83.44
496.008	85.44
496.225	89.44
496.442	90.44
496.66	105.44
496.877	106.44
497.094	86.44
497.312	86.44
497.529	90.44
497.746	92.44
497.963	94.44
498.181	91.44
498.398	98.44
498.615	100.44
498.832	108.44
499.049	91.44
499.267	83.44
499.484	99.44
499.701	87.44
499.918	89.44
500.135	89.44
500.352	106.44
500.569	94.44
500.786	86.44
501.003	79.44
501.22	84.44
501.437	87.44
501.654	100.44
501.871	109.44
502.088	92.44
502.305	92.44
502.522	90.44
502.739	93.44
502.956	95.44
503.172	88.44
503.389	95.44
503.606	101.44
503.823	98.44
504.04	87.44
504.256	87.44
504.473	86.44
504.69	88.44
504.907	98.44
505.123	94.44
505.34	87.44
505.557	84.44
505.773	99.44
505.99	87.44
506.207	91.44
506.423	96.44
506.64	83.44
506.856	107.44
507.073	74.44
507.289	97.44
507.506	89.44
507.722	96.44
507.939	93.44
508.155	97.44
508.372	89.44
508.588	97.44
508.805	85.44
509.021	100.44
509.238	100.44
509.454	94.44
509.67	98.44
509.887	101.44
510.103	124.44
510.319	171.44
510.536	595.44
510.752	1733.44
510.968	502.44
511.184	136.44
511.401	86.44
511.617	86.44
511.833	90.44
512.049	107.44
512.265	92.44
512.481	93.44
512.698	92.44
512.914	97.44
513.13	85.44
513.346	84.44
513.562	87.44
513.778	87.44
513.994	82.44
514.21	111.44
514.426	110.44
514.642	111.44
514.858	111.44
515.074	131.44
515.29	348.44
