Data from Circ_1983_H10_HRD10591_00001.txt Node
Date: Wed Jan 03 12:26:45 EST 2024
User: Yrep
Spectrometer: HR+D1059
Trigger mode: 1
Integration Time (sec): 1.000000E-1
Scans to average: 1
Electric dark correction enabled: true
Nonlinearity correction enabled: false
Boxcar width: 0
XAxis mode: Wavelengths
Number of Pixels in Spectrum: 2048
>>>>>Begin Spectral Data<<<<<
223.165	-29.06
223.4	-29.06
223.635	-29.06
223.869	-17.06
224.104	-25.06
224.338	-12.06
224.573	-7.06
224.808	-19.06
225.042	0.94
225.277	8.94
225.511	-11.06
225.746	-2.06
225.98	4.94
226.215	18.94
226.449	20.94
226.683	20.94
226.918	25.94
227.152	20.94
227.387	50.94
227.621	46.94
227.856	55.94
228.09	40.94
228.324	53.94
228.559	54.94
228.793	59.94
229.027	64.94
229.262	68.94
229.496	82.94
229.73	73.94
229.964	64.94
230.199	72.94
230.433	80.94
230.667	68.94
230.901	89.94
231.136	76.94
231.37	66.94
231.604	83.94
231.838	82.94
232.072	83.94
232.306	84.94
232.541	77.94
232.775	90.94
233.009	80.94
233.243	73.94
233.477	80.94
233.711	77.94
233.945	82.94
234.179	67.94
234.413	71.94
234.647	72.94
234.881	65.94
235.115	68.94
235.349	77.94
235.583	76.94
235.817	76.94
236.051	77.94
236.285	97.94
236.519	90.94
236.753	78.94
236.987	74.94
237.221	76.94
237.455	81.94
237.689	75.94
237.922	76.94
238.156	80.94
238.39	68.94
238.624	77.94
238.858	80.94
239.091	79.94
239.325	90.94
239.559	89.94
239.793	87.94
240.027	82.94
240.26	82.94
240.494	73.94
240.728	69.94
240.961	80.94
241.195	70.94
241.429	57.94
241.662	87.94
241.896	82.94
242.13	72.94
242.363	75.94
242.597	76.94
242.83	76.94
243.064	71.94
243.298	84.94
243.531	97.94
243.765	86.94
243.998	84.94
244.232	91.94
244.465	74.94
244.699	94.94
244.932	82.94
245.166	88.94
245.399	81.94
245.633	75.94
245.866	78.94
246.099	84.94
246.333	87.94
246.566	77.94
246.8	75.94
247.033	77.94
247.266	66.94
247.5	81.94
247.733	80.94
247.966	93.94
248.2	75.94
248.433	83.94
248.666	85.94
248.899	92.94
249.133	80.94
249.366	85.94
249.599	86.94
249.832	81.94
250.066	81.94
250.299	90.94
250.532	86.94
250.765	98.94
250.998	85.94
251.231	80.94
251.465	68.94
251.698	74.94
251.931	86.94
252.164	84.94
252.397	84.94
252.63	85.94
252.863	81.94
253.096	89.94
253.329	77.94
253.562	73.94
253.795	78.94
254.028	80.94
254.261	74.94
254.494	81.94
254.727	94.94
254.96	82.94
255.193	78.94
255.426	81.94
255.659	80.94
255.892	82.94
256.124	91.94
256.357	85.94
256.59	77.94
256.823	71.94
257.056	83.94
257.289	80.94
257.521	96.94
257.754	85.94
257.987	81.94
258.22	77.94
258.452	85.94
258.685	90.94
258.918	90.94
259.151	77.94
259.383	85.94
259.616	75.94
259.849	84.94
260.081	75.94
260.314	73.94
260.547	67.94
260.779	77.94
261.012	72.94
261.244	80.94
261.477	88.94
261.71	95.94
261.942	94.94
262.175	85.94
262.407	88.94
262.64	91.94
262.872	76.94
263.105	64.94
263.337	92.94
263.57	88.94
263.802	75.94
264.035	70.94
264.267	68.94
264.499	76.94
264.732	89.94
264.964	88.94
265.197	87.94
265.429	89.94
265.661	86.94
265.894	83.94
266.126	80.94
266.358	92.94
266.591	80.94
266.823	78.94
267.055	80.94
267.287	88.94
267.52	93.94
267.752	88.94
267.984	79.94
268.216	73.94
268.448	82.94
268.681	75.94
268.913	78.94
269.145	87.94
269.377	82.94
269.609	77.94
269.841	91.94
270.073	73.94
270.306	105.94
270.538	88.94
270.77	85.94
271.002	77.94
271.234	91.94
271.466	96.94
271.698	96.94
271.93	96.94
272.162	88.94
272.394	88.94
272.626	80.94
272.858	95.94
273.09	95.94
273.322	96.94
273.553	102.94
273.785	89.94
274.017	91.94
274.249	84.94
274.481	87.94
274.713	86.94
274.945	93.94
275.176	87.94
275.408	70.94
275.64	85.94
275.872	97.94
276.104	87.94
276.335	84.94
276.567	96.94
276.799	98.94
277.031	78.94
277.262	79.94
277.494	77.94
277.726	90.94
277.957	87.94
278.189	83.94
278.421	97.94
278.652	80.94
278.884	95.94
279.115	88.94
279.347	90.94
279.579	89.94
279.81	97.94
280.042	91.94
280.273	95.94
280.505	76.94
280.736	91.94
280.968	76.94
281.199	88.94
281.431	89.94
281.662	83.94
281.894	92.94
282.125	93.94
282.356	109.94
282.588	106.94
282.819	99.94
283.051	88.94
283.282	82.94
283.513	78.94
283.745	88.94
283.976	74.94
284.207	87.94
284.439	70.94
284.67	78.94
284.901	86.94
285.132	88.94
285.364	109.94
285.595	80.94
285.826	88.94
286.057	92.94
286.288	86.94
286.52	94.94
286.751	92.94
286.982	97.94
287.213	83.94
287.444	86.94
287.675	90.94
287.906	77.94
288.138	95.94
288.369	88.94
288.6	92.94
288.831	80.94
289.062	89.94
289.293	83.94
289.524	93.94
289.755	91.94
289.986	91.94
290.217	86.94
290.448	97.94
290.679	89.94
290.91	108.94
291.141	75.94
291.371	78.94
291.602	96.94
291.833	102.94
292.064	94.94
292.295	83.94
292.526	91.94
292.757	81.94
292.987	93.94
293.218	82.94
293.449	81.94
293.68	78.94
293.91	100.94
294.141	88.94
294.372	88.94
294.603	101.94
294.833	76.94
295.064	88.94
295.295	86.94
295.525	72.94
295.756	93.94
295.987	103.94
296.217	121.94
296.448	114.94
296.679	96.94
296.909	88.94
297.14	94.94
297.37	99.94
297.601	86.94
297.831	83.94
298.062	97.94
298.292	83.94
298.523	94.94
298.753	98.94
298.984	83.94
299.214	90.94
299.445	82.94
299.675	101.94
299.905	91.94
300.136	93.94
300.366	95.94
300.597	88.94
300.827	105.94
301.057	88.94
301.288	89.94
301.518	91.94
301.748	86.94
301.979	98.94
302.209	91.94
302.439	82.94
302.669	75.94
302.9	95.94
303.13	81.94
303.36	92.94
303.59	107.94
303.82	104.94
304.051	104.94
304.281	89.94
304.511	102.94
304.741	85.94
304.971	89.94
305.201	81.94
305.431	85.94
305.661	85.94
305.891	92.94
306.121	95.94
306.352	119.94
306.582	89.94
306.812	101.94
307.042	109.94
307.272	92.94
307.502	90.94
307.731	105.94
307.961	73.94
308.191	84.94
308.421	85.94
308.651	93.94
308.881	84.94
309.111	97.94
309.341	91.94
309.571	86.94
309.8	102.94
310.03	97.94
310.26	92.94
310.49	98.94
310.72	102.94
310.949	90.94
311.179	99.94
311.409	102.94
311.639	100.94
311.868	106.94
312.098	98.94
312.328	90.94
312.557	90.94
312.787	94.94
313.017	86.94
313.246	77.94
313.476	93.94
313.706	97.94
313.935	76.94
314.165	88.94
314.394	87.94
314.624	104.94
314.853	94.94
315.083	96.94
315.312	104.94
315.542	96.94
315.771	77.94
316.001	77.94
316.23	100.94
316.46	108.94
316.689	93.94
316.919	85.94
317.148	88.94
317.377	90.94
317.607	104.94
317.836	89.94
318.065	97.94
318.295	99.94
318.524	100.94
318.753	90.94
318.983	92.94
319.212	84.94
319.441	88.94
319.67	85.94
319.9	92.94
320.129	102.94
320.358	101.94
320.587	95.94
320.816	95.94
321.046	93.94
321.275	98.94
321.504	97.94
321.733	86.94
321.962	103.94
322.191	104.94
322.42	99.94
322.649	116.94
322.878	104.94
323.108	108.94
323.337	107.94
323.566	111.94
323.795	114.94
324.024	177.94
324.253	276.94
324.482	540.94
324.71	1080.94
324.939	1394.94
325.168	539.94
325.397	184.94
325.626	123.94
325.855	121.94
326.084	97.94
326.313	123.94
326.542	133.94
326.77	185.94
326.999	301.94
327.228	642.94
327.457	1136.94
327.686	903.94
327.914	269.94
328.143	137.94
328.372	110.94
328.6	106.94
328.829	97.94
329.058	115.94
329.287	104.94
329.515	103.94
329.744	94.94
329.972	102.94
330.201	110.94
330.43	120.94
330.658	105.94
330.887	117.94
331.115	104.94
331.344	101.94
331.572	110.94
331.801	102.94
332.03	101.94
332.258	89.94
332.486	96.94
332.715	96.94
332.943	83.94
333.172	93.94
333.4	108.94
333.629	89.94
333.857	103.94
334.085	96.94
334.314	100.94
334.542	121.94
334.771	125.94
334.999	110.94
335.227	81.94
335.455	94.94
335.684	97.94
335.912	93.94
336.14	94.94
336.369	88.94
336.597	88.94
336.825	100.94
337.053	107.94
337.281	106.94
337.51	94.94
337.738	95.94
337.966	91.94
338.194	92.94
338.422	92.94
338.65	93.94
338.878	92.94
339.106	92.94
339.334	80.94
339.562	97.94
339.79	96.94
340.018	99.94
340.246	97.94
340.474	91.94
340.702	98.94
340.93	89.94
341.158	105.94
341.386	99.94
341.614	84.94
341.842	105.94
342.07	90.94
342.298	100.94
342.526	100.94
342.754	92.94
342.981	101.94
343.209	100.94
343.437	109.94
343.665	87.94
343.893	87.94
344.12	80.94
344.348	77.94
344.576	75.94
344.804	86.94
345.031	92.94
345.259	93.94
345.487	100.94
345.714	104.94
345.942	91.94
346.17	96.94
346.397	106.94
346.625	88.94
346.853	88.94
347.08	92.94
347.308	105.94
347.535	87.94
347.763	99.94
347.99	99.94
348.218	98.94
348.445	100.94
348.673	90.94
348.9	73.94
349.128	94.94
349.355	89.94
349.583	93.94
349.81	94.94
350.037	102.94
350.265	110.94
350.492	81.94
350.72	100.94
350.947	76.94
351.174	88.94
351.402	100.94
351.629	105.94
351.856	92.94
352.083	105.94
352.311	99.94
352.538	95.94
352.765	110.94
352.992	104.94
353.22	117.94
353.447	101.94
353.674	95.94
353.901	96.94
354.128	101.94
354.355	96.94
354.583	101.94
354.81	98.94
355.037	105.94
355.264	90.94
355.491	103.94
355.718	115.94
355.945	104.94
356.172	104.94
356.399	98.94
356.626	102.94
356.853	91.94
357.08	93.94
357.307	99.94
357.534	96.94
357.761	107.94
357.988	106.94
358.215	107.94
358.441	100.94
358.668	111.94
358.895	100.94
359.122	101.94
359.349	95.94
359.576	98.94
359.802	96.94
360.029	109.94
360.256	98.94
360.483	84.94
360.709	85.94
360.936	109.94
361.163	99.94
361.39	83.94
361.616	90.94
361.843	82.94
362.07	95.94
362.296	102.94
362.523	85.94
362.749	89.94
362.976	97.94
363.203	91.94
363.429	98.94
363.656	94.94
363.882	98.94
364.109	101.94
364.335	90.94
364.562	103.94
364.788	93.94
365.015	97.94
365.241	105.94
365.468	91.94
365.694	100.94
365.92	91.94
366.147	88.94
366.373	89.94
366.599	96.94
366.826	85.94
367.052	88.94
367.278	104.94
367.505	82.94
367.731	93.94
367.957	91.94
368.184	94.94
368.41	85.94
368.636	99.94
368.862	121.94
369.089	108.94
369.315	97.94
369.541	93.94
369.767	92.94
369.993	81.94
370.219	92.94
370.445	84.94
370.672	87.94
370.898	74.94
371.124	82.94
371.35	80.94
371.576	101.94
371.802	96.94
372.028	84.94
372.254	91.94
372.48	90.94
372.706	97.94
372.932	100.94
373.158	98.94
373.384	106.94
373.61	105.94
373.835	109.94
374.061	101.94
374.287	83.94
374.513	91.94
374.739	100.94
374.965	93.94
375.191	105.94
375.416	95.94
375.642	103.94
375.868	91.94
376.094	114.94
376.319	96.94
376.545	87.94
376.771	85.94
376.997	96.94
377.222	96.94
377.448	103.94
377.674	99.94
377.899	96.94
378.125	96.94
378.35	105.94
378.576	96.94
378.802	101.94
379.027	107.94
379.253	103.94
379.478	108.94
379.704	89.94
379.929	100.94
380.155	102.94
380.38	109.94
380.606	100.94
380.831	107.94
381.057	109.94
381.282	102.94
381.507	101.94
381.733	103.94
381.958	101.94
382.184	101.94
382.409	113.94
382.634	117.94
382.86	113.94
383.085	116.94
383.31	114.94
383.535	136.94
383.761	106.94
383.986	118.94
384.211	115.94
384.436	128.94
384.662	125.94
384.887	139.94
385.112	145.94
385.337	150.94
385.562	146.94
385.787	144.94
386.013	148.94
386.238	144.94
386.463	138.94
386.688	139.94
386.913	139.94
387.138	150.94
387.363	134.94
387.588	122.94
387.813	123.94
388.038	136.94
388.263	156.94
388.488	151.94
388.713	104.94
388.938	97.94
389.163	115.94
389.387	97.94
389.612	91.94
389.837	107.94
390.062	98.94
390.287	90.94
390.512	87.94
390.736	96.94
390.961	84.94
391.186	99.94
391.411	99.94
391.636	97.94
391.86	77.94
392.085	84.94
392.31	90.94
392.534	82.94
392.759	100.94
392.984	96.94
393.208	135.94
393.433	155.94
393.658	141.94
393.882	94.94
394.107	87.94
394.331	86.94
394.556	80.94
394.78	84.94
395.005	98.94
395.229	86.94
395.454	98.94
395.678	83.94
395.903	102.94
396.127	85.94
396.352	85.94
396.576	94.94
396.801	111.94
397.025	120.94
397.249	99.94
397.474	86.94
397.698	100.94
397.922	88.94
398.147	97.94
398.371	92.94
398.595	87.94
398.82	94.94
399.044	99.94
399.268	97.94
399.492	80.94
399.717	74.94
399.941	81.94
400.165	92.94
400.389	90.94
400.613	83.94
400.837	75.94
401.062	86.94
401.286	77.94
401.51	76.94
401.734	87.94
401.958	99.94
402.182	109.94
402.406	117.94
402.63	112.94
402.854	99.94
403.078	89.94
403.302	92.94
403.526	89.94
403.75	83.94
403.974	82.94
404.198	100.94
404.422	109.94
404.645	109.94
404.869	95.94
405.093	86.94
405.317	97.94
405.541	109.94
405.765	101.94
405.988	109.94
406.212	137.94
406.436	168.94
406.66	116.94
406.883	124.94
407.107	76.94
407.331	94.94
407.555	91.94
407.778	100.94
408.002	88.94
408.226	94.94
408.449	100.94
408.673	98.94
408.896	84.94
409.12	90.94
409.344	83.94
409.567	84.94
409.791	105.94
410.014	105.94
410.238	94.94
410.461	92.94
410.685	79.94
410.908	101.94
411.132	109.94
411.355	108.94
411.578	90.94
411.802	81.94
412.025	87.94
412.249	84.94
412.472	86.94
412.695	90.94
412.919	88.94
413.142	89.94
413.365	98.94
413.589	97.94
413.812	81.94
414.035	82.94
414.258	87.94
414.482	77.94
414.705	97.94
414.928	93.94
415.151	103.94
415.374	92.94
415.597	92.94
415.821	89.94
416.044	102.94
416.267	96.94
416.49	115.94
416.713	88.94
416.936	88.94
417.159	82.94
417.382	96.94
417.605	100.94
417.828	94.94
418.051	89.94
418.274	88.94
418.497	84.94
418.72	99.94
418.943	94.94
419.166	86.94
419.389	90.94
419.611	99.94
419.834	100.94
420.057	102.94
420.28	76.94
420.503	90.94
420.726	100.94
420.948	94.94
421.171	89.94
421.394	86.94
421.617	89.94
421.839	97.94
422.062	96.94
422.285	81.94
422.507	107.94
422.73	114.94
422.953	120.94
423.175	91.94
423.398	76.94
423.621	89.94
423.843	91.94
424.066	78.94
424.288	88.94
424.511	92.94
424.733	94.94
424.956	109.94
425.178	105.94
425.401	92.94
425.623	105.94
425.846	88.94
426.068	87.94
426.291	85.94
426.513	78.94
426.735	82.94
426.958	94.94
427.18	86.94
427.402	110.94
427.625	122.94
427.847	117.94
428.069	114.94
428.292	97.94
428.514	87.94
428.736	91.94
428.958	86.94
429.181	93.94
429.403	95.94
429.625	82.94
429.847	94.94
430.069	84.94
430.292	98.94
430.514	105.94
430.736	82.94
430.958	92.94
431.18	96.94
431.402	92.94
431.624	97.94
431.846	82.94
432.068	80.94
432.29	80.94
432.512	78.94
432.734	100.94
432.956	85.94
433.178	91.94
433.4	97.94
433.622	74.94
433.844	98.94
434.066	85.94
434.287	92.94
434.509	92.94
434.731	98.94
434.953	86.94
435.175	95.94
435.397	72.94
435.618	82.94
435.84	96.94
436.062	101.94
436.284	101.94
436.505	101.94
436.727	90.94
436.949	97.94
437.17	92.94
437.392	86.94
437.614	98.94
437.835	98.94
438.057	101.94
438.278	83.94
438.5	89.94
438.721	105.94
438.943	99.94
439.165	106.94
439.386	93.94
439.608	90.94
439.829	84.94
440.05	91.94
440.272	105.94
440.493	105.94
440.715	85.94
440.936	75.94
441.158	80.94
441.379	100.94
441.6	84.94
441.822	96.94
442.043	81.94
442.264	89.94
442.486	100.94
442.707	76.94
442.928	98.94
443.149	113.94
443.371	99.94
443.592	93.94
443.813	102.94
444.034	103.94
444.255	90.94
444.476	98.94
444.698	89.94
444.919	85.94
445.14	135.94
445.361	112.94
445.582	96.94
445.803	110.94
446.024	118.94
446.245	110.94
446.466	80.94
446.687	80.94
446.908	106.94
447.129	85.94
447.35	77.94
447.571	84.94
447.792	72.94
448.013	94.94
448.234	73.94
448.455	90.94
448.675	112.94
448.896	111.94
449.117	108.94
449.338	102.94
449.559	92.94
449.779	114.94
450	88.94
450.221	84.94
450.442	86.94
450.662	107.94
450.883	86.94
451.104	93.94
451.324	110.94
451.545	89.94
451.766	108.94
451.986	94.94
452.207	83.94
452.428	82.94
452.648	90.94
452.869	106.94
453.089	100.94
453.31	112.94
453.53	93.94
453.751	85.94
453.971	85.94
454.192	100.94
454.412	72.94
454.633	86.94
454.853	86.94
455.073	86.94
455.294	97.94
455.514	82.94
455.734	85.94
455.955	94.94
456.175	84.94
456.395	85.94
456.616	85.94
456.836	94.94
457.056	81.94
457.276	93.94
457.497	90.94
457.717	88.94
457.937	72.94
458.157	93.94
458.377	88.94
458.598	88.94
458.818	113.94
459.038	119.94
459.258	88.94
459.478	81.94
459.698	82.94
459.918	82.94
460.138	92.94
460.358	74.94
460.578	100.94
460.798	99.94
461.018	84.94
461.238	74.94
461.458	84.94
461.678	94.94
461.898	84.94
462.118	75.94
462.338	91.94
462.558	93.94
462.777	105.94
462.997	88.94
463.217	88.94
463.437	77.94
463.657	108.94
463.876	96.94
464.096	86.94
464.316	92.94
464.536	84.94
464.755	87.94
464.975	95.94
465.195	122.94
465.414	115.94
465.634	68.94
465.854	93.94
466.073	92.94
466.293	96.94
466.512	88.94
466.732	88.94
466.951	84.94
467.171	100.94
467.391	107.94
467.61	109.94
467.829	87.94
468.049	90.94
468.268	100.94
468.488	94.94
468.707	84.94
468.927	87.94
469.146	78.94
469.365	90.94
469.585	89.94
469.804	93.94
470.023	86.94
470.243	93.94
470.462	97.94
470.681	104.94
470.901	81.94
471.12	82.94
471.339	94.94
471.558	91.94
471.777	84.94
471.997	106.94
472.216	110.94
472.435	99.94
472.654	90.94
472.873	85.94
473.092	88.94
473.311	82.94
473.53	96.94
473.749	96.94
473.968	82.94
474.187	97.94
474.406	86.94
474.625	97.94
474.844	86.94
475.063	93.94
475.282	84.94
475.501	86.94
475.72	94.94
475.939	86.94
476.158	92.94
476.377	88.94
476.596	98.94
476.814	92.94
477.033	93.94
477.252	100.94
477.471	80.94
477.69	102.94
477.908	89.94
478.127	86.94
478.346	101.94
478.564	85.94
478.783	95.94
479.002	101.94
479.22	87.94
479.439	88.94
479.658	89.94
479.876	88.94
480.095	84.94
480.313	92.94
480.532	95.94
480.751	103.94
480.969	97.94
481.188	146.94
481.406	121.94
481.624	92.94
481.843	92.94
482.061	81.94
482.28	91.94
482.498	95.94
482.717	88.94
482.935	96.94
483.153	96.94
483.372	91.94
483.59	90.94
483.808	89.94
484.027	100.94
484.245	90.94
484.463	88.94
484.681	89.94
484.9	103.94
485.118	95.94
485.336	92.94
485.554	109.94
485.772	95.94
485.99	105.94
486.209	113.94
486.427	108.94
486.645	118.94
486.863	99.94
487.081	79.94
487.299	92.94
487.517	88.94
487.735	103.94
487.953	98.94
488.171	83.94
488.389	85.94
488.607	93.94
488.825	85.94
489.043	79.94
489.261	100.94
489.479	84.94
489.696	87.94
489.914	90.94
490.132	95.94
490.35	85.94
490.568	75.94
490.786	83.94
491.003	87.94
491.221	90.94
491.439	97.94
491.657	101.94
491.874	94.94
492.092	96.94
492.31	97.94
492.527	86.94
492.745	97.94
492.963	100.94
493.18	102.94
493.398	94.94
493.615	84.94
493.833	80.94
494.05	98.94
494.268	80.94
494.485	89.94
494.703	102.94
494.92	81.94
495.138	85.94
495.355	92.94
495.573	86.94
495.79	80.94
496.008	100.94
496.225	89.94
496.442	86.94
496.66	86.94
496.877	99.94
497.094	76.94
497.312	91.94
497.529	98.94
497.746	84.94
497.963	89.94
498.181	77.94
498.398	82.94
498.615	85.94
498.832	105.94
499.049	93.94
499.267	81.94
499.484	99.94
499.701	97.94
499.918	97.94
500.135	98.94
500.352	90.94
500.569	86.94
500.786	107.94
501.003	100.94
501.22	84.94
501.437	96.94
501.654	86.94
501.871	109.94
502.088	102.94
502.305	86.94
502.522	90.94
502.739	76.94
502.956	102.94
503.172	90.94
503.389	101.94
503.606	102.94
503.823	94.94
504.04	85.94
504.256	76.94
504.473	90.94
504.69	75.94
504.907	101.94
505.123	90.94
505.34	97.94
505.557	98.94
505.773	90.94
505.99	84.94
506.207	77.94
506.423	94.94
506.64	84.94
506.856	86.94
507.073	87.94
507.289	99.94
507.506	99.94
507.722	105.94
507.939	87.94
508.155	95.94
508.372	84.94
508.588	115.94
508.805	95.94
509.021	85.94
509.238	89.94
509.454	100.94
509.67	104.94
509.887	89.94
510.103	113.94
510.319	165.94
510.536	477.94
510.752	1399.94
510.968	429.94
511.184	126.94
511.401	112.94
511.617	87.94
511.833	100.94
512.049	85.94
512.265	81.94
512.481	97.94
512.698	82.94
512.914	88.94
513.13	96.94
513.346	110.94
513.562	83.94
513.778	86.94
513.994	99.94
514.21	91.94
514.426	111.94
514.642	99.94
514.858	122.94
515.074	141.94
515.29	294.94
515.506	832.94
