Data from Circ_1983_H10_HRD10591_00053.txt Node
Date: Wed Jan 03 12:26:55 EST 2024
User: Yrep
Spectrometer: HR+D1059
Trigger mode: 1
Integration Time (sec): 1.000000E-1
Scans to average: 1
Electric dark correction enabled: true
Nonlinearity correction enabled: false
Boxcar width: 0
XAxis mode: Wavelengths
Number of Pixels in Spectrum: 2048
>>>>>Begin Spectral Data<<<<<
223.165	-26.5
223.4	-26.5
223.635	-26.5
223.869	-23.5
224.104	-23.5
224.338	-7.5
224.573	-3.5
224.808	-12.5
225.042	-15.5
225.277	-16.5
225.511	4.5
225.746	0.5
225.98	3.5
226.215	14.5
226.449	22.5
226.683	18.5
226.918	27.5
227.152	37.5
227.387	25.5
227.621	29.5
227.856	41.5
228.09	48.5
228.324	68.5
228.559	67.5
228.793	50.5
229.027	53.5
229.262	65.5
229.496	60.5
229.73	68.5
229.964	75.5
230.199	71.5
230.433	66.5
230.667	75.5
230.901	81.5
231.136	74.5
231.37	85.5
231.604	69.5
231.838	73.5
232.072	77.5
232.306	79.5
232.541	64.5
232.775	72.5
233.009	82.5
233.243	87.5
233.477	77.5
233.711	69.5
233.945	76.5
234.179	77.5
234.413	79.5
234.647	82.5
234.881	78.5
235.115	81.5
235.349	82.5
235.583	82.5
235.817	100.5
236.051	80.5
236.285	79.5
236.519	78.5
236.753	71.5
236.987	89.5
237.221	71.5
237.455	82.5
237.689	76.5
237.922	63.5
238.156	99.5
238.39	70.5
238.624	55.5
238.858	67.5
239.091	75.5
239.325	86.5
239.559	67.5
239.793	83.5
240.027	78.5
240.26	87.5
240.494	82.5
240.728	88.5
240.961	73.5
241.195	76.5
241.429	61.5
241.662	68.5
241.896	73.5
242.13	84.5
242.363	82.5
242.597	75.5
242.83	67.5
243.064	95.5
243.298	87.5
243.531	81.5
243.765	68.5
243.998	63.5
244.232	72.5
244.465	70.5
244.699	87.5
244.932	73.5
245.166	70.5
245.399	80.5
245.633	72.5
245.866	79.5
246.099	83.5
246.333	64.5
246.566	61.5
246.8	77.5
247.033	81.5
247.266	65.5
247.5	62.5
247.733	73.5
247.966	86.5
248.2	73.5
248.433	65.5
248.666	77.5
248.899	92.5
249.133	79.5
249.366	88.5
249.599	81.5
249.832	63.5
250.066	79.5
250.299	85.5
250.532	67.5
250.765	82.5
250.998	89.5
251.231	77.5
251.465	84.5
251.698	74.5
251.931	81.5
252.164	69.5
252.397	82.5
252.63	67.5
252.863	65.5
253.096	82.5
253.329	83.5
253.562	71.5
253.795	72.5
254.028	78.5
254.261	71.5
254.494	82.5
254.727	83.5
254.96	72.5
255.193	95.5
255.426	81.5
255.659	78.5
255.892	79.5
256.124	90.5
256.357	74.5
256.59	78.5
256.823	69.5
257.056	83.5
257.289	77.5
257.521	81.5
257.754	78.5
257.987	86.5
258.22	79.5
258.452	71.5
258.685	81.5
258.918	74.5
259.151	83.5
259.383	79.5
259.616	78.5
259.849	80.5
260.081	75.5
260.314	82.5
260.547	89.5
260.779	71.5
261.012	69.5
261.244	72.5
261.477	87.5
261.71	80.5
261.942	95.5
262.175	93.5
262.407	82.5
262.64	81.5
262.872	77.5
263.105	92.5
263.337	67.5
263.57	78.5
263.802	86.5
264.035	82.5
264.267	81.5
264.499	80.5
264.732	72.5
264.964	67.5
265.197	81.5
265.429	91.5
265.661	67.5
265.894	93.5
266.126	72.5
266.358	71.5
266.591	77.5
266.823	71.5
267.055	77.5
267.287	94.5
267.52	74.5
267.752	74.5
267.984	84.5
268.216	86.5
268.448	73.5
268.681	83.5
268.913	78.5
269.145	89.5
269.377	75.5
269.609	72.5
269.841	99.5
270.073	97.5
270.306	81.5
270.538	67.5
270.77	84.5
271.002	80.5
271.234	86.5
271.466	84.5
271.698	84.5
271.93	70.5
272.162	86.5
272.394	93.5
272.626	79.5
272.858	96.5
273.09	82.5
273.322	74.5
273.553	82.5
273.785	83.5
274.017	81.5
274.249	87.5
274.481	87.5
274.713	74.5
274.945	64.5
275.176	77.5
275.408	85.5
275.64	80.5
275.872	82.5
276.104	80.5
276.335	85.5
276.567	86.5
276.799	88.5
277.031	94.5
277.262	85.5
277.494	72.5
277.726	84.5
277.957	77.5
278.189	72.5
278.421	86.5
278.652	75.5
278.884	70.5
279.115	75.5
279.347	78.5
279.579	72.5
279.81	77.5
280.042	85.5
280.273	93.5
280.505	82.5
280.736	79.5
280.968	74.5
281.199	79.5
281.431	76.5
281.662	91.5
281.894	92.5
282.125	106.5
282.356	98.5
282.588	112.5
282.819	95.5
283.051	86.5
283.282	73.5
283.513	85.5
283.745	81.5
283.976	92.5
284.207	81.5
284.439	93.5
284.67	78.5
284.901	73.5
285.132	71.5
285.364	77.5
285.595	95.5
285.826	80.5
286.057	85.5
286.288	81.5
286.52	84.5
286.751	74.5
286.982	70.5
287.213	79.5
287.444	85.5
287.675	69.5
287.906	84.5
288.138	91.5
288.369	90.5
288.6	89.5
288.831	86.5
289.062	92.5
289.293	87.5
289.524	84.5
289.755	93.5
289.986	79.5
290.217	85.5
290.448	84.5
290.679	96.5
290.91	91.5
291.141	104.5
291.371	86.5
291.602	74.5
291.833	75.5
292.064	93.5
292.295	85.5
292.526	72.5
292.757	88.5
292.987	80.5
293.218	81.5
293.449	74.5
293.68	97.5
293.91	95.5
294.141	86.5
294.372	83.5
294.603	87.5
294.833	94.5
295.064	85.5
295.295	82.5
295.525	73.5
295.756	81.5
295.987	109.5
296.217	128.5
296.448	100.5
296.679	78.5
296.909	79.5
297.14	87.5
297.37	84.5
297.601	88.5
297.831	88.5
298.062	90.5
298.292	73.5
298.523	85.5
298.753	90.5
298.984	89.5
299.214	90.5
299.445	98.5
299.675	97.5
299.905	90.5
300.136	89.5
300.366	93.5
300.597	98.5
300.827	89.5
301.057	99.5
301.288	98.5
301.518	89.5
301.748	69.5
301.979	93.5
302.209	94.5
302.439	96.5
302.669	89.5
302.9	91.5
303.13	84.5
303.36	95.5
303.59	90.5
303.82	93.5
304.051	85.5
304.281	90.5
304.511	91.5
304.741	97.5
304.971	83.5
305.201	96.5
305.431	86.5
305.661	85.5
305.891	78.5
306.121	90.5
306.352	98.5
306.582	93.5
306.812	80.5
307.042	96.5
307.272	96.5
307.502	87.5
307.731	83.5
307.961	88.5
308.191	80.5
308.421	83.5
308.651	87.5
308.881	84.5
309.111	81.5
309.341	91.5
309.571	93.5
309.8	87.5
310.03	93.5
310.26	87.5
310.49	77.5
310.72	81.5
310.949	85.5
311.179	82.5
311.409	87.5
311.639	86.5
311.868	90.5
312.098	88.5
312.328	94.5
312.557	81.5
312.787	102.5
313.017	95.5
313.246	89.5
313.476	75.5
313.706	83.5
313.935	95.5
314.165	91.5
314.394	103.5
314.624	81.5
314.853	93.5
315.083	104.5
315.312	94.5
315.542	84.5
315.771	85.5
316.001	98.5
316.23	91.5
316.46	108.5
316.689	86.5
316.919	86.5
317.148	99.5
317.377	86.5
317.607	83.5
317.836	91.5
318.065	80.5
318.295	87.5
318.524	85.5
318.753	89.5
318.983	93.5
319.212	106.5
319.441	92.5
319.67	79.5
319.9	91.5
320.129	81.5
320.358	88.5
320.587	95.5
320.816	106.5
321.046	88.5
321.275	90.5
321.504	78.5
321.733	86.5
321.962	78.5
322.191	83.5
322.42	67.5
322.649	103.5
322.878	103.5
323.108	86.5
323.337	96.5
323.566	99.5
323.795	116.5
324.024	134.5
324.253	239.5
324.482	442.5
324.71	839.5
324.939	1001.5
325.168	425.5
325.397	138.5
325.626	107.5
325.855	96.5
326.084	93.5
326.313	100.5
326.542	107.5
326.77	160.5
326.999	246.5
327.228	465.5
327.457	777.5
327.686	629.5
327.914	213.5
328.143	141.5
328.372	137.5
328.6	114.5
328.829	118.5
329.058	99.5
329.287	106.5
329.515	103.5
329.744	89.5
329.972	123.5
330.201	127.5
330.43	158.5
330.658	125.5
330.887	109.5
331.115	97.5
331.344	103.5
331.572	87.5
331.801	82.5
332.03	95.5
332.258	106.5
332.486	105.5
332.715	89.5
332.943	95.5
333.172	93.5
333.4	82.5
333.629	85.5
333.857	107.5
334.085	113.5
334.314	134.5
334.542	191.5
334.771	179.5
334.999	107.5
335.227	93.5
335.455	65.5
335.684	89.5
335.912	86.5
336.14	73.5
336.369	92.5
336.597	99.5
336.825	95.5
337.053	93.5
337.281	81.5
337.51	72.5
337.738	100.5
337.966	89.5
338.194	85.5
338.422	93.5
338.65	99.5
338.878	78.5
339.106	103.5
339.334	94.5
339.562	89.5
339.79	88.5
340.018	93.5
340.246	80.5
340.474	88.5
340.702	103.5
340.93	90.5
341.158	87.5
341.386	83.5
341.614	90.5
341.842	85.5
342.07	87.5
342.298	72.5
342.526	84.5
342.754	86.5
342.981	91.5
343.209	94.5
343.437	89.5
343.665	75.5
343.893	88.5
344.12	89.5
344.348	80.5
344.576	98.5
344.804	75.5
345.031	89.5
345.259	94.5
345.487	83.5
345.714	77.5
345.942	81.5
346.17	85.5
346.397	85.5
346.625	82.5
346.853	84.5
347.08	81.5
347.308	91.5
347.535	84.5
347.763	83.5
347.99	90.5
348.218	82.5
348.445	77.5
348.673	95.5
348.9	90.5
349.128	79.5
349.355	86.5
349.583	91.5
349.81	90.5
350.037	79.5
350.265	81.5
350.492	91.5
350.72	78.5
350.947	89.5
351.174	87.5
351.402	85.5
351.629	98.5
351.856	84.5
352.083	93.5
352.311	86.5
352.538	82.5
352.765	79.5
352.992	90.5
353.22	89.5
353.447	79.5
353.674	92.5
353.901	85.5
354.128	88.5
354.355	97.5
354.583	85.5
354.81	83.5
355.037	79.5
355.264	95.5
355.491	81.5
355.718	95.5
355.945	89.5
356.172	85.5
356.399	89.5
356.626	74.5
356.853	83.5
357.08	80.5
357.307	77.5
357.534	67.5
357.761	80.5
357.988	88.5
358.215	87.5
358.441	104.5
358.668	71.5
358.895	89.5
359.122	90.5
359.349	82.5
359.576	83.5
359.802	87.5
360.029	87.5
360.256	94.5
360.483	82.5
360.709	70.5
360.936	85.5
361.163	84.5
361.39	92.5
361.616	87.5
361.843	89.5
362.07	95.5
362.296	91.5
362.523	95.5
362.749	86.5
362.976	79.5
363.203	77.5
363.429	81.5
363.656	85.5
363.882	59.5
364.109	73.5
364.335	83.5
364.562	91.5
364.788	81.5
365.015	92.5
365.241	93.5
365.468	100.5
365.694	85.5
365.92	84.5
366.147	85.5
366.373	73.5
366.599	81.5
366.826	79.5
367.052	84.5
367.278	84.5
367.505	83.5
367.731	82.5
367.957	80.5
368.184	85.5
368.41	99.5
368.636	103.5
368.862	99.5
369.089	67.5
369.315	88.5
369.541	73.5
369.767	72.5
369.993	78.5
370.219	93.5
370.445	94.5
370.672	80.5
370.898	88.5
371.124	72.5
371.35	98.5
371.576	70.5
371.802	86.5
372.028	79.5
372.254	78.5
372.48	73.5
372.706	89.5
372.932	85.5
373.158	72.5
373.384	81.5
373.61	63.5
373.835	86.5
374.061	93.5
374.287	83.5
374.513	85.5
374.739	76.5
374.965	74.5
375.191	84.5
375.416	95.5
375.642	91.5
375.868	69.5
376.094	71.5
376.319	73.5
376.545	75.5
376.771	83.5
376.997	88.5
377.222	73.5
377.448	72.5
377.674	90.5
377.899	81.5
378.125	70.5
378.35	97.5
378.576	89.5
378.802	81.5
379.027	73.5
379.253	94.5
379.478	86.5
379.704	77.5
379.929	82.5
380.155	77.5
380.38	93.5
380.606	84.5
380.831	82.5
381.057	83.5
381.282	75.5
381.507	87.5
381.733	81.5
381.958	87.5
382.184	85.5
382.409	97.5
382.634	80.5
382.86	92.5
383.085	93.5
383.31	82.5
383.535	88.5
383.761	92.5
383.986	69.5
384.211	75.5
384.436	85.5
384.662	79.5
384.887	80.5
385.112	86.5
385.337	88.5
385.562	102.5
385.787	95.5
386.013	96.5
386.238	90.5
386.463	99.5
386.688	100.5
386.913	83.5
387.138	94.5
387.363	88.5
387.588	88.5
387.813	104.5
388.038	94.5
388.263	100.5
388.488	81.5
388.713	72.5
388.938	69.5
389.163	83.5
389.387	99.5
389.612	59.5
389.837	86.5
390.062	81.5
390.287	86.5
390.512	85.5
390.736	81.5
390.961	70.5
391.186	95.5
391.411	85.5
391.636	86.5
391.86	73.5
392.085	79.5
392.31	66.5
392.534	80.5
392.759	80.5
392.984	97.5
393.208	98.5
393.433	86.5
393.658	99.5
393.882	71.5
394.107	83.5
394.331	85.5
394.556	75.5
394.78	90.5
395.005	79.5
395.229	77.5
395.454	84.5
395.678	79.5
395.903	87.5
396.127	91.5
396.352	71.5
396.576	76.5
396.801	95.5
397.025	89.5
397.249	88.5
397.474	69.5
397.698	73.5
397.922	74.5
398.147	70.5
398.371	80.5
398.595	76.5
398.82	99.5
399.044	82.5
399.268	84.5
399.492	75.5
399.717	91.5
399.941	84.5
400.165	105.5
400.389	77.5
400.613	80.5
400.837	82.5
401.062	83.5
401.286	86.5
401.51	81.5
401.734	67.5
401.958	90.5
402.182	110.5
402.406	115.5
402.63	98.5
402.854	80.5
403.078	79.5
403.302	68.5
403.526	77.5
403.75	79.5
403.974	84.5
404.198	91.5
404.422	81.5
404.645	90.5
404.869	85.5
405.093	103.5
405.317	98.5
405.541	93.5
405.765	90.5
405.988	104.5
406.212	127.5
406.436	161.5
406.66	118.5
406.883	88.5
407.107	86.5
407.331	78.5
407.555	93.5
407.778	94.5
408.002	82.5
408.226	83.5
408.449	83.5
408.673	74.5
408.896	86.5
409.12	91.5
409.344	86.5
409.567	90.5
409.791	89.5
410.014	91.5
410.238	71.5
410.461	82.5
410.685	75.5
410.908	72.5
411.132	84.5
411.355	73.5
411.578	85.5
411.802	85.5
412.025	75.5
412.249	75.5
412.472	81.5
412.695	81.5
412.919	87.5
413.142	75.5
413.365	75.5
413.589	81.5
413.812	88.5
414.035	73.5
414.258	74.5
414.482	75.5
414.705	59.5
414.928	85.5
415.151	74.5
415.374	75.5
415.597	84.5
415.821	96.5
416.044	77.5
416.267	78.5
416.49	95.5
416.713	91.5
416.936	79.5
417.159	85.5
417.382	72.5
417.605	88.5
417.828	83.5
418.051	82.5
418.274	81.5
418.497	84.5
418.72	77.5
418.943	100.5
419.166	70.5
419.389	72.5
419.611	68.5
419.834	83.5
420.057	77.5
420.28	77.5
420.503	81.5
420.726	82.5
420.948	91.5
421.171	66.5
421.394	81.5
421.617	88.5
421.839	86.5
422.062	92.5
422.285	72.5
422.507	97.5
422.73	96.5
422.953	77.5
423.175	85.5
423.398	75.5
423.621	86.5
423.843	102.5
424.066	75.5
424.288	81.5
424.511	82.5
424.733	93.5
424.956	100.5
425.178	89.5
425.401	85.5
425.623	88.5
425.846	67.5
426.068	93.5
426.291	89.5
426.513	73.5
426.735	88.5
426.958	77.5
427.18	88.5
427.402	97.5
427.625	118.5
427.847	111.5
428.069	97.5
428.292	77.5
428.514	65.5
428.736	94.5
428.958	74.5
429.181	92.5
429.403	91.5
429.625	89.5
429.847	85.5
430.069	74.5
430.292	81.5
430.514	81.5
430.736	72.5
430.958	78.5
431.18	80.5
431.402	84.5
431.624	71.5
431.846	81.5
432.068	85.5
432.29	79.5
432.512	75.5
432.734	72.5
432.956	80.5
433.178	90.5
433.4	78.5
433.622	84.5
433.844	81.5
434.066	82.5
434.287	82.5
434.509	75.5
434.731	84.5
434.953	97.5
435.175	79.5
435.397	91.5
435.618	87.5
435.84	86.5
436.062	95.5
436.284	96.5
436.505	88.5
436.727	87.5
436.949	81.5
437.17	77.5
437.392	77.5
437.614	85.5
437.835	83.5
438.057	99.5
438.278	79.5
438.5	84.5
438.721	66.5
438.943	79.5
439.165	83.5
439.386	84.5
439.608	83.5
439.829	83.5
440.05	101.5
440.272	85.5
440.493	96.5
440.715	80.5
440.936	74.5
441.158	89.5
441.379	89.5
441.6	86.5
441.822	81.5
442.043	81.5
442.264	88.5
442.486	81.5
442.707	83.5
442.928	87.5
443.149	97.5
443.371	97.5
443.592	91.5
443.813	102.5
444.034	74.5
444.255	80.5
444.476	89.5
444.698	87.5
444.919	90.5
445.14	129.5
445.361	127.5
445.582	91.5
445.803	101.5
446.024	106.5
446.245	107.5
446.466	104.5
446.687	88.5
446.908	82.5
447.129	66.5
447.35	72.5
447.571	85.5
447.792	85.5
448.013	93.5
448.234	112.5
448.455	86.5
448.675	105.5
448.896	87.5
449.117	101.5
449.338	81.5
449.559	100.5
449.779	93.5
450	74.5
450.221	83.5
450.442	79.5
450.662	87.5
450.883	91.5
451.104	89.5
451.324	97.5
451.545	91.5
451.766	82.5
451.986	84.5
452.207	85.5
452.428	87.5
452.648	101.5
452.869	91.5
453.089	105.5
453.31	81.5
453.53	90.5
453.751	85.5
453.971	81.5
454.192	84.5
454.412	84.5
454.633	85.5
454.853	85.5
455.073	87.5
455.294	85.5
455.514	81.5
455.734	81.5
455.955	81.5
456.175	88.5
456.395	85.5
456.616	74.5
456.836	89.5
457.056	85.5
457.276	94.5
457.497	77.5
457.717	98.5
457.937	99.5
458.157	88.5
458.377	78.5
458.598	82.5
458.818	111.5
459.038	113.5
459.258	99.5
459.478	84.5
459.698	67.5
459.918	77.5
460.138	57.5
460.358	69.5
460.578	89.5
460.798	82.5
461.018	75.5
461.238	93.5
461.458	88.5
461.678	91.5
461.898	91.5
462.118	77.5
462.338	84.5
462.558	91.5
462.777	81.5
462.997	80.5
463.217	75.5
463.437	89.5
463.657	73.5
463.876	89.5
464.096	83.5
464.316	67.5
464.536	81.5
464.755	91.5
464.975	79.5
465.195	130.5
465.414	129.5
465.634	81.5
465.854	77.5
466.073	80.5
466.293	74.5
466.512	77.5
466.732	83.5
466.951	92.5
467.171	87.5
467.391	88.5
467.61	100.5
467.829	86.5
468.049	101.5
468.268	107.5
468.488	95.5
468.707	86.5
468.927	72.5
469.146	70.5
469.365	82.5
469.585	89.5
469.804	92.5
470.023	99.5
470.243	84.5
470.462	102.5
470.681	84.5
470.901	81.5
471.12	78.5
471.339	87.5
471.558	78.5
471.777	72.5
471.997	82.5
472.216	143.5
472.435	215.5
472.654	107.5
472.873	103.5
473.092	79.5
473.311	91.5
473.53	90.5
473.749	82.5
473.968	74.5
474.187	74.5
474.406	82.5
474.625	80.5
474.844	77.5
475.063	85.5
475.282	84.5
475.501	74.5
475.72	89.5
475.939	89.5
476.158	82.5
476.377	87.5
476.596	83.5
476.814	91.5
477.033	93.5
477.252	85.5
477.471	74.5
477.69	68.5
477.908	89.5
478.127	85.5
478.346	82.5
478.564	79.5
478.783	77.5
479.002	87.5
479.22	86.5
479.439	92.5
479.658	79.5
479.876	93.5
480.095	90.5
480.313	86.5
480.532	96.5
480.751	102.5
480.969	142.5
481.188	335.5
481.406	203.5
481.624	93.5
481.843	90.5
482.061	63.5
482.28	70.5
482.498	81.5
482.717	81.5
482.935	84.5
483.153	72.5
483.372	89.5
483.59	84.5
483.808	86.5
484.027	103.5
484.245	92.5
484.463	79.5
484.681	97.5
484.9	90.5
485.118	85.5
485.336	94.5
485.554	65.5
485.772	69.5
485.99	79.5
486.209	88.5
486.427	78.5
486.645	101.5
486.863	92.5
487.081	84.5
487.299	79.5
487.517	94.5
487.735	74.5
487.953	90.5
488.171	77.5
488.389	86.5
488.607	80.5
488.825	78.5
489.043	69.5
489.261	84.5
489.479	81.5
489.696	90.5
489.914	87.5
490.132	89.5
490.35	91.5
490.568	90.5
490.786	84.5
491.003	85.5
491.221	83.5
491.439	89.5
491.657	87.5
491.874	81.5
492.092	82.5
492.31	79.5
492.527	78.5
492.745	85.5
492.963	89.5
493.18	82.5
493.398	78.5
493.615	83.5
493.833	83.5
494.05	93.5
494.268	77.5
494.485	83.5
494.703	80.5
494.92	79.5
495.138	71.5
495.355	90.5
495.573	71.5
495.79	81.5
496.008	89.5
496.225	80.5
496.442	75.5
496.66	79.5
496.877	81.5
497.094	90.5
497.312	80.5
497.529	79.5
497.746	74.5
497.963	85.5
498.181	71.5
498.398	81.5
498.615	95.5
498.832	95.5
499.049	91.5
499.267	79.5
499.484	79.5
499.701	84.5
499.918	79.5
500.135	83.5
500.352	82.5
500.569	80.5
500.786	78.5
501.003	85.5
501.22	73.5
501.437	91.5
501.654	86.5
501.871	93.5
502.088	77.5
502.305	82.5
502.522	87.5
502.739	89.5
502.956	96.5
503.172	85.5
503.389	89.5
503.606	88.5
503.823	84.5
504.04	88.5
504.256	88.5
504.473	90.5
504.69	83.5
504.907	85.5
505.123	97.5
505.34	97.5
505.557	103.5
505.773	77.5
505.99	69.5
506.207	77.5
506.423	83.5
506.64	73.5
506.856	85.5
507.073	88.5
507.289	84.5
507.506	77.5
507.722	97.5
507.939	87.5
508.155	87.5
508.372	90.5
508.588	89.5
508.805	98.5
509.021	90.5
509.238	95.5
509.454	102.5
509.67	100.5
509.887	103.5
510.103	102.5
510.319	156.5
510.536	512.5
510.752	1443.5
510.968	407.5
511.184	105.5
511.401	72.5
511.617	81.5
511.833	80.5
512.049	90.5
512.265	93.5
512.481	80.5
512.698	87.5
512.914	83.5
513.13	74.5
513.346	94.5
513.562	91.5
513.778	72.5
513.994	59.5
514.21	92.5
514.426	105.5
514.642	104.5
514.858	100.5
515.074	126.5
515.29	292.5
515.506	851.5
515.721	344.5
515.937	115.5
516.153	91.5
516.369	80.5
516.585	83.5
516.801	85.5
517.016	82.5
517.232	71.5
517.448	93.5
517.664	79.5
517.879	72.5
518.095	92.5
518.311	82.5
518.527	87.5
518.742	70.5
518.958	65.5
519.173	90.5
519.389	89.5
519.605	85.5
519.82	75.5
520.036	86.5
520.251	89.5
520.467	114.5
520.682	79.5
520.898	95.5
521.113	88.5
521.329	106.5
521.544	145.5
521.76	340.5
521.975	1381.5
522.19	848.5
522.406	210.5
522.621	107.5
522.836	86.5
523.052	84.5
523.267	70.5
523.482	88.5
523.698	87.5
523.913	93.5
524.128	84.5
524.343	87.5
524.559	88.5
524.774	85.5
524.989	80.5
525.204	91.5
525.419	91.5
525.634	94.5
525.849	89.5
526.064	100.5
526.28	73.5
526.495	85.5
526.71	80.5
526.925	82.5
527.14	78.5
527.355	98.5
527.57	93.5
527.785	84.5
527.999	90.5
528.214	77.5
528.429	71.5
528.644	77.5
528.859	86.5
529.074	69.5
529.289	104.5
529.503	131.5
529.718	85.5
529.933	92.5
530.148	94.5
530.363	96.5
530.577	85.5
530.792	85.5
531.007	90.5
531.221	100.5
531.436	89.5
531.651	84.5
531.865	87.5
532.08	89.5
532.295	89.5
532.509	72.5
532.724	85.5
532.938	94.5
533.153	85.5
533.367	89.5
533.582	78.5
533.796	79.5
534.011	90.5
534.225	89.5
534.44	90.5
534.654	89.5
534.868	61.5
535.083	74.5
535.297	82.5
535.511	89.5
535.726	76.5
535.94	82.5
536.154	77.5
536.369	92.5
536.583	82.5
536.797	88.5
537.011	88.5
537.225	99.5
537.44	75.5
537.654	87.5
537.868	88.5
538.082	88.5
538.296	70.5
538.51	76.5
