Data from Circ_1983_H10_HRD10591_00096.txt Node
Date: Wed Jan 03 12:27:04 EST 2024
User: Yrep
Spectrometer: HR+D1059
Trigger mode: 1
Integration Time (sec): 1.000000E-1
Scans to average: 1
Electric dark correction enabled: true
Nonlinearity correction enabled: false
Boxcar width: 0
XAxis mode: Wavelengths
Number of Pixels in Spectrum: 2048
>>>>>Begin Spectral Data<<<<<
223.165	-4.94
223.4	-4.94
223.635	-4.94
223.869	-21.94
224.104	-19.94
224.338	-18.94
224.573	-14.94
224.808	-5.94
225.042	-15.94
225.277	4.06
225.511	4.06
225.746	10.06
225.98	-2.94
226.215	22.06
226.449	8.06
226.683	18.06
226.918	27.06
227.152	12.06
227.387	49.06
227.621	52.06
227.856	39.06
228.09	43.06
228.324	47.06
228.559	54.06
228.793	74.06
229.027	59.06
229.262	79.06
229.496	101.06
229.73	83.06
229.964	83.06
230.199	72.06
230.433	83.06
230.667	70.06
230.901	84.06
231.136	84.06
231.37	98.06
231.604	86.06
231.838	82.06
232.072	84.06
232.306	85.06
232.541	76.06
232.775	69.06
233.009	90.06
233.243	81.06
233.477	80.06
233.711	84.06
233.945	67.06
234.179	80.06
234.413	82.06
234.647	96.06
234.881	83.06
235.115	83.06
235.349	77.06
235.583	77.06
235.817	89.06
236.051	84.06
236.285	76.06
236.519	63.06
236.753	78.06
236.987	87.06
237.221	99.06
237.455	80.06
237.689	66.06
237.922	84.06
238.156	89.06
238.39	86.06
238.624	85.06
238.858	70.06
239.091	82.06
239.325	80.06
239.559	84.06
239.793	93.06
240.027	82.06
240.26	78.06
240.494	98.06
240.728	86.06
240.961	80.06
241.195	74.06
241.429	86.06
241.662	68.06
241.896	72.06
242.13	78.06
242.363	90.06
242.597	72.06
242.83	88.06
243.064	83.06
243.298	88.06
243.531	77.06
243.765	71.06
243.998	80.06
244.232	88.06
244.465	82.06
244.699	80.06
244.932	75.06
245.166	90.06
245.399	79.06
245.633	82.06
245.866	94.06
246.099	77.06
246.333	88.06
246.566	84.06
246.8	84.06
247.033	90.06
247.266	64.06
247.5	83.06
247.733	92.06
247.966	86.06
248.2	78.06
248.433	84.06
248.666	76.06
248.899	90.06
249.133	100.06
249.366	113.06
249.599	101.06
249.832	84.06
250.066	77.06
250.299	86.06
250.532	75.06
250.765	103.06
250.998	89.06
251.231	73.06
251.465	78.06
251.698	68.06
251.931	95.06
252.164	82.06
252.397	93.06
252.63	93.06
252.863	103.06
253.096	98.06
253.329	79.06
253.562	80.06
253.795	77.06
254.028	87.06
254.261	86.06
254.494	79.06
254.727	88.06
254.96	79.06
255.193	89.06
255.426	89.06
255.659	77.06
255.892	87.06
256.124	77.06
256.357	82.06
256.59	74.06
256.823	86.06
257.056	88.06
257.289	88.06
257.521	90.06
257.754	86.06
257.987	79.06
258.22	93.06
258.452	86.06
258.685	90.06
258.918	97.06
259.151	84.06
259.383	77.06
259.616	77.06
259.849	87.06
260.081	96.06
260.314	88.06
260.547	75.06
260.779	89.06
261.012	87.06
261.244	100.06
261.477	102.06
261.71	101.06
261.942	90.06
262.175	107.06
262.407	74.06
262.64	80.06
262.872	90.06
263.105	96.06
263.337	84.06
263.57	91.06
263.802	99.06
264.035	77.06
264.267	82.06
264.499	90.06
264.732	108.06
264.964	91.06
265.197	89.06
265.429	83.06
265.661	82.06
265.894	77.06
266.126	83.06
266.358	73.06
266.591	73.06
266.823	75.06
267.055	88.06
267.287	86.06
267.52	77.06
267.752	73.06
267.984	90.06
268.216	88.06
268.448	91.06
268.681	87.06
268.913	86.06
269.145	76.06
269.377	71.06
269.609	91.06
269.841	88.06
270.073	81.06
270.306	102.06
270.538	90.06
270.77	76.06
271.002	89.06
271.234	85.06
271.466	86.06
271.698	79.06
271.93	86.06
272.162	87.06
272.394	89.06
272.626	74.06
272.858	94.06
273.09	91.06
273.322	84.06
273.553	89.06
273.785	94.06
274.017	86.06
274.249	91.06
274.481	89.06
274.713	87.06
274.945	91.06
275.176	77.06
275.408	80.06
275.64	100.06
275.872	92.06
276.104	84.06
276.335	94.06
276.567	86.06
276.799	114.06
277.031	100.06
277.262	95.06
277.494	94.06
277.726	99.06
277.957	73.06
278.189	103.06
278.421	96.06
278.652	86.06
278.884	107.06
279.115	95.06
279.347	83.06
279.579	69.06
279.81	99.06
280.042	100.06
280.273	112.06
280.505	92.06
280.736	86.06
280.968	102.06
281.199	63.06
281.431	86.06
281.662	92.06
281.894	107.06
282.125	109.06
282.356	104.06
282.588	119.06
282.819	108.06
283.051	106.06
283.282	111.06
283.513	106.06
283.745	85.06
283.976	90.06
284.207	99.06
284.439	83.06
284.67	93.06
284.901	84.06
285.132	98.06
285.364	93.06
285.595	96.06
285.826	94.06
286.057	85.06
286.288	96.06
286.52	90.06
286.751	83.06
286.982	87.06
287.213	83.06
287.444	89.06
287.675	101.06
287.906	93.06
288.138	87.06
288.369	89.06
288.6	84.06
288.831	96.06
289.062	101.06
289.293	78.06
289.524	93.06
289.755	85.06
289.986	94.06
290.217	88.06
290.448	85.06
290.679	99.06
290.91	90.06
291.141	86.06
291.371	94.06
291.602	72.06
291.833	95.06
292.064	99.06
292.295	100.06
292.526	84.06
292.757	91.06
292.987	87.06
293.218	92.06
293.449	80.06
293.68	95.06
293.91	100.06
294.141	90.06
294.372	73.06
294.603	96.06
294.833	102.06
295.064	94.06
295.295	97.06
295.525	94.06
295.756	92.06
295.987	98.06
296.217	140.06
296.448	111.06
296.679	98.06
296.909	86.06
297.14	97.06
297.37	96.06
297.601	86.06
297.831	85.06
298.062	81.06
298.292	79.06
298.523	96.06
298.753	80.06
298.984	85.06
299.214	90.06
299.445	105.06
299.675	87.06
299.905	98.06
300.136	99.06
300.366	69.06
300.597	100.06
300.827	107.06
301.057	95.06
301.288	89.06
301.518	85.06
301.748	77.06
301.979	108.06
302.209	91.06
302.439	88.06
302.669	78.06
302.9	84.06
303.13	96.06
303.36	107.06
303.59	111.06
303.82	102.06
304.051	88.06
304.281	101.06
304.511	104.06
304.741	84.06
304.971	97.06
305.201	77.06
305.431	98.06
305.661	105.06
305.891	106.06
306.121	99.06
306.352	103.06
306.582	107.06
306.812	87.06
307.042	93.06
307.272	109.06
307.502	115.06
307.731	102.06
307.961	99.06
308.191	80.06
308.421	98.06
308.651	91.06
308.881	94.06
309.111	90.06
309.341	106.06
309.571	100.06
309.8	94.06
310.03	112.06
310.26	90.06
310.49	103.06
310.72	94.06
310.949	84.06
311.179	91.06
311.409	104.06
311.639	99.06
311.868	94.06
312.098	96.06
312.328	96.06
312.557	92.06
312.787	108.06
313.017	99.06
313.246	100.06
313.476	99.06
313.706	101.06
313.935	96.06
314.165	92.06
314.394	113.06
314.624	78.06
314.853	98.06
315.083	92.06
315.312	91.06
315.542	93.06
315.771	95.06
316.001	91.06
316.23	100.06
316.46	101.06
316.689	85.06
316.919	96.06
317.148	109.06
317.377	96.06
317.607	90.06
317.836	91.06
318.065	94.06
318.295	105.06
318.524	89.06
318.753	91.06
318.983	104.06
319.212	102.06
319.441	115.06
319.67	101.06
319.9	102.06
320.129	88.06
320.358	95.06
320.587	80.06
320.816	96.06
321.046	101.06
321.275	105.06
321.504	106.06
321.733	101.06
321.962	95.06
322.191	105.06
322.42	108.06
322.649	97.06
322.878	111.06
323.108	108.06
323.337	109.06
323.566	126.06
323.795	133.06
324.024	182.06
324.253	321.06
324.482	630.06
324.71	1250.06
324.939	1646.06
325.168	637.06
325.397	206.06
325.626	144.06
325.855	116.06
326.084	115.06
326.313	117.06
326.542	133.06
326.77	198.06
326.999	347.06
327.228	712.06
327.457	1280.06
327.686	1061.06
327.914	331.06
328.143	211.06
328.372	188.06
328.6	144.06
328.829	112.06
329.058	117.06
329.287	124.06
329.515	119.06
329.744	113.06
329.972	143.06
330.201	221.06
330.43	271.06
330.658	171.06
330.887	144.06
331.115	114.06
331.344	119.06
331.572	101.06
331.801	93.06
332.03	98.06
332.258	112.06
332.486	98.06
332.715	102.06
332.943	93.06
333.172	109.06
333.4	91.06
333.629	99.06
333.857	108.06
334.085	167.06
334.314	212.06
334.542	320.06
334.771	313.06
334.999	150.06
335.227	98.06
335.455	95.06
335.684	96.06
335.912	93.06
336.14	104.06
336.369	105.06
336.597	92.06
336.825	96.06
337.053	98.06
337.281	105.06
337.51	92.06
337.738	92.06
337.966	103.06
338.194	95.06
338.422	102.06
338.65	96.06
338.878	100.06
339.106	95.06
339.334	104.06
339.562	94.06
339.79	94.06
340.018	95.06
340.246	98.06
340.474	105.06
340.702	101.06
340.93	88.06
341.158	105.06
341.386	112.06
341.614	101.06
341.842	87.06
342.07	86.06
342.298	80.06
342.526	102.06
342.754	84.06
342.981	93.06
343.209	85.06
343.437	106.06
343.665	84.06
343.893	86.06
344.12	92.06
344.348	109.06
344.576	99.06
344.804	92.06
345.031	99.06
345.259	90.06
345.487	85.06
345.714	85.06
345.942	94.06
346.17	103.06
346.397	104.06
346.625	109.06
346.853	106.06
347.08	97.06
347.308	112.06
347.535	94.06
347.763	93.06
347.99	102.06
348.218	102.06
348.445	106.06
348.673	103.06
348.9	100.06
349.128	94.06
349.355	82.06
349.583	99.06
349.81	98.06
350.037	109.06
350.265	96.06
350.492	94.06
350.72	98.06
350.947	96.06
351.174	108.06
351.402	111.06
351.629	94.06
351.856	100.06
352.083	108.06
352.311	120.06
352.538	92.06
352.765	109.06
352.992	112.06
353.22	112.06
353.447	112.06
353.674	97.06
353.901	105.06
354.128	99.06
354.355	89.06
354.583	106.06
354.81	100.06
355.037	100.06
355.264	78.06
355.491	93.06
355.718	89.06
355.945	107.06
356.172	103.06
356.399	103.06
356.626	102.06
356.853	93.06
357.08	95.06
357.307	100.06
357.534	100.06
357.761	101.06
357.988	107.06
358.215	104.06
358.441	77.06
358.668	100.06
358.895	101.06
359.122	99.06
359.349	108.06
359.576	89.06
359.802	98.06
360.029	105.06
360.256	100.06
360.483	109.06
360.709	93.06
360.936	93.06
361.163	103.06
361.39	93.06
361.616	102.06
361.843	88.06
362.07	94.06
362.296	80.06
362.523	100.06
362.749	96.06
362.976	103.06
363.203	92.06
363.429	100.06
363.656	97.06
363.882	98.06
364.109	101.06
364.335	110.06
364.562	89.06
364.788	80.06
365.015	93.06
365.241	85.06
365.468	104.06
365.694	102.06
365.92	109.06
366.147	86.06
366.373	92.06
366.599	98.06
366.826	107.06
367.052	90.06
367.278	97.06
367.505	96.06
367.731	106.06
367.957	101.06
368.184	94.06
368.41	101.06
368.636	113.06
368.862	104.06
369.089	111.06
369.315	96.06
369.541	87.06
369.767	96.06
369.993	100.06
370.219	91.06
370.445	76.06
370.672	78.06
370.898	83.06
371.124	80.06
371.35	91.06
371.576	78.06
371.802	89.06
372.028	94.06
372.254	103.06
372.48	86.06
372.706	86.06
372.932	91.06
373.158	89.06
373.384	86.06
373.61	91.06
373.835	77.06
374.061	105.06
374.287	98.06
374.513	97.06
374.739	100.06
374.965	74.06
375.191	92.06
375.416	90.06
375.642	107.06
375.868	83.06
376.094	92.06
376.319	86.06
376.545	90.06
376.771	99.06
376.997	90.06
377.222	94.06
377.448	71.06
377.674	86.06
377.899	95.06
378.125	107.06
378.35	85.06
378.576	91.06
378.802	88.06
379.027	96.06
379.253	114.06
379.478	108.06
379.704	98.06
379.929	86.06
380.155	85.06
380.38	109.06
380.606	113.06
380.831	104.06
381.057	99.06
381.282	90.06
381.507	92.06
381.733	89.06
381.958	103.06
382.184	104.06
382.409	108.06
382.634	110.06
382.86	105.06
383.085	95.06
383.31	95.06
383.535	99.06
383.761	82.06
383.986	96.06
384.211	90.06
384.436	99.06
384.662	91.06
384.887	90.06
385.112	102.06
385.337	108.06
385.562	99.06
385.787	107.06
386.013	105.06
386.238	89.06
386.463	99.06
386.688	106.06
386.913	107.06
387.138	116.06
387.363	111.06
387.588	84.06
387.813	95.06
388.038	107.06
388.263	108.06
388.488	100.06
388.713	95.06
388.938	83.06
389.163	106.06
389.387	101.06
389.612	97.06
389.837	102.06
390.062	108.06
390.287	107.06
390.512	96.06
390.736	99.06
390.961	85.06
391.186	83.06
391.411	105.06
391.636	79.06
391.86	85.06
392.085	84.06
392.31	94.06
392.534	94.06
392.759	87.06
392.984	91.06
393.208	89.06
393.433	111.06
393.658	104.06
393.882	75.06
394.107	94.06
394.331	98.06
394.556	90.06
394.78	88.06
395.005	108.06
395.229	70.06
395.454	82.06
395.678	74.06
395.903	97.06
396.127	92.06
396.352	108.06
396.576	93.06
396.801	95.06
397.025	104.06
397.249	90.06
397.474	87.06
397.698	90.06
397.922	79.06
398.147	99.06
398.371	100.06
398.595	92.06
398.82	87.06
399.044	94.06
399.268	92.06
399.492	79.06
399.717	100.06
399.941	90.06
400.165	86.06
400.389	100.06
400.613	82.06
400.837	86.06
401.062	94.06
401.286	87.06
401.51	78.06
401.734	98.06
401.958	107.06
402.182	115.06
402.406	136.06
402.63	115.06
402.854	107.06
403.078	83.06
403.302	94.06
403.526	90.06
403.75	80.06
403.974	85.06
404.198	88.06
404.422	94.06
404.645	79.06
404.869	95.06
405.093	93.06
405.317	93.06
405.541	114.06
405.765	99.06
405.988	109.06
406.212	145.06
406.436	178.06
406.66	115.06
406.883	99.06
407.107	100.06
407.331	108.06
407.555	100.06
407.778	99.06
408.002	95.06
408.226	96.06
408.449	86.06
408.673	82.06
408.896	110.06
409.12	85.06
409.344	88.06
409.567	78.06
409.791	86.06
410.014	95.06
410.238	106.06
410.461	107.06
410.685	93.06
410.908	86.06
411.132	104.06
411.355	103.06
411.578	103.06
411.802	94.06
412.025	92.06
412.249	104.06
412.472	91.06
412.695	92.06
412.919	96.06
413.142	89.06
413.365	80.06
413.589	84.06
413.812	90.06
414.035	88.06
414.258	87.06
414.482	85.06
414.705	94.06
414.928	94.06
415.151	109.06
415.374	93.06
415.597	92.06
415.821	77.06
416.044	90.06
416.267	95.06
416.49	89.06
416.713	70.06
416.936	93.06
417.159	88.06
417.382	85.06
417.605	99.06
417.828	95.06
418.051	97.06
418.274	97.06
418.497	88.06
418.72	94.06
418.943	92.06
419.166	90.06
419.389	82.06
419.611	99.06
419.834	86.06
420.057	88.06
420.28	98.06
420.503	94.06
420.726	66.06
420.948	74.06
421.171	95.06
421.394	86.06
421.617	102.06
421.839	90.06
422.062	92.06
422.285	97.06
422.507	96.06
422.73	84.06
422.953	86.06
423.175	89.06
423.398	100.06
423.621	87.06
423.843	99.06
424.066	99.06
424.288	86.06
424.511	87.06
424.733	76.06
424.956	104.06
425.178	92.06
425.401	94.06
425.623	91.06
425.846	98.06
426.068	92.06
426.291	94.06
426.513	95.06
426.735	79.06
426.958	96.06
427.18	108.06
427.402	131.06
427.625	150.06
427.847	152.06
428.069	123.06
428.292	91.06
428.514	79.06
428.736	93.06
428.958	79.06
429.181	90.06
429.403	88.06
429.625	91.06
429.847	90.06
430.069	98.06
430.292	75.06
430.514	88.06
430.736	95.06
430.958	80.06
431.18	100.06
431.402	97.06
431.624	82.06
431.846	83.06
432.068	91.06
432.29	82.06
432.512	97.06
432.734	84.06
432.956	88.06
433.178	98.06
433.4	100.06
433.622	80.06
433.844	89.06
434.066	95.06
434.287	98.06
434.509	90.06
434.731	84.06
434.953	88.06
435.175	86.06
435.397	100.06
435.618	82.06
435.84	106.06
436.062	120.06
436.284	110.06
436.505	103.06
436.727	105.06
436.949	96.06
437.17	83.06
437.392	97.06
437.614	92.06
437.835	110.06
438.057	123.06
438.278	101.06
438.5	101.06
438.721	115.06
438.943	89.06
439.165	91.06
439.386	102.06
439.608	86.06
439.829	108.06
440.05	106.06
440.272	120.06
440.493	96.06
440.715	88.06
440.936	91.06
441.158	110.06
441.379	88.06
441.6	87.06
441.822	84.06
442.043	97.06
442.264	94.06
442.486	86.06
442.707	78.06
442.928	112.06
443.149	118.06
443.371	117.06
443.592	81.06
443.813	95.06
444.034	92.06
444.255	104.06
444.476	96.06
444.698	76.06
444.919	82.06
445.14	125.06
445.361	120.06
445.582	125.06
445.803	112.06
446.024	129.06
446.245	95.06
446.466	91.06
446.687	85.06
446.908	100.06
447.129	88.06
447.35	94.06
447.571	91.06
447.792	94.06
448.013	102.06
448.234	87.06
448.455	96.06
448.675	107.06
448.896	106.06
449.117	95.06
449.338	108.06
449.559	113.06
449.779	99.06
450	92.06
450.221	90.06
450.442	93.06
450.662	79.06
450.883	102.06
451.104	112.06
451.324	99.06
451.545	94.06
451.766	86.06
451.986	82.06
452.207	81.06
452.428	93.06
452.648	104.06
452.869	94.06
453.089	96.06
453.31	102.06
453.53	105.06
453.751	92.06
453.971	102.06
454.192	95.06
454.412	87.06
454.633	103.06
454.853	102.06
455.073	82.06
455.294	90.06
455.514	103.06
455.734	94.06
455.955	102.06
456.175	79.06
456.395	86.06
456.616	88.06
456.836	98.06
457.056	83.06
457.276	87.06
457.497	82.06
457.717	91.06
457.937	95.06
458.157	101.06
458.377	88.06
458.598	89.06
458.818	141.06
459.038	143.06
459.258	110.06
459.478	89.06
459.698	93.06
459.918	92.06
460.138	91.06
460.358	98.06
460.578	88.06
460.798	87.06
461.018	114.06
461.238	87.06
461.458	98.06
461.678	86.06
461.898	87.06
462.118	87.06
462.338	79.06
462.558	95.06
462.777	86.06
462.997	89.06
463.217	78.06
463.437	78.06
463.657	77.06
463.876	74.06
464.096	90.06
464.316	83.06
464.536	82.06
464.755	82.06
464.975	105.06
465.195	141.06
465.414	153.06
465.634	91.06
465.854	89.06
466.073	94.06
466.293	87.06
466.512	99.06
466.732	96.06
466.951	105.06
467.171	74.06
467.391	91.06
467.61	93.06
467.829	109.06
468.049	150.06
468.268	188.06
468.488	101.06
468.707	96.06
468.927	94.06
469.146	89.06
469.365	89.06
469.585	91.06
469.804	85.06
470.023	96.06
470.243	97.06
470.462	107.06
470.681	116.06
470.901	99.06
471.12	84.06
471.339	99.06
471.558	108.06
471.777	115.06
471.997	117.06
472.216	260.06
472.435	430.06
472.654	150.06
472.873	95.06
473.092	105.06
473.311	69.06
473.53	84.06
473.749	95.06
473.968	94.06
474.187	92.06
474.406	97.06
474.625	91.06
474.844	99.06
475.063	87.06
475.282	102.06
475.501	70.06
475.72	104.06
475.939	93.06
476.158	94.06
476.377	81.06
476.596	95.06
476.814	93.06
477.033	91.06
477.252	84.06
477.471	97.06
477.69	106.06
477.908	101.06
478.127	90.06
478.346	92.06
478.564	96.06
478.783	99.06
479.002	98.06
479.22	103.06
479.439	100.06
479.658	106.06
479.876	93.06
480.095	100.06
480.313	101.06
480.532	90.06
480.751	113.06
480.969	247.06
481.188	739.06
481.406	452.06
481.624	142.06
481.843	96.06
482.061	84.06
482.28	86.06
482.498	90.06
482.717	92.06
482.935	94.06
483.153	91.06
483.372	105.06
483.59	90.06
483.808	96.06
484.027	93.06
484.245	87.06
484.463	88.06
484.681	89.06
484.9	98.06
485.118	108.06
485.336	90.06
485.554	96.06
485.772	100.06
485.99	108.06
486.209	95.06
486.427	115.06
486.645	111.06
486.863	92.06
487.081	108.06
487.299	92.06
487.517	100.06
487.735	104.06
487.953	103.06
488.171	108.06
488.389	90.06
488.607	102.06
488.825	99.06
489.043	107.06
489.261	91.06
489.479	100.06
489.696	87.06
489.914	85.06
490.132	84.06
490.35	98.06
490.568	90.06
490.786	87.06
491.003	94.06
491.221	100.06
491.439	84.06
491.657	104.06
491.874	100.06
492.092	87.06
492.31	106.06
492.527	92.06
492.745	74.06
492.963	84.06
493.18	86.06
493.398	111.06
493.615	100.06
493.833	99.06
494.05	92.06
494.268	99.06
494.485	101.06
494.703	79.06
494.92	80.06
495.138	87.06
495.355	95.06
495.573	93.06
495.79	99.06
496.008	95.06
496.225	99.06
496.442	101.06
496.66	85.06
496.877	107.06
497.094	92.06
497.312	88.06
497.529	87.06
497.746	92.06
497.963	98.06
498.181	88.06
498.398	106.06
498.615	108.06
498.832	106.06
499.049	93.06
499.267	94.06
499.484	87.06
499.701	88.06
499.918	96.06
500.135	101.06
500.352	104.06
500.569	100.06
500.786	95.06
501.003	84.06
501.22	98.06
501.437	93.06
501.654	101.06
501.871	104.06
502.088	102.06
502.305	102.06
502.522	77.06
502.739	90.06
502.956	96.06
503.172	91.06
503.389	90.06
503.606	101.06
503.823	98.06
504.04	94.06
504.256	83.06
504.473	83.06
504.69	91.06
504.907	86.06
505.123	91.06
505.34	88.06
505.557	98.06
505.773	95.06
505.99	98.06
506.207	83.06
506.423	88.06
506.64	88.06
506.856	95.06
507.073	88.06
507.289	95.06
507.506	97.06
507.722	121.06
507.939	104.06
508.155	95.06
508.372	111.06
508.588	93.06
508.805	103.06
509.021	97.06
509.238	104.06
509.454	114.06
509.67	95.06
509.887	98.06
510.103	133.06
510.319	187.06
510.536	584.06
510.752	1822.06
510.968	520.06
511.184	154.06
511.401	113.06
511.617	95.06
511.833	102.06
512.049	92.06
512.265	94.06
512.481	91.06
512.698	81.06
512.914	67.06
513.13	91.06
513.346	88.06
513.562	99.06
513.778	94.06
513.994	103.06
514.21	110.06
514.426	103.06
