Data from Circ_1983_H10_HRD10591_00083.txt Node
Date: Wed Jan 03 12:27:01 EST 2024
User: Yrep
Spectrometer: HR+D1059
Trigger mode: 1
Integration Time (sec): 1.000000E-1
Scans to average: 1
Electric dark correction enabled: true
Nonlinearity correction enabled: false
Boxcar width: 0
XAxis mode: Wavelengths
Number of Pixels in Spectrum: 2048
>>>>>Begin Spectral Data<<<<<
223.165	-2.56
223.4	-2.56
223.635	-2.56
223.869	-11.56
224.104	-24.56
224.338	-25.56
224.573	-25.56
224.808	-10.56
225.042	3.44
225.277	-11.56
225.511	-9.56
225.746	2.44
225.98	11.44
226.215	7.44
226.449	18.44
226.683	24.44
226.918	26.44
227.152	27.44
227.387	44.44
227.621	42.44
227.856	48.44
228.09	46.44
228.324	46.44
228.559	55.44
228.793	67.44
229.027	58.44
229.262	60.44
229.496	69.44
229.73	85.44
229.964	90.44
230.199	65.44
230.433	88.44
230.667	91.44
230.901	96.44
231.136	84.44
231.37	86.44
231.604	76.44
231.838	70.44
232.072	67.44
232.306	89.44
232.541	74.44
232.775	90.44
233.009	84.44
233.243	91.44
233.477	80.44
233.711	95.44
233.945	88.44
234.179	92.44
234.413	80.44
234.647	94.44
234.881	75.44
235.115	80.44
235.349	85.44
235.583	72.44
235.817	90.44
236.051	69.44
236.285	78.44
236.519	80.44
236.753	83.44
236.987	68.44
237.221	84.44
237.455	89.44
237.689	70.44
237.922	82.44
238.156	80.44
238.39	85.44
238.624	86.44
238.858	90.44
239.091	75.44
239.325	78.44
239.559	78.44
239.793	75.44
240.027	67.44
240.26	69.44
240.494	74.44
240.728	80.44
240.961	68.44
241.195	66.44
241.429	71.44
241.662	80.44
241.896	82.44
242.13	76.44
242.363	69.44
242.597	73.44
242.83	77.44
243.064	70.44
243.298	76.44
243.531	77.44
243.765	80.44
243.998	82.44
244.232	92.44
244.465	87.44
244.699	85.44
244.932	72.44
245.166	84.44
245.399	76.44
245.633	68.44
245.866	85.44
246.099	80.44
246.333	74.44
246.566	65.44
246.8	76.44
247.033	76.44
247.266	75.44
247.5	85.44
247.733	78.44
247.966	68.44
248.2	77.44
248.433	77.44
248.666	82.44
248.899	86.44
249.133	92.44
249.366	96.44
249.599	94.44
249.832	94.44
250.066	83.44
250.299	90.44
250.532	74.44
250.765	76.44
250.998	91.44
251.231	73.44
251.465	60.44
251.698	73.44
251.931	83.44
252.164	95.44
252.397	83.44
252.63	81.44
252.863	86.44
253.096	84.44
253.329	83.44
253.562	96.44
253.795	94.44
254.028	86.44
254.261	88.44
254.494	81.44
254.727	73.44
254.96	89.44
255.193	92.44
255.426	75.44
255.659	72.44
255.892	74.44
256.124	74.44
256.357	91.44
256.59	85.44
256.823	77.44
257.056	77.44
257.289	83.44
257.521	78.44
257.754	68.44
257.987	87.44
258.22	78.44
258.452	83.44
258.685	77.44
258.918	81.44
259.151	91.44
259.383	83.44
259.616	71.44
259.849	80.44
260.081	80.44
260.314	81.44
260.547	82.44
260.779	84.44
261.012	81.44
261.244	82.44
261.477	102.44
261.71	101.44
261.942	91.44
262.175	123.44
262.407	92.44
262.64	75.44
262.872	85.44
263.105	95.44
263.337	104.44
263.57	81.44
263.802	84.44
264.035	102.44
264.267	84.44
264.499	73.44
264.732	93.44
264.964	84.44
265.197	72.44
265.429	80.44
265.661	91.44
265.894	86.44
266.126	93.44
266.358	90.44
266.591	80.44
266.823	71.44
267.055	77.44
267.287	85.44
267.52	92.44
267.752	93.44
267.984	88.44
268.216	81.44
268.448	81.44
268.681	82.44
268.913	83.44
269.145	97.44
269.377	78.44
269.609	99.44
269.841	70.44
270.073	85.44
270.306	75.44
270.538	84.44
270.77	75.44
271.002	89.44
271.234	83.44
271.466	85.44
271.698	70.44
271.93	88.44
272.162	77.44
272.394	89.44
272.626	80.44
272.858	85.44
273.09	92.44
273.322	91.44
273.553	88.44
273.785	85.44
274.017	83.44
274.249	91.44
274.481	97.44
274.713	96.44
274.945	100.44
275.176	93.44
275.408	84.44
275.64	90.44
275.872	88.44
276.104	94.44
276.335	90.44
276.567	93.44
276.799	101.44
277.031	88.44
277.262	99.44
277.494	100.44
277.726	99.44
277.957	98.44
278.189	91.44
278.421	98.44
278.652	88.44
278.884	84.44
279.115	85.44
279.347	85.44
279.579	83.44
279.81	88.44
280.042	106.44
280.273	116.44
280.505	99.44
280.736	97.44
280.968	82.44
281.199	89.44
281.431	84.44
281.662	101.44
281.894	91.44
282.125	99.44
282.356	118.44
282.588	127.44
282.819	110.44
283.051	94.44
283.282	92.44
283.513	96.44
283.745	76.44
283.976	85.44
284.207	80.44
284.439	92.44
284.67	94.44
284.901	90.44
285.132	92.44
285.364	75.44
285.595	80.44
285.826	97.44
286.057	94.44
286.288	84.44
286.52	70.44
286.751	78.44
286.982	92.44
287.213	81.44
287.444	88.44
287.675	73.44
287.906	85.44
288.138	93.44
288.369	105.44
288.6	92.44
288.831	85.44
289.062	82.44
289.293	85.44
289.524	81.44
289.755	92.44
289.986	84.44
290.217	84.44
290.448	98.44
290.679	86.44
290.91	89.44
291.141	85.44
291.371	85.44
291.602	93.44
291.833	87.44
292.064	84.44
292.295	75.44
292.526	103.44
292.757	90.44
292.987	84.44
293.218	77.44
293.449	102.44
293.68	92.44
293.91	89.44
294.141	91.44
294.372	89.44
294.603	95.44
294.833	99.44
295.064	96.44
295.295	78.44
295.525	95.44
295.756	83.44
295.987	106.44
296.217	129.44
296.448	126.44
296.679	90.44
296.909	76.44
297.14	91.44
297.37	91.44
297.601	92.44
297.831	75.44
298.062	102.44
298.292	76.44
298.523	90.44
298.753	83.44
298.984	88.44
299.214	96.44
299.445	84.44
299.675	96.44
299.905	100.44
300.136	96.44
300.366	90.44
300.597	100.44
300.827	101.44
301.057	113.44
301.288	96.44
301.518	101.44
301.748	98.44
301.979	118.44
302.209	99.44
302.439	101.44
302.669	101.44
302.9	89.44
303.13	103.44
303.36	104.44
303.59	105.44
303.82	102.44
304.051	105.44
304.281	89.44
304.511	91.44
304.741	90.44
304.971	87.44
305.201	83.44
305.431	78.44
305.661	100.44
305.891	98.44
306.121	104.44
306.352	108.44
306.582	110.44
306.812	90.44
307.042	96.44
307.272	93.44
307.502	93.44
307.731	109.44
307.961	108.44
308.191	82.44
308.421	85.44
308.651	99.44
308.881	82.44
309.111	98.44
309.341	99.44
309.571	101.44
309.8	105.44
310.03	101.44
310.26	109.44
310.49	105.44
310.72	105.44
310.949	104.44
311.179	106.44
311.409	93.44
311.639	91.44
311.868	119.44
312.098	109.44
312.328	103.44
312.557	98.44
312.787	101.44
313.017	103.44
313.246	109.44
313.476	93.44
313.706	93.44
313.935	101.44
314.165	86.44
314.394	95.44
314.624	102.44
314.853	104.44
315.083	96.44
315.312	85.44
315.542	80.44
315.771	90.44
316.001	83.44
316.23	87.44
316.46	84.44
316.689	105.44
316.919	82.44
317.148	85.44
317.377	97.44
317.607	95.44
317.836	84.44
318.065	88.44
318.295	89.44
318.524	81.44
318.753	96.44
318.983	93.44
319.212	96.44
319.441	104.44
319.67	100.44
319.9	86.44
320.129	94.44
320.358	88.44
320.587	107.44
320.816	105.44
321.046	97.44
321.275	89.44
321.504	85.44
321.733	90.44
321.962	88.44
322.191	92.44
322.42	109.44
322.649	104.44
322.878	110.44
323.108	113.44
323.337	113.44
323.566	123.44
323.795	134.44
324.024	178.44
324.253	314.44
324.482	633.44
324.71	1264.44
324.939	1671.44
325.168	626.44
325.397	200.44
325.626	128.44
325.855	105.44
326.084	108.44
326.313	132.44
326.542	123.44
326.77	200.44
326.999	363.44
327.228	745.44
327.457	1295.44
327.686	1027.44
327.914	320.44
328.143	211.44
328.372	183.44
328.6	130.44
328.829	115.44
329.058	137.44
329.287	119.44
329.515	108.44
329.744	133.44
329.972	126.44
330.201	206.44
330.43	257.44
330.658	161.44
330.887	128.44
331.115	121.44
331.344	110.44
331.572	107.44
331.801	98.44
332.03	104.44
332.258	86.44
332.486	96.44
332.715	91.44
332.943	101.44
333.172	97.44
333.4	108.44
333.629	99.44
333.857	119.44
334.085	146.44
334.314	220.44
334.542	336.44
334.771	319.44
334.999	142.44
335.227	109.44
335.455	102.44
335.684	95.44
335.912	91.44
336.14	92.44
336.369	84.44
336.597	105.44
336.825	107.44
337.053	96.44
337.281	104.44
337.51	91.44
337.738	94.44
337.966	92.44
338.194	93.44
338.422	95.44
338.65	100.44
338.878	103.44
339.106	88.44
339.334	95.44
339.562	96.44
339.79	97.44
340.018	91.44
340.246	92.44
340.474	78.44
340.702	93.44
340.93	100.44
341.158	93.44
341.386	94.44
341.614	91.44
341.842	99.44
342.07	106.44
342.298	97.44
342.526	89.44
342.754	89.44
342.981	113.44
343.209	77.44
343.437	100.44
343.665	85.44
343.893	96.44
344.12	86.44
344.348	90.44
344.576	93.44
344.804	96.44
345.031	98.44
345.259	100.44
345.487	99.44
345.714	108.44
345.942	100.44
346.17	88.44
346.397	93.44
346.625	88.44
346.853	76.44
347.08	91.44
347.308	98.44
347.535	80.44
347.763	96.44
347.99	90.44
348.218	90.44
348.445	98.44
348.673	91.44
348.9	93.44
349.128	107.44
349.355	109.44
349.583	106.44
349.81	86.44
350.037	88.44
350.265	104.44
350.492	97.44
350.72	107.44
350.947	111.44
351.174	107.44
351.402	101.44
351.629	87.44
351.856	88.44
352.083	94.44
352.311	105.44
352.538	98.44
352.765	108.44
352.992	117.44
353.22	117.44
353.447	102.44
353.674	100.44
353.901	98.44
354.128	92.44
354.355	86.44
354.583	109.44
354.81	108.44
355.037	100.44
355.264	91.44
355.491	98.44
355.718	92.44
355.945	97.44
356.172	99.44
356.399	103.44
356.626	94.44
356.853	104.44
357.08	83.44
357.307	90.44
357.534	90.44
357.761	103.44
357.988	97.44
358.215	102.44
358.441	104.44
358.668	90.44
358.895	97.44
359.122	93.44
359.349	91.44
359.576	88.44
359.802	70.44
360.029	97.44
360.256	105.44
360.483	92.44
360.709	86.44
360.936	101.44
361.163	89.44
361.39	77.44
361.616	91.44
361.843	66.44
362.07	81.44
362.296	108.44
362.523	97.44
362.749	70.44
362.976	93.44
363.203	85.44
363.429	84.44
363.656	98.44
363.882	86.44
364.109	90.44
364.335	98.44
364.562	94.44
364.788	80.44
365.015	86.44
365.241	87.44
365.468	108.44
365.694	110.44
365.92	103.44
366.147	91.44
366.373	86.44
366.599	92.44
366.826	99.44
367.052	76.44
367.278	100.44
367.505	84.44
367.731	78.44
367.957	91.44
368.184	92.44
368.41	93.44
368.636	97.44
368.862	93.44
369.089	118.44
369.315	88.44
369.541	85.44
369.767	95.44
369.993	86.44
370.219	87.44
370.445	99.44
370.672	77.44
370.898	88.44
371.124	86.44
371.35	100.44
371.576	84.44
371.802	88.44
372.028	88.44
372.254	91.44
372.48	99.44
372.706	95.44
372.932	90.44
373.158	91.44
373.384	101.44
373.61	92.44
373.835	89.44
374.061	87.44
374.287	94.44
374.513	93.44
374.739	88.44
374.965	100.44
375.191	92.44
375.416	77.44
375.642	95.44
375.868	90.44
376.094	91.44
376.319	103.44
376.545	93.44
376.771	90.44
376.997	98.44
377.222	89.44
377.448	97.44
377.674	95.44
377.899	83.44
378.125	95.44
378.35	89.44
378.576	99.44
378.802	104.44
379.027	85.44
379.253	90.44
379.478	85.44
379.704	92.44
379.929	107.44
380.155	82.44
380.38	88.44
380.606	90.44
380.831	101.44
381.057	88.44
381.282	88.44
381.507	100.44
381.733	102.44
381.958	98.44
382.184	101.44
382.409	96.44
382.634	96.44
382.86	97.44
383.085	94.44
383.31	91.44
383.535	105.44
383.761	97.44
383.986	96.44
384.211	101.44
384.436	87.44
384.662	92.44
384.887	107.44
385.112	86.44
385.337	112.44
385.562	100.44
385.787	106.44
386.013	114.44
386.238	116.44
386.463	122.44
386.688	116.44
386.913	115.44
387.138	107.44
387.363	99.44
387.588	101.44
387.813	98.44
388.038	110.44
388.263	110.44
388.488	113.44
388.713	89.44
388.938	93.44
389.163	87.44
389.387	100.44
389.612	87.44
389.837	92.44
390.062	96.44
390.287	91.44
390.512	106.44
390.736	82.44
390.961	92.44
391.186	90.44
391.411	98.44
391.636	96.44
391.86	95.44
392.085	77.44
392.31	97.44
392.534	78.44
392.759	98.44
392.984	86.44
393.208	97.44
393.433	107.44
393.658	96.44
393.882	97.44
394.107	85.44
394.331	91.44
394.556	86.44
394.78	94.44
395.005	93.44
395.229	94.44
395.454	86.44
395.678	97.44
395.903	85.44
396.127	82.44
396.352	93.44
396.576	81.44
396.801	95.44
397.025	88.44
397.249	96.44
397.474	71.44
397.698	85.44
397.922	92.44
398.147	101.44
398.371	77.44
398.595	94.44
398.82	93.44
399.044	82.44
399.268	100.44
399.492	78.44
399.717	87.44
399.941	92.44
400.165	93.44
400.389	104.44
400.613	98.44
400.837	83.44
401.062	104.44
401.286	84.44
401.51	76.44
401.734	86.44
401.958	100.44
402.182	120.44
402.406	139.44
402.63	120.44
402.854	100.44
403.078	88.44
403.302	96.44
403.526	84.44
403.75	72.44
403.974	93.44
404.198	98.44
404.422	89.44
404.645	77.44
404.869	83.44
405.093	94.44
405.317	101.44
405.541	110.44
405.765	89.44
405.988	97.44
406.212	145.44
406.436	187.44
406.66	129.44
406.883	92.44
407.107	85.44
407.331	88.44
407.555	90.44
407.778	99.44
408.002	82.44
408.226	88.44
408.449	92.44
408.673	99.44
408.896	92.44
409.12	94.44
409.344	101.44
409.567	96.44
409.791	89.44
410.014	105.44
410.238	97.44
410.461	85.44
410.685	101.44
410.908	100.44
411.132	97.44
411.355	93.44
411.578	104.44
411.802	83.44
412.025	92.44
412.249	94.44
412.472	84.44
412.695	102.44
412.919	104.44
413.142	74.44
413.365	79.44
413.589	82.44
413.812	85.44
414.035	84.44
414.258	88.44
414.482	103.44
414.705	80.44
414.928	88.44
415.151	106.44
415.374	99.44
415.597	96.44
415.821	80.44
416.044	84.44
416.267	90.44
416.49	73.44
416.713	84.44
416.936	99.44
417.159	81.44
417.382	98.44
417.605	75.44
417.828	96.44
418.051	104.44
418.274	83.44
418.497	97.44
418.72	104.44
418.943	96.44
419.166	91.44
419.389	76.44
419.611	93.44
419.834	70.44
420.057	98.44
420.28	78.44
420.503	83.44
420.726	96.44
420.948	92.44
421.171	102.44
421.394	87.44
421.617	107.44
421.839	95.44
422.062	90.44
422.285	85.44
422.507	98.44
422.73	94.44
422.953	101.44
423.175	92.44
423.398	80.44
423.621	86.44
423.843	89.44
424.066	103.44
424.288	95.44
424.511	93.44
424.733	96.44
424.956	89.44
425.178	84.44
425.401	97.44
425.623	92.44
425.846	96.44
426.068	96.44
426.291	92.44
426.513	99.44
426.735	101.44
426.958	93.44
427.18	93.44
427.402	125.44
427.625	159.44
427.847	122.44
428.069	112.44
428.292	86.44
428.514	104.44
428.736	91.44
428.958	86.44
429.181	78.44
429.403	82.44
429.625	83.44
429.847	88.44
430.069	102.44
430.292	98.44
430.514	83.44
430.736	67.44
430.958	86.44
431.18	85.44
431.402	83.44
431.624	86.44
431.846	94.44
432.068	88.44
432.29	84.44
432.512	89.44
432.734	85.44
432.956	93.44
433.178	89.44
433.4	101.44
433.622	77.44
433.844	92.44
434.066	91.44
434.287	87.44
434.509	81.44
434.731	93.44
434.953	86.44
435.175	83.44
435.397	94.44
435.618	90.44
435.84	105.44
436.062	100.44
436.284	114.44
436.505	91.44
436.727	94.44
436.949	96.44
437.17	94.44
437.392	92.44
437.614	95.44
437.835	101.44
438.057	106.44
438.278	102.44
438.5	97.44
438.721	110.44
438.943	93.44
439.165	88.44
439.386	90.44
439.608	91.44
439.829	77.44
440.05	106.44
440.272	124.44
440.493	105.44
440.715	92.44
440.936	89.44
441.158	87.44
441.379	84.44
441.6	97.44
441.822	97.44
442.043	84.44
442.264	105.44
442.486	98.44
442.707	91.44
442.928	92.44
443.149	129.44
443.371	106.44
443.592	106.44
443.813	122.44
444.034	95.44
444.255	86.44
444.476	100.44
444.698	91.44
444.919	80.44
445.14	134.44
445.361	115.44
445.582	106.44
445.803	112.44
446.024	122.44
446.245	117.44
446.466	107.44
446.687	84.44
446.908	82.44
447.129	92.44
447.35	78.44
447.571	96.44
447.792	94.44
448.013	93.44
448.234	97.44
448.455	88.44
448.675	111.44
448.896	107.44
449.117	101.44
449.338	97.44
449.559	128.44
449.779	113.44
450	83.44
450.221	96.44
450.442	93.44
450.662	94.44
450.883	103.44
451.104	109.44
451.324	90.44
451.545	84.44
451.766	85.44
451.986	101.44
452.207	87.44
452.428	88.44
452.648	97.44
452.869	113.44
453.089	106.44
453.31	109.44
453.53	81.44
453.751	90.44
453.971	101.44
454.192	96.44
454.412	106.44
454.633	70.44
454.853	78.44
455.073	83.44
455.294	98.44
455.514	105.44
455.734	88.44
455.955	72.44
456.175	79.44
456.395	84.44
456.616	114.44
456.836	101.44
457.056	81.44
457.276	82.44
457.497	82.44
457.717	78.44
457.937	87.44
458.157	89.44
458.377	99.44
458.598	104.44
458.818	132.44
459.038	135.44
459.258	110.44
459.478	87.44
459.698	78.44
459.918	84.44
460.138	86.44
460.358	87.44
460.578	76.44
460.798	88.44
461.018	102.44
461.238	83.44
461.458	91.44
461.678	78.44
461.898	76.44
462.118	87.44
462.338	97.44
462.558	96.44
462.777	94.44
462.997	94.44
463.217	75.44
463.437	80.44
463.657	84.44
463.876	97.44
464.096	80.44
464.316	82.44
464.536	81.44
464.755	97.44
464.975	105.44
465.195	136.44
465.414	134.44
465.634	97.44
465.854	93.44
466.073	91.44
466.293	97.44
466.512	90.44
466.732	94.44
466.951	84.44
467.171	82.44
467.391	102.44
467.61	84.44
467.829	95.44
468.049	141.44
468.268	192.44
468.488	102.44
468.707	93.44
468.927	96.44
469.146	80.44
469.365	91.44
469.585	102.44
469.804	92.44
470.023	91.44
470.243	91.44
470.462	92.44
470.681	100.44
470.901	77.44
471.12	86.44
471.339	97.44
471.558	92.44
471.777	89.44
471.997	122.44
472.216	234.44
472.435	421.44
472.654	160.44
472.873	90.44
473.092	93.44
473.311	103.44
473.53	83.44
473.749	89.44
473.968	85.44
474.187	114.44
474.406	87.44
474.625	84.44
474.844	82.44
475.063	85.44
475.282	91.44
475.501	89.44
475.72	86.44
475.939	84.44
476.158	84.44
476.377	83.44
476.596	91.44
476.814	91.44
477.033	95.44
477.252	96.44
477.471	78.44
477.69	94.44
477.908	85.44
478.127	82.44
478.346	88.44
478.564	96.44
478.783	85.44
479.002	71.44
479.22	101.44
479.439	98.44
479.658	94.44
479.876	99.44
480.095	81.44
480.313	109.44
480.532	103.44
480.751	133.44
480.969	229.44
481.188	726.44
481.406	454.44
481.624	126.44
481.843	95.44
482.061	98.44
482.28	94.44
482.498	93.44
482.717	98.44
482.935	100.44
483.153	100.44
483.372	94.44
483.59	87.44
483.808	98.44
484.027	86.44
484.245	85.44
484.463	93.44
484.681	82.44
484.9	104.44
485.118	96.44
485.336	84.44
485.554	93.44
485.772	112.44
485.99	112.44
486.209	100.44
486.427	102.44
486.645	101.44
486.863	96.44
487.081	86.44
487.299	93.44
487.517	100.44
487.735	100.44
487.953	87.44
488.171	94.44
488.389	94.44
488.607	104.44
488.825	103.44
489.043	89.44
489.261	81.44
489.479	81.44
489.696	101.44
489.914	83.44
490.132	97.44
490.35	96.44
490.568	80.44
490.786	89.44
491.003	85.44
491.221	92.44
491.439	91.44
491.657	98.44
491.874	87.44
492.092	96.44
492.31	84.44
492.527	80.44
492.745	80.44
492.963	98.44
493.18	90.44
493.398	96.44
493.615	104.44
493.833	92.44
494.05	78.44
494.268	72.44
494.485	97.44
494.703	97.44
494.92	97.44
495.138	97.44
495.355	86.44
495.573	104.44
495.79	86.44
496.008	100.44
496.225	90.44
496.442	102.44
496.66	95.44
496.877	94.44
497.094	102.44
497.312	81.44
497.529	100.44
497.746	95.44
497.963	85.44
498.181	87.44
498.398	89.44
498.615	98.44
498.832	98.44
499.049	86.44
499.267	93.44
499.484	92.44
499.701	99.44
499.918	80.44
500.135	90.44
500.352	82.44
500.569	85.44
500.786	78.44
501.003	85.44
501.22	94.44
501.437	91.44
501.654	89.44
501.871	98.44
502.088	104.44
502.305	100.44
502.522	92.44
502.739	88.44
502.956	88.44
503.172	107.44
503.389	85.44
503.606	102.44
503.823	97.44
504.04	99.44
504.256	88.44
504.473	93.44
504.69	68.44
504.907	99.44
505.123	89.44
505.34	95.44
505.557	90.44
505.773	77.44
505.99	100.44
506.207	94.44
506.423	91.44
506.64	87.44
506.856	90.44
507.073	88.44
507.289	96.44
507.506	92.44
507.722	108.44
507.939	99.44
508.155	105.44
508.372	88.44
508.588	99.44
508.805	114.44
509.021	91.44
509.238	93.44
509.454	98.44
509.67	95.44
509.887	102.44
510.103	123.44
510.319	171.44
510.536	594.44
510.752	1848.44
510.968	533.44
511.184	150.44
511.401	107.44
511.617	99.44
511.833	75.44
512.049	76.44
512.265	77.44
512.481	93.44
512.698	91.44
512.914	94.44
513.13	90.44
513.346	88.44
513.562	80.44
513.778	90.44
513.994	101.44
514.21	96.44
514.426	93.44
514.642	116.44
514.858	103.44
515.074	140.44
515.29	356.44
515.506	1087.44
