Data from Circ_1983_H10_HRD10591_00008.txt Node
Date: Wed Jan 03 12:26:46 EST 2024
User: Yrep
Spectrometer: HR+D1059
Trigger mode: 1
Integration Time (sec): 1.000000E-1
Scans to average: 1
Electric dark correction enabled: true
Nonlinearity correction enabled: false
Boxcar width: 0
XAxis mode: Wavelengths
Number of Pixels in Spectrum: 2048
>>>>>Begin Spectral Data<<<<<
223.165	-22.06
223.4	-22.06
223.635	-22.06
223.869	-9.06
224.104	-22.06
224.338	-18.06
224.573	-20.06
224.808	-16.06
225.042	-11.06
225.277	-9.06
225.511	7.94
225.746	10.94
225.98	13.94
226.215	8.94
226.449	15.94
226.683	17.94
226.918	23.94
227.152	27.94
227.387	43.94
227.621	28.94
227.856	60.94
228.09	54.94
228.324	58.94
228.559	57.94
228.793	56.94
229.027	73.94
229.262	70.94
229.496	79.94
229.73	76.94
229.964	70.94
230.199	74.94
230.433	79.94
230.667	83.94
230.901	89.94
231.136	81.94
231.37	80.94
231.604	77.94
231.838	86.94
232.072	78.94
232.306	94.94
232.541	77.94
232.775	77.94
233.009	72.94
233.243	88.94
233.477	83.94
233.711	81.94
233.945	83.94
234.179	85.94
234.413	77.94
234.647	86.94
234.881	90.94
235.115	73.94
235.349	74.94
235.583	79.94
235.817	93.94
236.051	79.94
236.285	96.94
236.519	86.94
236.753	66.94
236.987	89.94
237.221	86.94
237.455	89.94
237.689	78.94
237.922	81.94
238.156	82.94
238.39	74.94
238.624	87.94
238.858	85.94
239.091	82.94
239.325	64.94
239.559	76.94
239.793	77.94
240.027	86.94
240.26	72.94
240.494	93.94
240.728	74.94
240.961	85.94
241.195	76.94
241.429	72.94
241.662	78.94
241.896	76.94
242.13	89.94
242.363	82.94
242.597	85.94
242.83	85.94
243.064	91.94
243.298	77.94
243.531	81.94
243.765	86.94
243.998	65.94
244.232	83.94
244.465	83.94
244.699	86.94
244.932	79.94
245.166	81.94
245.399	70.94
245.633	78.94
245.866	86.94
246.099	78.94
246.333	93.94
246.566	80.94
246.8	69.94
247.033	72.94
247.266	84.94
247.5	78.94
247.733	73.94
247.966	84.94
248.2	79.94
248.433	83.94
248.666	79.94
248.899	92.94
249.133	91.94
249.366	81.94
249.599	96.94
249.832	89.94
250.066	76.94
250.299	59.94
250.532	94.94
250.765	86.94
250.998	74.94
251.231	74.94
251.465	102.94
251.698	89.94
251.931	70.94
252.164	98.94
252.397	81.94
252.63	70.94
252.863	83.94
253.096	75.94
253.329	83.94
253.562	87.94
253.795	69.94
254.028	82.94
254.261	75.94
254.494	90.94
254.727	83.94
254.96	107.94
255.193	93.94
255.426	87.94
255.659	82.94
255.892	86.94
256.124	71.94
256.357	88.94
256.59	74.94
256.823	87.94
257.056	97.94
257.289	73.94
257.521	85.94
257.754	85.94
257.987	82.94
258.22	88.94
258.452	81.94
258.685	77.94
258.918	93.94
259.151	86.94
259.383	93.94
259.616	75.94
259.849	91.94
260.081	75.94
260.314	74.94
260.547	79.94
260.779	85.94
261.012	79.94
261.244	84.94
261.477	97.94
261.71	102.94
261.942	93.94
262.175	105.94
262.407	71.94
262.64	73.94
262.872	93.94
263.105	93.94
263.337	90.94
263.57	88.94
263.802	73.94
264.035	73.94
264.267	77.94
264.499	75.94
264.732	84.94
264.964	84.94
265.197	77.94
265.429	89.94
265.661	90.94
265.894	97.94
266.126	75.94
266.358	103.94
266.591	79.94
266.823	87.94
267.055	78.94
267.287	71.94
267.52	93.94
267.752	88.94
267.984	87.94
268.216	75.94
268.448	77.94
268.681	91.94
268.913	95.94
269.145	103.94
269.377	82.94
269.609	86.94
269.841	86.94
270.073	79.94
270.306	83.94
270.538	79.94
270.77	79.94
271.002	79.94
271.234	80.94
271.466	89.94
271.698	73.94
271.93	81.94
272.162	79.94
272.394	93.94
272.626	71.94
272.858	81.94
273.09	95.94
273.322	87.94
273.553	87.94
273.785	88.94
274.017	78.94
274.249	81.94
274.481	91.94
274.713	91.94
274.945	88.94
275.176	87.94
275.408	94.94
275.64	89.94
275.872	93.94
276.104	78.94
276.335	85.94
276.567	83.94
276.799	105.94
277.031	106.94
277.262	75.94
277.494	87.94
277.726	84.94
277.957	78.94
278.189	78.94
278.421	95.94
278.652	86.94
278.884	91.94
279.115	95.94
279.347	92.94
279.579	103.94
279.81	92.94
280.042	88.94
280.273	88.94
280.505	89.94
280.736	91.94
280.968	85.94
281.199	97.94
281.431	97.94
281.662	94.94
281.894	94.94
282.125	94.94
282.356	121.94
282.588	118.94
282.819	105.94
283.051	88.94
283.282	106.94
283.513	92.94
283.745	99.94
283.976	91.94
284.207	93.94
284.439	91.94
284.67	81.94
284.901	93.94
285.132	85.94
285.364	85.94
285.595	88.94
285.826	84.94
286.057	86.94
286.288	81.94
286.52	83.94
286.751	78.94
286.982	98.94
287.213	70.94
287.444	92.94
287.675	91.94
287.906	87.94
288.138	99.94
288.369	94.94
288.6	85.94
288.831	87.94
289.062	97.94
289.293	89.94
289.524	89.94
289.755	79.94
289.986	104.94
290.217	95.94
290.448	86.94
290.679	86.94
290.91	93.94
291.141	90.94
291.371	86.94
291.602	84.94
291.833	78.94
292.064	95.94
292.295	82.94
292.526	89.94
292.757	79.94
292.987	86.94
293.218	85.94
293.449	89.94
293.68	103.94
293.91	113.94
294.141	93.94
294.372	100.94
294.603	91.94
294.833	87.94
295.064	99.94
295.295	102.94
295.525	92.94
295.756	95.94
295.987	103.94
296.217	109.94
296.448	118.94
296.679	89.94
296.909	84.94
297.14	82.94
297.37	85.94
297.601	94.94
297.831	90.94
298.062	96.94
298.292	98.94
298.523	94.94
298.753	93.94
298.984	101.94
299.214	89.94
299.445	89.94
299.675	103.94
299.905	98.94
300.136	93.94
300.366	81.94
300.597	94.94
300.827	86.94
301.057	102.94
301.288	92.94
301.518	98.94
301.748	76.94
301.979	102.94
302.209	92.94
302.439	90.94
302.669	100.94
302.9	92.94
303.13	98.94
303.36	84.94
303.59	94.94
303.82	104.94
304.051	89.94
304.281	90.94
304.511	93.94
304.741	93.94
304.971	97.94
305.201	93.94
305.431	102.94
305.661	102.94
305.891	93.94
306.121	88.94
306.352	94.94
306.582	101.94
306.812	94.94
307.042	92.94
307.272	86.94
307.502	103.94
307.731	94.94
307.961	94.94
308.191	81.94
308.421	102.94
308.651	90.94
308.881	95.94
309.111	95.94
309.341	88.94
309.571	100.94
309.8	86.94
310.03	100.94
310.26	90.94
310.49	91.94
310.72	100.94
310.949	110.94
311.179	83.94
311.409	91.94
311.639	103.94
311.868	85.94
312.098	93.94
312.328	86.94
312.557	93.94
312.787	91.94
313.017	108.94
313.246	106.94
313.476	104.94
313.706	87.94
313.935	85.94
314.165	93.94
314.394	88.94
314.624	91.94
314.853	105.94
315.083	89.94
315.312	90.94
315.542	96.94
315.771	97.94
316.001	82.94
316.23	81.94
316.46	83.94
316.689	99.94
316.919	78.94
317.148	90.94
317.377	91.94
317.607	109.94
317.836	98.94
318.065	81.94
318.295	100.94
318.524	78.94
318.753	79.94
318.983	97.94
319.212	89.94
319.441	100.94
319.67	99.94
319.9	99.94
320.129	90.94
320.358	87.94
320.587	99.94
320.816	121.94
321.046	104.94
321.275	95.94
321.504	101.94
321.733	91.94
321.962	90.94
322.191	104.94
322.42	104.94
322.649	85.94
322.878	106.94
323.108	111.94
323.337	102.94
323.566	113.94
323.795	136.94
324.024	182.94
324.253	300.94
324.482	603.94
324.71	1196.94
324.939	1605.94
325.168	593.94
325.397	185.94
325.626	126.94
325.855	116.94
326.084	120.94
326.313	113.94
326.542	126.94
326.77	183.94
326.999	355.94
327.228	680.94
327.457	1211.94
327.686	975.94
327.914	285.94
328.143	178.94
328.372	132.94
328.6	113.94
328.829	103.94
329.058	118.94
329.287	112.94
329.515	92.94
329.744	105.94
329.972	92.94
330.201	107.94
330.43	135.94
330.658	134.94
330.887	117.94
331.115	130.94
331.344	105.94
331.572	94.94
331.801	108.94
332.03	98.94
332.258	95.94
332.486	83.94
332.715	90.94
332.943	93.94
333.172	105.94
333.4	92.94
333.629	98.94
333.857	109.94
334.085	98.94
334.314	123.94
334.542	139.94
334.771	140.94
334.999	94.94
335.227	102.94
335.455	108.94
335.684	95.94
335.912	89.94
336.14	101.94
336.369	90.94
336.597	89.94
336.825	94.94
337.053	91.94
337.281	94.94
337.51	89.94
337.738	77.94
337.966	92.94
338.194	83.94
338.422	91.94
338.65	92.94
338.878	92.94
339.106	88.94
339.334	89.94
339.562	96.94
339.79	115.94
340.018	87.94
340.246	82.94
340.474	91.94
340.702	95.94
340.93	94.94
341.158	91.94
341.386	86.94
341.614	94.94
341.842	94.94
342.07	95.94
342.298	97.94
342.526	95.94
342.754	96.94
342.981	89.94
343.209	99.94
343.437	102.94
343.665	89.94
343.893	85.94
344.12	94.94
344.348	98.94
344.576	97.94
344.804	95.94
345.031	94.94
345.259	78.94
345.487	98.94
345.714	97.94
345.942	86.94
346.17	97.94
346.397	100.94
346.625	87.94
346.853	109.94
347.08	91.94
347.308	94.94
347.535	99.94
347.763	97.94
347.99	82.94
348.218	108.94
348.445	105.94
348.673	100.94
348.9	105.94
349.128	115.94
349.355	106.94
349.583	103.94
349.81	77.94
350.037	99.94
350.265	108.94
350.492	92.94
350.72	99.94
350.947	102.94
351.174	89.94
351.402	101.94
351.629	108.94
351.856	92.94
352.083	98.94
352.311	110.94
352.538	108.94
352.765	103.94
352.992	110.94
353.22	112.94
353.447	111.94
353.674	111.94
353.901	103.94
354.128	100.94
354.355	93.94
354.583	93.94
354.81	92.94
355.037	99.94
355.264	93.94
355.491	105.94
355.718	88.94
355.945	104.94
356.172	110.94
356.399	94.94
356.626	110.94
356.853	86.94
357.08	103.94
357.307	102.94
357.534	95.94
357.761	88.94
357.988	95.94
358.215	109.94
358.441	110.94
358.668	101.94
358.895	110.94
359.122	101.94
359.349	83.94
359.576	83.94
359.802	90.94
360.029	93.94
360.256	96.94
360.483	98.94
360.709	86.94
360.936	98.94
361.163	93.94
361.39	93.94
361.616	100.94
361.843	85.94
362.07	95.94
362.296	103.94
362.523	94.94
362.749	90.94
362.976	103.94
363.203	94.94
363.429	86.94
363.656	100.94
363.882	96.94
364.109	94.94
364.335	94.94
364.562	106.94
364.788	103.94
365.015	98.94
365.241	99.94
365.468	104.94
365.694	110.94
365.92	86.94
366.147	82.94
366.373	82.94
366.599	98.94
366.826	90.94
367.052	89.94
367.278	94.94
367.505	83.94
367.731	100.94
367.957	85.94
368.184	82.94
368.41	95.94
368.636	92.94
368.862	99.94
369.089	99.94
369.315	97.94
369.541	94.94
369.767	85.94
369.993	82.94
370.219	91.94
370.445	93.94
370.672	85.94
370.898	97.94
371.124	97.94
371.35	88.94
371.576	85.94
371.802	96.94
372.028	92.94
372.254	109.94
372.48	110.94
372.706	92.94
372.932	97.94
373.158	88.94
373.384	86.94
373.61	96.94
373.835	91.94
374.061	100.94
374.287	94.94
374.513	96.94
374.739	98.94
374.965	98.94
375.191	90.94
375.416	97.94
375.642	94.94
375.868	104.94
376.094	94.94
376.319	85.94
376.545	84.94
376.771	88.94
376.997	93.94
377.222	85.94
377.448	101.94
377.674	99.94
377.899	99.94
378.125	106.94
378.35	96.94
378.576	119.94
378.802	102.94
379.027	97.94
379.253	87.94
379.478	107.94
379.704	90.94
379.929	94.94
380.155	94.94
380.38	87.94
380.606	107.94
380.831	112.94
381.057	103.94
381.282	112.94
381.507	99.94
381.733	95.94
381.958	113.94
382.184	105.94
382.409	118.94
382.634	125.94
382.86	111.94
383.085	120.94
383.31	130.94
383.535	113.94
383.761	118.94
383.986	108.94
384.211	107.94
384.436	111.94
384.662	119.94
384.887	136.94
385.112	138.94
385.337	131.94
385.562	135.94
385.787	124.94
386.013	130.94
386.238	138.94
386.463	125.94
386.688	148.94
386.913	132.94
387.138	157.94
387.363	138.94
387.588	113.94
387.813	121.94
388.038	144.94
388.263	145.94
388.488	140.94
388.713	118.94
388.938	104.94
389.163	105.94
389.387	97.94
389.612	103.94
389.837	106.94
390.062	87.94
390.287	88.94
390.512	102.94
390.736	92.94
390.961	102.94
391.186	94.94
391.411	90.94
391.636	97.94
391.86	76.94
392.085	88.94
392.31	93.94
392.534	100.94
392.759	85.94
392.984	94.94
393.208	120.94
393.433	157.94
393.658	131.94
393.882	71.94
394.107	78.94
394.331	92.94
394.556	81.94
394.78	82.94
395.005	78.94
395.229	93.94
395.454	81.94
395.678	96.94
395.903	88.94
396.127	87.94
396.352	98.94
396.576	95.94
396.801	112.94
397.025	126.94
397.249	111.94
397.474	87.94
397.698	81.94
397.922	94.94
398.147	94.94
398.371	89.94
398.595	90.94
398.82	97.94
399.044	83.94
399.268	107.94
399.492	83.94
399.717	78.94
399.941	90.94
400.165	87.94
400.389	89.94
400.613	83.94
400.837	97.94
401.062	86.94
401.286	83.94
401.51	87.94
401.734	92.94
401.958	102.94
402.182	108.94
402.406	123.94
402.63	119.94
402.854	100.94
403.078	95.94
403.302	92.94
403.526	87.94
403.75	76.94
403.974	97.94
404.198	85.94
404.422	83.94
404.645	83.94
404.869	102.94
405.093	83.94
405.317	101.94
405.541	98.94
405.765	84.94
405.988	101.94
406.212	155.94
406.436	176.94
406.66	124.94
406.883	94.94
407.107	99.94
407.331	88.94
407.555	93.94
407.778	96.94
408.002	98.94
408.226	92.94
408.449	75.94
408.673	87.94
408.896	95.94
409.12	90.94
409.344	76.94
409.567	93.94
409.791	88.94
410.014	99.94
410.238	101.94
410.461	91.94
410.685	111.94
410.908	104.94
411.132	106.94
411.355	109.94
411.578	97.94
411.802	90.94
412.025	85.94
412.249	105.94
412.472	97.94
412.695	88.94
412.919	77.94
413.142	84.94
413.365	83.94
413.589	86.94
413.812	93.94
414.035	102.94
414.258	106.94
414.482	100.94
414.705	93.94
414.928	91.94
415.151	108.94
415.374	95.94
415.597	94.94
415.821	91.94
416.044	99.94
416.267	87.94
416.49	90.94
416.713	88.94
416.936	99.94
417.159	89.94
417.382	85.94
417.605	100.94
417.828	85.94
418.051	101.94
418.274	101.94
418.497	95.94
418.72	92.94
418.943	90.94
419.166	99.94
419.389	90.94
419.611	107.94
419.834	91.94
420.057	90.94
420.28	96.94
420.503	79.94
420.726	89.94
420.948	88.94
421.171	87.94
421.394	86.94
421.617	83.94
421.839	97.94
422.062	98.94
422.285	109.94
422.507	111.94
422.73	112.94
422.953	100.94
423.175	99.94
423.398	85.94
423.621	101.94
423.843	84.94
424.066	89.94
424.288	77.94
424.511	106.94
424.733	91.94
424.956	95.94
425.178	107.94
425.401	99.94
425.623	109.94
425.846	87.94
426.068	92.94
426.291	87.94
426.513	93.94
426.735	102.94
426.958	90.94
427.18	107.94
427.402	126.94
427.625	134.94
427.847	102.94
428.069	118.94
428.292	90.94
428.514	80.94
428.736	83.94
428.958	89.94
429.181	91.94
429.403	92.94
429.625	85.94
429.847	95.94
430.069	103.94
430.292	98.94
430.514	93.94
430.736	83.94
430.958	94.94
431.18	92.94
431.402	87.94
431.624	81.94
431.846	90.94
432.068	89.94
432.29	84.94
432.512	94.94
432.734	88.94
432.956	102.94
433.178	109.94
433.4	111.94
433.622	90.94
433.844	75.94
434.066	100.94
434.287	103.94
434.509	99.94
434.731	88.94
434.953	82.94
435.175	82.94
435.397	98.94
435.618	90.94
435.84	72.94
436.062	103.94
436.284	95.94
436.505	95.94
436.727	107.94
436.949	98.94
437.17	83.94
437.392	88.94
437.614	87.94
437.835	91.94
438.057	101.94
438.278	94.94
438.5	91.94
438.721	99.94
438.943	95.94
439.165	81.94
439.386	93.94
439.608	93.94
439.829	97.94
440.05	118.94
440.272	121.94
440.493	102.94
440.715	85.94
440.936	93.94
441.158	105.94
441.379	95.94
441.6	101.94
441.822	94.94
442.043	95.94
442.264	104.94
442.486	99.94
442.707	87.94
442.928	102.94
443.149	114.94
443.371	95.94
443.592	111.94
443.813	100.94
444.034	101.94
444.255	96.94
444.476	77.94
444.698	95.94
444.919	100.94
445.14	129.94
445.361	120.94
445.582	95.94
445.803	108.94
446.024	126.94
446.245	107.94
446.466	104.94
446.687	79.94
446.908	94.94
447.129	76.94
447.35	83.94
447.571	99.94
447.792	88.94
448.013	80.94
448.234	106.94
448.455	98.94
448.675	110.94
448.896	110.94
449.117	108.94
449.338	94.94
449.559	112.94
449.779	123.94
450	94.94
450.221	89.94
450.442	86.94
450.662	84.94
450.883	98.94
451.104	101.94
451.324	86.94
451.545	84.94
451.766	86.94
451.986	77.94
452.207	77.94
452.428	82.94
452.648	96.94
452.869	93.94
453.089	102.94
453.31	118.94
453.53	87.94
453.751	84.94
453.971	94.94
454.192	99.94
454.412	100.94
454.633	81.94
454.853	85.94
455.073	90.94
455.294	113.94
455.514	94.94
455.734	95.94
455.955	92.94
456.175	85.94
456.395	101.94
456.616	81.94
456.836	90.94
457.056	98.94
457.276	70.94
457.497	87.94
457.717	97.94
457.937	85.94
458.157	89.94
458.377	103.94
458.598	91.94
458.818	126.94
459.038	124.94
459.258	91.94
459.478	84.94
459.698	78.94
459.918	97.94
460.138	92.94
460.358	86.94
460.578	87.94
460.798	97.94
461.018	94.94
461.238	105.94
461.458	94.94
461.678	104.94
461.898	85.94
462.118	94.94
462.338	100.94
462.558	81.94
462.777	93.94
462.997	93.94
463.217	89.94
463.437	90.94
463.657	81.94
463.876	96.94
464.096	88.94
464.316	81.94
464.536	87.94
464.755	85.94
464.975	92.94
465.195	126.94
465.414	129.94
465.634	73.94
465.854	90.94
466.073	88.94
466.293	94.94
466.512	96.94
466.732	90.94
466.951	99.94
467.171	96.94
467.391	93.94
467.61	93.94
467.829	90.94
468.049	91.94
468.268	114.94
468.488	91.94
468.707	94.94
468.927	97.94
469.146	81.94
469.365	100.94
469.585	79.94
469.804	101.94
470.023	102.94
470.243	99.94
470.462	103.94
470.681	107.94
470.901	99.94
471.12	89.94
471.339	95.94
471.558	87.94
471.777	94.94
471.997	86.94
472.216	117.94
472.435	136.94
472.654	92.94
472.873	83.94
473.092	82.94
473.311	90.94
473.53	70.94
473.749	85.94
473.968	92.94
474.187	85.94
474.406	89.94
474.625	97.94
474.844	71.94
475.063	87.94
475.282	90.94
475.501	90.94
475.72	78.94
475.939	92.94
476.158	84.94
476.377	84.94
476.596	84.94
476.814	94.94
477.033	103.94
477.252	92.94
477.471	94.94
477.69	91.94
477.908	75.94
478.127	85.94
478.346	81.94
478.564	90.94
478.783	94.94
479.002	83.94
479.22	74.94
479.439	104.94
479.658	91.94
479.876	99.94
480.095	90.94
480.313	86.94
480.532	85.94
480.751	106.94
480.969	115.94
481.188	182.94
481.406	145.94
481.624	107.94
481.843	86.94
482.061	88.94
482.28	92.94
482.498	81.94
482.717	95.94
482.935	96.94
483.153	79.94
483.372	89.94
483.59	97.94
483.808	94.94
484.027	103.94
484.245	116.94
484.463	98.94
484.681	101.94
484.9	97.94
485.118	80.94
485.336	92.94
485.554	101.94
485.772	110.94
485.99	124.94
486.209	91.94
486.427	89.94
486.645	114.94
486.863	134.94
487.081	104.94
487.299	94.94
487.517	94.94
487.735	93.94
487.953	90.94
488.171	87.94
488.389	113.94
488.607	89.94
488.825	95.94
489.043	89.94
489.261	92.94
489.479	101.94
489.696	86.94
489.914	87.94
490.132	79.94
490.35	96.94
490.568	87.94
490.786	83.94
491.003	107.94
491.221	94.94
491.439	91.94
491.657	90.94
491.874	92.94
492.092	94.94
492.31	94.94
492.527	97.94
492.745	87.94
492.963	87.94
493.18	90.94
493.398	107.94
493.615	97.94
493.833	99.94
494.05	87.94
494.268	87.94
494.485	93.94
494.703	90.94
494.92	77.94
495.138	92.94
495.355	85.94
495.573	84.94
495.79	92.94
496.008	102.94
496.225	87.94
496.442	106.94
496.66	99.94
496.877	79.94
497.094	80.94
497.312	103.94
497.529	91.94
497.746	97.94
497.963	95.94
498.181	87.94
498.398	92.94
498.615	103.94
498.832	101.94
499.049	93.94
499.267	108.94
499.484	89.94
499.701	94.94
499.918	96.94
500.135	95.94
500.352	97.94
500.569	84.94
500.786	91.94
501.003	86.94
501.22	86.94
501.437	81.94
501.654	90.94
501.871	83.94
502.088	91.94
502.305	85.94
502.522	97.94
502.739	88.94
502.956	89.94
503.172	91.94
503.389	95.94
503.606	106.94
503.823	94.94
504.04	84.94
504.256	93.94
504.473	83.94
504.69	92.94
504.907	92.94
505.123	102.94
505.34	82.94
505.557	97.94
505.773	97.94
505.99	78.94
506.207	93.94
506.423	87.94
506.64	92.94
506.856	93.94
507.073	94.94
507.289	94.94
507.506	88.94
507.722	90.94
507.939	106.94
508.155	100.94
508.372	95.94
508.588	93.94
508.805	92.94
509.021	87.94
509.238	88.94
509.454	120.94
509.67	95.94
509.887	97.94
510.103	120.94
510.319	170.94
510.536	534.94
510.752	1603.94
510.968	467.94
511.184	133.94
511.401	87.94
511.617	98.94
511.833	93.94
512.049	92.94
512.265	90.94
512.481	101.94
512.698	85.94
512.914	97.94
513.13	100.94
513.346	111.94
513.562	96.94
513.778	94.94
513.994	87.94
514.21	102.94
514.426	100.94
514.642	118.94
514.858	113.94
515.074	154.94
515.29	298.94
