Data from Circ_1983_H10_HRD10591_00073.txt Node
Date: Wed Jan 03 12:26:59 EST 2024
User: Yrep
Spectrometer: HR+D1059
Trigger mode: 1
Integration Time (sec): 1.000000E-1
Scans to average: 1
Electric dark correction enabled: true
Nonlinearity correction enabled: false
Boxcar width: 0
XAxis mode: Wavelengths
Number of Pixels in Spectrum: 2048
>>>>>Begin Spectral Data<<<<<
223.165	-19.69
223.4	-19.69
223.635	-19.69
223.869	-8.69
224.104	-14.69
224.338	-14.69
224.573	-9.69
224.808	-15.69
225.042	-17.69
225.277	0.31
225.511	-8.69
225.746	9.31
225.98	9.31
226.215	4.31
226.449	15.31
226.683	18.31
226.918	30.31
227.152	22.31
227.387	18.31
227.621	44.31
227.856	58.31
228.09	46.31
228.324	45.31
228.559	55.31
228.793	61.31
229.027	63.31
229.262	66.31
229.496	72.31
229.73	67.31
229.964	87.31
230.199	77.31
230.433	71.31
230.667	67.31
230.901	81.31
231.136	75.31
231.37	68.31
231.604	79.31
231.838	70.31
232.072	81.31
232.306	98.31
232.541	69.31
232.775	76.31
233.009	88.31
233.243	87.31
233.477	78.31
233.711	91.31
233.945	94.31
234.179	76.31
234.413	76.31
234.647	82.31
234.881	68.31
235.115	68.31
235.349	75.31
235.583	89.31
235.817	84.31
236.051	78.31
236.285	78.31
236.519	70.31
236.753	81.31
236.987	72.31
237.221	71.31
237.455	71.31
237.689	67.31
237.922	80.31
238.156	75.31
238.39	57.31
238.624	80.31
238.858	68.31
239.091	71.31
239.325	83.31
239.559	86.31
239.793	80.31
240.027	91.31
240.26	81.31
240.494	79.31
240.728	88.31
240.961	91.31
241.195	81.31
241.429	62.31
241.662	72.31
241.896	68.31
242.13	80.31
242.363	80.31
242.597	67.31
242.83	83.31
243.064	73.31
243.298	91.31
243.531	94.31
243.765	77.31
243.998	78.31
244.232	84.31
244.465	73.31
244.699	86.31
244.932	83.31
245.166	73.31
245.399	80.31
245.633	64.31
245.866	71.31
246.099	83.31
246.333	78.31
246.566	81.31
246.8	78.31
247.033	80.31
247.266	75.31
247.5	87.31
247.733	80.31
247.966	72.31
248.2	88.31
248.433	69.31
248.666	82.31
248.899	82.31
249.133	80.31
249.366	83.31
249.599	85.31
249.832	68.31
250.066	81.31
250.299	90.31
250.532	81.31
250.765	76.31
250.998	60.31
251.231	85.31
251.465	84.31
251.698	82.31
251.931	81.31
252.164	94.31
252.397	80.31
252.63	84.31
252.863	74.31
253.096	83.31
253.329	74.31
253.562	80.31
253.795	85.31
254.028	88.31
254.261	89.31
254.494	87.31
254.727	83.31
254.96	76.31
255.193	67.31
255.426	80.31
255.659	82.31
255.892	81.31
256.124	87.31
256.357	74.31
256.59	84.31
256.823	78.31
257.056	71.31
257.289	91.31
257.521	82.31
257.754	78.31
257.987	88.31
258.22	93.31
258.452	71.31
258.685	87.31
258.918	73.31
259.151	82.31
259.383	88.31
259.616	75.31
259.849	82.31
260.081	78.31
260.314	78.31
260.547	81.31
260.779	86.31
261.012	84.31
261.244	68.31
261.477	87.31
261.71	88.31
261.942	94.31
262.175	119.31
262.407	75.31
262.64	84.31
262.872	84.31
263.105	79.31
263.337	78.31
263.57	89.31
263.802	84.31
264.035	95.31
264.267	86.31
264.499	82.31
264.732	81.31
264.964	78.31
265.197	84.31
265.429	75.31
265.661	80.31
265.894	87.31
266.126	84.31
266.358	77.31
266.591	98.31
266.823	68.31
267.055	69.31
267.287	94.31
267.52	83.31
267.752	97.31
267.984	82.31
268.216	80.31
268.448	77.31
268.681	93.31
268.913	96.31
269.145	99.31
269.377	86.31
269.609	80.31
269.841	84.31
270.073	73.31
270.306	85.31
270.538	86.31
270.77	89.31
271.002	93.31
271.234	77.31
271.466	88.31
271.698	81.31
271.93	94.31
272.162	87.31
272.394	73.31
272.626	104.31
272.858	85.31
273.09	68.31
273.322	82.31
273.553	90.31
273.785	81.31
274.017	91.31
274.249	94.31
274.481	79.31
274.713	72.31
274.945	82.31
275.176	77.31
275.408	92.31
275.64	96.31
275.872	82.31
276.104	90.31
276.335	85.31
276.567	99.31
276.799	84.31
277.031	94.31
277.262	92.31
277.494	90.31
277.726	89.31
277.957	83.31
278.189	78.31
278.421	85.31
278.652	100.31
278.884	90.31
279.115	99.31
279.347	92.31
279.579	80.31
279.81	86.31
280.042	92.31
280.273	89.31
280.505	96.31
280.736	85.31
280.968	86.31
281.199	82.31
281.431	88.31
281.662	91.31
281.894	87.31
282.125	88.31
282.356	104.31
282.588	120.31
282.819	100.31
283.051	78.31
283.282	101.31
283.513	88.31
283.745	85.31
283.976	95.31
284.207	85.31
284.439	86.31
284.67	81.31
284.901	88.31
285.132	72.31
285.364	96.31
285.595	97.31
285.826	79.31
286.057	84.31
286.288	79.31
286.52	85.31
286.751	92.31
286.982	92.31
287.213	90.31
287.444	72.31
287.675	77.31
287.906	64.31
288.138	98.31
288.369	90.31
288.6	91.31
288.831	87.31
289.062	76.31
289.293	98.31
289.524	90.31
289.755	90.31
289.986	93.31
290.217	83.31
290.448	95.31
290.679	70.31
290.91	76.31
291.141	93.31
291.371	100.31
291.602	79.31
291.833	77.31
292.064	84.31
292.295	90.31
292.526	70.31
292.757	79.31
292.987	81.31
293.218	96.31
293.449	85.31
293.68	95.31
293.91	98.31
294.141	84.31
294.372	79.31
294.603	82.31
294.833	78.31
295.064	91.31
295.295	84.31
295.525	84.31
295.756	103.31
295.987	106.31
296.217	117.31
296.448	106.31
296.679	98.31
296.909	82.31
297.14	89.31
297.37	97.31
297.601	83.31
297.831	74.31
298.062	90.31
298.292	76.31
298.523	108.31
298.753	87.31
298.984	88.31
299.214	90.31
299.445	96.31
299.675	88.31
299.905	89.31
300.136	83.31
300.366	87.31
300.597	73.31
300.827	80.31
301.057	96.31
301.288	105.31
301.518	87.31
301.748	81.31
301.979	99.31
302.209	83.31
302.439	72.31
302.669	91.31
302.9	91.31
303.13	84.31
303.36	96.31
303.59	90.31
303.82	99.31
304.051	94.31
304.281	100.31
304.511	100.31
304.741	89.31
304.971	89.31
305.201	96.31
305.431	92.31
305.661	94.31
305.891	104.31
306.121	88.31
306.352	102.31
306.582	81.31
306.812	90.31
307.042	91.31
307.272	100.31
307.502	92.31
307.731	108.31
307.961	83.31
308.191	80.31
308.421	101.31
308.651	87.31
308.881	88.31
309.111	96.31
309.341	89.31
309.571	89.31
309.8	95.31
310.03	87.31
310.26	86.31
310.49	104.31
310.72	102.31
310.949	102.31
311.179	88.31
311.409	89.31
311.639	91.31
311.868	87.31
312.098	92.31
312.328	102.31
312.557	100.31
312.787	99.31
313.017	100.31
313.246	81.31
313.476	90.31
313.706	87.31
313.935	107.31
314.165	99.31
314.394	95.31
314.624	87.31
314.853	100.31
315.083	93.31
315.312	80.31
315.542	80.31
315.771	83.31
316.001	80.31
316.23	88.31
316.46	86.31
316.689	76.31
316.919	96.31
317.148	82.31
317.377	101.31
317.607	96.31
317.836	91.31
318.065	86.31
318.295	98.31
318.524	78.31
318.753	80.31
318.983	90.31
319.212	83.31
319.441	96.31
319.67	84.31
319.9	86.31
320.129	100.31
320.358	91.31
320.587	95.31
320.816	91.31
321.046	97.31
321.275	89.31
321.504	92.31
321.733	92.31
321.962	103.31
322.191	98.31
322.42	108.31
322.649	106.31
322.878	92.31
323.108	103.31
323.337	113.31
323.566	117.31
323.795	112.31
324.024	155.31
324.253	280.31
324.482	571.31
324.71	1176.31
324.939	1510.31
325.168	566.31
325.397	183.31
325.626	115.31
325.855	110.31
326.084	114.31
326.313	120.31
326.542	134.31
326.77	176.31
326.999	323.31
327.228	690.31
327.457	1189.31
327.686	936.31
327.914	284.31
328.143	183.31
328.372	162.31
328.6	144.31
328.829	115.31
329.058	103.31
329.287	122.31
329.515	108.31
329.744	110.31
329.972	135.31
330.201	179.31
330.43	242.31
330.658	155.31
330.887	118.31
331.115	105.31
331.344	89.31
331.572	98.31
331.801	87.31
332.03	106.31
332.258	99.31
332.486	90.31
332.715	96.31
332.943	92.31
333.172	82.31
333.4	108.31
333.629	106.31
333.857	105.31
334.085	149.31
334.314	179.31
334.542	252.31
334.771	259.31
334.999	126.31
335.227	91.31
335.455	89.31
335.684	97.31
335.912	95.31
336.14	91.31
336.369	76.31
336.597	96.31
336.825	75.31
337.053	83.31
337.281	94.31
337.51	101.31
337.738	89.31
337.966	83.31
338.194	93.31
338.422	97.31
338.65	91.31
338.878	100.31
339.106	91.31
339.334	80.31
339.562	80.31
339.79	92.31
340.018	79.31
340.246	84.31
340.474	84.31
340.702	98.31
340.93	82.31
341.158	94.31
341.386	81.31
341.614	93.31
341.842	86.31
342.07	93.31
342.298	78.31
342.526	83.31
342.754	90.31
342.981	83.31
343.209	92.31
343.437	91.31
343.665	92.31
343.893	89.31
344.12	75.31
344.348	90.31
344.576	100.31
344.804	97.31
345.031	91.31
345.259	92.31
345.487	92.31
345.714	96.31
345.942	94.31
346.17	89.31
346.397	84.31
346.625	84.31
346.853	81.31
347.08	86.31
347.308	92.31
347.535	97.31
347.763	89.31
347.99	88.31
348.218	104.31
348.445	90.31
348.673	96.31
348.9	102.31
349.128	85.31
349.355	99.31
349.583	90.31
349.81	90.31
350.037	88.31
350.265	90.31
350.492	84.31
350.72	86.31
350.947	95.31
351.174	98.31
351.402	104.31
351.629	80.31
351.856	90.31
352.083	107.31
352.311	111.31
352.538	97.31
352.765	108.31
352.992	113.31
353.22	110.31
353.447	94.31
353.674	101.31
353.901	86.31
354.128	95.31
354.355	93.31
354.583	86.31
354.81	99.31
355.037	95.31
355.264	89.31
355.491	102.31
355.718	87.31
355.945	87.31
356.172	78.31
356.399	111.31
356.626	94.31
356.853	101.31
357.08	95.31
357.307	83.31
357.534	99.31
357.761	108.31
357.988	96.31
358.215	105.31
358.441	86.31
358.668	86.31
358.895	88.31
359.122	92.31
359.349	75.31
359.576	84.31
359.802	85.31
360.029	94.31
360.256	86.31
360.483	83.31
360.709	94.31
360.936	81.31
361.163	74.31
361.39	94.31
361.616	90.31
361.843	84.31
362.07	89.31
362.296	90.31
362.523	93.31
362.749	96.31
362.976	89.31
363.203	82.31
363.429	78.31
363.656	97.31
363.882	86.31
364.109	91.31
364.335	89.31
364.562	83.31
364.788	94.31
365.015	98.31
365.241	87.31
365.468	96.31
365.694	99.31
365.92	97.31
366.147	83.31
366.373	92.31
366.599	99.31
366.826	81.31
367.052	94.31
367.278	92.31
367.505	95.31
367.731	92.31
367.957	85.31
368.184	88.31
368.41	90.31
368.636	103.31
368.862	90.31
369.089	89.31
369.315	94.31
369.541	84.31
369.767	85.31
369.993	82.31
370.219	90.31
370.445	95.31
370.672	93.31
370.898	85.31
371.124	86.31
371.35	99.31
371.576	68.31
371.802	84.31
372.028	84.31
372.254	79.31
372.48	82.31
372.706	96.31
372.932	91.31
373.158	83.31
373.384	90.31
373.61	88.31
373.835	90.31
374.061	81.31
374.287	87.31
374.513	89.31
374.739	86.31
374.965	72.31
375.191	88.31
375.416	81.31
375.642	84.31
375.868	95.31
376.094	85.31
376.319	85.31
376.545	92.31
376.771	88.31
376.997	103.31
377.222	75.31
377.448	78.31
377.674	86.31
377.899	79.31
378.125	101.31
378.35	80.31
378.576	87.31
378.802	90.31
379.027	94.31
379.253	80.31
379.478	91.31
379.704	96.31
379.929	96.31
380.155	93.31
380.38	98.31
380.606	98.31
380.831	81.31
381.057	97.31
381.282	86.31
381.507	89.31
381.733	91.31
381.958	90.31
382.184	106.31
382.409	96.31
382.634	116.31
382.86	103.31
383.085	89.31
383.31	84.31
383.535	92.31
383.761	98.31
383.986	95.31
384.211	112.31
384.436	96.31
384.662	93.31
384.887	100.31
385.112	109.31
385.337	101.31
385.562	112.31
385.787	95.31
386.013	98.31
386.238	101.31
386.463	112.31
386.688	103.31
386.913	90.31
387.138	94.31
387.363	98.31
387.588	104.31
387.813	97.31
388.038	89.31
388.263	112.31
388.488	106.31
388.713	76.31
388.938	100.31
389.163	93.31
389.387	87.31
389.612	84.31
389.837	90.31
390.062	95.31
390.287	85.31
390.512	95.31
390.736	88.31
390.961	91.31
391.186	87.31
391.411	83.31
391.636	94.31
391.86	89.31
392.085	82.31
392.31	99.31
392.534	79.31
392.759	58.31
392.984	79.31
393.208	94.31
393.433	97.31
393.658	94.31
393.882	81.31
394.107	83.31
394.331	91.31
394.556	95.31
394.78	91.31
395.005	90.31
395.229	83.31
395.454	100.31
395.678	95.31
395.903	82.31
396.127	100.31
396.352	88.31
396.576	95.31
396.801	92.31
397.025	75.31
397.249	75.31
397.474	101.31
397.698	85.31
397.922	88.31
398.147	85.31
398.371	82.31
398.595	87.31
398.82	79.31
399.044	79.31
399.268	88.31
399.492	90.31
399.717	79.31
399.941	82.31
400.165	92.31
400.389	89.31
400.613	82.31
400.837	87.31
401.062	90.31
401.286	66.31
401.51	80.31
401.734	82.31
401.958	80.31
402.182	100.31
402.406	128.31
402.63	108.31
402.854	97.31
403.078	85.31
403.302	90.31
403.526	76.31
403.75	86.31
403.974	83.31
404.198	99.31
404.422	80.31
404.645	76.31
404.869	88.31
405.093	95.31
405.317	98.31
405.541	92.31
405.765	100.31
405.988	112.31
406.212	153.31
406.436	170.31
406.66	116.31
406.883	100.31
407.107	91.31
407.331	86.31
407.555	84.31
407.778	96.31
408.002	57.31
408.226	95.31
408.449	98.31
408.673	91.31
408.896	98.31
409.12	95.31
409.344	89.31
409.567	86.31
409.791	73.31
410.014	96.31
410.238	102.31
410.461	98.31
410.685	83.31
410.908	98.31
411.132	99.31
411.355	98.31
411.578	96.31
411.802	83.31
412.025	92.31
412.249	89.31
412.472	90.31
412.695	92.31
412.919	74.31
413.142	77.31
413.365	88.31
413.589	83.31
413.812	80.31
414.035	91.31
414.258	99.31
414.482	80.31
414.705	90.31
414.928	87.31
415.151	94.31
415.374	82.31
415.597	103.31
415.821	87.31
416.044	88.31
416.267	103.31
416.49	94.31
416.713	89.31
416.936	96.31
417.159	86.31
417.382	94.31
417.605	84.31
417.828	94.31
418.051	84.31
418.274	91.31
418.497	85.31
418.72	89.31
418.943	79.31
419.166	94.31
419.389	97.31
419.611	79.31
419.834	88.31
420.057	88.31
420.28	89.31
420.503	84.31
420.726	102.31
420.948	88.31
421.171	71.31
421.394	86.31
421.617	96.31
421.839	92.31
422.062	90.31
422.285	86.31
422.507	81.31
422.73	93.31
422.953	81.31
423.175	86.31
423.398	95.31
423.621	71.31
423.843	78.31
424.066	78.31
424.288	91.31
424.511	86.31
424.733	94.31
424.956	105.31
425.178	94.31
425.401	86.31
425.623	88.31
425.846	82.31
426.068	78.31
426.291	88.31
426.513	82.31
426.735	95.31
426.958	86.31
427.18	95.31
427.402	116.31
427.625	131.31
427.847	134.31
428.069	118.31
428.292	91.31
428.514	99.31
428.736	78.31
428.958	75.31
429.181	85.31
429.403	84.31
429.625	85.31
429.847	101.31
430.069	106.31
430.292	92.31
430.514	82.31
430.736	73.31
430.958	80.31
431.18	86.31
431.402	75.31
431.624	90.31
431.846	92.31
432.068	88.31
432.29	83.31
432.512	98.31
432.734	83.31
432.956	73.31
433.178	84.31
433.4	107.31
433.622	83.31
433.844	94.31
434.066	93.31
434.287	99.31
434.509	94.31
434.731	80.31
434.953	76.31
435.175	80.31
435.397	89.31
435.618	107.31
435.84	95.31
436.062	103.31
436.284	98.31
436.505	94.31
436.727	100.31
436.949	88.31
437.17	87.31
437.392	92.31
437.614	82.31
437.835	106.31
438.057	103.31
438.278	102.31
438.5	100.31
438.721	108.31
438.943	92.31
439.165	83.31
439.386	92.31
439.608	82.31
439.829	103.31
440.05	95.31
440.272	105.31
440.493	89.31
440.715	89.31
440.936	82.31
441.158	82.31
441.379	82.31
441.6	95.31
441.822	99.31
442.043	86.31
442.264	88.31
442.486	84.31
442.707	83.31
442.928	95.31
443.149	114.31
443.371	133.31
443.592	111.31
443.813	98.31
444.034	87.31
444.255	94.31
444.476	88.31
444.698	84.31
444.919	80.31
445.14	134.31
445.361	130.31
445.582	96.31
445.803	115.31
446.024	107.31
446.245	119.31
446.466	112.31
446.687	85.31
446.908	79.31
447.129	75.31
447.35	68.31
447.571	91.31
447.792	88.31
448.013	98.31
448.234	85.31
448.455	95.31
448.675	98.31
448.896	86.31
449.117	90.31
449.338	88.31
449.559	104.31
449.779	116.31
450	92.31
450.221	75.31
450.442	91.31
450.662	92.31
450.883	95.31
451.104	92.31
451.324	105.31
451.545	100.31
451.766	79.31
451.986	81.31
452.207	90.31
452.428	85.31
452.648	112.31
452.869	100.31
453.089	105.31
453.31	126.31
453.53	96.31
453.751	91.31
453.971	86.31
454.192	94.31
454.412	92.31
454.633	85.31
454.853	76.31
455.073	94.31
455.294	97.31
455.514	95.31
455.734	90.31
455.955	84.31
456.175	90.31
456.395	75.31
456.616	88.31
456.836	85.31
457.056	87.31
457.276	77.31
457.497	90.31
457.717	74.31
457.937	88.31
458.157	70.31
458.377	92.31
458.598	88.31
458.818	115.31
459.038	118.31
459.258	90.31
459.478	90.31
459.698	82.31
459.918	92.31
460.138	81.31
460.358	79.31
460.578	82.31
460.798	81.31
461.018	88.31
461.238	95.31
461.458	87.31
461.678	81.31
461.898	77.31
462.118	83.31
462.338	78.31
462.558	101.31
462.777	89.31
462.997	63.31
463.217	63.31
463.437	85.31
463.657	88.31
463.876	104.31
464.096	86.31
464.316	89.31
464.536	76.31
464.755	96.31
464.975	98.31
465.195	133.31
465.414	119.31
465.634	95.31
465.854	80.31
466.073	80.31
466.293	83.31
466.512	85.31
466.732	91.31
466.951	86.31
467.171	88.31
467.391	86.31
467.61	92.31
467.829	101.31
468.049	124.31
468.268	159.31
468.488	89.31
468.707	85.31
468.927	92.31
469.146	78.31
469.365	88.31
469.585	88.31
469.804	112.31
470.023	103.31
470.243	93.31
470.462	99.31
470.681	97.31
470.901	85.31
471.12	98.31
471.339	89.31
471.558	67.31
471.777	99.31
471.997	99.31
472.216	199.31
472.435	350.31
472.654	138.31
472.873	107.31
473.092	68.31
473.311	90.31
473.53	80.31
473.749	86.31
473.968	84.31
474.187	100.31
474.406	94.31
474.625	84.31
474.844	86.31
475.063	85.31
475.282	83.31
475.501	75.31
475.72	93.31
475.939	86.31
476.158	91.31
476.377	84.31
476.596	78.31
476.814	81.31
477.033	91.31
477.252	96.31
477.471	88.31
477.69	96.31
477.908	102.31
478.127	99.31
478.346	74.31
478.564	95.31
478.783	92.31
479.002	93.31
479.22	86.31
479.439	88.31
479.658	91.31
479.876	98.31
480.095	89.31
480.313	94.31
480.532	99.31
480.751	127.31
480.969	204.31
481.188	537.31
481.406	371.31
481.624	106.31
481.843	95.31
482.061	86.31
482.28	88.31
482.498	98.31
482.717	90.31
482.935	94.31
483.153	87.31
483.372	88.31
483.59	98.31
483.808	96.31
484.027	89.31
484.245	98.31
484.463	101.31
484.681	83.31
484.9	93.31
485.118	96.31
485.336	76.31
485.554	87.31
485.772	106.31
485.99	108.31
486.209	96.31
486.427	112.31
486.645	99.31
486.863	98.31
487.081	94.31
487.299	82.31
487.517	99.31
487.735	99.31
487.953	97.31
488.171	89.31
488.389	86.31
488.607	99.31
488.825	82.31
489.043	82.31
489.261	91.31
489.479	87.31
489.696	87.31
489.914	95.31
490.132	101.31
490.35	91.31
490.568	98.31
490.786	75.31
491.003	94.31
491.221	85.31
491.439	90.31
491.657	103.31
491.874	94.31
492.092	81.31
492.31	90.31
492.527	90.31
492.745	87.31
492.963	89.31
493.18	83.31
493.398	94.31
493.615	85.31
493.833	88.31
494.05	99.31
494.268	92.31
494.485	80.31
494.703	94.31
494.92	95.31
495.138	78.31
495.355	99.31
495.573	110.31
495.79	89.31
496.008	83.31
496.225	85.31
496.442	94.31
496.66	87.31
496.877	88.31
497.094	100.31
497.312	92.31
497.529	79.31
497.746	96.31
497.963	94.31
498.181	75.31
498.398	92.31
498.615	102.31
498.832	101.31
499.049	91.31
499.267	95.31
499.484	86.31
499.701	89.31
499.918	93.31
500.135	87.31
500.352	67.31
500.569	80.31
500.786	91.31
501.003	88.31
501.22	82.31
501.437	85.31
501.654	80.31
501.871	86.31
502.088	100.31
502.305	95.31
502.522	87.31
502.739	82.31
502.956	95.31
503.172	99.31
503.389	96.31
503.606	96.31
503.823	93.31
504.04	98.31
504.256	93.31
504.473	92.31
504.69	91.31
504.907	84.31
505.123	84.31
505.34	79.31
505.557	92.31
505.773	90.31
505.99	75.31
506.207	78.31
506.423	86.31
506.64	71.31
506.856	91.31
507.073	87.31
507.289	91.31
507.506	97.31
507.722	86.31
507.939	88.31
508.155	94.31
508.372	82.31
508.588	75.31
508.805	86.31
509.021	86.31
509.238	94.31
509.454	95.31
509.67	94.31
509.887	102.31
510.103	110.31
510.319	156.31
510.536	530.31
510.752	1590.31
510.968	445.31
511.184	131.31
511.401	94.31
511.617	82.31
511.833	92.31
512.049	85.31
512.265	80.31
512.481	88.31
512.698	96.31
512.914	87.31
513.13	93.31
513.346	92.31
513.562	96.31
513.778	99.31
513.994	92.31
514.21	84.31
514.426	105.31
514.642	119.31
514.858	113.31
515.074	134.31
515.29	299.31
515.506	944.31
515.721	367.31
515.937	114.31
516.153	91.31
516.369	84.31
516.585	92.31
516.801	85.31
517.016	86.31
517.232	87.31
