Data from Circ_1983_H10_HRD10591_00002.txt Node
Date: Wed Jan 03 12:26:45 EST 2024
User: Yrep
Spectrometer: HR+D1059
Trigger mode: 1
Integration Time (sec): 1.000000E-1
Scans to average: 1
Electric dark correction enabled: true
Nonlinearity correction enabled: false
Boxcar width: 0
XAxis mode: Wavelengths
Number of Pixels in Spectrum: 2048
>>>>>Begin Spectral Data<<<<<
223.165	-17.19
223.4	-17.19
223.635	-17.19
223.869	-23.19
224.104	-2.19
224.338	-12.19
224.573	-12.19
224.808	-2.19
225.042	-8.19
225.277	2.81
225.511	-3.19
225.746	5.81
225.98	-9.19
226.215	16.81
226.449	1.81
226.683	27.81
226.918	11.81
227.152	22.81
227.387	37.81
227.621	37.81
227.856	47.81
228.09	51.81
228.324	58.81
228.559	57.81
228.793	68.81
229.027	52.81
229.262	71.81
229.496	72.81
229.73	85.81
229.964	79.81
230.199	77.81
230.433	83.81
230.667	81.81
230.901	87.81
231.136	76.81
231.37	77.81
231.604	92.81
231.838	89.81
232.072	78.81
232.306	78.81
232.541	75.81
232.775	62.81
233.009	89.81
233.243	90.81
233.477	87.81
233.711	85.81
233.945	86.81
234.179	85.81
234.413	75.81
234.647	77.81
234.881	87.81
235.115	92.81
235.349	89.81
235.583	95.81
235.817	82.81
236.051	71.81
236.285	74.81
236.519	74.81
236.753	78.81
236.987	83.81
237.221	70.81
237.455	92.81
237.689	78.81
237.922	75.81
238.156	86.81
238.39	61.81
238.624	77.81
238.858	78.81
239.091	69.81
239.325	77.81
239.559	76.81
239.793	80.81
240.027	63.81
240.26	67.81
240.494	81.81
240.728	78.81
240.961	73.81
241.195	76.81
241.429	78.81
241.662	66.81
241.896	82.81
242.13	81.81
242.363	78.81
242.597	77.81
242.83	86.81
243.064	71.81
243.298	79.81
243.531	79.81
243.765	67.81
243.998	81.81
244.232	84.81
244.465	78.81
244.699	78.81
244.932	75.81
245.166	66.81
245.399	70.81
245.633	84.81
245.866	73.81
246.099	93.81
246.333	75.81
246.566	65.81
246.8	67.81
247.033	89.81
247.266	77.81
247.5	76.81
247.733	92.81
247.966	91.81
248.2	84.81
248.433	77.81
248.666	75.81
248.899	85.81
249.133	73.81
249.366	95.81
249.599	88.81
249.832	83.81
250.066	96.81
250.299	87.81
250.532	74.81
250.765	74.81
250.998	89.81
251.231	68.81
251.465	81.81
251.698	78.81
251.931	71.81
252.164	87.81
252.397	88.81
252.63	80.81
252.863	86.81
253.096	82.81
253.329	94.81
253.562	96.81
253.795	70.81
254.028	82.81
254.261	100.81
254.494	78.81
254.727	93.81
254.96	93.81
255.193	84.81
255.426	84.81
255.659	83.81
255.892	85.81
256.124	85.81
256.357	87.81
256.59	88.81
256.823	82.81
257.056	85.81
257.289	84.81
257.521	73.81
257.754	84.81
257.987	85.81
258.22	74.81
258.452	102.81
258.685	101.81
258.918	78.81
259.151	81.81
259.383	83.81
259.616	70.81
259.849	76.81
260.081	88.81
260.314	77.81
260.547	89.81
260.779	93.81
261.012	79.81
261.244	79.81
261.477	101.81
261.71	90.81
261.942	117.81
262.175	106.81
262.407	70.81
262.64	90.81
262.872	75.81
263.105	85.81
263.337	90.81
263.57	89.81
263.802	75.81
264.035	84.81
264.267	92.81
264.499	89.81
264.732	89.81
264.964	83.81
265.197	87.81
265.429	73.81
265.661	84.81
265.894	81.81
266.126	77.81
266.358	85.81
266.591	84.81
266.823	68.81
267.055	77.81
267.287	85.81
267.52	83.81
267.752	84.81
267.984	80.81
268.216	96.81
268.448	74.81
268.681	91.81
268.913	81.81
269.145	92.81
269.377	101.81
269.609	93.81
269.841	84.81
270.073	77.81
270.306	90.81
270.538	82.81
270.77	97.81
271.002	81.81
271.234	78.81
271.466	88.81
271.698	89.81
271.93	73.81
272.162	89.81
272.394	86.81
272.626	86.81
272.858	78.81
273.09	89.81
273.322	83.81
273.553	74.81
273.785	87.81
274.017	88.81
274.249	75.81
274.481	88.81
274.713	85.81
274.945	106.81
275.176	71.81
275.408	92.81
275.64	84.81
275.872	89.81
276.104	99.81
276.335	85.81
276.567	82.81
276.799	98.81
277.031	110.81
277.262	89.81
277.494	81.81
277.726	90.81
277.957	91.81
278.189	92.81
278.421	101.81
278.652	82.81
278.884	98.81
279.115	97.81
279.347	83.81
279.579	92.81
279.81	83.81
280.042	94.81
280.273	85.81
280.505	78.81
280.736	74.81
280.968	93.81
281.199	92.81
281.431	98.81
281.662	98.81
281.894	89.81
282.125	72.81
282.356	91.81
282.588	119.81
282.819	99.81
283.051	98.81
283.282	84.81
283.513	88.81
283.745	91.81
283.976	78.81
284.207	94.81
284.439	100.81
284.67	97.81
284.901	91.81
285.132	82.81
285.364	93.81
285.595	89.81
285.826	101.81
286.057	78.81
286.288	86.81
286.52	88.81
286.751	95.81
286.982	78.81
287.213	84.81
287.444	92.81
287.675	92.81
287.906	87.81
288.138	87.81
288.369	94.81
288.6	89.81
288.831	87.81
289.062	84.81
289.293	83.81
289.524	85.81
289.755	81.81
289.986	74.81
290.217	97.81
290.448	91.81
290.679	92.81
290.91	93.81
291.141	89.81
291.371	100.81
291.602	103.81
291.833	83.81
292.064	99.81
292.295	90.81
292.526	96.81
292.757	85.81
292.987	96.81
293.218	78.81
293.449	89.81
293.68	97.81
293.91	94.81
294.141	107.81
294.372	88.81
294.603	88.81
294.833	95.81
295.064	94.81
295.295	99.81
295.525	81.81
295.756	106.81
295.987	107.81
296.217	107.81
296.448	110.81
296.679	94.81
296.909	98.81
297.14	97.81
297.37	90.81
297.601	87.81
297.831	99.81
298.062	86.81
298.292	85.81
298.523	82.81
298.753	82.81
298.984	93.81
299.214	83.81
299.445	99.81
299.675	93.81
299.905	102.81
300.136	74.81
300.366	86.81
300.597	85.81
300.827	93.81
301.057	102.81
301.288	87.81
301.518	94.81
301.748	93.81
301.979	110.81
302.209	100.81
302.439	83.81
302.669	86.81
302.9	81.81
303.13	95.81
303.36	95.81
303.59	102.81
303.82	114.81
304.051	101.81
304.281	97.81
304.511	87.81
304.741	85.81
304.971	85.81
305.201	82.81
305.431	93.81
305.661	92.81
305.891	88.81
306.121	89.81
306.352	106.81
306.582	99.81
306.812	75.81
307.042	98.81
307.272	100.81
307.502	87.81
307.731	94.81
307.961	102.81
308.191	98.81
308.421	101.81
308.651	86.81
308.881	93.81
309.111	98.81
309.341	91.81
309.571	88.81
309.8	99.81
310.03	95.81
310.26	78.81
310.49	105.81
310.72	92.81
310.949	93.81
311.179	98.81
311.409	89.81
311.639	99.81
311.868	106.81
312.098	99.81
312.328	92.81
312.557	100.81
312.787	102.81
313.017	104.81
313.246	95.81
313.476	93.81
313.706	101.81
313.935	91.81
314.165	94.81
314.394	102.81
314.624	103.81
314.853	90.81
315.083	91.81
315.312	95.81
315.542	97.81
315.771	91.81
316.001	107.81
316.23	93.81
316.46	91.81
316.689	94.81
316.919	102.81
317.148	97.81
317.377	82.81
317.607	92.81
317.836	94.81
318.065	89.81
318.295	91.81
318.524	96.81
318.753	95.81
318.983	89.81
319.212	94.81
319.441	83.81
319.67	98.81
319.9	98.81
320.129	99.81
320.358	107.81
320.587	88.81
320.816	87.81
321.046	84.81
321.275	93.81
321.504	96.81
321.733	102.81
321.962	103.81
322.191	103.81
322.42	111.81
322.649	106.81
322.878	101.81
323.108	89.81
323.337	128.81
323.566	116.81
323.795	133.81
324.024	149.81
324.253	259.81
324.482	535.81
324.71	1113.81
324.939	1471.81
325.168	583.81
325.397	183.81
325.626	134.81
325.855	116.81
326.084	137.81
326.313	115.81
326.542	131.81
326.77	198.81
326.999	330.81
327.228	663.81
327.457	1140.81
327.686	950.81
327.914	280.81
328.143	158.81
328.372	145.81
328.6	114.81
328.829	108.81
329.058	125.81
329.287	108.81
329.515	106.81
329.744	101.81
329.972	79.81
330.201	107.81
330.43	126.81
330.658	108.81
330.887	102.81
331.115	102.81
331.344	99.81
331.572	91.81
331.801	89.81
332.03	91.81
332.258	98.81
332.486	106.81
332.715	106.81
332.943	93.81
333.172	78.81
333.4	86.81
333.629	98.81
333.857	98.81
334.085	115.81
334.314	107.81
334.542	116.81
334.771	120.81
334.999	98.81
335.227	91.81
335.455	94.81
335.684	92.81
335.912	96.81
336.14	109.81
336.369	107.81
336.597	90.81
336.825	82.81
337.053	96.81
337.281	104.81
337.51	99.81
337.738	103.81
337.966	107.81
338.194	95.81
338.422	94.81
338.65	92.81
338.878	97.81
339.106	78.81
339.334	104.81
339.562	91.81
339.79	92.81
340.018	87.81
340.246	97.81
340.474	84.81
340.702	101.81
340.93	96.81
341.158	90.81
341.386	100.81
341.614	90.81
341.842	102.81
342.07	95.81
342.298	88.81
342.526	76.81
342.754	82.81
342.981	81.81
343.209	97.81
343.437	100.81
343.665	95.81
343.893	90.81
344.12	90.81
344.348	92.81
344.576	83.81
344.804	81.81
345.031	101.81
345.259	105.81
345.487	107.81
345.714	117.81
345.942	97.81
346.17	88.81
346.397	77.81
346.625	84.81
346.853	85.81
347.08	93.81
347.308	84.81
347.535	109.81
347.763	94.81
347.99	95.81
348.218	97.81
348.445	102.81
348.673	91.81
348.9	93.81
349.128	94.81
349.355	92.81
349.583	87.81
349.81	106.81
350.037	96.81
350.265	107.81
350.492	96.81
350.72	90.81
350.947	98.81
351.174	108.81
351.402	109.81
351.629	100.81
351.856	106.81
352.083	104.81
352.311	105.81
352.538	105.81
352.765	107.81
352.992	121.81
353.22	119.81
353.447	93.81
353.674	94.81
353.901	98.81
354.128	102.81
354.355	89.81
354.583	95.81
354.81	102.81
355.037	111.81
355.264	107.81
355.491	104.81
355.718	87.81
355.945	93.81
356.172	109.81
356.399	104.81
356.626	86.81
356.853	92.81
357.08	94.81
357.307	111.81
357.534	109.81
357.761	93.81
357.988	94.81
358.215	103.81
358.441	108.81
358.668	107.81
358.895	91.81
359.122	101.81
359.349	104.81
359.576	101.81
359.802	88.81
360.029	103.81
360.256	103.81
360.483	102.81
360.709	85.81
360.936	100.81
361.163	94.81
361.39	106.81
361.616	84.81
361.843	106.81
362.07	101.81
362.296	99.81
362.523	92.81
362.749	93.81
362.976	106.81
363.203	96.81
363.429	87.81
363.656	83.81
363.882	89.81
364.109	82.81
364.335	96.81
364.562	97.81
364.788	88.81
365.015	92.81
365.241	107.81
365.468	102.81
365.694	92.81
365.92	92.81
366.147	85.81
366.373	95.81
366.599	91.81
366.826	104.81
367.052	97.81
367.278	85.81
367.505	89.81
367.731	90.81
367.957	91.81
368.184	94.81
368.41	97.81
368.636	98.81
368.862	102.81
369.089	104.81
369.315	92.81
369.541	94.81
369.767	96.81
369.993	72.81
370.219	78.81
370.445	90.81
370.672	85.81
370.898	105.81
371.124	86.81
371.35	86.81
371.576	89.81
371.802	82.81
372.028	90.81
372.254	77.81
372.48	78.81
372.706	90.81
372.932	87.81
373.158	98.81
373.384	98.81
373.61	83.81
373.835	101.81
374.061	85.81
374.287	97.81
374.513	90.81
374.739	88.81
374.965	94.81
375.191	98.81
375.416	94.81
375.642	87.81
375.868	97.81
376.094	85.81
376.319	95.81
376.545	93.81
376.771	97.81
376.997	87.81
377.222	100.81
377.448	114.81
377.674	95.81
377.899	98.81
378.125	103.81
378.35	110.81
378.576	110.81
378.802	94.81
379.027	75.81
379.253	85.81
379.478	102.81
379.704	118.81
379.929	105.81
380.155	101.81
380.38	101.81
380.606	110.81
380.831	110.81
381.057	109.81
381.282	109.81
381.507	124.81
381.733	112.81
381.958	117.81
382.184	118.81
382.409	111.81
382.634	105.81
382.86	130.81
383.085	121.81
383.31	110.81
383.535	113.81
383.761	140.81
383.986	115.81
384.211	111.81
384.436	127.81
384.662	123.81
384.887	125.81
385.112	134.81
385.337	145.81
385.562	151.81
385.787	134.81
386.013	143.81
386.238	150.81
386.463	139.81
386.688	136.81
386.913	139.81
387.138	122.81
387.363	132.81
387.588	109.81
387.813	126.81
388.038	137.81
388.263	158.81
388.488	148.81
388.713	108.81
388.938	103.81
389.163	79.81
389.387	88.81
389.612	99.81
389.837	103.81
390.062	99.81
390.287	95.81
390.512	100.81
390.736	95.81
390.961	87.81
391.186	92.81
391.411	101.81
391.636	101.81
391.86	99.81
392.085	99.81
392.31	94.81
392.534	93.81
392.759	88.81
392.984	100.81
393.208	129.81
393.433	166.81
393.658	132.81
393.882	99.81
394.107	97.81
394.331	86.81
394.556	83.81
394.78	78.81
395.005	106.81
395.229	93.81
395.454	101.81
395.678	112.81
395.903	87.81
396.127	85.81
396.352	98.81
396.576	98.81
396.801	99.81
397.025	119.81
397.249	91.81
397.474	114.81
397.698	99.81
397.922	86.81
398.147	70.81
398.371	87.81
398.595	91.81
398.82	81.81
399.044	86.81
399.268	96.81
399.492	95.81
399.717	81.81
399.941	100.81
400.165	92.81
400.389	97.81
400.613	87.81
400.837	81.81
401.062	84.81
401.286	87.81
401.51	97.81
401.734	90.81
401.958	96.81
402.182	114.81
402.406	126.81
402.63	105.81
402.854	87.81
403.078	106.81
403.302	92.81
403.526	85.81
403.75	93.81
403.974	97.81
404.198	97.81
404.422	82.81
404.645	90.81
404.869	74.81
405.093	101.81
405.317	93.81
405.541	96.81
405.765	99.81
405.988	104.81
406.212	134.81
406.436	166.81
406.66	111.81
406.883	89.81
407.107	85.81
407.331	89.81
407.555	87.81
407.778	93.81
408.002	94.81
408.226	91.81
408.449	87.81
408.673	93.81
408.896	87.81
409.12	101.81
409.344	88.81
409.567	105.81
409.791	86.81
410.014	94.81
410.238	83.81
410.461	99.81
410.685	85.81
410.908	106.81
411.132	106.81
411.355	103.81
411.578	98.81
411.802	98.81
412.025	96.81
412.249	85.81
412.472	83.81
412.695	91.81
412.919	78.81
413.142	94.81
413.365	95.81
413.589	84.81
413.812	94.81
414.035	94.81
414.258	106.81
414.482	84.81
414.705	90.81
414.928	89.81
415.151	101.81
415.374	114.81
415.597	100.81
415.821	88.81
416.044	100.81
416.267	90.81
416.49	90.81
416.713	96.81
416.936	82.81
417.159	93.81
417.382	91.81
417.605	91.81
417.828	95.81
418.051	111.81
418.274	110.81
418.497	87.81
418.72	100.81
418.943	101.81
419.166	86.81
419.389	81.81
419.611	109.81
419.834	91.81
420.057	82.81
420.28	91.81
420.503	100.81
420.726	105.81
420.948	94.81
421.171	99.81
421.394	98.81
421.617	95.81
421.839	82.81
422.062	80.81
422.285	109.81
422.507	103.81
422.73	114.81
422.953	106.81
423.175	103.81
423.398	98.81
423.621	94.81
423.843	97.81
424.066	89.81
424.288	95.81
424.511	88.81
424.733	103.81
424.956	95.81
425.178	95.81
425.401	100.81
425.623	101.81
425.846	86.81
426.068	99.81
426.291	85.81
426.513	89.81
426.735	91.81
426.958	87.81
427.18	98.81
427.402	130.81
427.625	124.81
427.847	109.81
428.069	98.81
428.292	89.81
428.514	85.81
428.736	85.81
428.958	84.81
429.181	91.81
429.403	92.81
429.625	93.81
429.847	106.81
430.069	97.81
430.292	94.81
430.514	79.81
430.736	90.81
430.958	83.81
431.18	93.81
431.402	93.81
431.624	97.81
431.846	99.81
432.068	88.81
432.29	89.81
432.512	81.81
432.734	83.81
432.956	105.81
433.178	106.81
433.4	81.81
433.622	98.81
433.844	88.81
434.066	90.81
434.287	94.81
434.509	91.81
434.731	94.81
434.953	98.81
435.175	89.81
435.397	110.81
435.618	89.81
435.84	102.81
436.062	100.81
436.284	90.81
436.505	94.81
436.727	85.81
436.949	91.81
437.17	81.81
437.392	83.81
437.614	94.81
437.835	86.81
438.057	95.81
438.278	85.81
438.5	75.81
438.721	82.81
438.943	101.81
439.165	87.81
439.386	90.81
439.608	85.81
439.829	107.81
440.05	105.81
440.272	118.81
440.493	99.81
440.715	89.81
440.936	86.81
441.158	104.81
441.379	89.81
441.6	95.81
441.822	90.81
442.043	74.81
442.264	100.81
442.486	90.81
442.707	83.81
442.928	100.81
443.149	110.81
443.371	111.81
443.592	101.81
443.813	101.81
444.034	100.81
444.255	79.81
444.476	73.81
444.698	84.81
444.919	81.81
445.14	133.81
445.361	122.81
445.582	106.81
445.803	114.81
446.024	107.81
446.245	108.81
446.466	98.81
446.687	94.81
446.908	89.81
447.129	91.81
447.35	76.81
447.571	77.81
447.792	87.81
448.013	97.81
448.234	101.81
448.455	92.81
448.675	102.81
448.896	105.81
449.117	91.81
449.338	92.81
449.559	103.81
449.779	115.81
450	88.81
450.221	85.81
450.442	80.81
450.662	91.81
450.883	101.81
451.104	101.81
451.324	103.81
451.545	88.81
451.766	95.81
451.986	91.81
452.207	77.81
452.428	86.81
452.648	91.81
452.869	99.81
453.089	107.81
453.31	103.81
453.53	78.81
453.751	94.81
453.971	89.81
454.192	87.81
454.412	99.81
454.633	85.81
454.853	74.81
455.073	81.81
455.294	89.81
455.514	89.81
455.734	89.81
455.955	77.81
456.175	92.81
456.395	100.81
456.616	87.81
456.836	96.81
457.056	84.81
457.276	76.81
457.497	78.81
457.717	83.81
457.937	93.81
458.157	81.81
458.377	104.81
458.598	92.81
458.818	118.81
459.038	122.81
459.258	100.81
459.478	100.81
459.698	92.81
459.918	91.81
460.138	95.81
460.358	95.81
460.578	95.81
460.798	94.81
461.018	89.81
461.238	91.81
461.458	80.81
461.678	94.81
461.898	86.81
462.118	84.81
462.338	92.81
462.558	81.81
462.777	83.81
462.997	97.81
463.217	84.81
463.437	82.81
463.657	82.81
463.876	91.81
464.096	90.81
464.316	75.81
464.536	75.81
464.755	101.81
464.975	99.81
465.195	124.81
465.414	114.81
465.634	97.81
465.854	87.81
466.073	95.81
466.293	98.81
466.512	85.81
466.732	91.81
466.951	90.81
467.171	94.81
467.391	96.81
467.61	98.81
467.829	94.81
468.049	96.81
468.268	102.81
468.488	89.81
468.707	93.81
468.927	87.81
469.146	91.81
469.365	86.81
469.585	82.81
469.804	90.81
470.023	95.81
470.243	97.81
470.462	95.81
470.681	99.81
470.901	91.81
471.12	92.81
471.339	86.81
471.558	98.81
471.777	92.81
471.997	93.81
472.216	86.81
472.435	117.81
472.654	88.81
472.873	86.81
473.092	87.81
473.311	85.81
473.53	85.81
473.749	90.81
473.968	81.81
474.187	107.81
474.406	89.81
474.625	84.81
474.844	97.81
475.063	87.81
475.282	87.81
475.501	85.81
475.72	90.81
475.939	87.81
476.158	77.81
476.377	103.81
476.596	85.81
476.814	86.81
477.033	88.81
477.252	94.81
477.471	91.81
477.69	94.81
477.908	100.81
478.127	74.81
478.346	97.81
478.564	101.81
478.783	95.81
479.002	98.81
479.22	102.81
479.439	98.81
479.658	83.81
479.876	97.81
480.095	75.81
480.313	91.81
480.532	86.81
480.751	95.81
480.969	125.81
481.188	157.81
481.406	136.81
481.624	101.81
481.843	95.81
482.061	106.81
482.28	97.81
482.498	96.81
482.717	96.81
482.935	91.81
483.153	87.81
483.372	92.81
483.59	91.81
483.808	95.81
484.027	76.81
484.245	108.81
484.463	104.81
484.681	100.81
484.9	95.81
485.118	93.81
485.336	97.81
485.554	99.81
485.772	115.81
485.99	120.81
486.209	115.81
486.427	111.81
486.645	107.81
486.863	106.81
487.081	101.81
487.299	88.81
487.517	96.81
487.735	81.81
487.953	92.81
488.171	104.81
488.389	92.81
488.607	94.81
488.825	89.81
489.043	97.81
489.261	99.81
489.479	94.81
489.696	102.81
489.914	83.81
490.132	92.81
490.35	92.81
490.568	91.81
490.786	84.81
491.003	97.81
491.221	89.81
491.439	97.81
491.657	98.81
491.874	85.81
492.092	81.81
492.31	82.81
492.527	72.81
492.745	89.81
492.963	103.81
493.18	97.81
493.398	99.81
493.615	91.81
493.833	84.81
494.05	97.81
494.268	94.81
494.485	83.81
494.703	91.81
494.92	99.81
495.138	83.81
495.355	96.81
495.573	100.81
495.79	86.81
496.008	97.81
496.225	102.81
496.442	85.81
496.66	84.81
496.877	98.81
497.094	86.81
497.312	104.81
497.529	87.81
497.746	90.81
497.963	102.81
498.181	89.81
498.398	82.81
498.615	102.81
498.832	103.81
499.049	86.81
499.267	86.81
499.484	100.81
499.701	100.81
499.918	86.81
500.135	96.81
500.352	91.81
500.569	98.81
500.786	89.81
501.003	78.81
501.22	87.81
501.437	91.81
501.654	93.81
501.871	102.81
502.088	90.81
502.305	94.81
502.522	89.81
502.739	96.81
502.956	86.81
503.172	88.81
503.389	89.81
503.606	102.81
503.823	87.81
504.04	106.81
504.256	78.81
504.473	85.81
504.69	85.81
504.907	92.81
505.123	84.81
505.34	89.81
505.557	89.81
505.773	87.81
505.99	74.81
506.207	83.81
506.423	90.81
506.64	100.81
506.856	109.81
507.073	86.81
507.289	93.81
507.506	92.81
507.722	87.81
507.939	92.81
508.155	88.81
508.372	89.81
508.588	117.81
508.805	83.81
509.021	97.81
509.238	102.81
509.454	108.81
509.67	94.81
509.887	106.81
510.103	123.81
510.319	174.81
510.536	469.81
510.752	1473.81
510.968	431.81
511.184	132.81
511.401	105.81
511.617	100.81
511.833	87.81
512.049	79.81
512.265	94.81
512.481	97.81
512.698	85.81
512.914	85.81
513.13	92.81
513.346	81.81
513.562	96.81
513.778	90.81
513.994	93.81
514.21	107.81
514.426	103.81
514.642	127.81
514.858	94.81
515.074	127.81
515.29	289.81
