Data from Circ_1983_H10_HRD10591_00049.txt Node
Date: Wed Jan 03 12:26:54 EST 2024
User: Yrep
Spectrometer: HR+D1059
Trigger mode: 1
Integration Time (sec): 1.000000E-1
Scans to average: 1
Electric dark correction enabled: true
Nonlinearity correction enabled: false
Boxcar width: 0
XAxis mode: Wavelengths
Number of Pixels in Spectrum: 2048
>>>>>Begin Spectral Data<<<<<
223.165	-25.81
223.4	-25.81
223.635	-25.81
223.869	-20.81
224.104	-27.81
224.338	-10.81
224.573	-16.81
224.808	-21.81
225.042	-15.81
225.277	8.19
225.511	8.19
225.746	2.19
225.98	9.19
226.215	14.19
226.449	26.19
226.683	18.19
226.918	18.19
227.152	35.19
227.387	19.19
227.621	43.19
227.856	44.19
228.09	44.19
228.324	50.19
228.559	47.19
228.793	66.19
229.027	69.19
229.262	69.19
229.496	66.19
229.73	77.19
229.964	74.19
230.199	75.19
230.433	81.19
230.667	68.19
230.901	80.19
231.136	90.19
231.37	78.19
231.604	78.19
231.838	80.19
232.072	83.19
232.306	74.19
232.541	86.19
232.775	69.19
233.009	75.19
233.243	70.19
233.477	80.19
233.711	80.19
233.945	80.19
234.179	83.19
234.413	90.19
234.647	88.19
234.881	81.19
235.115	69.19
235.349	83.19
235.583	74.19
235.817	71.19
236.051	84.19
236.285	70.19
236.519	64.19
236.753	96.19
236.987	85.19
237.221	70.19
237.455	83.19
237.689	90.19
237.922	76.19
238.156	82.19
238.39	92.19
238.624	72.19
238.858	61.19
239.091	64.19
239.325	80.19
239.559	84.19
239.793	84.19
240.027	92.19
240.26	72.19
240.494	91.19
240.728	86.19
240.961	65.19
241.195	84.19
241.429	90.19
241.662	69.19
241.896	83.19
242.13	73.19
242.363	64.19
242.597	81.19
242.83	76.19
243.064	82.19
243.298	84.19
243.531	66.19
243.765	81.19
243.998	82.19
244.232	64.19
244.465	92.19
244.699	61.19
244.932	86.19
245.166	88.19
245.399	77.19
245.633	88.19
245.866	86.19
246.099	67.19
246.333	71.19
246.566	64.19
246.8	88.19
247.033	88.19
247.266	81.19
247.5	85.19
247.733	77.19
247.966	96.19
248.2	65.19
248.433	66.19
248.666	88.19
248.899	82.19
249.133	83.19
249.366	84.19
249.599	85.19
249.832	97.19
250.066	75.19
250.299	85.19
250.532	77.19
250.765	78.19
250.998	82.19
251.231	85.19
251.465	73.19
251.698	89.19
251.931	80.19
252.164	100.19
252.397	97.19
252.63	90.19
252.863	91.19
253.096	80.19
253.329	68.19
253.562	77.19
253.795	88.19
254.028	89.19
254.261	78.19
254.494	84.19
254.727	87.19
254.96	84.19
255.193	83.19
255.426	69.19
255.659	85.19
255.892	77.19
256.124	98.19
256.357	76.19
256.59	82.19
256.823	90.19
257.056	83.19
257.289	80.19
257.521	82.19
257.754	74.19
257.987	82.19
258.22	89.19
258.452	85.19
258.685	87.19
258.918	85.19
259.151	89.19
259.383	77.19
259.616	84.19
259.849	74.19
260.081	73.19
260.314	82.19
260.547	82.19
260.779	90.19
261.012	90.19
261.244	89.19
261.477	96.19
261.71	100.19
261.942	101.19
262.175	100.19
262.407	90.19
262.64	77.19
262.872	88.19
263.105	65.19
263.337	88.19
263.57	106.19
263.802	96.19
264.035	89.19
264.267	88.19
264.499	85.19
264.732	97.19
264.964	83.19
265.197	85.19
265.429	89.19
265.661	87.19
265.894	80.19
266.126	84.19
266.358	76.19
266.591	77.19
266.823	86.19
267.055	77.19
267.287	76.19
267.52	84.19
267.752	85.19
267.984	98.19
268.216	74.19
268.448	80.19
268.681	88.19
268.913	98.19
269.145	100.19
269.377	93.19
269.609	73.19
269.841	81.19
270.073	87.19
270.306	86.19
270.538	84.19
270.77	82.19
271.002	83.19
271.234	82.19
271.466	80.19
271.698	89.19
271.93	84.19
272.162	86.19
272.394	94.19
272.626	78.19
272.858	91.19
273.09	62.19
273.322	91.19
273.553	88.19
273.785	91.19
274.017	74.19
274.249	79.19
274.481	79.19
274.713	75.19
274.945	82.19
275.176	84.19
275.408	96.19
275.64	88.19
275.872	80.19
276.104	86.19
276.335	88.19
276.567	100.19
276.799	113.19
277.031	102.19
277.262	82.19
277.494	85.19
277.726	93.19
277.957	100.19
278.189	86.19
278.421	88.19
278.652	92.19
278.884	93.19
279.115	89.19
279.347	78.19
279.579	90.19
279.81	106.19
280.042	117.19
280.273	120.19
280.505	98.19
280.736	93.19
280.968	90.19
281.199	93.19
281.431	77.19
281.662	87.19
281.894	78.19
282.125	104.19
282.356	116.19
282.588	135.19
282.819	108.19
283.051	85.19
283.282	76.19
283.513	91.19
283.745	84.19
283.976	87.19
284.207	93.19
284.439	80.19
284.67	90.19
284.901	101.19
285.132	86.19
285.364	72.19
285.595	86.19
285.826	90.19
286.057	93.19
286.288	85.19
286.52	98.19
286.751	81.19
286.982	82.19
287.213	74.19
287.444	84.19
287.675	94.19
287.906	93.19
288.138	93.19
288.369	85.19
288.6	85.19
288.831	90.19
289.062	98.19
289.293	91.19
289.524	80.19
289.755	75.19
289.986	98.19
290.217	84.19
290.448	88.19
290.679	87.19
290.91	93.19
291.141	82.19
291.371	97.19
291.602	84.19
291.833	94.19
292.064	103.19
292.295	91.19
292.526	84.19
292.757	83.19
292.987	81.19
293.218	86.19
293.449	98.19
293.68	80.19
293.91	74.19
294.141	94.19
294.372	100.19
294.603	93.19
294.833	108.19
295.064	85.19
295.295	77.19
295.525	101.19
295.756	92.19
295.987	103.19
296.217	125.19
296.448	103.19
296.679	90.19
296.909	76.19
297.14	84.19
297.37	83.19
297.601	75.19
297.831	72.19
298.062	97.19
298.292	84.19
298.523	91.19
298.753	77.19
298.984	97.19
299.214	90.19
299.445	84.19
299.675	88.19
299.905	83.19
300.136	100.19
300.366	86.19
300.597	91.19
300.827	85.19
301.057	93.19
301.288	89.19
301.518	101.19
301.748	82.19
301.979	96.19
302.209	92.19
302.439	85.19
302.669	80.19
302.9	87.19
303.13	93.19
303.36	93.19
303.59	94.19
303.82	107.19
304.051	96.19
304.281	99.19
304.511	95.19
304.741	84.19
304.971	83.19
305.201	86.19
305.431	83.19
305.661	93.19
305.891	85.19
306.121	99.19
306.352	98.19
306.582	109.19
306.812	88.19
307.042	82.19
307.272	91.19
307.502	104.19
307.731	105.19
307.961	76.19
308.191	85.19
308.421	104.19
308.651	76.19
308.881	99.19
309.111	84.19
309.341	98.19
309.571	96.19
309.8	107.19
310.03	97.19
310.26	93.19
310.49	92.19
310.72	90.19
310.949	93.19
311.179	95.19
311.409	102.19
311.639	79.19
311.868	97.19
312.098	97.19
312.328	97.19
312.557	99.19
312.787	94.19
313.017	104.19
313.246	83.19
313.476	99.19
313.706	85.19
313.935	87.19
314.165	88.19
314.394	98.19
314.624	98.19
314.853	87.19
315.083	89.19
315.312	96.19
315.542	100.19
315.771	90.19
316.001	96.19
316.23	84.19
316.46	104.19
316.689	93.19
316.919	92.19
317.148	91.19
317.377	87.19
317.607	89.19
317.836	93.19
318.065	89.19
318.295	86.19
318.524	94.19
318.753	96.19
318.983	109.19
319.212	109.19
319.441	98.19
319.67	98.19
319.9	102.19
320.129	96.19
320.358	96.19
320.587	99.19
320.816	96.19
321.046	104.19
321.275	104.19
321.504	92.19
321.733	101.19
321.962	100.19
322.191	101.19
322.42	85.19
322.649	102.19
322.878	96.19
323.108	96.19
323.337	109.19
323.566	128.19
323.795	145.19
324.024	172.19
324.253	297.19
324.482	601.19
324.71	1172.19
324.939	1530.19
325.168	576.19
325.397	213.19
325.626	117.19
325.855	114.19
326.084	125.19
326.313	133.19
326.542	133.19
326.77	187.19
326.999	353.19
327.228	663.19
327.457	1211.19
327.686	980.19
327.914	278.19
328.143	178.19
328.372	155.19
328.6	125.19
328.829	114.19
329.058	111.19
329.287	125.19
329.515	117.19
329.744	117.19
329.972	125.19
330.201	159.19
330.43	192.19
330.658	134.19
330.887	134.19
331.115	115.19
331.344	99.19
331.572	113.19
331.801	110.19
332.03	109.19
332.258	93.19
332.486	100.19
332.715	101.19
332.943	91.19
333.172	105.19
333.4	120.19
333.629	96.19
333.857	115.19
334.085	126.19
334.314	164.19
334.542	236.19
334.771	222.19
334.999	110.19
335.227	111.19
335.455	90.19
335.684	89.19
335.912	97.19
336.14	97.19
336.369	101.19
336.597	108.19
336.825	105.19
337.053	88.19
337.281	83.19
337.51	98.19
337.738	99.19
337.966	92.19
338.194	100.19
338.422	107.19
338.65	96.19
338.878	90.19
339.106	95.19
339.334	100.19
339.562	91.19
339.79	98.19
340.018	91.19
340.246	92.19
340.474	77.19
340.702	90.19
340.93	94.19
341.158	83.19
341.386	91.19
341.614	108.19
341.842	104.19
342.07	84.19
342.298	106.19
342.526	92.19
342.754	88.19
342.981	103.19
343.209	87.19
343.437	108.19
343.665	87.19
343.893	93.19
344.12	106.19
344.348	90.19
344.576	97.19
344.804	91.19
345.031	95.19
345.259	96.19
345.487	94.19
345.714	88.19
345.942	87.19
346.17	110.19
346.397	94.19
346.625	83.19
346.853	86.19
347.08	93.19
347.308	91.19
347.535	98.19
347.763	102.19
347.99	102.19
348.218	103.19
348.445	103.19
348.673	105.19
348.9	96.19
349.128	109.19
349.355	82.19
349.583	86.19
349.81	104.19
350.037	91.19
350.265	96.19
350.492	97.19
350.72	102.19
350.947	89.19
351.174	110.19
351.402	96.19
351.629	105.19
351.856	95.19
352.083	93.19
352.311	87.19
352.538	118.19
352.765	102.19
352.992	106.19
353.22	110.19
353.447	92.19
353.674	109.19
353.901	93.19
354.128	92.19
354.355	101.19
354.583	97.19
354.81	102.19
355.037	93.19
355.264	93.19
355.491	97.19
355.718	76.19
355.945	101.19
356.172	101.19
356.399	90.19
356.626	102.19
356.853	97.19
357.08	83.19
357.307	105.19
357.534	85.19
357.761	93.19
357.988	106.19
358.215	86.19
358.441	105.19
358.668	86.19
358.895	94.19
359.122	100.19
359.349	92.19
359.576	96.19
359.802	94.19
360.029	90.19
360.256	103.19
360.483	92.19
360.709	79.19
360.936	101.19
361.163	104.19
361.39	107.19
361.616	89.19
361.843	85.19
362.07	95.19
362.296	105.19
362.523	97.19
362.749	95.19
362.976	97.19
363.203	102.19
363.429	92.19
363.656	81.19
363.882	83.19
364.109	95.19
364.335	87.19
364.562	85.19
364.788	96.19
365.015	100.19
365.241	90.19
365.468	90.19
365.694	101.19
365.92	100.19
366.147	87.19
366.373	98.19
366.599	88.19
366.826	74.19
367.052	77.19
367.278	93.19
367.505	90.19
367.731	91.19
367.957	90.19
368.184	91.19
368.41	93.19
368.636	96.19
368.862	106.19
369.089	89.19
369.315	84.19
369.541	90.19
369.767	93.19
369.993	70.19
370.219	86.19
370.445	93.19
370.672	85.19
370.898	104.19
371.124	84.19
371.35	77.19
371.576	91.19
371.802	81.19
372.028	81.19
372.254	88.19
372.48	89.19
372.706	89.19
372.932	97.19
373.158	99.19
373.384	88.19
373.61	82.19
373.835	86.19
374.061	92.19
374.287	85.19
374.513	83.19
374.739	93.19
374.965	92.19
375.191	90.19
375.416	90.19
375.642	91.19
375.868	94.19
376.094	107.19
376.319	83.19
376.545	82.19
376.771	90.19
376.997	90.19
377.222	91.19
377.448	92.19
377.674	89.19
377.899	110.19
378.125	86.19
378.35	107.19
378.576	90.19
378.802	99.19
379.027	93.19
379.253	101.19
379.478	92.19
379.704	102.19
379.929	97.19
380.155	92.19
380.38	91.19
380.606	95.19
380.831	106.19
381.057	99.19
381.282	82.19
381.507	91.19
381.733	89.19
381.958	89.19
382.184	94.19
382.409	102.19
382.634	104.19
382.86	114.19
383.085	101.19
383.31	100.19
383.535	104.19
383.761	98.19
383.986	107.19
384.211	103.19
384.436	103.19
384.662	97.19
384.887	116.19
385.112	105.19
385.337	109.19
385.562	123.19
385.787	111.19
386.013	134.19
386.238	109.19
386.463	109.19
386.688	104.19
386.913	111.19
387.138	121.19
387.363	116.19
387.588	107.19
387.813	98.19
388.038	117.19
388.263	112.19
388.488	126.19
388.713	109.19
388.938	111.19
389.163	101.19
389.387	101.19
389.612	93.19
389.837	105.19
390.062	99.19
390.287	92.19
390.512	99.19
390.736	90.19
390.961	100.19
391.186	93.19
391.411	96.19
391.636	95.19
391.86	83.19
392.085	82.19
392.31	91.19
392.534	91.19
392.759	89.19
392.984	106.19
393.208	105.19
393.433	105.19
393.658	106.19
393.882	88.19
394.107	96.19
394.331	99.19
394.556	82.19
394.78	96.19
395.005	89.19
395.229	90.19
395.454	84.19
395.678	71.19
395.903	84.19
396.127	82.19
396.352	87.19
396.576	83.19
396.801	100.19
397.025	94.19
397.249	92.19
397.474	104.19
397.698	100.19
397.922	85.19
398.147	102.19
398.371	88.19
398.595	84.19
398.82	101.19
399.044	81.19
399.268	85.19
399.492	77.19
399.717	103.19
399.941	88.19
400.165	99.19
400.389	91.19
400.613	85.19
400.837	81.19
401.062	76.19
401.286	84.19
401.51	90.19
401.734	101.19
401.958	96.19
402.182	105.19
402.406	137.19
402.63	100.19
402.854	87.19
403.078	88.19
403.302	88.19
403.526	84.19
403.75	97.19
403.974	90.19
404.198	98.19
404.422	96.19
404.645	93.19
404.869	99.19
405.093	90.19
405.317	97.19
405.541	93.19
405.765	109.19
405.988	104.19
406.212	137.19
406.436	172.19
406.66	114.19
406.883	96.19
407.107	81.19
407.331	87.19
407.555	85.19
407.778	109.19
408.002	86.19
408.226	88.19
408.449	100.19
408.673	90.19
408.896	102.19
409.12	91.19
409.344	93.19
409.567	84.19
409.791	88.19
410.014	93.19
410.238	86.19
410.461	93.19
410.685	102.19
410.908	106.19
411.132	100.19
411.355	95.19
411.578	107.19
411.802	80.19
412.025	69.19
412.249	93.19
412.472	94.19
412.695	109.19
412.919	85.19
413.142	86.19
413.365	98.19
413.589	82.19
413.812	97.19
414.035	93.19
414.258	90.19
414.482	93.19
414.705	99.19
414.928	90.19
415.151	92.19
415.374	87.19
415.597	84.19
415.821	94.19
416.044	90.19
416.267	92.19
416.49	91.19
416.713	87.19
416.936	102.19
417.159	93.19
417.382	78.19
417.605	96.19
417.828	94.19
418.051	100.19
418.274	100.19
418.497	84.19
418.72	87.19
418.943	88.19
419.166	94.19
419.389	85.19
419.611	99.19
419.834	100.19
420.057	84.19
420.28	91.19
420.503	87.19
420.726	91.19
420.948	87.19
421.171	90.19
421.394	102.19
421.617	87.19
421.839	86.19
422.062	97.19
422.285	87.19
422.507	111.19
422.73	89.19
422.953	101.19
423.175	91.19
423.398	78.19
423.621	98.19
423.843	80.19
424.066	98.19
424.288	94.19
424.511	96.19
424.733	90.19
424.956	93.19
425.178	91.19
425.401	97.19
425.623	91.19
425.846	84.19
426.068	92.19
426.291	96.19
426.513	94.19
426.735	92.19
426.958	88.19
427.18	77.19
427.402	131.19
427.625	132.19
427.847	135.19
428.069	132.19
428.292	104.19
428.514	80.19
428.736	91.19
428.958	97.19
429.181	77.19
429.403	77.19
429.625	91.19
429.847	104.19
430.069	97.19
430.292	98.19
430.514	88.19
430.736	84.19
430.958	109.19
431.18	74.19
431.402	73.19
431.624	77.19
431.846	91.19
432.068	77.19
432.29	86.19
432.512	84.19
432.734	78.19
432.956	87.19
433.178	84.19
433.4	99.19
433.622	85.19
433.844	91.19
434.066	102.19
434.287	92.19
434.509	82.19
434.731	103.19
434.953	75.19
435.175	75.19
435.397	100.19
435.618	87.19
435.84	99.19
436.062	108.19
436.284	102.19
436.505	102.19
436.727	96.19
436.949	89.19
437.17	76.19
437.392	92.19
437.614	107.19
437.835	96.19
438.057	110.19
438.278	98.19
438.5	85.19
438.721	98.19
438.943	108.19
439.165	77.19
439.386	83.19
439.608	84.19
439.829	94.19
440.05	108.19
440.272	123.19
440.493	93.19
440.715	98.19
440.936	97.19
441.158	75.19
441.379	91.19
441.6	88.19
441.822	86.19
442.043	89.19
442.264	87.19
442.486	100.19
442.707	83.19
442.928	92.19
443.149	114.19
443.371	113.19
443.592	112.19
443.813	113.19
444.034	101.19
444.255	86.19
444.476	80.19
444.698	98.19
444.919	83.19
445.14	141.19
445.361	133.19
445.582	93.19
445.803	120.19
446.024	122.19
446.245	116.19
446.466	106.19
446.687	93.19
446.908	89.19
447.129	92.19
447.35	94.19
447.571	92.19
447.792	96.19
448.013	84.19
448.234	107.19
448.455	101.19
448.675	108.19
448.896	113.19
449.117	88.19
449.338	89.19
449.559	102.19
449.779	109.19
450	99.19
450.221	87.19
450.442	89.19
450.662	97.19
450.883	96.19
451.104	108.19
451.324	84.19
451.545	89.19
451.766	95.19
451.986	83.19
452.207	99.19
452.428	92.19
452.648	83.19
452.869	105.19
453.089	102.19
453.31	114.19
453.53	88.19
453.751	99.19
453.971	100.19
454.192	86.19
454.412	97.19
454.633	79.19
454.853	86.19
455.073	90.19
455.294	81.19
455.514	101.19
455.734	104.19
455.955	98.19
456.175	79.19
456.395	96.19
456.616	74.19
456.836	84.19
457.056	88.19
457.276	83.19
457.497	88.19
457.717	76.19
457.937	84.19
458.157	80.19
458.377	100.19
458.598	84.19
458.818	133.19
459.038	116.19
459.258	99.19
459.478	84.19
459.698	93.19
459.918	93.19
460.138	91.19
460.358	98.19
460.578	75.19
460.798	89.19
461.018	80.19
461.238	69.19
461.458	86.19
461.678	91.19
461.898	78.19
462.118	90.19
462.338	87.19
462.558	94.19
462.777	89.19
462.997	96.19
463.217	90.19
463.437	81.19
463.657	97.19
463.876	88.19
464.096	84.19
464.316	91.19
464.536	99.19
464.755	86.19
464.975	85.19
465.195	130.19
465.414	128.19
465.634	98.19
465.854	81.19
466.073	82.19
466.293	89.19
466.512	89.19
466.732	83.19
466.951	102.19
467.171	94.19
467.391	87.19
467.61	111.19
467.829	94.19
468.049	124.19
468.268	135.19
468.488	95.19
468.707	83.19
468.927	102.19
469.146	100.19
469.365	102.19
469.585	81.19
469.804	89.19
470.023	102.19
470.243	74.19
470.462	89.19
470.681	102.19
470.901	100.19
471.12	83.19
471.339	72.19
471.558	93.19
471.777	96.19
471.997	104.19
472.216	168.19
472.435	297.19
472.654	120.19
472.873	97.19
473.092	82.19
473.311	89.19
473.53	93.19
473.749	87.19
473.968	78.19
474.187	107.19
474.406	85.19
474.625	92.19
474.844	84.19
475.063	80.19
475.282	93.19
475.501	90.19
475.72	102.19
475.939	84.19
476.158	98.19
476.377	96.19
476.596	81.19
476.814	93.19
477.033	85.19
477.252	84.19
477.471	80.19
477.69	82.19
477.908	78.19
478.127	85.19
478.346	79.19
478.564	87.19
478.783	92.19
479.002	88.19
479.22	89.19
479.439	101.19
479.658	103.19
479.876	93.19
480.095	96.19
480.313	84.19
480.532	92.19
480.751	115.19
480.969	173.19
481.188	456.19
481.406	286.19
481.624	104.19
481.843	99.19
482.061	97.19
482.28	74.19
482.498	89.19
482.717	81.19
482.935	96.19
483.153	87.19
483.372	90.19
483.59	101.19
483.808	81.19
484.027	84.19
484.245	97.19
484.463	88.19
484.681	98.19
484.9	94.19
485.118	96.19
485.336	92.19
485.554	105.19
485.772	100.19
485.99	90.19
486.209	102.19
486.427	122.19
486.645	115.19
486.863	115.19
487.081	112.19
487.299	89.19
487.517	90.19
487.735	69.19
487.953	86.19
488.171	92.19
488.389	86.19
488.607	99.19
488.825	82.19
489.043	93.19
489.261	90.19
489.479	91.19
489.696	90.19
489.914	88.19
490.132	102.19
490.35	93.19
490.568	87.19
490.786	76.19
491.003	92.19
491.221	96.19
491.439	94.19
491.657	86.19
491.874	94.19
492.092	89.19
492.31	91.19
492.527	79.19
492.745	93.19
492.963	85.19
493.18	92.19
493.398	98.19
493.615	89.19
493.833	94.19
494.05	100.19
494.268	88.19
494.485	91.19
494.703	92.19
494.92	88.19
495.138	80.19
495.355	96.19
495.573	74.19
495.79	86.19
496.008	92.19
496.225	92.19
496.442	92.19
496.66	102.19
496.877	89.19
497.094	105.19
497.312	80.19
497.529	94.19
497.746	77.19
497.963	90.19
498.181	92.19
498.398	70.19
498.615	90.19
498.832	84.19
499.049	74.19
499.267	97.19
499.484	96.19
499.701	93.19
499.918	81.19
500.135	94.19
500.352	82.19
500.569	91.19
500.786	82.19
501.003	75.19
501.22	90.19
501.437	100.19
501.654	95.19
501.871	111.19
502.088	93.19
502.305	88.19
502.522	99.19
502.739	99.19
502.956	86.19
503.172	87.19
503.389	86.19
503.606	96.19
503.823	96.19
504.04	75.19
504.256	94.19
504.473	85.19
504.69	80.19
504.907	85.19
505.123	74.19
505.34	86.19
505.557	68.19
505.773	107.19
505.99	92.19
506.207	103.19
506.423	81.19
506.64	85.19
506.856	99.19
507.073	83.19
507.289	93.19
507.506	94.19
507.722	88.19
507.939	93.19
508.155	100.19
508.372	97.19
508.588	96.19
508.805	81.19
509.021	85.19
509.238	91.19
509.454	87.19
509.67	104.19
509.887	101.19
510.103	124.19
510.319	166.19
510.536	546.19
510.752	1713.19
510.968	506.19
511.184	137.19
511.401	90.19
511.617	97.19
511.833	98.19
512.049	89.19
512.265	86.19
512.481	84.19
512.698	89.19
512.914	96.19
513.13	93.19
513.346	80.19
513.562	94.19
513.778	88.19
513.994	100.19
514.21	101.19
514.426	101.19
514.642	115.19
514.858	102.19
515.074	129.19
515.29	315.19
515.506	1000.19
