Data from Circ_1983_H10_HRD10591_00037.txt Node
Date: Wed Jan 03 12:26:52 EST 2024
User: Yrep
Spectrometer: HR+D1059
Trigger mode: 1
Integration Time (sec): 1.000000E-1
Scans to average: 1
Electric dark correction enabled: true
Nonlinearity correction enabled: false
Boxcar width: 0
XAxis mode: Wavelengths
Number of Pixels in Spectrum: 2048
>>>>>Begin Spectral Data<<<<<
223.165	5.31
223.4	5.31
223.635	5.31
223.869	-13.69
224.104	-20.69
224.338	-22.69
224.573	-19.69
224.808	-18.69
225.042	-7.69
225.277	-5.69
225.511	-5.69
225.746	6.31
225.98	-3.69
226.215	25.31
226.449	3.31
226.683	16.31
226.918	25.31
227.152	36.31
227.387	30.31
227.621	38.31
227.856	50.31
228.09	54.31
228.324	46.31
228.559	50.31
228.793	63.31
229.027	61.31
229.262	75.31
229.496	70.31
229.73	63.31
229.964	83.31
230.199	75.31
230.433	85.31
230.667	77.31
230.901	78.31
231.136	65.31
231.37	71.31
231.604	86.31
231.838	91.31
232.072	83.31
232.306	81.31
232.541	92.31
232.775	88.31
233.009	95.31
233.243	81.31
233.477	76.31
233.711	81.31
233.945	78.31
234.179	83.31
234.413	91.31
234.647	71.31
234.881	81.31
235.115	71.31
235.349	75.31
235.583	89.31
235.817	64.31
236.051	73.31
236.285	73.31
236.519	76.31
236.753	78.31
236.987	64.31
237.221	66.31
237.455	83.31
237.689	62.31
237.922	80.31
238.156	87.31
238.39	66.31
238.624	83.31
238.858	74.31
239.091	70.31
239.325	81.31
239.559	72.31
239.793	59.31
240.027	72.31
240.26	80.31
240.494	79.31
240.728	81.31
240.961	70.31
241.195	70.31
241.429	80.31
241.662	78.31
241.896	81.31
242.13	83.31
242.363	84.31
242.597	87.31
242.83	88.31
243.064	70.31
243.298	74.31
243.531	71.31
243.765	80.31
243.998	80.31
244.232	67.31
244.465	90.31
244.699	77.31
244.932	76.31
245.166	73.31
245.399	77.31
245.633	78.31
245.866	73.31
246.099	60.31
246.333	80.31
246.566	71.31
246.8	88.31
247.033	82.31
247.266	80.31
247.5	83.31
247.733	68.31
247.966	84.31
248.2	85.31
248.433	75.31
248.666	83.31
248.899	83.31
249.133	82.31
249.366	92.31
249.599	78.31
249.832	86.31
250.066	76.31
250.299	68.31
250.532	88.31
250.765	76.31
250.998	101.31
251.231	74.31
251.465	77.31
251.698	78.31
251.931	86.31
252.164	71.31
252.397	86.31
252.63	87.31
252.863	70.31
253.096	66.31
253.329	66.31
253.562	73.31
253.795	74.31
254.028	78.31
254.261	87.31
254.494	88.31
254.727	70.31
254.96	85.31
255.193	72.31
255.426	94.31
255.659	73.31
255.892	75.31
256.124	85.31
256.357	80.31
256.59	66.31
256.823	74.31
257.056	86.31
257.289	79.31
257.521	89.31
257.754	74.31
257.987	86.31
258.22	90.31
258.452	59.31
258.685	81.31
258.918	72.31
259.151	81.31
259.383	82.31
259.616	82.31
259.849	85.31
260.081	70.31
260.314	76.31
260.547	73.31
260.779	88.31
261.012	84.31
261.244	89.31
261.477	99.31
261.71	91.31
261.942	111.31
262.175	111.31
262.407	74.31
262.64	87.31
262.872	86.31
263.105	81.31
263.337	91.31
263.57	85.31
263.802	100.31
264.035	84.31
264.267	72.31
264.499	68.31
264.732	91.31
264.964	86.31
265.197	88.31
265.429	79.31
265.661	76.31
265.894	88.31
266.126	68.31
266.358	72.31
266.591	85.31
266.823	89.31
267.055	81.31
267.287	88.31
267.52	80.31
267.752	72.31
267.984	88.31
268.216	69.31
268.448	80.31
268.681	71.31
268.913	79.31
269.145	73.31
269.377	92.31
269.609	80.31
269.841	84.31
270.073	89.31
270.306	94.31
270.538	90.31
270.77	70.31
271.002	93.31
271.234	79.31
271.466	98.31
271.698	92.31
271.93	71.31
272.162	68.31
272.394	81.31
272.626	88.31
272.858	95.31
273.09	85.31
273.322	82.31
273.553	81.31
273.785	85.31
274.017	80.31
274.249	80.31
274.481	93.31
274.713	84.31
274.945	79.31
275.176	83.31
275.408	92.31
275.64	86.31
275.872	89.31
276.104	88.31
276.335	87.31
276.567	91.31
276.799	111.31
277.031	95.31
277.262	98.31
277.494	94.31
277.726	87.31
277.957	90.31
278.189	78.31
278.421	80.31
278.652	83.31
278.884	89.31
279.115	98.31
279.347	90.31
279.579	87.31
279.81	95.31
280.042	93.31
280.273	100.31
280.505	83.31
280.736	94.31
280.968	89.31
281.199	94.31
281.431	83.31
281.662	75.31
281.894	82.31
282.125	86.31
282.356	111.31
282.588	126.31
282.819	92.31
283.051	107.31
283.282	92.31
283.513	79.31
283.745	93.31
283.976	83.31
284.207	88.31
284.439	95.31
284.67	92.31
284.901	99.31
285.132	83.31
285.364	76.31
285.595	96.31
285.826	75.31
286.057	74.31
286.288	80.31
286.52	89.31
286.751	87.31
286.982	84.31
287.213	86.31
287.444	95.31
287.675	92.31
287.906	74.31
288.138	88.31
288.369	80.31
288.6	74.31
288.831	86.31
289.062	94.31
289.293	80.31
289.524	79.31
289.755	75.31
289.986	90.31
290.217	74.31
290.448	90.31
290.679	80.31
290.91	75.31
291.141	81.31
291.371	76.31
291.602	88.31
291.833	77.31
292.064	78.31
292.295	86.31
292.526	97.31
292.757	96.31
292.987	81.31
293.218	95.31
293.449	90.31
293.68	86.31
293.91	103.31
294.141	89.31
294.372	83.31
294.603	92.31
294.833	95.31
295.064	88.31
295.295	89.31
295.525	94.31
295.756	84.31
295.987	96.31
296.217	126.31
296.448	115.31
296.679	89.31
296.909	100.31
297.14	93.31
297.37	80.31
297.601	105.31
297.831	84.31
298.062	75.31
298.292	90.31
298.523	81.31
298.753	79.31
298.984	95.31
299.214	103.31
299.445	83.31
299.675	95.31
299.905	102.31
300.136	80.31
300.366	93.31
300.597	89.31
300.827	89.31
301.057	90.31
301.288	90.31
301.518	82.31
301.748	93.31
301.979	101.31
302.209	82.31
302.439	84.31
302.669	82.31
302.9	94.31
303.13	102.31
303.36	95.31
303.59	91.31
303.82	91.31
304.051	95.31
304.281	79.31
304.511	98.31
304.741	74.31
304.971	75.31
305.201	96.31
305.431	97.31
305.661	88.31
305.891	102.31
306.121	105.31
306.352	90.31
306.582	101.31
306.812	91.31
307.042	97.31
307.272	95.31
307.502	100.31
307.731	89.31
307.961	79.31
308.191	99.31
308.421	98.31
308.651	106.31
308.881	95.31
309.111	96.31
309.341	92.31
309.571	85.31
309.8	90.31
310.03	80.31
310.26	89.31
310.49	94.31
310.72	95.31
310.949	105.31
311.179	99.31
311.409	102.31
311.639	86.31
311.868	98.31
312.098	83.31
312.328	102.31
312.557	94.31
312.787	102.31
313.017	95.31
313.246	85.31
313.476	84.31
313.706	88.31
313.935	89.31
314.165	103.31
314.394	101.31
314.624	103.31
314.853	88.31
315.083	83.31
315.312	98.31
315.542	92.31
315.771	94.31
316.001	80.31
316.23	95.31
316.46	81.31
316.689	86.31
316.919	87.31
317.148	101.31
317.377	95.31
317.607	83.31
317.836	84.31
318.065	87.31
318.295	91.31
318.524	84.31
318.753	78.31
318.983	84.31
319.212	101.31
319.441	101.31
319.67	115.31
319.9	89.31
320.129	84.31
320.358	84.31
320.587	95.31
320.816	94.31
321.046	94.31
321.275	98.31
321.504	111.31
321.733	97.31
321.962	80.31
322.191	96.31
322.42	104.31
322.649	89.31
322.878	106.31
323.108	102.31
323.337	105.31
323.566	98.31
323.795	128.31
324.024	163.31
324.253	304.31
324.482	606.31
324.71	1215.31
324.939	1601.31
325.168	617.31
325.397	196.31
325.626	134.31
325.855	113.31
326.084	105.31
326.313	138.31
326.542	136.31
326.77	190.31
326.999	338.31
327.228	722.31
327.457	1262.31
327.686	1015.31
327.914	298.31
328.143	168.31
328.372	156.31
328.6	115.31
328.829	112.31
329.058	113.31
329.287	121.31
329.515	98.31
329.744	125.31
329.972	118.31
330.201	146.31
330.43	176.31
330.658	129.31
330.887	112.31
331.115	107.31
331.344	105.31
331.572	107.31
331.801	100.31
332.03	96.31
332.258	98.31
332.486	95.31
332.715	82.31
332.943	89.31
333.172	95.31
333.4	88.31
333.629	100.31
333.857	101.31
334.085	112.31
334.314	148.31
334.542	203.31
334.771	176.31
334.999	110.31
335.227	110.31
335.455	96.31
335.684	100.31
335.912	113.31
336.14	95.31
336.369	108.31
336.597	95.31
336.825	98.31
337.053	98.31
337.281	90.31
337.51	75.31
337.738	85.31
337.966	96.31
338.194	95.31
338.422	96.31
338.65	101.31
338.878	88.31
339.106	82.31
339.334	78.31
339.562	88.31
339.79	89.31
340.018	94.31
340.246	89.31
340.474	85.31
340.702	104.31
340.93	83.31
341.158	83.31
341.386	88.31
341.614	85.31
341.842	89.31
342.07	99.31
342.298	97.31
342.526	86.31
342.754	72.31
342.981	95.31
343.209	71.31
343.437	112.31
343.665	88.31
343.893	101.31
344.12	89.31
344.348	87.31
344.576	84.31
344.804	89.31
345.031	89.31
345.259	102.31
345.487	98.31
345.714	97.31
345.942	105.31
346.17	102.31
346.397	103.31
346.625	90.31
346.853	83.31
347.08	92.31
347.308	82.31
347.535	100.31
347.763	104.31
347.99	102.31
348.218	96.31
348.445	98.31
348.673	82.31
348.9	99.31
349.128	99.31
349.355	81.31
349.583	85.31
349.81	90.31
350.037	99.31
350.265	96.31
350.492	90.31
350.72	101.31
350.947	91.31
351.174	112.31
351.402	110.31
351.629	106.31
351.856	104.31
352.083	96.31
352.311	116.31
352.538	88.31
352.765	97.31
352.992	119.31
353.22	109.31
353.447	108.31
353.674	103.31
353.901	102.31
354.128	119.31
354.355	106.31
354.583	102.31
354.81	85.31
355.037	106.31
355.264	94.31
355.491	106.31
355.718	108.31
355.945	87.31
356.172	90.31
356.399	74.31
356.626	75.31
356.853	95.31
357.08	81.31
357.307	87.31
357.534	93.31
357.761	76.31
357.988	107.31
358.215	101.31
358.441	96.31
358.668	85.31
358.895	88.31
359.122	90.31
359.349	97.31
359.576	103.31
359.802	97.31
360.029	105.31
360.256	101.31
360.483	92.31
360.709	91.31
360.936	86.31
361.163	95.31
361.39	79.31
361.616	80.31
361.843	71.31
362.07	100.31
362.296	102.31
362.523	83.31
362.749	84.31
362.976	92.31
363.203	91.31
363.429	90.31
363.656	78.31
363.882	80.31
364.109	90.31
364.335	100.31
364.562	91.31
364.788	89.31
365.015	93.31
365.241	87.31
365.468	110.31
365.694	96.31
365.92	97.31
366.147	92.31
366.373	98.31
366.599	91.31
366.826	96.31
367.052	94.31
367.278	68.31
367.505	84.31
367.731	96.31
367.957	89.31
368.184	101.31
368.41	107.31
368.636	112.31
368.862	102.31
369.089	96.31
369.315	81.31
369.541	87.31
369.767	91.31
369.993	89.31
370.219	92.31
370.445	82.31
370.672	97.31
370.898	88.31
371.124	88.31
371.35	100.31
371.576	90.31
371.802	107.31
372.028	92.31
372.254	100.31
372.48	91.31
372.706	73.31
372.932	100.31
373.158	93.31
373.384	108.31
373.61	86.31
373.835	86.31
374.061	76.31
374.287	94.31
374.513	101.31
374.739	106.31
374.965	72.31
375.191	102.31
375.416	90.31
375.642	85.31
375.868	89.31
376.094	78.31
376.319	91.31
376.545	105.31
376.771	84.31
376.997	85.31
377.222	86.31
377.448	91.31
377.674	94.31
377.899	96.31
378.125	83.31
378.35	83.31
378.576	93.31
378.802	95.31
379.027	101.31
379.253	101.31
379.478	91.31
379.704	98.31
379.929	92.31
380.155	94.31
380.38	90.31
380.606	90.31
380.831	96.31
381.057	97.31
381.282	105.31
381.507	98.31
381.733	97.31
381.958	110.31
382.184	100.31
382.409	112.31
382.634	115.31
382.86	92.31
383.085	99.31
383.31	86.31
383.535	96.31
383.761	93.31
383.986	91.31
384.211	106.31
384.436	97.31
384.662	112.31
384.887	104.31
385.112	99.31
385.337	99.31
385.562	107.31
385.787	111.31
386.013	116.31
386.238	122.31
386.463	111.31
386.688	114.31
386.913	113.31
387.138	111.31
387.363	107.31
387.588	103.31
387.813	102.31
388.038	120.31
388.263	139.31
388.488	108.31
388.713	93.31
388.938	90.31
389.163	91.31
389.387	94.31
389.612	96.31
389.837	102.31
390.062	94.31
390.287	85.31
390.512	80.31
390.736	81.31
390.961	81.31
391.186	99.31
391.411	90.31
391.636	90.31
391.86	94.31
392.085	86.31
392.31	91.31
392.534	95.31
392.759	91.31
392.984	108.31
393.208	105.31
393.433	131.31
393.658	117.31
393.882	95.31
394.107	84.31
394.331	88.31
394.556	76.31
394.78	79.31
395.005	76.31
395.229	86.31
395.454	90.31
395.678	75.31
395.903	84.31
396.127	88.31
396.352	86.31
396.576	97.31
396.801	96.31
397.025	111.31
397.249	100.31
397.474	99.31
397.698	98.31
397.922	82.31
398.147	96.31
398.371	80.31
398.595	87.31
398.82	80.31
399.044	106.31
399.268	102.31
399.492	89.31
399.717	91.31
399.941	87.31
400.165	76.31
400.389	95.31
400.613	92.31
400.837	94.31
401.062	86.31
401.286	84.31
401.51	70.31
401.734	95.31
401.958	90.31
402.182	99.31
402.406	137.31
402.63	97.31
402.854	91.31
403.078	84.31
403.302	86.31
403.526	86.31
403.75	99.31
403.974	101.31
404.198	76.31
404.422	95.31
404.645	81.31
404.869	91.31
405.093	68.31
405.317	87.31
405.541	93.31
405.765	87.31
405.988	114.31
406.212	157.31
406.436	186.31
406.66	129.31
406.883	110.31
407.107	101.31
407.331	96.31
407.555	99.31
407.778	101.31
408.002	83.31
408.226	98.31
408.449	95.31
408.673	79.31
408.896	93.31
409.12	98.31
409.344	86.31
409.567	87.31
409.791	94.31
410.014	91.31
410.238	92.31
410.461	86.31
410.685	100.31
410.908	89.31
411.132	106.31
411.355	89.31
411.578	86.31
411.802	94.31
412.025	76.31
412.249	94.31
412.472	82.31
412.695	90.31
412.919	95.31
413.142	83.31
413.365	82.31
413.589	78.31
413.812	87.31
414.035	91.31
414.258	102.31
414.482	99.31
414.705	97.31
414.928	78.31
415.151	92.31
415.374	97.31
415.597	100.31
415.821	72.31
416.044	96.31
416.267	85.31
416.49	92.31
416.713	84.31
416.936	96.31
417.159	85.31
417.382	104.31
417.605	90.31
417.828	84.31
418.051	89.31
418.274	86.31
418.497	104.31
418.72	96.31
418.943	95.31
419.166	99.31
419.389	97.31
419.611	84.31
419.834	88.31
420.057	90.31
420.28	96.31
420.503	88.31
420.726	88.31
420.948	94.31
421.171	102.31
421.394	98.31
421.617	94.31
421.839	100.31
422.062	86.31
422.285	92.31
422.507	83.31
422.73	90.31
422.953	89.31
423.175	98.31
423.398	78.31
423.621	92.31
423.843	88.31
424.066	86.31
424.288	82.31
424.511	99.31
424.733	90.31
424.956	105.31
425.178	97.31
425.401	96.31
425.623	92.31
425.846	86.31
426.068	82.31
426.291	93.31
426.513	89.31
426.735	101.31
426.958	84.31
427.18	106.31
427.402	128.31
427.625	147.31
427.847	114.31
428.069	102.31
428.292	90.31
428.514	92.31
428.736	101.31
428.958	82.31
429.181	78.31
429.403	88.31
429.625	82.31
429.847	96.31
430.069	85.31
430.292	98.31
430.514	84.31
430.736	81.31
430.958	93.31
431.18	74.31
431.402	76.31
431.624	86.31
431.846	89.31
432.068	97.31
432.29	82.31
432.512	99.31
432.734	94.31
432.956	93.31
433.178	92.31
433.4	105.31
433.622	86.31
433.844	81.31
434.066	89.31
434.287	89.31
434.509	83.31
434.731	92.31
434.953	98.31
435.175	86.31
435.397	100.31
435.618	88.31
435.84	100.31
436.062	98.31
436.284	98.31
436.505	93.31
436.727	108.31
436.949	95.31
437.17	84.31
437.392	85.31
437.614	92.31
437.835	94.31
438.057	114.31
438.278	103.31
438.5	88.31
438.721	114.31
438.943	95.31
439.165	98.31
439.386	86.31
439.608	103.31
439.829	98.31
440.05	114.31
440.272	114.31
440.493	90.31
440.715	86.31
440.936	104.31
441.158	97.31
441.379	87.31
441.6	89.31
441.822	87.31
442.043	86.31
442.264	101.31
442.486	72.31
442.707	100.31
442.928	99.31
443.149	114.31
443.371	109.31
443.592	105.31
443.813	102.31
444.034	94.31
444.255	91.31
444.476	86.31
444.698	92.31
444.919	82.31
445.14	142.31
445.361	119.31
445.582	108.31
445.803	131.31
446.024	105.31
446.245	113.31
446.466	108.31
446.687	96.31
446.908	88.31
447.129	97.31
447.35	79.31
447.571	91.31
447.792	88.31
448.013	92.31
448.234	91.31
448.455	90.31
448.675	95.31
448.896	107.31
449.117	99.31
449.338	99.31
449.559	115.31
449.779	104.31
450	96.31
450.221	76.31
450.442	94.31
450.662	95.31
450.883	95.31
451.104	107.31
451.324	102.31
451.545	107.31
451.766	81.31
451.986	98.31
452.207	94.31
452.428	90.31
452.648	96.31
452.869	99.31
453.089	111.31
453.31	89.31
453.53	88.31
453.751	90.31
453.971	105.31
454.192	97.31
454.412	95.31
454.633	95.31
454.853	91.31
455.073	89.31
455.294	81.31
455.514	102.31
455.734	96.31
455.955	83.31
456.175	86.31
456.395	88.31
456.616	85.31
456.836	82.31
457.056	88.31
457.276	90.31
457.497	80.31
457.717	84.31
457.937	84.31
458.157	84.31
458.377	93.31
458.598	102.31
458.818	120.31
459.038	140.31
459.258	101.31
459.478	84.31
459.698	86.31
459.918	86.31
460.138	77.31
460.358	67.31
460.578	87.31
460.798	100.31
461.018	78.31
461.238	89.31
461.458	92.31
461.678	92.31
461.898	83.31
462.118	102.31
462.338	79.31
462.558	80.31
462.777	83.31
462.997	74.31
463.217	80.31
463.437	76.31
463.657	78.31
463.876	86.31
464.096	83.31
464.316	84.31
464.536	97.31
464.755	85.31
464.975	90.31
465.195	122.31
465.414	131.31
465.634	104.31
465.854	95.31
466.073	96.31
466.293	97.31
466.512	81.31
466.732	76.31
466.951	98.31
467.171	75.31
467.391	94.31
467.61	98.31
467.829	105.31
468.049	106.31
468.268	128.31
468.488	86.31
468.707	92.31
468.927	95.31
469.146	85.31
469.365	98.31
469.585	101.31
469.804	85.31
470.023	74.31
470.243	88.31
470.462	105.31
470.681	93.31
470.901	94.31
471.12	85.31
471.339	91.31
471.558	103.31
471.777	94.31
471.997	113.31
472.216	163.31
472.435	244.31
472.654	119.31
472.873	80.31
473.092	94.31
473.311	90.31
473.53	84.31
473.749	74.31
473.968	86.31
474.187	101.31
474.406	86.31
474.625	100.31
474.844	79.31
475.063	79.31
475.282	83.31
475.501	93.31
475.72	100.31
475.939	92.31
476.158	88.31
476.377	82.31
476.596	88.31
476.814	95.31
477.033	78.31
477.252	97.31
477.471	86.31
477.69	88.31
477.908	81.31
478.127	90.31
478.346	95.31
478.564	90.31
478.783	86.31
479.002	97.31
479.22	84.31
479.439	90.31
479.658	111.31
479.876	90.31
480.095	78.31
480.313	104.31
480.532	80.31
480.751	98.31
480.969	151.31
481.188	411.31
481.406	254.31
481.624	104.31
481.843	92.31
482.061	78.31
482.28	97.31
482.498	87.31
482.717	101.31
482.935	89.31
483.153	87.31
483.372	87.31
483.59	95.31
483.808	87.31
484.027	94.31
484.245	103.31
484.463	91.31
484.681	90.31
484.9	80.31
485.118	100.31
485.336	108.31
485.554	119.31
485.772	97.31
485.99	104.31
486.209	95.31
486.427	105.31
486.645	106.31
486.863	112.31
487.081	104.31
487.299	89.31
487.517	93.31
487.735	83.31
487.953	91.31
488.171	99.31
488.389	95.31
488.607	88.31
488.825	95.31
489.043	86.31
489.261	104.31
489.479	94.31
489.696	102.31
489.914	99.31
490.132	103.31
490.35	97.31
490.568	85.31
490.786	89.31
491.003	90.31
491.221	93.31
491.439	104.31
491.657	83.31
491.874	82.31
492.092	91.31
492.31	90.31
492.527	77.31
492.745	94.31
492.963	89.31
493.18	86.31
493.398	99.31
493.615	91.31
493.833	109.31
494.05	100.31
494.268	97.31
494.485	85.31
494.703	88.31
494.92	99.31
495.138	85.31
495.355	94.31
495.573	90.31
495.79	85.31
496.008	95.31
496.225	106.31
496.442	107.31
496.66	95.31
496.877	105.31
497.094	91.31
497.312	89.31
497.529	68.31
497.746	87.31
497.963	87.31
498.181	86.31
498.398	97.31
498.615	113.31
498.832	96.31
499.049	95.31
499.267	94.31
499.484	96.31
499.701	95.31
499.918	95.31
500.135	85.31
500.352	94.31
500.569	96.31
500.786	95.31
501.003	112.31
501.22	93.31
501.437	87.31
501.654	103.31
501.871	94.31
502.088	86.31
502.305	88.31
502.522	92.31
502.739	75.31
502.956	78.31
503.172	92.31
503.389	99.31
503.606	105.31
503.823	87.31
504.04	90.31
504.256	77.31
504.473	82.31
504.69	95.31
504.907	86.31
505.123	80.31
505.34	78.31
505.557	102.31
505.773	92.31
505.99	97.31
506.207	90.31
506.423	86.31
506.64	90.31
506.856	88.31
507.073	100.31
507.289	87.31
507.506	99.31
507.722	101.31
507.939	107.31
508.155	85.31
508.372	86.31
508.588	103.31
508.805	92.31
509.021	80.31
509.238	99.31
509.454	85.31
509.67	104.31
509.887	99.31
510.103	117.31
510.319	183.31
510.536	601.31
510.752	1780.31
510.968	485.31
511.184	137.31
511.401	99.31
511.617	94.31
511.833	88.31
512.049	94.31
512.265	97.31
512.481	97.31
512.698	89.31
512.914	92.31
513.13	81.31
513.346	81.31
513.562	94.31
513.778	88.31
513.994	97.31
514.21	95.31
514.426	100.31
514.642	116.31
514.858	103.31
515.074	134.31
515.29	337.31
515.506	1079.31
515.721	378.31
515.937	126.31
