Data from Circ_1983_H10_HRD10591_00025.txt Node
Date: Wed Jan 03 12:26:49 EST 2024
User: Yrep
Spectrometer: HR+D1059
Trigger mode: 1
Integration Time (sec): 1.000000E-1
Scans to average: 1
Electric dark correction enabled: true
Nonlinearity correction enabled: false
Boxcar width: 0
XAxis mode: Wavelengths
Number of Pixels in Spectrum: 2048
>>>>>Begin Spectral Data<<<<<
223.165	-2.81
223.4	-2.81
223.635	-2.81
223.869	-20.81
224.104	-35.81
224.338	-21.81
224.573	-20.81
224.808	-10.81
225.042	10.19
225.277	-5.81
225.511	8.19
225.746	7.19
225.98	5.19
226.215	7.19
226.449	19.19
226.683	7.19
226.918	29.19
227.152	25.19
227.387	45.19
227.621	36.19
227.856	34.19
228.09	50.19
228.324	44.19
228.559	52.19
228.793	58.19
229.027	60.19
229.262	66.19
229.496	70.19
229.73	81.19
229.964	86.19
230.199	85.19
230.433	82.19
230.667	83.19
230.901	78.19
231.136	74.19
231.37	83.19
231.604	75.19
231.838	92.19
232.072	86.19
232.306	94.19
232.541	81.19
232.775	79.19
233.009	69.19
233.243	75.19
233.477	86.19
233.711	62.19
233.945	75.19
234.179	84.19
234.413	82.19
234.647	69.19
234.881	82.19
235.115	89.19
235.349	77.19
235.583	83.19
235.817	91.19
236.051	77.19
236.285	66.19
236.519	60.19
236.753	81.19
236.987	95.19
237.221	90.19
237.455	73.19
237.689	78.19
237.922	70.19
238.156	85.19
238.39	76.19
238.624	72.19
238.858	85.19
239.091	77.19
239.325	83.19
239.559	69.19
239.793	69.19
240.027	90.19
240.26	77.19
240.494	63.19
240.728	72.19
240.961	70.19
241.195	76.19
241.429	76.19
241.662	90.19
241.896	73.19
242.13	83.19
242.363	73.19
242.597	73.19
242.83	74.19
243.064	76.19
243.298	64.19
243.531	77.19
243.765	89.19
243.998	75.19
244.232	85.19
244.465	86.19
244.699	86.19
244.932	79.19
245.166	78.19
245.399	76.19
245.633	72.19
245.866	78.19
246.099	82.19
246.333	73.19
246.566	81.19
246.8	73.19
247.033	76.19
247.266	71.19
247.5	87.19
247.733	75.19
247.966	78.19
248.2	67.19
248.433	85.19
248.666	88.19
248.899	87.19
249.133	77.19
249.366	91.19
249.599	89.19
249.832	77.19
250.066	78.19
250.299	81.19
250.532	78.19
250.765	66.19
250.998	79.19
251.231	91.19
251.465	75.19
251.698	74.19
251.931	93.19
252.164	89.19
252.397	82.19
252.63	69.19
252.863	67.19
253.096	80.19
253.329	77.19
253.562	79.19
253.795	80.19
254.028	89.19
254.261	74.19
254.494	83.19
254.727	82.19
254.96	81.19
255.193	72.19
255.426	77.19
255.659	85.19
255.892	79.19
256.124	92.19
256.357	75.19
256.59	77.19
256.823	88.19
257.056	92.19
257.289	79.19
257.521	83.19
257.754	87.19
257.987	90.19
258.22	76.19
258.452	85.19
258.685	81.19
258.918	83.19
259.151	81.19
259.383	92.19
259.616	95.19
259.849	88.19
260.081	88.19
260.314	88.19
260.547	77.19
260.779	92.19
261.012	83.19
261.244	91.19
261.477	86.19
261.71	92.19
261.942	102.19
262.175	108.19
262.407	97.19
262.64	92.19
262.872	85.19
263.105	83.19
263.337	74.19
263.57	78.19
263.802	75.19
264.035	85.19
264.267	84.19
264.499	84.19
264.732	85.19
264.964	86.19
265.197	93.19
265.429	81.19
265.661	75.19
265.894	86.19
266.126	93.19
266.358	85.19
266.591	82.19
266.823	86.19
267.055	85.19
267.287	85.19
267.52	93.19
267.752	81.19
267.984	94.19
268.216	94.19
268.448	82.19
268.681	79.19
268.913	78.19
269.145	91.19
269.377	90.19
269.609	73.19
269.841	85.19
270.073	85.19
270.306	87.19
270.538	95.19
270.77	85.19
271.002	99.19
271.234	92.19
271.466	97.19
271.698	93.19
271.93	73.19
272.162	93.19
272.394	87.19
272.626	89.19
272.858	91.19
273.09	86.19
273.322	87.19
273.553	95.19
273.785	85.19
274.017	71.19
274.249	94.19
274.481	76.19
274.713	91.19
274.945	99.19
275.176	90.19
275.408	94.19
275.64	102.19
275.872	82.19
276.104	101.19
276.335	102.19
276.567	113.19
276.799	106.19
277.031	103.19
277.262	85.19
277.494	92.19
277.726	95.19
277.957	90.19
278.189	94.19
278.421	76.19
278.652	89.19
278.884	81.19
279.115	97.19
279.347	84.19
279.579	86.19
279.81	98.19
280.042	95.19
280.273	97.19
280.505	102.19
280.736	85.19
280.968	86.19
281.199	76.19
281.431	89.19
281.662	77.19
281.894	92.19
282.125	93.19
282.356	95.19
282.588	130.19
282.819	103.19
283.051	88.19
283.282	97.19
283.513	90.19
283.745	79.19
283.976	88.19
284.207	93.19
284.439	82.19
284.67	89.19
284.901	84.19
285.132	97.19
285.364	80.19
285.595	87.19
285.826	81.19
286.057	84.19
286.288	79.19
286.52	99.19
286.751	81.19
286.982	89.19
287.213	89.19
287.444	87.19
287.675	87.19
287.906	94.19
288.138	97.19
288.369	109.19
288.6	82.19
288.831	96.19
289.062	92.19
289.293	96.19
289.524	97.19
289.755	86.19
289.986	83.19
290.217	84.19
290.448	95.19
290.679	99.19
290.91	100.19
291.141	88.19
291.371	91.19
291.602	93.19
291.833	91.19
292.064	100.19
292.295	86.19
292.526	83.19
292.757	92.19
292.987	106.19
293.218	95.19
293.449	80.19
293.68	90.19
293.91	96.19
294.141	84.19
294.372	95.19
294.603	90.19
294.833	85.19
295.064	81.19
295.295	85.19
295.525	95.19
295.756	105.19
295.987	129.19
296.217	139.19
296.448	113.19
296.679	84.19
296.909	100.19
297.14	96.19
297.37	102.19
297.601	95.19
297.831	91.19
298.062	82.19
298.292	103.19
298.523	87.19
298.753	100.19
298.984	91.19
299.214	101.19
299.445	89.19
299.675	89.19
299.905	100.19
300.136	81.19
300.366	82.19
300.597	92.19
300.827	85.19
301.057	103.19
301.288	111.19
301.518	101.19
301.748	72.19
301.979	94.19
302.209	106.19
302.439	94.19
302.669	93.19
302.9	90.19
303.13	109.19
303.36	97.19
303.59	107.19
303.82	109.19
304.051	99.19
304.281	92.19
304.511	95.19
304.741	102.19
304.971	87.19
305.201	92.19
305.431	96.19
305.661	95.19
305.891	94.19
306.121	101.19
306.352	108.19
306.582	95.19
306.812	87.19
307.042	84.19
307.272	100.19
307.502	100.19
307.731	89.19
307.961	100.19
308.191	81.19
308.421	89.19
308.651	102.19
308.881	86.19
309.111	87.19
309.341	89.19
309.571	105.19
309.8	90.19
310.03	104.19
310.26	89.19
310.49	92.19
310.72	101.19
310.949	103.19
311.179	94.19
311.409	91.19
311.639	85.19
311.868	93.19
312.098	83.19
312.328	82.19
312.557	98.19
312.787	97.19
313.017	106.19
313.246	95.19
313.476	92.19
313.706	101.19
313.935	95.19
314.165	106.19
314.394	94.19
314.624	99.19
314.853	104.19
315.083	101.19
315.312	100.19
315.542	85.19
315.771	106.19
316.001	86.19
316.23	93.19
316.46	95.19
316.689	92.19
316.919	99.19
317.148	105.19
317.377	104.19
317.607	109.19
317.836	87.19
318.065	71.19
318.295	88.19
318.524	93.19
318.753	97.19
318.983	100.19
319.212	94.19
319.441	112.19
319.67	113.19
319.9	97.19
320.129	89.19
320.358	98.19
320.587	102.19
320.816	102.19
321.046	100.19
321.275	96.19
321.504	98.19
321.733	107.19
321.962	109.19
322.191	94.19
322.42	95.19
322.649	91.19
322.878	100.19
323.108	110.19
323.337	109.19
323.566	119.19
323.795	146.19
324.024	176.19
324.253	309.19
324.482	727.19
324.71	1428.19
324.939	1859.19
325.168	715.19
325.397	221.19
325.626	153.19
325.855	114.19
326.084	121.19
326.313	109.19
326.542	150.19
326.77	193.19
326.999	408.19
327.228	801.19
327.457	1482.19
327.686	1143.19
327.914	330.19
328.143	172.19
328.372	161.19
328.6	125.19
328.829	119.19
329.058	105.19
329.287	124.19
329.515	106.19
329.744	114.19
329.972	107.19
330.201	145.19
330.43	174.19
330.658	147.19
330.887	123.19
331.115	110.19
331.344	113.19
331.572	101.19
331.801	111.19
332.03	109.19
332.258	111.19
332.486	95.19
332.715	83.19
332.943	98.19
333.172	115.19
333.4	93.19
333.629	98.19
333.857	130.19
334.085	120.19
334.314	131.19
334.542	196.19
334.771	172.19
334.999	112.19
335.227	96.19
335.455	104.19
335.684	115.19
335.912	102.19
336.14	94.19
336.369	94.19
336.597	100.19
336.825	102.19
337.053	94.19
337.281	86.19
337.51	93.19
337.738	90.19
337.966	93.19
338.194	98.19
338.422	87.19
338.65	101.19
338.878	84.19
339.106	98.19
339.334	89.19
339.562	110.19
339.79	94.19
340.018	103.19
340.246	95.19
340.474	99.19
340.702	93.19
340.93	93.19
341.158	97.19
341.386	91.19
341.614	78.19
341.842	97.19
342.07	91.19
342.298	87.19
342.526	76.19
342.754	83.19
342.981	91.19
343.209	96.19
343.437	114.19
343.665	85.19
343.893	97.19
344.12	94.19
344.348	90.19
344.576	93.19
344.804	94.19
345.031	88.19
345.259	99.19
345.487	85.19
345.714	101.19
345.942	86.19
346.17	91.19
346.397	87.19
346.625	83.19
346.853	86.19
347.08	86.19
347.308	114.19
347.535	96.19
347.763	94.19
347.99	103.19
348.218	111.19
348.445	101.19
348.673	93.19
348.9	100.19
349.128	94.19
349.355	99.19
349.583	86.19
349.81	78.19
350.037	114.19
350.265	93.19
350.492	105.19
350.72	86.19
350.947	101.19
351.174	109.19
351.402	121.19
351.629	91.19
351.856	102.19
352.083	113.19
352.311	89.19
352.538	87.19
352.765	105.19
352.992	113.19
353.22	117.19
353.447	94.19
353.674	111.19
353.901	91.19
354.128	98.19
354.355	98.19
354.583	103.19
354.81	99.19
355.037	99.19
355.264	101.19
355.491	95.19
355.718	105.19
355.945	109.19
356.172	101.19
356.399	101.19
356.626	85.19
356.853	91.19
357.08	85.19
357.307	88.19
357.534	90.19
357.761	98.19
357.988	93.19
358.215	105.19
358.441	102.19
358.668	99.19
358.895	92.19
359.122	89.19
359.349	94.19
359.576	97.19
359.802	98.19
360.029	108.19
360.256	106.19
360.483	98.19
360.709	91.19
360.936	88.19
361.163	95.19
361.39	90.19
361.616	80.19
361.843	109.19
362.07	95.19
362.296	89.19
362.523	102.19
362.749	100.19
362.976	85.19
363.203	93.19
363.429	85.19
363.656	93.19
363.882	91.19
364.109	95.19
364.335	106.19
364.562	96.19
364.788	91.19
365.015	84.19
365.241	85.19
365.468	110.19
365.694	102.19
365.92	103.19
366.147	89.19
366.373	92.19
366.599	87.19
366.826	89.19
367.052	102.19
367.278	79.19
367.505	107.19
367.731	106.19
367.957	92.19
368.184	89.19
368.41	89.19
368.636	97.19
368.862	115.19
369.089	111.19
369.315	104.19
369.541	99.19
369.767	91.19
369.993	99.19
370.219	86.19
370.445	97.19
370.672	85.19
370.898	90.19
371.124	99.19
371.35	98.19
371.576	91.19
371.802	85.19
372.028	108.19
372.254	93.19
372.48	75.19
372.706	85.19
372.932	98.19
373.158	101.19
373.384	90.19
373.61	98.19
373.835	91.19
374.061	92.19
374.287	111.19
374.513	95.19
374.739	97.19
374.965	89.19
375.191	89.19
375.416	97.19
375.642	96.19
375.868	104.19
376.094	108.19
376.319	79.19
376.545	79.19
376.771	89.19
376.997	98.19
377.222	85.19
377.448	94.19
377.674	89.19
377.899	91.19
378.125	88.19
378.35	99.19
378.576	88.19
378.802	81.19
379.027	98.19
379.253	102.19
379.478	94.19
379.704	90.19
379.929	83.19
380.155	90.19
380.38	97.19
380.606	103.19
380.831	104.19
381.057	103.19
381.282	93.19
381.507	108.19
381.733	100.19
381.958	97.19
382.184	95.19
382.409	103.19
382.634	117.19
382.86	122.19
383.085	110.19
383.31	101.19
383.535	106.19
383.761	110.19
383.986	105.19
384.211	86.19
384.436	103.19
384.662	100.19
384.887	117.19
385.112	105.19
385.337	115.19
385.562	101.19
385.787	112.19
386.013	127.19
386.238	129.19
386.463	118.19
386.688	120.19
386.913	113.19
387.138	133.19
387.363	96.19
387.588	99.19
387.813	114.19
388.038	113.19
388.263	131.19
388.488	111.19
388.713	105.19
388.938	87.19
389.163	103.19
389.387	82.19
389.612	102.19
389.837	97.19
390.062	85.19
390.287	100.19
390.512	81.19
390.736	95.19
390.961	102.19
391.186	110.19
391.411	101.19
391.636	87.19
391.86	86.19
392.085	83.19
392.31	79.19
392.534	89.19
392.759	82.19
392.984	94.19
393.208	119.19
393.433	160.19
393.658	118.19
393.882	84.19
394.107	92.19
394.331	74.19
394.556	93.19
394.78	77.19
395.005	84.19
395.229	92.19
395.454	107.19
395.678	92.19
395.903	97.19
396.127	80.19
396.352	99.19
396.576	109.19
396.801	109.19
397.025	106.19
397.249	101.19
397.474	83.19
397.698	85.19
397.922	100.19
398.147	86.19
398.371	78.19
398.595	77.19
398.82	84.19
399.044	95.19
399.268	103.19
399.492	87.19
399.717	102.19
399.941	99.19
400.165	93.19
400.389	84.19
400.613	97.19
400.837	96.19
401.062	79.19
401.286	83.19
401.51	92.19
401.734	91.19
401.958	103.19
402.182	118.19
402.406	148.19
402.63	110.19
402.854	102.19
403.078	97.19
403.302	72.19
403.526	102.19
403.75	97.19
403.974	76.19
404.198	95.19
404.422	88.19
404.645	85.19
404.869	78.19
405.093	99.19
405.317	102.19
405.541	101.19
405.765	92.19
405.988	117.19
406.212	163.19
406.436	202.19
406.66	122.19
406.883	101.19
407.107	94.19
407.331	82.19
407.555	97.19
407.778	81.19
408.002	106.19
408.226	90.19
408.449	86.19
408.673	77.19
408.896	93.19
409.12	103.19
409.344	95.19
409.567	100.19
409.791	91.19
410.014	103.19
410.238	94.19
410.461	78.19
410.685	92.19
410.908	94.19
411.132	122.19
411.355	101.19
411.578	97.19
411.802	87.19
412.025	86.19
412.249	97.19
412.472	106.19
412.695	98.19
412.919	89.19
413.142	103.19
413.365	99.19
413.589	103.19
413.812	88.19
414.035	82.19
414.258	88.19
414.482	106.19
414.705	86.19
414.928	91.19
415.151	88.19
415.374	84.19
415.597	93.19
415.821	90.19
416.044	88.19
416.267	98.19
416.49	89.19
416.713	86.19
416.936	96.19
417.159	85.19
417.382	76.19
417.605	93.19
417.828	101.19
418.051	101.19
418.274	83.19
418.497	91.19
418.72	77.19
418.943	75.19
419.166	89.19
419.389	85.19
419.611	77.19
419.834	90.19
420.057	85.19
420.28	96.19
420.503	90.19
420.726	83.19
420.948	83.19
421.171	90.19
421.394	91.19
421.617	84.19
421.839	88.19
422.062	84.19
422.285	90.19
422.507	83.19
422.73	96.19
422.953	95.19
423.175	111.19
423.398	86.19
423.621	98.19
423.843	88.19
424.066	85.19
424.288	93.19
424.511	87.19
424.733	97.19
424.956	89.19
425.178	117.19
425.401	90.19
425.623	101.19
425.846	97.19
426.068	84.19
426.291	102.19
426.513	97.19
426.735	98.19
426.958	101.19
427.18	106.19
427.402	110.19
427.625	160.19
427.847	115.19
428.069	98.19
428.292	97.19
428.514	93.19
428.736	79.19
428.958	87.19
429.181	89.19
429.403	85.19
429.625	79.19
429.847	83.19
430.069	97.19
430.292	97.19
430.514	83.19
430.736	99.19
430.958	94.19
431.18	74.19
431.402	75.19
431.624	85.19
431.846	81.19
432.068	91.19
432.29	85.19
432.512	98.19
432.734	92.19
432.956	84.19
433.178	99.19
433.4	104.19
433.622	86.19
433.844	101.19
434.066	96.19
434.287	88.19
434.509	85.19
434.731	94.19
434.953	89.19
435.175	84.19
435.397	80.19
435.618	89.19
435.84	100.19
436.062	97.19
436.284	125.19
436.505	103.19
436.727	99.19
436.949	92.19
437.17	93.19
437.392	102.19
437.614	92.19
437.835	102.19
438.057	101.19
438.278	93.19
438.5	91.19
438.721	110.19
438.943	108.19
439.165	88.19
439.386	98.19
439.608	85.19
439.829	89.19
440.05	125.19
440.272	115.19
440.493	101.19
440.715	98.19
440.936	98.19
441.158	90.19
441.379	85.19
441.6	101.19
441.822	98.19
442.043	95.19
442.264	90.19
442.486	92.19
442.707	93.19
442.928	106.19
443.149	121.19
443.371	126.19
443.592	109.19
443.813	86.19
444.034	102.19
444.255	96.19
444.476	89.19
444.698	88.19
444.919	90.19
445.14	126.19
445.361	117.19
445.582	102.19
445.803	121.19
446.024	123.19
446.245	129.19
446.466	104.19
446.687	91.19
446.908	90.19
447.129	86.19
447.35	91.19
447.571	82.19
447.792	81.19
448.013	109.19
448.234	113.19
448.455	117.19
448.675	105.19
448.896	107.19
449.117	90.19
449.338	103.19
449.559	118.19
449.779	116.19
450	80.19
450.221	98.19
450.442	77.19
450.662	108.19
450.883	95.19
451.104	97.19
451.324	95.19
451.545	92.19
451.766	84.19
451.986	73.19
452.207	98.19
452.428	114.19
452.648	100.19
452.869	104.19
453.089	98.19
453.31	117.19
453.53	83.19
453.751	87.19
453.971	110.19
454.192	113.19
454.412	93.19
454.633	74.19
454.853	84.19
455.073	84.19
455.294	76.19
455.514	92.19
455.734	93.19
455.955	85.19
456.175	93.19
456.395	88.19
456.616	81.19
456.836	83.19
457.056	74.19
457.276	97.19
457.497	85.19
457.717	74.19
457.937	79.19
458.157	94.19
458.377	81.19
458.598	94.19
458.818	135.19
459.038	131.19
459.258	99.19
459.478	89.19
459.698	95.19
459.918	96.19
460.138	91.19
460.358	92.19
460.578	93.19
460.798	69.19
461.018	82.19
461.238	88.19
461.458	81.19
461.678	86.19
461.898	62.19
462.118	78.19
462.338	93.19
462.558	88.19
462.777	77.19
462.997	83.19
463.217	89.19
463.437	81.19
463.657	86.19
463.876	93.19
464.096	101.19
464.316	103.19
464.536	98.19
464.755	101.19
464.975	105.19
465.195	131.19
465.414	138.19
465.634	102.19
465.854	101.19
466.073	90.19
466.293	87.19
466.512	79.19
466.732	84.19
466.951	101.19
467.171	90.19
467.391	85.19
467.61	107.19
467.829	107.19
468.049	107.19
468.268	139.19
468.488	92.19
468.707	90.19
468.927	67.19
469.146	94.19
469.365	96.19
469.585	95.19
469.804	92.19
470.023	93.19
470.243	87.19
470.462	86.19
470.681	113.19
470.901	74.19
471.12	89.19
471.339	90.19
471.558	77.19
471.777	97.19
471.997	95.19
472.216	156.19
472.435	222.19
472.654	106.19
472.873	86.19
473.092	108.19
473.311	89.19
473.53	92.19
473.749	98.19
473.968	96.19
474.187	101.19
474.406	101.19
474.625	82.19
474.844	87.19
475.063	75.19
475.282	84.19
475.501	90.19
475.72	90.19
475.939	79.19
476.158	98.19
476.377	84.19
476.596	84.19
476.814	98.19
477.033	96.19
477.252	77.19
477.471	75.19
477.69	83.19
477.908	89.19
478.127	108.19
478.346	92.19
478.564	92.19
478.783	99.19
479.002	93.19
479.22	99.19
479.439	97.19
479.658	95.19
479.876	95.19
480.095	82.19
480.313	83.19
480.532	101.19
480.751	89.19
480.969	154.19
481.188	346.19
481.406	243.19
481.624	113.19
481.843	93.19
482.061	102.19
482.28	100.19
482.498	91.19
482.717	112.19
482.935	97.19
483.153	91.19
483.372	92.19
483.59	97.19
483.808	83.19
484.027	91.19
484.245	95.19
484.463	92.19
484.681	104.19
484.9	95.19
485.118	100.19
485.336	93.19
485.554	99.19
485.772	96.19
485.99	92.19
486.209	101.19
486.427	114.19
486.645	90.19
486.863	123.19
487.081	100.19
487.299	93.19
487.517	88.19
487.735	99.19
487.953	99.19
488.171	89.19
488.389	98.19
488.607	91.19
488.825	94.19
489.043	92.19
489.261	107.19
489.479	91.19
489.696	99.19
489.914	98.19
490.132	79.19
490.35	83.19
490.568	81.19
490.786	86.19
491.003	93.19
491.221	103.19
491.439	90.19
491.657	87.19
491.874	89.19
492.092	103.19
492.31	97.19
492.527	85.19
492.745	90.19
492.963	85.19
493.18	102.19
493.398	102.19
493.615	93.19
493.833	85.19
494.05	76.19
494.268	86.19
494.485	92.19
494.703	92.19
494.92	95.19
495.138	91.19
495.355	92.19
495.573	103.19
495.79	93.19
496.008	109.19
496.225	95.19
496.442	101.19
496.66	91.19
496.877	91.19
497.094	98.19
497.312	82.19
497.529	87.19
497.746	99.19
497.963	85.19
498.181	94.19
498.398	89.19
498.615	111.19
498.832	102.19
499.049	102.19
499.267	100.19
499.484	93.19
499.701	73.19
499.918	89.19
500.135	88.19
500.352	90.19
500.569	106.19
500.786	88.19
501.003	102.19
501.22	87.19
501.437	99.19
501.654	97.19
501.871	108.19
502.088	94.19
502.305	108.19
502.522	89.19
502.739	102.19
502.956	101.19
503.172	76.19
503.389	86.19
503.606	92.19
503.823	93.19
504.04	86.19
504.256	97.19
504.473	87.19
504.69	84.19
504.907	97.19
505.123	83.19
505.34	92.19
505.557	110.19
505.773	82.19
505.99	86.19
506.207	94.19
506.423	92.19
506.64	97.19
506.856	93.19
507.073	83.19
507.289	95.19
507.506	86.19
507.722	105.19
507.939	108.19
508.155	93.19
508.372	92.19
508.588	98.19
508.805	81.19
509.021	71.19
509.238	107.19
509.454	98.19
509.67	99.19
509.887	108.19
510.103	137.19
510.319	186.19
510.536	665.19
510.752	1963.19
510.968	540.19
511.184	136.19
511.401	110.19
511.617	93.19
511.833	97.19
512.049	89.19
512.265	89.19
512.481	97.19
512.698	93.19
512.914	88.19
513.13	91.19
513.346	89.19
513.562	108.19
513.778	87.19
513.994	83.19
514.21	94.19
514.426	107.19
514.642	116.19
514.858	121.19
515.074	144.19
