Data from Circ_1983_H10_HRD10591_00042.txt Node
Date: Wed Jan 03 12:26:53 EST 2024
User: Yrep
Spectrometer: HR+D1059
Trigger mode: 1
Integration Time (sec): 1.000000E-1
Scans to average: 1
Electric dark correction enabled: true
Nonlinearity correction enabled: false
Boxcar width: 0
XAxis mode: Wavelengths
Number of Pixels in Spectrum: 2048
>>>>>Begin Spectral Data<<<<<
223.165	-28
223.4	-28
223.635	-28
223.869	-17
224.104	-21
224.338	-11
224.573	-14
224.808	1
225.042	-12
225.277	-11
225.511	-14
225.746	7
225.98	14
226.215	19
226.449	10
226.683	24
226.918	9
227.152	44
227.387	47
227.621	33
227.856	42
228.09	56
228.324	49
228.559	58
228.793	61
229.027	58
229.262	43
229.496	63
229.73	83
229.964	73
230.199	70
230.433	70
230.667	82
230.901	83
231.136	68
231.37	83
231.604	70
231.838	79
232.072	81
232.306	74
232.541	88
232.775	83
233.009	78
233.243	75
233.477	85
233.711	82
233.945	71
234.179	79
234.413	73
234.647	72
234.881	68
235.115	64
235.349	78
235.583	81
235.817	77
236.051	68
236.285	71
236.519	63
236.753	61
236.987	79
237.221	72
237.455	77
237.689	77
237.922	66
238.156	77
238.39	65
238.624	82
238.858	69
239.091	83
239.325	73
239.559	63
239.793	71
240.027	72
240.26	79
240.494	71
240.728	73
240.961	88
241.195	68
241.429	76
241.662	63
241.896	69
242.13	71
242.363	95
242.597	80
242.83	81
243.064	70
243.298	69
243.531	86
243.765	81
243.998	67
244.232	90
244.465	88
244.699	67
244.932	66
245.166	100
245.399	73
245.633	71
245.866	78
246.099	62
246.333	85
246.566	64
246.8	73
247.033	83
247.266	85
247.5	85
247.733	81
247.966	80
248.2	79
248.433	75
248.666	85
248.899	83
249.133	79
249.366	77
249.599	92
249.832	91
250.066	67
250.299	82
250.532	81
250.765	70
250.998	80
251.231	85
251.465	91
251.698	84
251.931	73
252.164	73
252.397	74
252.63	74
252.863	93
253.096	85
253.329	71
253.562	67
253.795	80
254.028	70
254.261	65
254.494	71
254.727	79
254.96	88
255.193	81
255.426	72
255.659	82
255.892	73
256.124	77
256.357	72
256.59	74
256.823	93
257.056	79
257.289	55
257.521	74
257.754	82
257.987	71
258.22	80
258.452	93
258.685	76
258.918	81
259.151	91
259.383	88
259.616	83
259.849	81
260.081	71
260.314	72
260.547	86
260.779	75
261.012	81
261.244	67
261.477	84
261.71	83
261.942	106
262.175	116
262.407	74
262.64	81
262.872	77
263.105	72
263.337	77
263.57	81
263.802	94
264.035	89
264.267	83
264.499	87
264.732	81
264.964	84
265.197	80
265.429	67
265.661	72
265.894	73
266.126	89
266.358	81
266.591	85
266.823	91
267.055	74
267.287	91
267.52	77
267.752	83
267.984	89
268.216	85
268.448	71
268.681	80
268.913	85
269.145	73
269.377	82
269.609	73
269.841	72
270.073	79
270.306	72
270.538	82
270.77	85
271.002	83
271.234	82
271.466	85
271.698	86
271.93	83
272.162	88
272.394	87
272.626	86
272.858	81
273.09	88
273.322	81
273.553	85
273.785	86
274.017	71
274.249	86
274.481	88
274.713	78
274.945	86
275.176	75
275.408	91
275.64	98
275.872	92
276.104	77
276.335	80
276.567	92
276.799	107
277.031	103
277.262	103
277.494	88
277.726	91
277.957	90
278.189	86
278.421	72
278.652	83
278.884	73
279.115	80
279.347	71
279.579	93
279.81	96
280.042	85
280.273	92
280.505	88
280.736	79
280.968	79
281.199	82
281.431	86
281.662	69
281.894	91
282.125	80
282.356	102
282.588	130
282.819	106
283.051	93
283.282	71
283.513	82
283.745	78
283.976	93
284.207	90
284.439	87
284.67	94
284.901	96
285.132	90
285.364	73
285.595	88
285.826	83
286.057	73
286.288	102
286.52	97
286.751	78
286.982	90
287.213	83
287.444	85
287.675	81
287.906	86
288.138	80
288.369	97
288.6	100
288.831	92
289.062	93
289.293	86
289.524	84
289.755	75
289.986	95
290.217	97
290.448	82
290.679	69
290.91	79
291.141	98
291.371	78
291.602	90
291.833	77
292.064	78
292.295	90
292.526	91
292.757	96
292.987	79
293.218	83
293.449	91
293.68	93
293.91	79
294.141	86
294.372	94
294.603	83
294.833	82
295.064	71
295.295	80
295.525	89
295.756	111
295.987	99
296.217	128
296.448	115
296.679	94
296.909	96
297.14	96
297.37	87
297.601	94
297.831	75
298.062	87
298.292	85
298.523	99
298.753	92
298.984	74
299.214	75
299.445	85
299.675	89
299.905	94
300.136	86
300.366	89
300.597	86
300.827	83
301.057	100
301.288	102
301.518	96
301.748	94
301.979	99
302.209	80
302.439	74
302.669	86
302.9	101
303.13	90
303.36	97
303.59	97
303.82	97
304.051	92
304.281	99
304.511	103
304.741	92
304.971	83
305.201	86
305.431	95
305.661	101
305.891	97
306.121	101
306.352	101
306.582	101
306.812	98
307.042	95
307.272	103
307.502	94
307.731	88
307.961	70
308.191	88
308.421	91
308.651	87
308.881	98
309.111	84
309.341	101
309.571	91
309.8	82
310.03	104
310.26	96
310.49	86
310.72	93
310.949	103
311.179	94
311.409	90
311.639	105
311.868	81
312.098	88
312.328	89
312.557	99
312.787	99
313.017	96
313.246	80
313.476	95
313.706	80
313.935	81
314.165	89
314.394	91
314.624	86
314.853	83
315.083	95
315.312	89
315.542	78
315.771	88
316.001	108
316.23	90
316.46	91
316.689	95
316.919	79
317.148	91
317.377	103
317.607	78
317.836	96
318.065	85
318.295	94
318.524	86
318.753	77
318.983	98
319.212	90
319.441	107
319.67	117
319.9	90
320.129	110
320.358	93
320.587	97
320.816	103
321.046	99
321.275	111
321.504	97
321.733	92
321.962	89
322.191	101
322.42	100
322.649	101
322.878	106
323.108	92
323.337	107
323.566	104
323.795	131
324.024	186
324.253	296
324.482	624
324.71	1226
324.939	1701
325.168	641
325.397	205
325.626	132
325.855	120
326.084	111
326.313	114
326.542	135
326.77	205
326.999	343
327.228	703
327.457	1310
327.686	1048
327.914	297
328.143	182
328.372	143
328.6	120
328.829	112
329.058	114
329.287	115
329.515	109
329.744	102
329.972	130
330.201	166
330.43	207
330.658	147
330.887	118
331.115	98
331.344	107
331.572	89
331.801	93
332.03	97
332.258	92
332.486	84
332.715	101
332.943	81
333.172	93
333.4	96
333.629	98
333.857	119
334.085	122
334.314	154
334.542	219
334.771	219
334.999	119
335.227	91
335.455	101
335.684	96
335.912	87
336.14	93
336.369	93
336.597	99
336.825	103
337.053	94
337.281	94
337.51	106
337.738	97
337.966	92
338.194	80
338.422	94
338.65	86
338.878	103
339.106	105
339.334	85
339.562	78
339.79	79
340.018	86
340.246	87
340.474	82
340.702	89
340.93	96
341.158	93
341.386	80
341.614	99
341.842	94
342.07	85
342.298	94
342.526	75
342.754	89
342.981	90
343.209	85
343.437	102
343.665	90
343.893	89
344.12	96
344.348	89
344.576	92
344.804	94
345.031	90
345.259	90
345.487	88
345.714	94
345.942	80
346.17	90
346.397	86
346.625	87
346.853	88
347.08	76
347.308	88
347.535	93
347.763	97
347.99	91
348.218	94
348.445	91
348.673	96
348.9	86
349.128	98
349.355	95
349.583	91
349.81	74
350.037	105
350.265	88
350.492	97
350.72	89
350.947	98
351.174	117
351.402	113
351.629	90
351.856	104
352.083	98
352.311	107
352.538	90
352.765	112
352.992	100
353.22	117
353.447	95
353.674	100
353.901	97
354.128	96
354.355	89
354.583	103
354.81	79
355.037	95
355.264	101
355.491	105
355.718	88
355.945	82
356.172	103
356.399	94
356.626	101
356.853	99
357.08	86
357.307	88
357.534	78
357.761	95
357.988	82
358.215	87
358.441	93
358.668	78
358.895	83
359.122	85
359.349	87
359.576	82
359.802	87
360.029	94
360.256	95
360.483	87
360.709	79
360.936	90
361.163	94
361.39	96
361.616	94
361.843	79
362.07	91
362.296	79
362.523	91
362.749	89
362.976	82
363.203	84
363.429	93
363.656	71
363.882	73
364.109	82
364.335	85
364.562	87
364.788	105
365.015	96
365.241	104
365.468	93
365.694	81
365.92	90
366.147	85
366.373	83
366.599	86
366.826	86
367.052	86
367.278	82
367.505	103
367.731	80
367.957	88
368.184	89
368.41	103
368.636	103
368.862	104
369.089	105
369.315	86
369.541	85
369.767	90
369.993	83
370.219	90
370.445	74
370.672	82
370.898	84
371.124	89
371.35	81
371.576	82
371.802	75
372.028	83
372.254	87
372.48	77
372.706	87
372.932	78
373.158	88
373.384	98
373.61	82
373.835	86
374.061	71
374.287	80
374.513	93
374.739	81
374.965	86
375.191	94
375.416	90
375.642	82
375.868	81
376.094	72
376.319	85
376.545	101
376.771	95
376.997	89
377.222	81
377.448	91
377.674	86
377.899	83
378.125	81
378.35	87
378.576	91
378.802	96
379.027	94
379.253	91
379.478	77
379.704	91
379.929	90
380.155	101
380.38	97
380.606	90
380.831	89
381.057	85
381.282	93
381.507	96
381.733	87
381.958	90
382.184	91
382.409	89
382.634	108
382.86	105
383.085	94
383.31	95
383.535	105
383.761	99
383.986	91
384.211	94
384.436	116
384.662	109
384.887	87
385.112	97
385.337	109
385.562	103
385.787	109
386.013	110
386.238	102
386.463	93
386.688	107
386.913	101
387.138	90
387.363	107
387.588	115
387.813	93
388.038	97
388.263	109
388.488	110
388.713	87
388.938	86
389.163	94
389.387	98
389.612	90
389.837	97
390.062	90
390.287	86
390.512	91
390.736	78
390.961	88
391.186	86
391.411	87
391.636	91
391.86	75
392.085	90
392.31	81
392.534	83
392.759	91
392.984	94
393.208	94
393.433	114
393.658	99
393.882	82
394.107	93
394.331	85
394.556	80
394.78	66
395.005	94
395.229	79
395.454	76
395.678	96
395.903	75
396.127	95
396.352	79
396.576	87
396.801	95
397.025	107
397.249	92
397.474	97
397.698	85
397.922	82
398.147	83
398.371	84
398.595	87
398.82	71
399.044	91
399.268	96
399.492	73
399.717	89
399.941	96
400.165	83
400.389	97
400.613	75
400.837	83
401.062	96
401.286	92
401.51	82
401.734	73
401.958	95
402.182	111
402.406	132
402.63	110
402.854	102
403.078	89
403.302	90
403.526	85
403.75	96
403.974	82
404.198	87
404.422	94
404.645	81
404.869	74
405.093	93
405.317	101
405.541	82
405.765	91
405.988	107
406.212	147
406.436	190
406.66	140
406.883	98
407.107	83
407.331	90
407.555	96
407.778	85
408.002	86
408.226	90
408.449	74
408.673	77
408.896	105
409.12	77
409.344	79
409.567	90
409.791	103
410.014	98
410.238	84
410.461	97
410.685	103
410.908	101
411.132	105
411.355	86
411.578	78
411.802	87
412.025	93
412.249	87
412.472	97
412.695	91
412.919	87
413.142	91
413.365	81
413.589	85
413.812	86
414.035	87
414.258	91
414.482	89
414.705	91
414.928	109
415.151	90
415.374	94
415.597	87
415.821	94
416.044	96
416.267	89
416.49	78
416.713	83
416.936	79
417.159	91
417.382	90
417.605	83
417.828	92
418.051	97
418.274	75
418.497	96
418.72	70
418.943	75
419.166	89
419.389	83
419.611	97
419.834	98
420.057	94
420.28	98
420.503	65
420.726	85
420.948	88
421.171	93
421.394	82
421.617	90
421.839	85
422.062	77
422.285	81
422.507	100
422.73	98
422.953	99
423.175	93
423.398	81
423.621	79
423.843	85
424.066	75
424.288	94
424.511	67
424.733	96
424.956	88
425.178	89
425.401	99
425.623	97
425.846	73
426.068	71
426.291	101
426.513	87
426.735	84
426.958	94
427.18	97
427.402	115
427.625	118
427.847	116
428.069	124
428.292	90
428.514	87
428.736	77
428.958	96
429.181	75
429.403	70
429.625	81
429.847	87
430.069	93
430.292	93
430.514	92
430.736	75
430.958	89
431.18	79
431.402	89
431.624	82
431.846	84
432.068	81
432.29	77
432.512	81
432.734	78
432.956	93
433.178	91
433.4	91
433.622	97
433.844	89
434.066	87
434.287	83
434.509	82
434.731	91
434.953	66
435.175	81
435.397	93
435.618	93
435.84	94
436.062	112
436.284	98
436.505	99
436.727	85
436.949	79
437.17	84
437.392	79
437.614	95
437.835	107
438.057	107
438.278	103
438.5	83
438.721	105
438.943	103
439.165	78
439.386	95
439.608	84
439.829	84
440.05	103
440.272	115
440.493	84
440.715	88
440.936	74
441.158	93
441.379	99
441.6	83
441.822	74
442.043	77
442.264	109
442.486	100
442.707	85
442.928	101
443.149	111
443.371	106
443.592	98
443.813	95
444.034	83
444.255	89
444.476	96
444.698	67
444.919	95
445.14	121
445.361	108
445.582	113
445.803	110
446.024	113
446.245	104
446.466	96
446.687	90
446.908	90
447.129	97
447.35	79
447.571	97
447.792	97
448.013	81
448.234	99
448.455	96
448.675	94
448.896	99
449.117	87
449.338	81
449.559	100
449.779	99
450	95
450.221	88
450.442	83
450.662	86
450.883	100
451.104	88
451.324	85
451.545	83
451.766	74
451.986	95
452.207	85
452.428	87
452.648	91
452.869	91
453.089	90
453.31	115
453.53	99
453.751	84
453.971	89
454.192	93
454.412	98
454.633	83
454.853	99
455.073	92
455.294	96
455.514	94
455.734	93
455.955	78
456.175	87
456.395	82
456.616	73
456.836	77
457.056	87
457.276	87
457.497	97
457.717	85
457.937	82
458.157	72
458.377	77
458.598	93
458.818	134
459.038	135
459.258	97
459.478	85
459.698	98
459.918	87
460.138	82
460.358	91
460.578	82
460.798	91
461.018	83
461.238	82
461.458	71
461.678	79
461.898	82
462.118	83
462.338	102
462.558	88
462.777	83
462.997	95
463.217	81
463.437	75
463.657	92
463.876	91
464.096	94
464.316	87
464.536	92
464.755	93
464.975	95
465.195	142
465.414	132
465.634	98
465.854	97
466.073	67
466.293	77
466.512	80
466.732	77
466.951	89
467.171	84
467.391	79
467.61	95
467.829	97
468.049	138
468.268	137
468.488	86
468.707	80
468.927	94
469.146	83
469.365	84
469.585	86
469.804	73
470.023	98
470.243	87
470.462	98
470.681	99
470.901	86
471.12	91
471.339	81
471.558	93
471.777	90
471.997	110
472.216	170
472.435	287
472.654	111
472.873	99
473.092	88
473.311	81
473.53	71
473.749	90
473.968	88
474.187	101
474.406	81
474.625	93
474.844	98
475.063	91
475.282	95
475.501	79
475.72	79
475.939	96
476.158	93
476.377	96
476.596	86
476.814	80
477.033	90
477.252	83
477.471	102
477.69	85
477.908	84
478.127	92
478.346	68
478.564	101
478.783	92
479.002	89
479.22	87
479.439	95
479.658	98
479.876	90
480.095	97
480.313	107
480.532	92
480.751	105
480.969	163
481.188	473
481.406	300
481.624	102
481.843	81
482.061	87
482.28	88
482.498	85
482.717	90
482.935	84
483.153	89
483.372	89
483.59	70
483.808	83
484.027	89
484.245	78
484.463	81
484.681	83
484.9	96
485.118	93
485.336	99
485.554	96
485.772	93
485.99	115
486.209	101
486.427	105
486.645	114
486.863	104
487.081	103
487.299	101
487.517	105
487.735	94
487.953	97
488.171	90
488.389	89
488.607	87
488.825	95
489.043	100
489.261	91
489.479	86
489.696	87
489.914	97
490.132	92
490.35	88
490.568	79
490.786	98
491.003	92
491.221	82
491.439	86
491.657	86
491.874	97
492.092	87
492.31	96
492.527	86
492.745	79
492.963	95
493.18	98
493.398	87
493.615	89
493.833	89
494.05	89
494.268	77
494.485	87
494.703	74
494.92	93
495.138	88
495.355	93
495.573	91
495.79	86
496.008	97
496.225	90
496.442	86
496.66	100
496.877	80
497.094	69
497.312	82
497.529	91
497.746	80
497.963	83
498.181	78
498.398	88
498.615	115
498.832	107
499.049	94
499.267	99
499.484	86
499.701	73
499.918	69
500.135	87
500.352	85
500.569	104
500.786	91
501.003	90
501.22	97
501.437	87
501.654	94
501.871	106
502.088	96
502.305	103
502.522	84
502.739	99
502.956	75
503.172	77
503.389	86
503.606	99
503.823	89
504.04	75
504.256	87
504.473	81
504.69	79
504.907	81
505.123	93
505.34	71
505.557	79
505.773	102
505.99	83
506.207	90
506.423	84
506.64	95
506.856	93
507.073	79
507.289	82
507.506	101
507.722	102
507.939	109
508.155	81
508.372	91
508.588	83
508.805	83
509.021	90
509.238	96
509.454	84
509.67	92
509.887	101
510.103	136
510.319	171
510.536	625
510.752	1815
510.968	523
511.184	139
511.401	90
511.617	81
511.833	101
512.049	81
512.265	99
512.481	89
512.698	88
512.914	82
513.13	97
513.346	101
513.562	100
513.778	104
513.994	85
514.21	98
514.426	102
514.642	114
514.858	110
515.074	139
515.29	354
515.506	1098
515.721	399
515.937	136
516.153	99
516.369	110
516.585	83
516.801	93
517.016	102
517.232	91
517.448	93
517.664	100
517.879	87
518.095	97
518.311	93
518.527	91
518.742	91
518.958	81
519.173	79
519.389	87
519.605	82
519.82	99
520.036	82
520.251	114
520.467	106
520.682	93
520.898	98
521.113	123
521.329	123
521.544	162
521.76	428
521.975	1786
522.19	1075
522.406	243
522.621	101
522.836	104
523.052	99
523.267	98
523.482	86
523.698	103
523.913	111
524.128	85
524.343	94
524.559	102
524.774	92
524.989	95
525.204	89
525.419	95
525.634	87
525.849	85
526.064	105
526.28	90
526.495	87
526.71	101
526.925	81
527.14	84
527.355	90
527.57	78
527.785	100
527.999	78
528.214	103
528.429	90
528.644	75
528.859	93
529.074	81
529.289	107
529.503	142
529.718	98
529.933	81
530.148	86
530.363	97
530.577	97
530.792	93
531.007	80
531.221	96
531.436	105
531.651	74
531.865	87
532.08	88
532.295	102
532.509	95
532.724	74
532.938	85
533.153	89
533.367	85
533.582	83
533.796	93
534.011	99
534.225	84
534.44	79
534.654	91
534.868	96
535.083	79
535.297	91
535.511	98
535.726	98
535.94	87
536.154	94
536.369	93
536.583	85
536.797	92
537.011	85
537.225	96
537.44	91
537.654	101
537.868	91
538.082	84
538.296	86
538.51	103
538.724	76
538.938	87
539.153	82
539.367	88
539.581	89
539.795	79
540.009	90
540.222	88
540.436	70
540.65	90
540.864	78
541.078	87
541.292	87
541.506	102
541.72	86
541.934	94
542.147	88
542.361	88
542.575	83
542.789	88
543.002	77
543.216	86
543.43	94
543.644	85
543.857	93
544.071	97
544.285	94
544.498	94
544.712	96
544.925	67
545.139	74
545.352	71
545.566	87
545.779	84
545.993	70
546.206	89
546.42	81
546.633	87
546.847	102
547.06	83
547.274	109
547.487	80
547.7	93
547.914	79
548.127	81
548.34	83
548.554	79
548.767	90
548.98	93
549.193	79
549.407	89
549.62	87
549.833	80
550.046	95
550.259	91
550.473	90
550.686	93
550.899	90
551.112	91
551.325	78
551.538	89
551.751	95
551.964	82
552.177	88
552.39	87
552.603	89
552.816	89
553.029	89
553.242	86
553.455	95
553.667	105
553.88	88
554.093	91
554.306	77
554.519	86
554.732	71
554.944	85
555.157	88
555.37	86
555.583	85
555.795	85
556.008	98
556.221	92
556.433	92
556.646	84
556.859	99
557.071	93
557.284	97
557.496	89
557.709	70
557.921	90
558.134	83
558.346	82
558.559	77
558.771	85
558.984	85
559.196	81
559.409	82
559.621	79
559.833	82
560.046	85
560.258	90
560.47	83
560.683	91
560.895	73
561.107	99
561.32	90
561.532	77
561.744	99
561.956	81
562.168	81
562.381	97
562.593	89
562.805	95
563.017	81
563.229	88
563.441	83
563.653	88
563.865	83
564.077	77
564.289	68
564.501	91
564.713	94
564.925	93
565.137	87
565.349	92
565.561	95
565.773	80
565.985	86
566.197	73
566.408	97
566.62	78
566.832	87
567.044	90
567.255	81
567.467	77
567.679	90
567.891	72
568.102	80
568.314	102
568.526	84
568.737	82
568.949	84
569.161	94
569.372	84
569.584	83
569.795	77
570.007	105
570.218	201
570.43	117
570.641	98
570.853	84
571.064	77
571.276	82
571.487	83
571.698	87
571.91	73
572.121	89
572.333	97
572.544	78
572.755	91
572.966	93
573.178	88
573.389	101
573.6	90
573.811	81
574.023	84
574.234	87
574.445	94
574.656	80
574.867	78
575.078	83
575.289	88
575.501	97
575.712	82
575.923	84
576.134	97
576.345	93
576.556	93
576.767	82
576.978	97
577.188	91
577.399	89
577.61	86
577.821	95
578.032	117
578.243	210
578.454	585
578.665	189
578.875	100
579.086	82
579.297	96
579.508	87
579.718	89
579.929	82
580.14	83
580.35	88
580.561	84
580.772	96
580.982	89
581.193	77
581.403	97
581.614	86
581.825	98
582.035	85
582.246	93
582.456	82
582.667	83
582.877	93
583.087	90
583.298	85
583.508	88
583.719	95
583.929	89
584.139	74
584.35	78
584.56	83
584.77	72
584.981	68
585.191	90
585.401	94
585.611	86
585.821	92
586.032	93
