Data from Circ_1983_H10_HRD10591_00051.txt Node
Date: Wed Jan 03 12:26:55 EST 2024
User: Yrep
Spectrometer: HR+D1059
Trigger mode: 1
Integration Time (sec): 1.000000E-1
Scans to average: 1
Electric dark correction enabled: true
Nonlinearity correction enabled: false
Boxcar width: 0
XAxis mode: Wavelengths
Number of Pixels in Spectrum: 2048
>>>>>Begin Spectral Data<<<<<
223.165	-9.56
223.4	-9.56
223.635	-9.56
223.869	-24.56
224.104	-19.56
224.338	-11.56
224.573	-29.56
224.808	-10.56
225.042	-1.56
225.277	-8.56
225.511	12.44
225.746	8.44
225.98	9.44
226.215	16.44
226.449	7.44
226.683	25.44
226.918	8.44
227.152	27.44
227.387	30.44
227.621	44.44
227.856	44.44
228.09	42.44
228.324	52.44
228.559	60.44
228.793	44.44
229.027	69.44
229.262	68.44
229.496	80.44
229.73	64.44
229.964	87.44
230.199	84.44
230.433	77.44
230.667	82.44
230.901	80.44
231.136	76.44
231.37	87.44
231.604	99.44
231.838	93.44
232.072	90.44
232.306	88.44
232.541	86.44
232.775	83.44
233.009	84.44
233.243	82.44
233.477	64.44
233.711	84.44
233.945	86.44
234.179	83.44
234.413	90.44
234.647	82.44
234.881	98.44
235.115	84.44
235.349	74.44
235.583	85.44
235.817	70.44
236.051	85.44
236.285	79.44
236.519	73.44
236.753	75.44
236.987	82.44
237.221	76.44
237.455	85.44
237.689	67.44
237.922	82.44
238.156	84.44
238.39	81.44
238.624	75.44
238.858	88.44
239.091	76.44
239.325	73.44
239.559	73.44
239.793	80.44
240.027	96.44
240.26	62.44
240.494	70.44
240.728	70.44
240.961	81.44
241.195	80.44
241.429	68.44
241.662	80.44
241.896	70.44
242.13	77.44
242.363	75.44
242.597	56.44
242.83	84.44
243.064	73.44
243.298	88.44
243.531	60.44
243.765	63.44
243.998	91.44
244.232	84.44
244.465	93.44
244.699	90.44
244.932	69.44
245.166	73.44
245.399	77.44
245.633	76.44
245.866	74.44
246.099	68.44
246.333	65.44
246.566	75.44
246.8	92.44
247.033	78.44
247.266	85.44
247.5	67.44
247.733	89.44
247.966	80.44
248.2	80.44
248.433	74.44
248.666	76.44
248.899	93.44
249.133	84.44
249.366	88.44
249.599	81.44
249.832	80.44
250.066	74.44
250.299	83.44
250.532	88.44
250.765	77.44
250.998	77.44
251.231	81.44
251.465	90.44
251.698	95.44
251.931	75.44
252.164	71.44
252.397	72.44
252.63	78.44
252.863	66.44
253.096	82.44
253.329	89.44
253.562	78.44
253.795	82.44
254.028	84.44
254.261	73.44
254.494	78.44
254.727	78.44
254.96	74.44
255.193	81.44
255.426	80.44
255.659	75.44
255.892	102.44
256.124	89.44
256.357	84.44
256.59	80.44
256.823	83.44
257.056	92.44
257.289	96.44
257.521	75.44
257.754	89.44
257.987	85.44
258.22	84.44
258.452	78.44
258.685	93.44
258.918	89.44
259.151	81.44
259.383	83.44
259.616	82.44
259.849	83.44
260.081	77.44
260.314	92.44
260.547	88.44
260.779	93.44
261.012	80.44
261.244	86.44
261.477	93.44
261.71	85.44
261.942	94.44
262.175	105.44
262.407	84.44
262.64	87.44
262.872	83.44
263.105	96.44
263.337	80.44
263.57	77.44
263.802	101.44
264.035	80.44
264.267	75.44
264.499	82.44
264.732	78.44
264.964	82.44
265.197	75.44
265.429	77.44
265.661	85.44
265.894	84.44
266.126	79.44
266.358	78.44
266.591	82.44
266.823	86.44
267.055	85.44
267.287	90.44
267.52	79.44
267.752	102.44
267.984	82.44
268.216	87.44
268.448	96.44
268.681	86.44
268.913	91.44
269.145	73.44
269.377	88.44
269.609	94.44
269.841	74.44
270.073	78.44
270.306	75.44
270.538	82.44
270.77	82.44
271.002	85.44
271.234	93.44
271.466	80.44
271.698	84.44
271.93	80.44
272.162	81.44
272.394	88.44
272.626	84.44
272.858	73.44
273.09	92.44
273.322	84.44
273.553	88.44
273.785	72.44
274.017	81.44
274.249	85.44
274.481	86.44
274.713	86.44
274.945	87.44
275.176	96.44
275.408	82.44
275.64	98.44
275.872	78.44
276.104	89.44
276.335	88.44
276.567	96.44
276.799	104.44
277.031	85.44
277.262	87.44
277.494	94.44
277.726	97.44
277.957	86.44
278.189	98.44
278.421	85.44
278.652	96.44
278.884	105.44
279.115	89.44
279.347	89.44
279.579	82.44
279.81	91.44
280.042	93.44
280.273	100.44
280.505	97.44
280.736	89.44
280.968	85.44
281.199	81.44
281.431	88.44
281.662	91.44
281.894	90.44
282.125	100.44
282.356	117.44
282.588	119.44
282.819	120.44
283.051	85.44
283.282	87.44
283.513	91.44
283.745	95.44
283.976	90.44
284.207	91.44
284.439	80.44
284.67	100.44
284.901	77.44
285.132	93.44
285.364	94.44
285.595	85.44
285.826	93.44
286.057	96.44
286.288	83.44
286.52	92.44
286.751	87.44
286.982	97.44
287.213	81.44
287.444	85.44
287.675	90.44
287.906	84.44
288.138	106.44
288.369	93.44
288.6	86.44
288.831	84.44
289.062	95.44
289.293	101.44
289.524	104.44
289.755	92.44
289.986	87.44
290.217	77.44
290.448	67.44
290.679	89.44
290.91	97.44
291.141	77.44
291.371	102.44
291.602	80.44
291.833	81.44
292.064	95.44
292.295	83.44
292.526	85.44
292.757	75.44
292.987	100.44
293.218	92.44
293.449	82.44
293.68	97.44
293.91	101.44
294.141	89.44
294.372	96.44
294.603	89.44
294.833	86.44
295.064	96.44
295.295	96.44
295.525	86.44
295.756	98.44
295.987	96.44
296.217	121.44
296.448	121.44
296.679	75.44
296.909	99.44
297.14	102.44
297.37	99.44
297.601	92.44
297.831	80.44
298.062	92.44
298.292	92.44
298.523	93.44
298.753	87.44
298.984	89.44
299.214	82.44
299.445	84.44
299.675	90.44
299.905	97.44
300.136	86.44
300.366	83.44
300.597	91.44
300.827	107.44
301.057	105.44
301.288	93.44
301.518	91.44
301.748	81.44
301.979	108.44
302.209	84.44
302.439	84.44
302.669	78.44
302.9	88.44
303.13	88.44
303.36	97.44
303.59	107.44
303.82	106.44
304.051	113.44
304.281	102.44
304.511	95.44
304.741	89.44
304.971	84.44
305.201	92.44
305.431	76.44
305.661	92.44
305.891	78.44
306.121	100.44
306.352	90.44
306.582	97.44
306.812	86.44
307.042	88.44
307.272	99.44
307.502	100.44
307.731	89.44
307.961	105.44
308.191	96.44
308.421	82.44
308.651	94.44
308.881	88.44
309.111	101.44
309.341	81.44
309.571	91.44
309.8	98.44
310.03	98.44
310.26	93.44
310.49	98.44
310.72	101.44
310.949	101.44
311.179	104.44
311.409	96.44
311.639	89.44
311.868	105.44
312.098	94.44
312.328	98.44
312.557	110.44
312.787	107.44
313.017	95.44
313.246	92.44
313.476	106.44
313.706	88.44
313.935	79.44
314.165	98.44
314.394	95.44
314.624	94.44
314.853	107.44
315.083	92.44
315.312	99.44
315.542	88.44
315.771	107.44
316.001	91.44
316.23	87.44
316.46	85.44
316.689	96.44
316.919	89.44
317.148	88.44
317.377	100.44
317.607	97.44
317.836	77.44
318.065	73.44
318.295	84.44
318.524	96.44
318.753	98.44
318.983	98.44
319.212	85.44
319.441	90.44
319.67	97.44
319.9	83.44
320.129	90.44
320.358	93.44
320.587	93.44
320.816	80.44
321.046	104.44
321.275	101.44
321.504	98.44
321.733	105.44
321.962	93.44
322.191	99.44
322.42	117.44
322.649	102.44
322.878	112.44
323.108	109.44
323.337	118.44
323.566	121.44
323.795	137.44
324.024	170.44
324.253	308.44
324.482	628.44
324.71	1339.44
324.939	1750.44
325.168	640.44
325.397	189.44
325.626	140.44
325.855	132.44
326.084	122.44
326.313	109.44
326.542	132.44
326.77	196.44
326.999	386.44
327.228	778.44
327.457	1334.44
327.686	1062.44
327.914	316.44
328.143	198.44
328.372	149.44
328.6	118.44
328.829	111.44
329.058	111.44
329.287	123.44
329.515	114.44
329.744	88.44
329.972	123.44
330.201	166.44
330.43	211.44
330.658	151.44
330.887	133.44
331.115	122.44
331.344	101.44
331.572	92.44
331.801	101.44
332.03	84.44
332.258	91.44
332.486	82.44
332.715	96.44
332.943	83.44
333.172	96.44
333.4	101.44
333.629	109.44
333.857	114.44
334.085	125.44
334.314	182.44
334.542	240.44
334.771	248.44
334.999	125.44
335.227	122.44
335.455	107.44
335.684	100.44
335.912	112.44
336.14	90.44
336.369	103.44
336.597	95.44
336.825	87.44
337.053	96.44
337.281	90.44
337.51	96.44
337.738	88.44
337.966	94.44
338.194	81.44
338.422	101.44
338.65	102.44
338.878	107.44
339.106	93.44
339.334	98.44
339.562	99.44
339.79	99.44
340.018	90.44
340.246	97.44
340.474	111.44
340.702	98.44
340.93	91.44
341.158	96.44
341.386	92.44
341.614	101.44
341.842	97.44
342.07	87.44
342.298	98.44
342.526	98.44
342.754	100.44
342.981	88.44
343.209	85.44
343.437	86.44
343.665	97.44
343.893	85.44
344.12	91.44
344.348	74.44
344.576	96.44
344.804	91.44
345.031	84.44
345.259	80.44
345.487	96.44
345.714	100.44
345.942	80.44
346.17	99.44
346.397	93.44
346.625	93.44
346.853	92.44
347.08	79.44
347.308	103.44
347.535	94.44
347.763	101.44
347.99	103.44
348.218	107.44
348.445	110.44
348.673	83.44
348.9	94.44
349.128	92.44
349.355	96.44
349.583	86.44
349.81	86.44
350.037	103.44
350.265	95.44
350.492	81.44
350.72	113.44
350.947	105.44
351.174	96.44
351.402	99.44
351.629	107.44
351.856	108.44
352.083	96.44
352.311	106.44
352.538	103.44
352.765	92.44
352.992	107.44
353.22	95.44
353.447	109.44
353.674	92.44
353.901	100.44
354.128	100.44
354.355	91.44
354.583	88.44
354.81	107.44
355.037	102.44
355.264	104.44
355.491	104.44
355.718	95.44
355.945	105.44
356.172	95.44
356.399	89.44
356.626	88.44
356.853	96.44
357.08	88.44
357.307	96.44
357.534	83.44
357.761	101.44
357.988	78.44
358.215	106.44
358.441	88.44
358.668	92.44
358.895	93.44
359.122	100.44
359.349	72.44
359.576	92.44
359.802	86.44
360.029	110.44
360.256	102.44
360.483	100.44
360.709	84.44
360.936	93.44
361.163	94.44
361.39	91.44
361.616	91.44
361.843	99.44
362.07	96.44
362.296	84.44
362.523	84.44
362.749	81.44
362.976	92.44
363.203	97.44
363.429	96.44
363.656	88.44
363.882	87.44
364.109	102.44
364.335	86.44
364.562	87.44
364.788	76.44
365.015	94.44
365.241	109.44
365.468	102.44
365.694	105.44
365.92	91.44
366.147	76.44
366.373	88.44
366.599	97.44
366.826	84.44
367.052	105.44
367.278	93.44
367.505	94.44
367.731	85.44
367.957	85.44
368.184	93.44
368.41	98.44
368.636	101.44
368.862	115.44
369.089	106.44
369.315	94.44
369.541	81.44
369.767	80.44
369.993	106.44
370.219	93.44
370.445	94.44
370.672	83.44
370.898	77.44
371.124	97.44
371.35	96.44
371.576	87.44
371.802	78.44
372.028	87.44
372.254	92.44
372.48	90.44
372.706	83.44
372.932	83.44
373.158	82.44
373.384	99.44
373.61	91.44
373.835	95.44
374.061	92.44
374.287	94.44
374.513	99.44
374.739	92.44
374.965	79.44
375.191	99.44
375.416	83.44
375.642	88.44
375.868	97.44
376.094	84.44
376.319	99.44
376.545	80.44
376.771	96.44
376.997	91.44
377.222	85.44
377.448	95.44
377.674	105.44
377.899	92.44
378.125	84.44
378.35	94.44
378.576	88.44
378.802	100.44
379.027	93.44
379.253	106.44
379.478	103.44
379.704	91.44
379.929	91.44
380.155	83.44
380.38	94.44
380.606	93.44
380.831	105.44
381.057	81.44
381.282	73.44
381.507	94.44
381.733	88.44
381.958	103.44
382.184	92.44
382.409	97.44
382.634	106.44
382.86	100.44
383.085	97.44
383.31	94.44
383.535	109.44
383.761	98.44
383.986	91.44
384.211	97.44
384.436	87.44
384.662	109.44
384.887	114.44
385.112	101.44
385.337	113.44
385.562	104.44
385.787	116.44
386.013	119.44
386.238	111.44
386.463	108.44
386.688	108.44
386.913	102.44
387.138	104.44
387.363	112.44
387.588	96.44
387.813	97.44
388.038	110.44
388.263	104.44
388.488	110.44
388.713	87.44
388.938	82.44
389.163	102.44
389.387	92.44
389.612	75.44
389.837	77.44
390.062	91.44
390.287	92.44
390.512	92.44
390.736	86.44
390.961	87.44
391.186	91.44
391.411	78.44
391.636	88.44
391.86	82.44
392.085	91.44
392.31	82.44
392.534	91.44
392.759	88.44
392.984	94.44
393.208	109.44
393.433	109.44
393.658	110.44
393.882	93.44
394.107	97.44
394.331	86.44
394.556	101.44
394.78	94.44
395.005	92.44
395.229	91.44
395.454	93.44
395.678	89.44
395.903	93.44
396.127	92.44
396.352	94.44
396.576	88.44
396.801	102.44
397.025	92.44
397.249	99.44
397.474	94.44
397.698	74.44
397.922	80.44
398.147	90.44
398.371	81.44
398.595	92.44
398.82	78.44
399.044	75.44
399.268	81.44
399.492	72.44
399.717	91.44
399.941	94.44
400.165	86.44
400.389	92.44
400.613	93.44
400.837	88.44
401.062	81.44
401.286	99.44
401.51	98.44
401.734	83.44
401.958	91.44
402.182	124.44
402.406	157.44
402.63	100.44
402.854	94.44
403.078	81.44
403.302	71.44
403.526	93.44
403.75	84.44
403.974	94.44
404.198	88.44
404.422	94.44
404.645	74.44
404.869	84.44
405.093	106.44
405.317	104.44
405.541	100.44
405.765	95.44
405.988	100.44
406.212	152.44
406.436	208.44
406.66	130.44
406.883	85.44
407.107	77.44
407.331	90.44
407.555	92.44
407.778	104.44
408.002	95.44
408.226	88.44
408.449	83.44
408.673	94.44
408.896	87.44
409.12	77.44
409.344	98.44
409.567	95.44
409.791	92.44
410.014	97.44
410.238	100.44
410.461	89.44
410.685	98.44
410.908	97.44
411.132	103.44
411.355	89.44
411.578	101.44
411.802	80.44
412.025	98.44
412.249	78.44
412.472	96.44
412.695	100.44
412.919	94.44
413.142	88.44
413.365	84.44
413.589	92.44
413.812	84.44
414.035	98.44
414.258	95.44
414.482	93.44
414.705	82.44
414.928	82.44
415.151	94.44
415.374	84.44
415.597	96.44
415.821	80.44
416.044	83.44
416.267	98.44
416.49	87.44
416.713	85.44
416.936	85.44
417.159	88.44
417.382	82.44
417.605	89.44
417.828	97.44
418.051	89.44
418.274	95.44
418.497	104.44
418.72	91.44
418.943	99.44
419.166	99.44
419.389	84.44
419.611	94.44
419.834	98.44
420.057	91.44
420.28	100.44
420.503	85.44
420.726	84.44
420.948	84.44
421.171	99.44
421.394	89.44
421.617	88.44
421.839	95.44
422.062	87.44
422.285	79.44
422.507	91.44
422.73	99.44
422.953	96.44
423.175	90.44
423.398	84.44
423.621	86.44
423.843	92.44
424.066	82.44
424.288	92.44
424.511	87.44
424.733	87.44
424.956	96.44
425.178	89.44
425.401	102.44
425.623	96.44
425.846	99.44
426.068	96.44
426.291	97.44
426.513	93.44
426.735	95.44
426.958	97.44
427.18	102.44
427.402	122.44
427.625	148.44
427.847	114.44
428.069	124.44
428.292	107.44
428.514	97.44
428.736	91.44
428.958	88.44
429.181	83.44
429.403	80.44
429.625	84.44
429.847	88.44
430.069	104.44
430.292	87.44
430.514	81.44
430.736	76.44
430.958	92.44
431.18	94.44
431.402	86.44
431.624	74.44
431.846	89.44
432.068	90.44
432.29	94.44
432.512	75.44
432.734	82.44
432.956	88.44
433.178	95.44
433.4	94.44
433.622	88.44
433.844	103.44
434.066	89.44
434.287	74.44
434.509	97.44
434.731	96.44
434.953	102.44
435.175	80.44
435.397	73.44
435.618	93.44
435.84	92.44
436.062	110.44
436.284	97.44
436.505	94.44
436.727	93.44
436.949	102.44
437.17	94.44
437.392	102.44
437.614	97.44
437.835	95.44
438.057	104.44
438.278	106.44
438.5	103.44
438.721	112.44
438.943	80.44
439.165	88.44
439.386	97.44
439.608	95.44
439.829	104.44
440.05	113.44
440.272	113.44
440.493	100.44
440.715	98.44
440.936	92.44
441.158	94.44
441.379	88.44
441.6	89.44
441.822	98.44
442.043	90.44
442.264	94.44
442.486	96.44
442.707	88.44
442.928	92.44
443.149	104.44
443.371	120.44
443.592	104.44
443.813	91.44
444.034	96.44
444.255	90.44
444.476	91.44
444.698	81.44
444.919	83.44
445.14	128.44
445.361	120.44
445.582	101.44
445.803	104.44
446.024	117.44
446.245	116.44
446.466	95.44
446.687	87.44
446.908	91.44
447.129	79.44
447.35	89.44
447.571	85.44
447.792	84.44
448.013	96.44
448.234	105.44
448.455	98.44
448.675	90.44
448.896	100.44
449.117	94.44
449.338	102.44
449.559	113.44
449.779	118.44
450	95.44
450.221	101.44
450.442	89.44
450.662	86.44
450.883	86.44
451.104	98.44
451.324	89.44
451.545	82.44
451.766	89.44
451.986	83.44
452.207	85.44
452.428	85.44
452.648	85.44
452.869	101.44
453.089	89.44
453.31	98.44
453.53	103.44
453.751	81.44
453.971	93.44
454.192	104.44
454.412	90.44
454.633	86.44
454.853	86.44
455.073	97.44
455.294	95.44
455.514	93.44
455.734	84.44
455.955	102.44
456.175	69.44
456.395	88.44
456.616	96.44
456.836	88.44
457.056	82.44
457.276	88.44
457.497	81.44
457.717	80.44
457.937	84.44
458.157	76.44
458.377	88.44
458.598	110.44
458.818	135.44
459.038	148.44
459.258	96.44
459.478	81.44
459.698	82.44
459.918	80.44
460.138	100.44
460.358	86.44
460.578	93.44
460.798	96.44
461.018	80.44
461.238	93.44
461.458	91.44
461.678	74.44
461.898	84.44
462.118	91.44
462.338	87.44
462.558	88.44
462.777	94.44
462.997	88.44
463.217	85.44
463.437	80.44
463.657	69.44
463.876	96.44
464.096	96.44
464.316	86.44
464.536	91.44
464.755	90.44
464.975	87.44
465.195	144.44
465.414	139.44
465.634	94.44
465.854	82.44
466.073	89.44
466.293	89.44
466.512	85.44
466.732	94.44
466.951	97.44
467.171	96.44
467.391	92.44
467.61	101.44
467.829	93.44
468.049	115.44
468.268	141.44
468.488	109.44
468.707	99.44
468.927	96.44
469.146	85.44
469.365	75.44
469.585	92.44
469.804	91.44
470.023	106.44
470.243	95.44
470.462	102.44
470.681	108.44
470.901	77.44
471.12	95.44
471.339	87.44
471.558	78.44
471.777	107.44
471.997	117.44
472.216	179.44
472.435	298.44
472.654	146.44
472.873	88.44
473.092	82.44
473.311	93.44
473.53	91.44
473.749	91.44
473.968	101.44
474.187	95.44
474.406	89.44
474.625	105.44
474.844	94.44
475.063	100.44
475.282	73.44
475.501	77.44
475.72	84.44
475.939	96.44
476.158	97.44
476.377	98.44
476.596	96.44
476.814	101.44
477.033	92.44
477.252	85.44
477.471	88.44
477.69	86.44
477.908	92.44
478.127	93.44
478.346	87.44
478.564	103.44
478.783	94.44
479.002	83.44
479.22	96.44
479.439	97.44
479.658	107.44
479.876	121.44
480.095	103.44
480.313	100.44
480.532	94.44
480.751	106.44
480.969	186.44
481.188	506.44
481.406	317.44
481.624	110.44
481.843	96.44
482.061	99.44
482.28	87.44
482.498	84.44
482.717	89.44
482.935	96.44
483.153	95.44
483.372	81.44
483.59	80.44
483.808	80.44
484.027	99.44
484.245	99.44
484.463	99.44
484.681	89.44
484.9	80.44
485.118	94.44
485.336	99.44
485.554	89.44
485.772	94.44
485.99	108.44
486.209	113.44
486.427	97.44
486.645	109.44
486.863	100.44
487.081	104.44
487.299	99.44
487.517	92.44
487.735	92.44
487.953	103.44
488.171	112.44
488.389	76.44
488.607	90.44
488.825	96.44
489.043	85.44
489.261	93.44
489.479	74.44
489.696	86.44
489.914	100.44
490.132	94.44
490.35	81.44
490.568	89.44
490.786	86.44
491.003	95.44
491.221	104.44
491.439	93.44
491.657	97.44
491.874	98.44
492.092	93.44
492.31	96.44
492.527	73.44
492.745	94.44
492.963	87.44
493.18	77.44
493.398	83.44
493.615	104.44
493.833	96.44
494.05	88.44
494.268	94.44
494.485	85.44
494.703	81.44
494.92	84.44
495.138	91.44
495.355	81.44
495.573	94.44
495.79	88.44
496.008	90.44
496.225	107.44
496.442	106.44
496.66	84.44
496.877	88.44
497.094	90.44
497.312	97.44
497.529	87.44
497.746	110.44
497.963	107.44
498.181	81.44
498.398	86.44
498.615	114.44
498.832	110.44
499.049	90.44
499.267	88.44
499.484	92.44
499.701	96.44
499.918	93.44
500.135	101.44
500.352	93.44
500.569	91.44
500.786	75.44
501.003	102.44
501.22	93.44
501.437	92.44
501.654	86.44
501.871	110.44
502.088	75.44
502.305	74.44
502.522	83.44
502.739	86.44
502.956	83.44
503.172	92.44
503.389	99.44
503.606	109.44
503.823	105.44
504.04	98.44
504.256	83.44
504.473	85.44
504.69	90.44
504.907	81.44
505.123	84.44
505.34	90.44
505.557	105.44
505.773	94.44
505.99	92.44
506.207	89.44
506.423	80.44
506.64	85.44
506.856	88.44
507.073	84.44
507.289	82.44
507.506	91.44
507.722	103.44
507.939	105.44
508.155	98.44
508.372	84.44
508.588	87.44
508.805	104.44
509.021	94.44
509.238	93.44
509.454	87.44
509.67	97.44
509.887	102.44
510.103	124.44
510.319	185.44
510.536	635.44
510.752	1925.44
510.968	533.44
511.184	127.44
511.401	96.44
511.617	97.44
511.833	106.44
512.049	98.44
512.265	96.44
512.481	88.44
512.698	85.44
512.914	93.44
513.13	96.44
513.346	88.44
513.562	100.44
513.778	100.44
513.994	86.44
514.21	105.44
514.426	97.44
514.642	114.44
514.858	122.44
515.074	151.44
515.29	373.44
515.506	1116.44
515.721	427.44
