Data from Circ_1983_H10_HRD10591_00030.txt Node
Date: Wed Jan 03 12:26:50 EST 2024
User: Yrep
Spectrometer: HR+D1059
Trigger mode: 1
Integration Time (sec): 1.000000E-1
Scans to average: 1
Electric dark correction enabled: true
Nonlinearity correction enabled: false
Boxcar width: 0
XAxis mode: Wavelengths
Number of Pixels in Spectrum: 2048
>>>>>Begin Spectral Data<<<<<
223.165	-11.5
223.4	-11.5
223.635	-11.5
223.869	-23.5
224.104	-30.5
224.338	-29.5
224.573	-19.5
224.808	-16.5
225.042	2.5
225.277	-1.5
225.511	-16.5
225.746	9.5
225.98	19.5
226.215	20.5
226.449	24.5
226.683	18.5
226.918	30.5
227.152	23.5
227.387	29.5
227.621	37.5
227.856	34.5
228.09	52.5
228.324	44.5
228.559	51.5
228.793	47.5
229.027	67.5
229.262	61.5
229.496	56.5
229.73	73.5
229.964	72.5
230.199	64.5
230.433	84.5
230.667	76.5
230.901	74.5
231.136	88.5
231.37	69.5
231.604	82.5
231.838	90.5
232.072	77.5
232.306	74.5
232.541	70.5
232.775	82.5
233.009	95.5
233.243	83.5
233.477	104.5
233.711	80.5
233.945	69.5
234.179	90.5
234.413	97.5
234.647	75.5
234.881	80.5
235.115	92.5
235.349	84.5
235.583	82.5
235.817	72.5
236.051	77.5
236.285	71.5
236.519	88.5
236.753	75.5
236.987	82.5
237.221	76.5
237.455	81.5
237.689	74.5
237.922	96.5
238.156	73.5
238.39	76.5
238.624	69.5
238.858	70.5
239.091	69.5
239.325	67.5
239.559	74.5
239.793	74.5
240.027	75.5
240.26	85.5
240.494	68.5
240.728	77.5
240.961	80.5
241.195	59.5
241.429	72.5
241.662	75.5
241.896	76.5
242.13	62.5
242.363	71.5
242.597	86.5
242.83	88.5
243.064	78.5
243.298	86.5
243.531	82.5
243.765	74.5
243.998	86.5
244.232	69.5
244.465	78.5
244.699	78.5
244.932	68.5
245.166	86.5
245.399	82.5
245.633	87.5
245.866	82.5
246.099	74.5
246.333	81.5
246.566	75.5
246.8	88.5
247.033	78.5
247.266	76.5
247.5	86.5
247.733	82.5
247.966	89.5
248.2	84.5
248.433	82.5
248.666	68.5
248.899	85.5
249.133	70.5
249.366	106.5
249.599	91.5
249.832	77.5
250.066	89.5
250.299	70.5
250.532	59.5
250.765	72.5
250.998	92.5
251.231	74.5
251.465	83.5
251.698	80.5
251.931	70.5
252.164	94.5
252.397	77.5
252.63	80.5
252.863	71.5
253.096	76.5
253.329	85.5
253.562	68.5
253.795	79.5
254.028	84.5
254.261	73.5
254.494	77.5
254.727	75.5
254.96	75.5
255.193	92.5
255.426	72.5
255.659	83.5
255.892	87.5
256.124	76.5
256.357	80.5
256.59	85.5
256.823	84.5
257.056	75.5
257.289	88.5
257.521	84.5
257.754	82.5
257.987	90.5
258.22	85.5
258.452	86.5
258.685	68.5
258.918	73.5
259.151	82.5
259.383	88.5
259.616	89.5
259.849	97.5
260.081	88.5
260.314	78.5
260.547	79.5
260.779	84.5
261.012	99.5
261.244	85.5
261.477	85.5
261.71	78.5
261.942	114.5
262.175	100.5
262.407	91.5
262.64	83.5
262.872	88.5
263.105	92.5
263.337	82.5
263.57	84.5
263.802	86.5
264.035	87.5
264.267	75.5
264.499	84.5
264.732	80.5
264.964	89.5
265.197	85.5
265.429	86.5
265.661	84.5
265.894	80.5
266.126	82.5
266.358	89.5
266.591	80.5
266.823	91.5
267.055	90.5
267.287	77.5
267.52	82.5
267.752	88.5
267.984	80.5
268.216	85.5
268.448	87.5
268.681	87.5
268.913	83.5
269.145	74.5
269.377	91.5
269.609	83.5
269.841	72.5
270.073	96.5
270.306	97.5
270.538	90.5
270.77	77.5
271.002	70.5
271.234	70.5
271.466	82.5
271.698	76.5
271.93	82.5
272.162	83.5
272.394	90.5
272.626	92.5
272.858	81.5
273.09	82.5
273.322	82.5
273.553	84.5
273.785	87.5
274.017	90.5
274.249	91.5
274.481	78.5
274.713	81.5
274.945	91.5
275.176	88.5
275.408	84.5
275.64	89.5
275.872	78.5
276.104	85.5
276.335	90.5
276.567	99.5
276.799	103.5
277.031	100.5
277.262	97.5
277.494	88.5
277.726	89.5
277.957	84.5
278.189	87.5
278.421	83.5
278.652	88.5
278.884	78.5
279.115	92.5
279.347	84.5
279.579	93.5
279.81	106.5
280.042	87.5
280.273	96.5
280.505	76.5
280.736	75.5
280.968	73.5
281.199	78.5
281.431	83.5
281.662	94.5
281.894	92.5
282.125	105.5
282.356	121.5
282.588	121.5
282.819	107.5
283.051	82.5
283.282	88.5
283.513	98.5
283.745	84.5
283.976	86.5
284.207	83.5
284.439	91.5
284.67	88.5
284.901	68.5
285.132	84.5
285.364	75.5
285.595	78.5
285.826	83.5
286.057	80.5
286.288	93.5
286.52	82.5
286.751	98.5
286.982	94.5
287.213	83.5
287.444	83.5
287.675	85.5
287.906	95.5
288.138	94.5
288.369	101.5
288.6	99.5
288.831	101.5
289.062	85.5
289.293	83.5
289.524	105.5
289.755	96.5
289.986	84.5
290.217	85.5
290.448	96.5
290.679	80.5
290.91	94.5
291.141	71.5
291.371	85.5
291.602	84.5
291.833	91.5
292.064	88.5
292.295	78.5
292.526	82.5
292.757	93.5
292.987	82.5
293.218	73.5
293.449	87.5
293.68	91.5
293.91	80.5
294.141	89.5
294.372	85.5
294.603	88.5
294.833	88.5
295.064	84.5
295.295	75.5
295.525	92.5
295.756	97.5
295.987	112.5
296.217	116.5
296.448	125.5
296.679	83.5
296.909	94.5
297.14	88.5
297.37	91.5
297.601	81.5
297.831	83.5
298.062	75.5
298.292	101.5
298.523	89.5
298.753	90.5
298.984	76.5
299.214	68.5
299.445	93.5
299.675	90.5
299.905	91.5
300.136	88.5
300.366	88.5
300.597	91.5
300.827	94.5
301.057	96.5
301.288	97.5
301.518	78.5
301.748	90.5
301.979	77.5
302.209	92.5
302.439	88.5
302.669	95.5
302.9	96.5
303.13	97.5
303.36	83.5
303.59	98.5
303.82	93.5
304.051	82.5
304.281	88.5
304.511	97.5
304.741	87.5
304.971	84.5
305.201	89.5
305.431	86.5
305.661	102.5
305.891	85.5
306.121	84.5
306.352	92.5
306.582	113.5
306.812	98.5
307.042	97.5
307.272	85.5
307.502	77.5
307.731	88.5
307.961	83.5
308.191	75.5
308.421	80.5
308.651	96.5
308.881	93.5
309.111	91.5
309.341	97.5
309.571	107.5
309.8	97.5
310.03	102.5
310.26	91.5
310.49	93.5
310.72	89.5
310.949	86.5
311.179	106.5
311.409	76.5
311.639	89.5
311.868	112.5
312.098	89.5
312.328	100.5
312.557	96.5
312.787	101.5
313.017	88.5
313.246	106.5
313.476	85.5
313.706	88.5
313.935	102.5
314.165	109.5
314.394	89.5
314.624	85.5
314.853	92.5
315.083	84.5
315.312	88.5
315.542	89.5
315.771	90.5
316.001	95.5
316.23	98.5
316.46	73.5
316.689	80.5
316.919	85.5
317.148	91.5
317.377	84.5
317.607	103.5
317.836	88.5
318.065	84.5
318.295	95.5
318.524	77.5
318.753	77.5
318.983	101.5
319.212	92.5
319.441	98.5
319.67	103.5
319.9	88.5
320.129	93.5
320.358	98.5
320.587	92.5
320.816	85.5
321.046	110.5
321.275	101.5
321.504	84.5
321.733	84.5
321.962	93.5
322.191	107.5
322.42	99.5
322.649	109.5
322.878	116.5
323.108	112.5
323.337	110.5
323.566	110.5
323.795	128.5
324.024	180.5
324.253	294.5
324.482	598.5
324.71	1185.5
324.939	1569.5
325.168	590.5
325.397	194.5
325.626	135.5
325.855	120.5
326.084	111.5
326.313	122.5
326.542	136.5
326.77	174.5
326.999	327.5
327.228	677.5
327.457	1218.5
327.686	996.5
327.914	294.5
328.143	160.5
328.372	146.5
328.6	116.5
328.829	107.5
329.058	109.5
329.287	119.5
329.515	105.5
329.744	105.5
329.972	129.5
330.201	136.5
330.43	164.5
330.658	129.5
330.887	119.5
331.115	93.5
331.344	93.5
331.572	98.5
331.801	94.5
332.03	70.5
332.258	99.5
332.486	92.5
332.715	90.5
332.943	88.5
333.172	91.5
333.4	89.5
333.629	104.5
333.857	99.5
334.085	111.5
334.314	129.5
334.542	182.5
334.771	174.5
334.999	109.5
335.227	103.5
335.455	90.5
335.684	98.5
335.912	86.5
336.14	97.5
336.369	84.5
336.597	80.5
336.825	89.5
337.053	99.5
337.281	96.5
337.51	89.5
337.738	97.5
337.966	96.5
338.194	86.5
338.422	96.5
338.65	101.5
338.878	104.5
339.106	87.5
339.334	89.5
339.562	85.5
339.79	95.5
340.018	85.5
340.246	73.5
340.474	92.5
340.702	87.5
340.93	104.5
341.158	92.5
341.386	100.5
341.614	90.5
341.842	101.5
342.07	89.5
342.298	80.5
342.526	88.5
342.754	101.5
342.981	80.5
343.209	98.5
343.437	103.5
343.665	86.5
343.893	89.5
344.12	82.5
344.348	84.5
344.576	99.5
344.804	102.5
345.031	99.5
345.259	89.5
345.487	85.5
345.714	94.5
345.942	91.5
346.17	81.5
346.397	90.5
346.625	100.5
346.853	102.5
347.08	90.5
347.308	94.5
347.535	93.5
347.763	85.5
347.99	101.5
348.218	103.5
348.445	88.5
348.673	95.5
348.9	92.5
349.128	84.5
349.355	82.5
349.583	94.5
349.81	97.5
350.037	89.5
350.265	94.5
350.492	82.5
350.72	94.5
350.947	95.5
351.174	98.5
351.402	99.5
351.629	100.5
351.856	91.5
352.083	92.5
352.311	95.5
352.538	98.5
352.765	115.5
352.992	114.5
353.22	98.5
353.447	92.5
353.674	96.5
353.901	94.5
354.128	105.5
354.355	104.5
354.583	86.5
354.81	87.5
355.037	102.5
355.264	94.5
355.491	90.5
355.718	99.5
355.945	97.5
356.172	96.5
356.399	80.5
356.626	71.5
356.853	100.5
357.08	88.5
357.307	98.5
357.534	101.5
357.761	75.5
357.988	100.5
358.215	105.5
358.441	82.5
358.668	88.5
358.895	80.5
359.122	75.5
359.349	90.5
359.576	92.5
359.802	92.5
360.029	92.5
360.256	92.5
360.483	108.5
360.709	85.5
360.936	93.5
361.163	108.5
361.39	81.5
361.616	100.5
361.843	93.5
362.07	99.5
362.296	96.5
362.523	88.5
362.749	81.5
362.976	75.5
363.203	99.5
363.429	83.5
363.656	85.5
363.882	93.5
364.109	90.5
364.335	84.5
364.562	74.5
364.788	92.5
365.015	93.5
365.241	102.5
365.468	98.5
365.694	87.5
365.92	89.5
366.147	93.5
366.373	100.5
366.599	89.5
366.826	84.5
367.052	71.5
367.278	102.5
367.505	100.5
367.731	94.5
367.957	102.5
368.184	87.5
368.41	86.5
368.636	112.5
368.862	110.5
369.089	106.5
369.315	101.5
369.541	79.5
369.767	90.5
369.993	91.5
370.219	80.5
370.445	88.5
370.672	90.5
370.898	96.5
371.124	95.5
371.35	92.5
371.576	102.5
371.802	76.5
372.028	88.5
372.254	72.5
372.48	99.5
372.706	89.5
372.932	86.5
373.158	90.5
373.384	74.5
373.61	103.5
373.835	87.5
374.061	82.5
374.287	89.5
374.513	77.5
374.739	88.5
374.965	90.5
375.191	98.5
375.416	82.5
375.642	83.5
375.868	73.5
376.094	102.5
376.319	88.5
376.545	86.5
376.771	94.5
376.997	99.5
377.222	85.5
377.448	91.5
377.674	86.5
377.899	95.5
378.125	80.5
378.35	88.5
378.576	80.5
378.802	101.5
379.027	91.5
379.253	98.5
379.478	96.5
379.704	94.5
379.929	96.5
380.155	106.5
380.38	98.5
380.606	92.5
380.831	110.5
381.057	116.5
381.282	106.5
381.507	106.5
381.733	95.5
381.958	106.5
382.184	103.5
382.409	99.5
382.634	98.5
382.86	93.5
383.085	108.5
383.31	104.5
383.535	94.5
383.761	97.5
383.986	83.5
384.211	90.5
384.436	107.5
384.662	101.5
384.887	106.5
385.112	114.5
385.337	112.5
385.562	104.5
385.787	97.5
386.013	104.5
386.238	116.5
386.463	97.5
386.688	117.5
386.913	116.5
387.138	113.5
387.363	109.5
387.588	86.5
387.813	107.5
388.038	99.5
388.263	108.5
388.488	101.5
388.713	103.5
388.938	99.5
389.163	112.5
389.387	96.5
389.612	100.5
389.837	100.5
390.062	94.5
390.287	96.5
390.512	106.5
390.736	102.5
390.961	93.5
391.186	96.5
391.411	89.5
391.636	74.5
391.86	91.5
392.085	92.5
392.31	80.5
392.534	90.5
392.759	99.5
392.984	82.5
393.208	103.5
393.433	122.5
393.658	102.5
393.882	85.5
394.107	99.5
394.331	93.5
394.556	73.5
394.78	88.5
395.005	90.5
395.229	82.5
395.454	95.5
395.678	96.5
395.903	96.5
396.127	98.5
396.352	93.5
396.576	88.5
396.801	96.5
397.025	110.5
397.249	92.5
397.474	97.5
397.698	84.5
397.922	90.5
398.147	88.5
398.371	76.5
398.595	91.5
398.82	101.5
399.044	90.5
399.268	82.5
399.492	100.5
399.717	76.5
399.941	81.5
400.165	91.5
400.389	92.5
400.613	90.5
400.837	73.5
401.062	87.5
401.286	78.5
401.51	90.5
401.734	77.5
401.958	95.5
402.182	114.5
402.406	139.5
402.63	121.5
402.854	92.5
403.078	95.5
403.302	87.5
403.526	80.5
403.75	82.5
403.974	101.5
404.198	86.5
404.422	81.5
404.645	89.5
404.869	91.5
405.093	105.5
405.317	97.5
405.541	91.5
405.765	103.5
405.988	111.5
406.212	133.5
406.436	158.5
406.66	109.5
406.883	96.5
407.107	92.5
407.331	90.5
407.555	96.5
407.778	102.5
408.002	95.5
408.226	77.5
408.449	104.5
408.673	97.5
408.896	81.5
409.12	98.5
409.344	77.5
409.567	98.5
409.791	92.5
410.014	99.5
410.238	92.5
410.461	109.5
410.685	93.5
410.908	93.5
411.132	104.5
411.355	90.5
411.578	90.5
411.802	93.5
412.025	92.5
412.249	92.5
412.472	82.5
412.695	102.5
412.919	89.5
413.142	84.5
413.365	93.5
413.589	82.5
413.812	84.5
414.035	97.5
414.258	86.5
414.482	93.5
414.705	70.5
414.928	84.5
415.151	96.5
415.374	86.5
415.597	99.5
415.821	90.5
416.044	96.5
416.267	96.5
416.49	99.5
416.713	83.5
416.936	86.5
417.159	82.5
417.382	84.5
417.605	84.5
417.828	100.5
418.051	85.5
418.274	81.5
418.497	96.5
418.72	86.5
418.943	90.5
419.166	89.5
419.389	94.5
419.611	89.5
419.834	87.5
420.057	92.5
420.28	72.5
420.503	76.5
420.726	93.5
420.948	86.5
421.171	77.5
421.394	97.5
421.617	108.5
421.839	89.5
422.062	83.5
422.285	96.5
422.507	97.5
422.73	104.5
422.953	84.5
423.175	94.5
423.398	84.5
423.621	93.5
423.843	95.5
424.066	86.5
424.288	80.5
424.511	89.5
424.733	101.5
424.956	103.5
425.178	92.5
425.401	95.5
425.623	100.5
425.846	96.5
426.068	92.5
426.291	98.5
426.513	93.5
426.735	97.5
426.958	80.5
427.18	101.5
427.402	105.5
427.625	136.5
427.847	110.5
428.069	101.5
428.292	84.5
428.514	85.5
428.736	84.5
428.958	85.5
429.181	93.5
429.403	85.5
429.625	83.5
429.847	93.5
430.069	84.5
430.292	95.5
430.514	88.5
430.736	78.5
430.958	80.5
431.18	95.5
431.402	114.5
431.624	92.5
431.846	77.5
432.068	89.5
432.29	70.5
432.512	92.5
432.734	99.5
432.956	99.5
433.178	100.5
433.4	87.5
433.622	86.5
433.844	88.5
434.066	100.5
434.287	76.5
434.509	93.5
434.731	101.5
434.953	88.5
435.175	99.5
435.397	91.5
435.618	89.5
435.84	105.5
436.062	101.5
436.284	109.5
436.505	102.5
436.727	96.5
436.949	84.5
437.17	82.5
437.392	85.5
437.614	80.5
437.835	108.5
438.057	103.5
438.278	105.5
438.5	100.5
438.721	98.5
438.943	81.5
439.165	93.5
439.386	92.5
439.608	87.5
439.829	92.5
440.05	95.5
440.272	121.5
440.493	105.5
440.715	100.5
440.936	85.5
441.158	83.5
441.379	92.5
441.6	89.5
441.822	100.5
442.043	97.5
442.264	90.5
442.486	96.5
442.707	85.5
442.928	96.5
443.149	116.5
443.371	125.5
443.592	104.5
443.813	100.5
444.034	105.5
444.255	91.5
444.476	76.5
444.698	85.5
444.919	90.5
445.14	134.5
445.361	121.5
445.582	106.5
445.803	105.5
446.024	112.5
446.245	124.5
446.466	97.5
446.687	90.5
446.908	96.5
447.129	98.5
447.35	84.5
447.571	78.5
447.792	89.5
448.013	98.5
448.234	106.5
448.455	93.5
448.675	101.5
448.896	95.5
449.117	92.5
449.338	88.5
449.559	96.5
449.779	107.5
450	97.5
450.221	86.5
450.442	87.5
450.662	100.5
450.883	80.5
451.104	107.5
451.324	102.5
451.545	84.5
451.766	71.5
451.986	88.5
452.207	95.5
452.428	82.5
452.648	87.5
452.869	99.5
453.089	98.5
453.31	120.5
453.53	90.5
453.751	87.5
453.971	95.5
454.192	91.5
454.412	82.5
454.633	88.5
454.853	105.5
455.073	85.5
455.294	88.5
455.514	92.5
455.734	92.5
455.955	85.5
456.175	72.5
456.395	75.5
456.616	86.5
456.836	89.5
457.056	87.5
457.276	81.5
457.497	82.5
457.717	84.5
457.937	92.5
458.157	103.5
458.377	82.5
458.598	86.5
458.818	133.5
459.038	110.5
459.258	97.5
459.478	92.5
459.698	88.5
459.918	80.5
460.138	93.5
460.358	72.5
460.578	96.5
460.798	93.5
461.018	91.5
461.238	86.5
461.458	93.5
461.678	82.5
461.898	93.5
462.118	86.5
462.338	84.5
462.558	76.5
462.777	73.5
462.997	98.5
463.217	86.5
463.437	90.5
463.657	81.5
463.876	93.5
464.096	98.5
464.316	85.5
464.536	80.5
464.755	77.5
464.975	102.5
465.195	122.5
465.414	130.5
465.634	103.5
465.854	90.5
466.073	84.5
466.293	83.5
466.512	83.5
466.732	77.5
466.951	82.5
467.171	98.5
467.391	98.5
467.61	90.5
467.829	88.5
468.049	112.5
468.268	107.5
468.488	96.5
468.707	90.5
468.927	74.5
469.146	84.5
469.365	85.5
469.585	76.5
469.804	84.5
470.023	95.5
470.243	91.5
470.462	86.5
470.681	108.5
470.901	88.5
471.12	88.5
471.339	91.5
471.558	80.5
471.777	105.5
471.997	104.5
472.216	146.5
472.435	210.5
472.654	114.5
472.873	98.5
473.092	85.5
473.311	94.5
473.53	82.5
473.749	85.5
473.968	97.5
474.187	83.5
474.406	88.5
474.625	93.5
474.844	88.5
475.063	84.5
475.282	90.5
475.501	81.5
475.72	82.5
475.939	85.5
476.158	84.5
476.377	92.5
476.596	91.5
476.814	91.5
477.033	89.5
477.252	92.5
477.471	87.5
477.69	77.5
477.908	93.5
478.127	76.5
478.346	98.5
478.564	98.5
478.783	103.5
479.002	72.5
479.22	81.5
479.439	86.5
479.658	94.5
479.876	79.5
480.095	88.5
480.313	100.5
480.532	86.5
480.751	107.5
480.969	151.5
481.188	357.5
481.406	240.5
481.624	105.5
481.843	103.5
482.061	102.5
482.28	92.5
482.498	80.5
482.717	88.5
482.935	94.5
483.153	84.5
483.372	86.5
483.59	99.5
483.808	104.5
484.027	97.5
484.245	88.5
484.463	83.5
484.681	95.5
484.9	82.5
485.118	85.5
485.336	105.5
485.554	102.5
485.772	99.5
485.99	101.5
486.209	100.5
486.427	109.5
486.645	108.5
486.863	102.5
487.081	103.5
487.299	110.5
487.517	100.5
487.735	97.5
487.953	95.5
488.171	86.5
488.389	91.5
488.607	102.5
488.825	90.5
489.043	90.5
489.261	104.5
489.479	92.5
489.696	96.5
489.914	98.5
490.132	99.5
490.35	84.5
490.568	99.5
490.786	82.5
491.003	87.5
491.221	101.5
491.439	97.5
491.657	99.5
491.874	108.5
492.092	97.5
492.31	93.5
492.527	89.5
492.745	90.5
492.963	92.5
493.18	101.5
493.398	84.5
493.615	91.5
493.833	95.5
494.05	101.5
494.268	96.5
494.485	99.5
494.703	94.5
494.92	98.5
495.138	98.5
495.355	82.5
495.573	86.5
495.79	100.5
496.008	85.5
496.225	77.5
496.442	101.5
496.66	90.5
496.877	105.5
497.094	93.5
497.312	86.5
497.529	106.5
497.746	101.5
497.963	88.5
498.181	75.5
498.398	98.5
498.615	114.5
498.832	88.5
499.049	81.5
499.267	96.5
499.484	86.5
499.701	99.5
499.918	89.5
500.135	100.5
500.352	101.5
500.569	87.5
500.786	92.5
501.003	91.5
501.22	101.5
501.437	92.5
501.654	84.5
501.871	95.5
502.088	90.5
502.305	81.5
502.522	90.5
502.739	83.5
502.956	80.5
503.172	84.5
503.389	106.5
503.606	109.5
503.823	87.5
504.04	96.5
504.256	90.5
504.473	87.5
504.69	87.5
504.907	95.5
505.123	95.5
505.34	84.5
505.557	85.5
505.773	90.5
505.99	86.5
506.207	88.5
506.423	77.5
506.64	90.5
506.856	91.5
507.073	89.5
507.289	104.5
507.506	108.5
507.722	98.5
507.939	94.5
508.155	93.5
508.372	89.5
508.588	100.5
508.805	93.5
509.021	96.5
509.238	104.5
509.454	90.5
509.67	103.5
509.887	107.5
510.103	115.5
510.319	166.5
510.536	544.5
510.752	1694.5
510.968	492.5
511.184	124.5
511.401	99.5
511.617	90.5
511.833	101.5
512.049	89.5
512.265	76.5
512.481	94.5
512.698	87.5
512.914	92.5
513.13	96.5
513.346	106.5
513.562	102.5
513.778	96.5
513.994	97.5
514.21	97.5
514.426	116.5
514.642	116.5
514.858	117.5
515.074	136.5
515.29	329.5
515.506	991.5
515.721	376.5
515.937	135.5
516.153	105.5
516.369	85.5
516.585	94.5
516.801	96.5
517.016	109.5
517.232	109.5
517.448	92.5
517.664	108.5
517.879	90.5
518.095	81.5
518.311	91.5
518.527	89.5
518.742	103.5
518.958	75.5
519.173	100.5
519.389	77.5
519.605	84.5
519.82	84.5
520.036	94.5
520.251	110.5
520.467	97.5
520.682	101.5
520.898	113.5
521.113	102.5
521.329	118.5
521.544	184.5
521.76	388.5
521.975	1568.5
522.19	960.5
522.406	230.5
522.621	114.5
522.836	105.5
523.052	99.5
523.267	79.5
523.482	89.5
523.698	88.5
523.913	113.5
524.128	111.5
524.343	104.5
524.559	113.5
524.774	85.5
524.989	104.5
525.204	91.5
525.419	95.5
525.634	104.5
525.849	94.5
526.064	100.5
526.28	87.5
526.495	90.5
526.71	93.5
526.925	93.5
527.14	89.5
527.355	97.5
527.57	89.5
527.785	83.5
527.999	86.5
528.214	98.5
528.429	99.5
528.644	108.5
528.859	91.5
529.074	82.5
529.289	108.5
529.503	132.5
529.718	93.5
529.933	92.5
530.148	74.5
530.363	96.5
530.577	90.5
530.792	95.5
531.007	80.5
531.221	84.5
531.436	86.5
531.651	77.5
531.865	95.5
532.08	92.5
532.295	107.5
532.509	85.5
532.724	96.5
532.938	83.5
533.153	99.5
533.367	89.5
533.582	82.5
533.796	91.5
534.011	88.5
534.225	82.5
534.44	105.5
534.654	97.5
534.868	90.5
535.083	86.5
535.297	86.5
535.511	105.5
