Data from Circ_1983_H10_HRD10591_00081.txt Node
Date: Wed Jan 03 12:27:01 EST 2024
User: Yrep
Spectrometer: HR+D1059
Trigger mode: 1
Integration Time (sec): 1.000000E-1
Scans to average: 1
Electric dark correction enabled: true
Nonlinearity correction enabled: false
Boxcar width: 0
XAxis mode: Wavelengths
Number of Pixels in Spectrum: 2048
>>>>>Begin Spectral Data<<<<<
223.165	-1.44
223.4	-1.44
223.635	-1.44
223.869	-12.44
224.104	-31.44
224.338	-25.44
224.573	0.56
224.808	-15.44
225.042	-5.44
225.277	-14.44
225.511	-4.44
225.746	-14.44
225.98	12.56
226.215	11.56
226.449	18.56
226.683	24.56
226.918	23.56
227.152	33.56
227.387	41.56
227.621	44.56
227.856	50.56
228.09	41.56
228.324	56.56
228.559	64.56
228.793	74.56
229.027	66.56
229.262	74.56
229.496	59.56
229.73	75.56
229.964	80.56
230.199	88.56
230.433	81.56
230.667	70.56
230.901	80.56
231.136	74.56
231.37	84.56
231.604	89.56
231.838	72.56
232.072	78.56
232.306	70.56
232.541	88.56
232.775	91.56
233.009	83.56
233.243	85.56
233.477	82.56
233.711	96.56
233.945	71.56
234.179	76.56
234.413	80.56
234.647	79.56
234.881	94.56
235.115	97.56
235.349	78.56
235.583	87.56
235.817	81.56
236.051	67.56
236.285	83.56
236.519	80.56
236.753	74.56
236.987	62.56
237.221	84.56
237.455	87.56
237.689	74.56
237.922	79.56
238.156	72.56
238.39	67.56
238.624	74.56
238.858	82.56
239.091	68.56
239.325	66.56
239.559	74.56
239.793	86.56
240.027	92.56
240.26	72.56
240.494	71.56
240.728	64.56
240.961	84.56
241.195	72.56
241.429	78.56
241.662	70.56
241.896	87.56
242.13	69.56
242.363	78.56
242.597	82.56
242.83	77.56
243.064	71.56
243.298	71.56
243.531	85.56
243.765	79.56
243.998	74.56
244.232	75.56
244.465	87.56
244.699	78.56
244.932	70.56
245.166	80.56
245.399	80.56
245.633	87.56
245.866	66.56
246.099	73.56
246.333	90.56
246.566	74.56
246.8	83.56
247.033	71.56
247.266	76.56
247.5	68.56
247.733	84.56
247.966	84.56
248.2	88.56
248.433	75.56
248.666	80.56
248.899	89.56
249.133	82.56
249.366	100.56
249.599	95.56
249.832	80.56
250.066	79.56
250.299	80.56
250.532	66.56
250.765	82.56
250.998	72.56
251.231	82.56
251.465	82.56
251.698	64.56
251.931	62.56
252.164	66.56
252.397	91.56
252.63	67.56
252.863	106.56
253.096	90.56
253.329	75.56
253.562	75.56
253.795	79.56
254.028	86.56
254.261	91.56
254.494	81.56
254.727	86.56
254.96	86.56
255.193	72.56
255.426	82.56
255.659	80.56
255.892	97.56
256.124	89.56
256.357	75.56
256.59	85.56
256.823	81.56
257.056	88.56
257.289	82.56
257.521	86.56
257.754	76.56
257.987	90.56
258.22	78.56
258.452	94.56
258.685	80.56
258.918	89.56
259.151	81.56
259.383	82.56
259.616	69.56
259.849	81.56
260.081	78.56
260.314	84.56
260.547	88.56
260.779	82.56
261.012	87.56
261.244	91.56
261.477	88.56
261.71	87.56
261.942	97.56
262.175	104.56
262.407	92.56
262.64	75.56
262.872	91.56
263.105	76.56
263.337	88.56
263.57	87.56
263.802	80.56
264.035	85.56
264.267	89.56
264.499	92.56
264.732	84.56
264.964	90.56
265.197	78.56
265.429	86.56
265.661	86.56
265.894	71.56
266.126	78.56
266.358	83.56
266.591	83.56
266.823	72.56
267.055	93.56
267.287	82.56
267.52	80.56
267.752	66.56
267.984	80.56
268.216	82.56
268.448	89.56
268.681	90.56
268.913	87.56
269.145	83.56
269.377	88.56
269.609	88.56
269.841	93.56
270.073	79.56
270.306	81.56
270.538	82.56
270.77	82.56
271.002	72.56
271.234	83.56
271.466	96.56
271.698	90.56
271.93	74.56
272.162	62.56
272.394	73.56
272.626	80.56
272.858	86.56
273.09	84.56
273.322	87.56
273.553	71.56
273.785	67.56
274.017	91.56
274.249	80.56
274.481	83.56
274.713	80.56
274.945	87.56
275.176	83.56
275.408	84.56
275.64	86.56
275.872	91.56
276.104	80.56
276.335	82.56
276.567	95.56
276.799	99.56
277.031	81.56
277.262	98.56
277.494	78.56
277.726	89.56
277.957	90.56
278.189	74.56
278.421	84.56
278.652	88.56
278.884	100.56
279.115	84.56
279.347	87.56
279.579	82.56
279.81	80.56
280.042	105.56
280.273	97.56
280.505	96.56
280.736	90.56
280.968	94.56
281.199	88.56
281.431	79.56
281.662	83.56
281.894	79.56
282.125	92.56
282.356	103.56
282.588	130.56
282.819	102.56
283.051	76.56
283.282	85.56
283.513	92.56
283.745	89.56
283.976	94.56
284.207	82.56
284.439	95.56
284.67	97.56
284.901	87.56
285.132	70.56
285.364	90.56
285.595	68.56
285.826	86.56
286.057	90.56
286.288	70.56
286.52	80.56
286.751	78.56
286.982	88.56
287.213	84.56
287.444	80.56
287.675	81.56
287.906	90.56
288.138	96.56
288.369	86.56
288.6	79.56
288.831	81.56
289.062	85.56
289.293	97.56
289.524	90.56
289.755	86.56
289.986	81.56
290.217	90.56
290.448	90.56
290.679	75.56
290.91	98.56
291.141	88.56
291.371	91.56
291.602	77.56
291.833	81.56
292.064	72.56
292.295	87.56
292.526	88.56
292.757	81.56
292.987	87.56
293.218	93.56
293.449	88.56
293.68	94.56
293.91	83.56
294.141	92.56
294.372	85.56
294.603	79.56
294.833	88.56
295.064	88.56
295.295	87.56
295.525	90.56
295.756	90.56
295.987	97.56
296.217	96.56
296.448	96.56
296.679	90.56
296.909	93.56
297.14	100.56
297.37	81.56
297.601	82.56
297.831	89.56
298.062	89.56
298.292	88.56
298.523	82.56
298.753	80.56
298.984	75.56
299.214	88.56
299.445	88.56
299.675	74.56
299.905	96.56
300.136	94.56
300.366	84.56
300.597	96.56
300.827	103.56
301.057	104.56
301.288	89.56
301.518	81.56
301.748	89.56
301.979	103.56
302.209	78.56
302.439	78.56
302.669	104.56
302.9	85.56
303.13	67.56
303.36	90.56
303.59	94.56
303.82	96.56
304.051	82.56
304.281	80.56
304.511	75.56
304.741	89.56
304.971	103.56
305.201	83.56
305.431	94.56
305.661	87.56
305.891	90.56
306.121	99.56
306.352	98.56
306.582	101.56
306.812	96.56
307.042	89.56
307.272	98.56
307.502	93.56
307.731	106.56
307.961	95.56
308.191	89.56
308.421	88.56
308.651	80.56
308.881	90.56
309.111	95.56
309.341	93.56
309.571	103.56
309.8	95.56
310.03	81.56
310.26	96.56
310.49	96.56
310.72	89.56
310.949	98.56
311.179	88.56
311.409	99.56
311.639	87.56
311.868	83.56
312.098	86.56
312.328	80.56
312.557	97.56
312.787	92.56
313.017	103.56
313.246	100.56
313.476	84.56
313.706	83.56
313.935	92.56
314.165	105.56
314.394	99.56
314.624	93.56
314.853	90.56
315.083	100.56
315.312	97.56
315.542	92.56
315.771	98.56
316.001	92.56
316.23	95.56
316.46	79.56
316.689	102.56
316.919	96.56
317.148	91.56
317.377	105.56
317.607	97.56
317.836	79.56
318.065	94.56
318.295	84.56
318.524	80.56
318.753	82.56
318.983	86.56
319.212	100.56
319.441	92.56
319.67	84.56
319.9	90.56
320.129	86.56
320.358	98.56
320.587	102.56
320.816	111.56
321.046	100.56
321.275	91.56
321.504	90.56
321.733	102.56
321.962	103.56
322.191	88.56
322.42	96.56
322.649	97.56
322.878	107.56
323.108	115.56
323.337	116.56
323.566	123.56
323.795	132.56
324.024	168.56
324.253	306.56
324.482	628.56
324.71	1266.56
324.939	1673.56
325.168	602.56
325.397	197.56
325.626	131.56
325.855	118.56
326.084	120.56
326.313	114.56
326.542	124.56
326.77	194.56
326.999	372.56
327.228	704.56
327.457	1308.56
327.686	1052.56
327.914	319.56
328.143	194.56
328.372	189.56
328.6	131.56
328.829	99.56
329.058	110.56
329.287	109.56
329.515	103.56
329.744	117.56
329.972	131.56
330.201	202.56
330.43	254.56
330.658	176.56
330.887	114.56
331.115	116.56
331.344	89.56
331.572	95.56
331.801	99.56
332.03	111.56
332.258	102.56
332.486	83.56
332.715	84.56
332.943	101.56
333.172	94.56
333.4	113.56
333.629	114.56
333.857	129.56
334.085	130.56
334.314	193.56
334.542	280.56
334.771	276.56
334.999	132.56
335.227	111.56
335.455	88.56
335.684	102.56
335.912	91.56
336.14	106.56
336.369	87.56
336.597	85.56
336.825	99.56
337.053	107.56
337.281	98.56
337.51	82.56
337.738	82.56
337.966	88.56
338.194	100.56
338.422	102.56
338.65	82.56
338.878	90.56
339.106	96.56
339.334	94.56
339.562	90.56
339.79	94.56
340.018	94.56
340.246	98.56
340.474	95.56
340.702	82.56
340.93	73.56
341.158	82.56
341.386	82.56
341.614	92.56
341.842	85.56
342.07	90.56
342.298	89.56
342.526	107.56
342.754	84.56
342.981	92.56
343.209	94.56
343.437	97.56
343.665	74.56
343.893	78.56
344.12	95.56
344.348	104.56
344.576	84.56
344.804	99.56
345.031	95.56
345.259	97.56
345.487	91.56
345.714	84.56
345.942	82.56
346.17	99.56
346.397	75.56
346.625	91.56
346.853	84.56
347.08	85.56
347.308	95.56
347.535	95.56
347.763	115.56
347.99	99.56
348.218	87.56
348.445	104.56
348.673	97.56
348.9	86.56
349.128	87.56
349.355	89.56
349.583	91.56
349.81	99.56
350.037	80.56
350.265	86.56
350.492	97.56
350.72	89.56
350.947	117.56
351.174	104.56
351.402	95.56
351.629	83.56
351.856	99.56
352.083	94.56
352.311	99.56
352.538	87.56
352.765	94.56
352.992	94.56
353.22	86.56
353.447	109.56
353.674	81.56
353.901	98.56
354.128	94.56
354.355	99.56
354.583	82.56
354.81	94.56
355.037	92.56
355.264	98.56
355.491	79.56
355.718	80.56
355.945	88.56
356.172	79.56
356.399	87.56
356.626	105.56
356.853	95.56
357.08	85.56
357.307	103.56
357.534	93.56
357.761	96.56
357.988	111.56
358.215	97.56
358.441	72.56
358.668	94.56
358.895	88.56
359.122	96.56
359.349	87.56
359.576	83.56
359.802	88.56
360.029	99.56
360.256	102.56
360.483	91.56
360.709	84.56
360.936	97.56
361.163	89.56
361.39	89.56
361.616	94.56
361.843	89.56
362.07	86.56
362.296	112.56
362.523	79.56
362.749	91.56
362.976	82.56
363.203	98.56
363.429	80.56
363.656	86.56
363.882	78.56
364.109	82.56
364.335	89.56
364.562	88.56
364.788	88.56
365.015	107.56
365.241	104.56
365.468	94.56
365.694	95.56
365.92	86.56
366.147	77.56
366.373	94.56
366.599	80.56
366.826	80.56
367.052	76.56
367.278	88.56
367.505	77.56
367.731	97.56
367.957	88.56
368.184	93.56
368.41	76.56
368.636	116.56
368.862	106.56
369.089	105.56
369.315	83.56
369.541	86.56
369.767	94.56
369.993	102.56
370.219	82.56
370.445	83.56
370.672	81.56
370.898	90.56
371.124	87.56
371.35	85.56
371.576	96.56
371.802	91.56
372.028	89.56
372.254	79.56
372.48	81.56
372.706	90.56
372.932	83.56
373.158	79.56
373.384	81.56
373.61	81.56
373.835	78.56
374.061	90.56
374.287	82.56
374.513	77.56
374.739	90.56
374.965	79.56
375.191	83.56
375.416	85.56
375.642	84.56
375.868	74.56
376.094	82.56
376.319	88.56
376.545	82.56
376.771	94.56
376.997	79.56
377.222	89.56
377.448	87.56
377.674	74.56
377.899	78.56
378.125	102.56
378.35	81.56
378.576	94.56
378.802	86.56
379.027	82.56
379.253	79.56
379.478	78.56
379.704	88.56
379.929	91.56
380.155	80.56
380.38	85.56
380.606	91.56
380.831	87.56
381.057	86.56
381.282	96.56
381.507	100.56
381.733	90.56
381.958	82.56
382.184	99.56
382.409	98.56
382.634	100.56
382.86	83.56
383.085	93.56
383.31	112.56
383.535	87.56
383.761	87.56
383.986	102.56
384.211	93.56
384.436	93.56
384.662	99.56
384.887	76.56
385.112	95.56
385.337	101.56
385.562	102.56
385.787	90.56
386.013	103.56
386.238	118.56
386.463	111.56
386.688	99.56
386.913	108.56
387.138	103.56
387.363	103.56
387.588	102.56
387.813	99.56
388.038	100.56
388.263	93.56
388.488	110.56
388.713	101.56
388.938	104.56
389.163	84.56
389.387	103.56
389.612	97.56
389.837	92.56
390.062	97.56
390.287	97.56
390.512	87.56
390.736	98.56
390.961	85.56
391.186	96.56
391.411	90.56
391.636	98.56
391.86	66.56
392.085	87.56
392.31	84.56
392.534	67.56
392.759	100.56
392.984	89.56
393.208	89.56
393.433	95.56
393.658	85.56
393.882	83.56
394.107	82.56
394.331	96.56
394.556	75.56
394.78	89.56
395.005	84.56
395.229	89.56
395.454	85.56
395.678	100.56
395.903	92.56
396.127	101.56
396.352	91.56
396.576	74.56
396.801	84.56
397.025	89.56
397.249	96.56
397.474	97.56
397.698	104.56
397.922	82.56
398.147	77.56
398.371	91.56
398.595	97.56
398.82	89.56
399.044	77.56
399.268	75.56
399.492	75.56
399.717	85.56
399.941	94.56
400.165	88.56
400.389	84.56
400.613	80.56
400.837	68.56
401.062	83.56
401.286	79.56
401.51	78.56
401.734	87.56
401.958	93.56
402.182	95.56
402.406	131.56
402.63	102.56
402.854	99.56
403.078	104.56
403.302	86.56
403.526	86.56
403.75	79.56
403.974	87.56
404.198	97.56
404.422	81.56
404.645	99.56
404.869	105.56
405.093	80.56
405.317	98.56
405.541	104.56
405.765	100.56
405.988	108.56
406.212	149.56
406.436	176.56
406.66	118.56
406.883	92.56
407.107	84.56
407.331	98.56
407.555	94.56
407.778	93.56
408.002	96.56
408.226	92.56
408.449	85.56
408.673	83.56
408.896	87.56
409.12	108.56
409.344	74.56
409.567	100.56
409.791	91.56
410.014	90.56
410.238	91.56
410.461	97.56
410.685	83.56
410.908	99.56
411.132	84.56
411.355	92.56
411.578	82.56
411.802	80.56
412.025	71.56
412.249	86.56
412.472	94.56
412.695	101.56
412.919	98.56
413.142	94.56
413.365	94.56
413.589	81.56
413.812	78.56
414.035	91.56
414.258	98.56
414.482	84.56
414.705	86.56
414.928	93.56
415.151	98.56
415.374	92.56
415.597	97.56
415.821	73.56
416.044	84.56
416.267	91.56
416.49	90.56
416.713	88.56
416.936	88.56
417.159	79.56
417.382	90.56
417.605	109.56
417.828	103.56
418.051	103.56
418.274	99.56
418.497	80.56
418.72	79.56
418.943	82.56
419.166	107.56
419.389	82.56
419.611	88.56
419.834	102.56
420.057	85.56
420.28	90.56
420.503	81.56
420.726	90.56
420.948	86.56
421.171	91.56
421.394	86.56
421.617	99.56
421.839	90.56
422.062	85.56
422.285	106.56
422.507	86.56
422.73	110.56
422.953	97.56
423.175	81.56
423.398	95.56
423.621	76.56
423.843	78.56
424.066	73.56
424.288	72.56
424.511	102.56
424.733	99.56
424.956	101.56
425.178	96.56
425.401	98.56
425.623	89.56
425.846	98.56
426.068	86.56
426.291	94.56
426.513	81.56
426.735	91.56
426.958	96.56
427.18	108.56
427.402	131.56
427.625	131.56
427.847	143.56
428.069	113.56
428.292	87.56
428.514	88.56
428.736	80.56
428.958	80.56
429.181	91.56
429.403	75.56
429.625	89.56
429.847	104.56
430.069	97.56
430.292	116.56
430.514	80.56
430.736	70.56
430.958	86.56
431.18	75.56
431.402	86.56
431.624	73.56
431.846	94.56
432.068	92.56
432.29	78.56
432.512	84.56
432.734	89.56
432.956	95.56
433.178	91.56
433.4	114.56
433.622	85.56
433.844	90.56
434.066	92.56
434.287	97.56
434.509	90.56
434.731	90.56
434.953	92.56
435.175	79.56
435.397	97.56
435.618	85.56
435.84	91.56
436.062	112.56
436.284	98.56
436.505	95.56
436.727	85.56
436.949	93.56
437.17	80.56
437.392	78.56
437.614	86.56
437.835	88.56
438.057	105.56
438.278	89.56
438.5	108.56
438.721	112.56
438.943	100.56
439.165	92.56
439.386	86.56
439.608	76.56
439.829	90.56
440.05	97.56
440.272	117.56
440.493	96.56
440.715	98.56
440.936	82.56
441.158	71.56
441.379	80.56
441.6	102.56
441.822	106.56
442.043	97.56
442.264	94.56
442.486	87.56
442.707	90.56
442.928	98.56
443.149	108.56
443.371	114.56
443.592	114.56
443.813	114.56
444.034	92.56
444.255	90.56
444.476	93.56
444.698	79.56
444.919	78.56
445.14	136.56
445.361	107.56
445.582	105.56
445.803	116.56
446.024	128.56
446.245	120.56
446.466	98.56
446.687	78.56
446.908	90.56
447.129	79.56
447.35	86.56
447.571	92.56
447.792	106.56
448.013	100.56
448.234	102.56
448.455	86.56
448.675	95.56
448.896	115.56
449.117	104.56
449.338	82.56
449.559	103.56
449.779	121.56
450	85.56
450.221	97.56
450.442	85.56
450.662	87.56
450.883	107.56
451.104	95.56
451.324	95.56
451.545	81.56
451.766	84.56
451.986	93.56
452.207	89.56
452.428	85.56
452.648	105.56
452.869	107.56
453.089	106.56
453.31	98.56
453.53	81.56
453.751	96.56
453.971	90.56
454.192	102.56
454.412	92.56
454.633	81.56
454.853	83.56
455.073	94.56
455.294	91.56
455.514	102.56
455.734	97.56
455.955	73.56
456.175	73.56
456.395	97.56
456.616	79.56
456.836	75.56
457.056	83.56
457.276	82.56
457.497	78.56
457.717	83.56
457.937	95.56
458.157	82.56
458.377	73.56
458.598	90.56
458.818	126.56
459.038	134.56
459.258	104.56
459.478	84.56
459.698	84.56
459.918	102.56
460.138	94.56
460.358	80.56
460.578	88.56
460.798	82.56
461.018	90.56
461.238	82.56
461.458	81.56
461.678	76.56
461.898	86.56
462.118	90.56
462.338	83.56
462.558	89.56
462.777	66.56
462.997	86.56
463.217	81.56
463.437	85.56
463.657	83.56
463.876	94.56
464.096	87.56
464.316	79.56
464.536	93.56
464.755	110.56
464.975	95.56
465.195	131.56
465.414	139.56
465.634	101.56
465.854	89.56
466.073	80.56
466.293	95.56
466.512	94.56
466.732	79.56
466.951	88.56
467.171	78.56
467.391	102.56
467.61	102.56
467.829	115.56
468.049	145.56
468.268	176.56
468.488	109.56
468.707	94.56
468.927	86.56
469.146	91.56
469.365	82.56
469.585	92.56
469.804	90.56
470.023	97.56
470.243	90.56
470.462	87.56
470.681	88.56
470.901	91.56
471.12	90.56
471.339	87.56
471.558	83.56
471.777	102.56
471.997	129.56
472.216	240.56
472.435	387.56
472.654	158.56
472.873	83.56
473.092	94.56
473.311	80.56
473.53	79.56
473.749	95.56
473.968	102.56
474.187	108.56
474.406	94.56
474.625	90.56
474.844	76.56
475.063	82.56
475.282	79.56
475.501	94.56
475.72	102.56
475.939	81.56
476.158	94.56
476.377	87.56
476.596	78.56
476.814	79.56
477.033	96.56
477.252	82.56
477.471	87.56
477.69	80.56
477.908	99.56
478.127	95.56
478.346	80.56
478.564	98.56
478.783	82.56
479.002	88.56
479.22	96.56
479.439	111.56
479.658	97.56
479.876	105.56
480.095	98.56
480.313	107.56
480.532	100.56
480.751	106.56
480.969	235.56
481.188	671.56
481.406	406.56
481.624	139.56
481.843	109.56
482.061	82.56
482.28	90.56
482.498	86.56
482.717	92.56
482.935	91.56
483.153	91.56
483.372	106.56
483.59	82.56
483.808	85.56
484.027	84.56
484.245	98.56
484.463	79.56
484.681	95.56
484.9	81.56
485.118	97.56
485.336	95.56
485.554	114.56
485.772	93.56
485.99	104.56
486.209	104.56
486.427	98.56
486.645	91.56
486.863	102.56
487.081	107.56
487.299	98.56
487.517	91.56
487.735	99.56
487.953	90.56
488.171	107.56
488.389	97.56
488.607	84.56
488.825	83.56
489.043	94.56
489.261	88.56
489.479	88.56
489.696	94.56
489.914	84.56
490.132	71.56
490.35	91.56
490.568	78.56
490.786	103.56
491.003	91.56
491.221	101.56
491.439	93.56
491.657	103.56
491.874	103.56
492.092	105.56
492.31	90.56
492.527	97.56
492.745	93.56
492.963	89.56
493.18	101.56
493.398	88.56
493.615	107.56
493.833	108.56
494.05	92.56
494.268	90.56
494.485	81.56
494.703	85.56
494.92	98.56
495.138	92.56
495.355	95.56
495.573	93.56
495.79	92.56
496.008	84.56
496.225	73.56
496.442	95.56
496.66	103.56
496.877	99.56
497.094	94.56
497.312	92.56
497.529	94.56
497.746	86.56
497.963	87.56
498.181	87.56
498.398	92.56
498.615	103.56
498.832	97.56
499.049	94.56
499.267	99.56
499.484	99.56
499.701	96.56
499.918	91.56
500.135	92.56
500.352	77.56
500.569	94.56
500.786	104.56
501.003	88.56
501.22	90.56
501.437	88.56
501.654	97.56
501.871	103.56
502.088	91.56
502.305	86.56
502.522	83.56
502.739	88.56
502.956	94.56
503.172	89.56
503.389	94.56
503.606	86.56
503.823	96.56
504.04	87.56
504.256	88.56
504.473	99.56
504.69	83.56
504.907	88.56
505.123	72.56
505.34	92.56
505.557	88.56
505.773	94.56
505.99	84.56
506.207	71.56
506.423	90.56
506.64	87.56
506.856	90.56
507.073	94.56
507.289	87.56
507.506	88.56
507.722	98.56
507.939	101.56
508.155	90.56
508.372	90.56
508.588	90.56
508.805	91.56
509.021	100.56
509.238	90.56
509.454	91.56
509.67	99.56
509.887	102.56
510.103	121.56
510.319	166.56
510.536	551.56
510.752	1682.56
510.968	490.56
511.184	124.56
511.401	94.56
511.617	95.56
511.833	86.56
512.049	96.56
512.265	97.56
512.481	89.56
512.698	90.56
512.914	90.56
513.13	94.56
513.346	74.56
513.562	93.56
513.778	88.56
513.994	80.56
514.21	88.56
514.426	97.56
514.642	114.56
514.858	106.56
515.074	145.56
515.29	362.56
515.506	1050.56
515.721	381.56
515.937	115.56
516.153	100.56
516.369	102.56
516.585	92.56
