Data from Circ_1983_H10_HRD10591_00066.txt Node
Date: Wed Jan 03 12:26:58 EST 2024
User: Yrep
Spectrometer: HR+D1059
Trigger mode: 1
Integration Time (sec): 1.000000E-1
Scans to average: 1
Electric dark correction enabled: true
Nonlinearity correction enabled: false
Boxcar width: 0
XAxis mode: Wavelengths
Number of Pixels in Spectrum: 2048
>>>>>Begin Spectral Data<<<<<
223.165	-12.69
223.4	-12.69
223.635	-12.69
223.869	-18.69
224.104	4.31
224.338	-25.69
224.573	-11.69
224.808	-12.69
225.042	-11.69
225.277	-5.69
225.511	-3.69
225.746	15.31
225.98	18.31
226.215	13.31
226.449	5.31
226.683	16.31
226.918	14.31
227.152	15.31
227.387	35.31
227.621	53.31
227.856	47.31
228.09	42.31
228.324	63.31
228.559	52.31
228.793	66.31
229.027	68.31
229.262	71.31
229.496	87.31
229.73	85.31
229.964	96.31
230.199	81.31
230.433	75.31
230.667	94.31
230.901	73.31
231.136	76.31
231.37	80.31
231.604	98.31
231.838	85.31
232.072	74.31
232.306	85.31
232.541	73.31
232.775	85.31
233.009	86.31
233.243	93.31
233.477	76.31
233.711	91.31
233.945	79.31
234.179	75.31
234.413	86.31
234.647	71.31
234.881	78.31
235.115	84.31
235.349	65.31
235.583	85.31
235.817	97.31
236.051	80.31
236.285	75.31
236.519	80.31
236.753	65.31
236.987	70.31
237.221	87.31
237.455	83.31
237.689	94.31
237.922	85.31
238.156	85.31
238.39	70.31
238.624	85.31
238.858	71.31
239.091	85.31
239.325	85.31
239.559	73.31
239.793	86.31
240.027	79.31
240.26	70.31
240.494	85.31
240.728	106.31
240.961	72.31
241.195	91.31
241.429	81.31
241.662	78.31
241.896	95.31
242.13	60.31
242.363	79.31
242.597	80.31
242.83	95.31
243.064	84.31
243.298	85.31
243.531	87.31
243.765	67.31
243.998	84.31
244.232	87.31
244.465	77.31
244.699	83.31
244.932	71.31
245.166	71.31
245.399	81.31
245.633	88.31
245.866	75.31
246.099	87.31
246.333	88.31
246.566	101.31
246.8	77.31
247.033	84.31
247.266	90.31
247.5	85.31
247.733	87.31
247.966	84.31
248.2	79.31
248.433	87.31
248.666	80.31
248.899	78.31
249.133	93.31
249.366	91.31
249.599	84.31
249.832	75.31
250.066	77.31
250.299	84.31
250.532	81.31
250.765	85.31
250.998	88.31
251.231	87.31
251.465	99.31
251.698	84.31
251.931	87.31
252.164	83.31
252.397	75.31
252.63	84.31
252.863	79.31
253.096	82.31
253.329	68.31
253.562	87.31
253.795	71.31
254.028	86.31
254.261	85.31
254.494	77.31
254.727	91.31
254.96	88.31
255.193	73.31
255.426	78.31
255.659	75.31
255.892	87.31
256.124	88.31
256.357	85.31
256.59	88.31
256.823	109.31
257.056	88.31
257.289	89.31
257.521	78.31
257.754	85.31
257.987	74.31
258.22	92.31
258.452	85.31
258.685	74.31
258.918	88.31
259.151	87.31
259.383	85.31
259.616	90.31
259.849	81.31
260.081	70.31
260.314	80.31
260.547	91.31
260.779	85.31
261.012	97.31
261.244	94.31
261.477	95.31
261.71	92.31
261.942	103.31
262.175	105.31
262.407	97.31
262.64	68.31
262.872	91.31
263.105	85.31
263.337	72.31
263.57	89.31
263.802	86.31
264.035	80.31
264.267	74.31
264.499	73.31
264.732	85.31
264.964	86.31
265.197	99.31
265.429	75.31
265.661	81.31
265.894	72.31
266.126	97.31
266.358	104.31
266.591	86.31
266.823	79.31
267.055	85.31
267.287	92.31
267.52	77.31
267.752	78.31
267.984	84.31
268.216	99.31
268.448	75.31
268.681	101.31
268.913	98.31
269.145	78.31
269.377	78.31
269.609	83.31
269.841	81.31
270.073	79.31
270.306	73.31
270.538	81.31
270.77	92.31
271.002	92.31
271.234	87.31
271.466	83.31
271.698	103.31
271.93	92.31
272.162	80.31
272.394	86.31
272.626	79.31
272.858	90.31
273.09	87.31
273.322	93.31
273.553	96.31
273.785	99.31
274.017	91.31
274.249	93.31
274.481	92.31
274.713	91.31
274.945	92.31
275.176	87.31
275.408	91.31
275.64	77.31
275.872	93.31
276.104	96.31
276.335	92.31
276.567	99.31
276.799	108.31
277.031	97.31
277.262	99.31
277.494	92.31
277.726	81.31
277.957	97.31
278.189	100.31
278.421	79.31
278.652	91.31
278.884	82.31
279.115	101.31
279.347	94.31
279.579	89.31
279.81	87.31
280.042	103.31
280.273	97.31
280.505	83.31
280.736	86.31
280.968	78.31
281.199	89.31
281.431	99.31
281.662	81.31
281.894	84.31
282.125	89.31
282.356	116.31
282.588	137.31
282.819	112.31
283.051	98.31
283.282	80.31
283.513	103.31
283.745	91.31
283.976	82.31
284.207	98.31
284.439	101.31
284.67	90.31
284.901	96.31
285.132	97.31
285.364	86.31
285.595	87.31
285.826	94.31
286.057	97.31
286.288	93.31
286.52	83.31
286.751	83.31
286.982	81.31
287.213	93.31
287.444	85.31
287.675	96.31
287.906	77.31
288.138	76.31
288.369	91.31
288.6	91.31
288.831	86.31
289.062	96.31
289.293	83.31
289.524	86.31
289.755	94.31
289.986	86.31
290.217	86.31
290.448	83.31
290.679	86.31
290.91	80.31
291.141	109.31
291.371	81.31
291.602	84.31
291.833	87.31
292.064	89.31
292.295	103.31
292.526	97.31
292.757	96.31
292.987	79.31
293.218	84.31
293.449	95.31
293.68	99.31
293.91	95.31
294.141	76.31
294.372	89.31
294.603	83.31
294.833	83.31
295.064	88.31
295.295	92.31
295.525	113.31
295.756	100.31
295.987	108.31
296.217	131.31
296.448	107.31
296.679	95.31
296.909	90.31
297.14	94.31
297.37	85.31
297.601	93.31
297.831	110.31
298.062	95.31
298.292	86.31
298.523	77.31
298.753	91.31
298.984	76.31
299.214	96.31
299.445	93.31
299.675	103.31
299.905	91.31
300.136	96.31
300.366	91.31
300.597	96.31
300.827	100.31
301.057	102.31
301.288	89.31
301.518	81.31
301.748	99.31
301.979	97.31
302.209	96.31
302.439	102.31
302.669	70.31
302.9	85.31
303.13	91.31
303.36	88.31
303.59	92.31
303.82	110.31
304.051	85.31
304.281	81.31
304.511	91.31
304.741	84.31
304.971	92.31
305.201	92.31
305.431	94.31
305.661	91.31
305.891	91.31
306.121	93.31
306.352	95.31
306.582	115.31
306.812	91.31
307.042	78.31
307.272	101.31
307.502	115.31
307.731	109.31
307.961	107.31
308.191	93.31
308.421	98.31
308.651	99.31
308.881	104.31
309.111	92.31
309.341	107.31
309.571	104.31
309.8	92.31
310.03	102.31
310.26	99.31
310.49	103.31
310.72	98.31
310.949	104.31
311.179	95.31
311.409	99.31
311.639	107.31
311.868	104.31
312.098	107.31
312.328	97.31
312.557	112.31
312.787	100.31
313.017	101.31
313.246	101.31
313.476	96.31
313.706	89.31
313.935	95.31
314.165	92.31
314.394	113.31
314.624	87.31
314.853	98.31
315.083	87.31
315.312	98.31
315.542	88.31
315.771	95.31
316.001	85.31
316.23	91.31
316.46	86.31
316.689	88.31
316.919	112.31
317.148	106.31
317.377	108.31
317.607	92.31
317.836	95.31
318.065	92.31
318.295	100.31
318.524	105.31
318.753	97.31
318.983	97.31
319.212	96.31
319.441	103.31
319.67	97.31
319.9	92.31
320.129	101.31
320.358	87.31
320.587	103.31
320.816	95.31
321.046	90.31
321.275	93.31
321.504	94.31
321.733	111.31
321.962	105.31
322.191	100.31
322.42	102.31
322.649	116.31
322.878	111.31
323.108	103.31
323.337	104.31
323.566	119.31
323.795	131.31
324.024	182.31
324.253	319.31
324.482	643.31
324.71	1283.31
324.939	1644.31
325.168	615.31
325.397	203.31
325.626	151.31
325.855	120.31
326.084	115.31
326.313	134.31
326.542	147.31
326.77	182.31
326.999	365.31
327.228	728.31
327.457	1254.31
327.686	1011.31
327.914	321.31
328.143	191.31
328.372	171.31
328.6	138.31
328.829	112.31
329.058	137.31
329.287	119.31
329.515	129.31
329.744	120.31
329.972	137.31
330.201	200.31
330.43	213.31
330.658	150.31
330.887	137.31
331.115	113.31
331.344	111.31
331.572	99.31
331.801	99.31
332.03	95.31
332.258	89.31
332.486	93.31
332.715	102.31
332.943	102.31
333.172	111.31
333.4	92.31
333.629	113.31
333.857	118.31
334.085	140.31
334.314	183.31
334.542	286.31
334.771	254.31
334.999	134.31
335.227	104.31
335.455	88.31
335.684	101.31
335.912	108.31
336.14	101.31
336.369	101.31
336.597	112.31
336.825	102.31
337.053	92.31
337.281	103.31
337.51	101.31
337.738	91.31
337.966	99.31
338.194	105.31
338.422	112.31
338.65	95.31
338.878	101.31
339.106	100.31
339.334	88.31
339.562	96.31
339.79	80.31
340.018	89.31
340.246	91.31
340.474	95.31
340.702	96.31
340.93	97.31
341.158	105.31
341.386	103.31
341.614	106.31
341.842	104.31
342.07	109.31
342.298	96.31
342.526	104.31
342.754	107.31
342.981	89.31
343.209	82.31
343.437	91.31
343.665	89.31
343.893	82.31
344.12	108.31
344.348	86.31
344.576	84.31
344.804	83.31
345.031	96.31
345.259	89.31
345.487	103.31
345.714	91.31
345.942	91.31
346.17	107.31
346.397	100.31
346.625	111.31
346.853	76.31
347.08	88.31
347.308	121.31
347.535	113.31
347.763	85.31
347.99	96.31
348.218	122.31
348.445	105.31
348.673	97.31
348.9	101.31
349.128	97.31
349.355	92.31
349.583	102.31
349.81	104.31
350.037	101.31
350.265	111.31
350.492	107.31
350.72	107.31
350.947	106.31
351.174	113.31
351.402	91.31
351.629	107.31
351.856	107.31
352.083	104.31
352.311	111.31
352.538	111.31
352.765	105.31
352.992	113.31
353.22	111.31
353.447	104.31
353.674	106.31
353.901	96.31
354.128	96.31
354.355	98.31
354.583	97.31
354.81	99.31
355.037	107.31
355.264	111.31
355.491	104.31
355.718	110.31
355.945	105.31
356.172	101.31
356.399	99.31
356.626	108.31
356.853	95.31
357.08	108.31
357.307	115.31
357.534	83.31
357.761	93.31
357.988	101.31
358.215	96.31
358.441	106.31
358.668	105.31
358.895	106.31
359.122	96.31
359.349	97.31
359.576	100.31
359.802	96.31
360.029	100.31
360.256	107.31
360.483	107.31
360.709	89.31
360.936	91.31
361.163	93.31
361.39	100.31
361.616	93.31
361.843	92.31
362.07	100.31
362.296	98.31
362.523	97.31
362.749	96.31
362.976	100.31
363.203	107.31
363.429	97.31
363.656	89.31
363.882	102.31
364.109	101.31
364.335	110.31
364.562	96.31
364.788	96.31
365.015	93.31
365.241	111.31
365.468	87.31
365.694	108.31
365.92	96.31
366.147	88.31
366.373	103.31
366.599	105.31
366.826	105.31
367.052	106.31
367.278	83.31
367.505	98.31
367.731	88.31
367.957	91.31
368.184	114.31
368.41	113.31
368.636	106.31
368.862	107.31
369.089	99.31
369.315	95.31
369.541	108.31
369.767	95.31
369.993	103.31
370.219	85.31
370.445	115.31
370.672	84.31
370.898	103.31
371.124	89.31
371.35	108.31
371.576	96.31
371.802	96.31
372.028	99.31
372.254	83.31
372.48	100.31
372.706	95.31
372.932	90.31
373.158	91.31
373.384	83.31
373.61	89.31
373.835	101.31
374.061	99.31
374.287	110.31
374.513	91.31
374.739	85.31
374.965	109.31
375.191	83.31
375.416	87.31
375.642	95.31
375.868	102.31
376.094	81.31
376.319	80.31
376.545	99.31
376.771	104.31
376.997	110.31
377.222	99.31
377.448	94.31
377.674	99.31
377.899	94.31
378.125	88.31
378.35	96.31
378.576	88.31
378.802	91.31
379.027	91.31
379.253	96.31
379.478	99.31
379.704	83.31
379.929	105.31
380.155	103.31
380.38	79.31
380.606	99.31
380.831	97.31
381.057	102.31
381.282	105.31
381.507	92.31
381.733	102.31
381.958	105.31
382.184	97.31
382.409	122.31
382.634	103.31
382.86	96.31
383.085	113.31
383.31	108.31
383.535	93.31
383.761	103.31
383.986	100.31
384.211	100.31
384.436	96.31
384.662	107.31
384.887	107.31
385.112	97.31
385.337	107.31
385.562	104.31
385.787	101.31
386.013	119.31
386.238	114.31
386.463	118.31
386.688	109.31
386.913	110.31
387.138	106.31
387.363	105.31
387.588	95.31
387.813	106.31
388.038	112.31
388.263	124.31
388.488	123.31
388.713	103.31
388.938	89.31
389.163	102.31
389.387	95.31
389.612	109.31
389.837	100.31
390.062	102.31
390.287	103.31
390.512	105.31
390.736	100.31
390.961	89.31
391.186	90.31
391.411	104.31
391.636	91.31
391.86	86.31
392.085	86.31
392.31	106.31
392.534	93.31
392.759	95.31
392.984	111.31
393.208	96.31
393.433	95.31
393.658	97.31
393.882	96.31
394.107	92.31
394.331	85.31
394.556	80.31
394.78	107.31
395.005	109.31
395.229	105.31
395.454	95.31
395.678	84.31
395.903	104.31
396.127	97.31
396.352	108.31
396.576	104.31
396.801	107.31
397.025	105.31
397.249	89.31
397.474	90.31
397.698	107.31
397.922	92.31
398.147	92.31
398.371	88.31
398.595	86.31
398.82	92.31
399.044	85.31
399.268	94.31
399.492	90.31
399.717	93.31
399.941	92.31
400.165	94.31
400.389	99.31
400.613	83.31
400.837	93.31
401.062	93.31
401.286	101.31
401.51	100.31
401.734	86.31
401.958	92.31
402.182	120.31
402.406	143.31
402.63	123.31
402.854	87.31
403.078	97.31
403.302	78.31
403.526	93.31
403.75	80.31
403.974	81.31
404.198	98.31
404.422	88.31
404.645	97.31
404.869	87.31
405.093	93.31
405.317	100.31
405.541	100.31
405.765	106.31
405.988	112.31
406.212	142.31
406.436	185.31
406.66	114.31
406.883	91.31
407.107	96.31
407.331	102.31
407.555	101.31
407.778	102.31
408.002	88.31
408.226	84.31
408.449	94.31
408.673	91.31
408.896	87.31
409.12	92.31
409.344	95.31
409.567	94.31
409.791	99.31
410.014	97.31
410.238	94.31
410.461	95.31
410.685	93.31
410.908	96.31
411.132	101.31
411.355	84.31
411.578	97.31
411.802	84.31
412.025	103.31
412.249	90.31
412.472	92.31
412.695	93.31
412.919	87.31
413.142	77.31
413.365	88.31
413.589	105.31
413.812	89.31
414.035	112.31
414.258	96.31
414.482	84.31
414.705	83.31
414.928	91.31
415.151	116.31
415.374	94.31
415.597	103.31
415.821	111.31
416.044	101.31
416.267	98.31
416.49	96.31
416.713	92.31
416.936	102.31
417.159	102.31
417.382	93.31
417.605	99.31
417.828	102.31
418.051	102.31
418.274	88.31
418.497	94.31
418.72	104.31
418.943	92.31
419.166	100.31
419.389	76.31
419.611	85.31
419.834	95.31
420.057	99.31
420.28	85.31
420.503	97.31
420.726	95.31
420.948	92.31
421.171	93.31
421.394	71.31
421.617	83.31
421.839	103.31
422.062	98.31
422.285	86.31
422.507	99.31
422.73	99.31
422.953	96.31
423.175	89.31
423.398	91.31
423.621	90.31
423.843	85.31
424.066	88.31
424.288	96.31
424.511	104.31
424.733	100.31
424.956	104.31
425.178	102.31
425.401	106.31
425.623	105.31
425.846	100.31
426.068	103.31
426.291	92.31
426.513	89.31
426.735	95.31
426.958	77.31
427.18	92.31
427.402	118.31
427.625	164.31
427.847	130.31
428.069	130.31
428.292	93.31
428.514	103.31
428.736	87.31
428.958	100.31
429.181	86.31
429.403	100.31
429.625	99.31
429.847	89.31
430.069	90.31
430.292	86.31
430.514	84.31
430.736	105.31
430.958	95.31
431.18	79.31
431.402	86.31
431.624	99.31
431.846	79.31
432.068	87.31
432.29	95.31
432.512	101.31
432.734	101.31
432.956	92.31
433.178	100.31
433.4	95.31
433.622	96.31
433.844	92.31
434.066	86.31
434.287	83.31
434.509	83.31
434.731	89.31
434.953	106.31
435.175	95.31
435.397	120.31
435.618	103.31
435.84	113.31
436.062	118.31
436.284	119.31
436.505	92.31
436.727	95.31
436.949	100.31
437.17	90.31
437.392	84.31
437.614	80.31
437.835	101.31
438.057	116.31
438.278	108.31
438.5	100.31
438.721	115.31
438.943	91.31
439.165	97.31
439.386	94.31
439.608	99.31
439.829	101.31
440.05	110.31
440.272	139.31
440.493	97.31
440.715	100.31
440.936	97.31
441.158	100.31
441.379	95.31
441.6	91.31
441.822	97.31
442.043	93.31
442.264	96.31
442.486	100.31
442.707	92.31
442.928	93.31
443.149	121.31
443.371	126.31
443.592	107.31
443.813	100.31
444.034	99.31
444.255	88.31
444.476	99.31
444.698	100.31
444.919	89.31
445.14	134.31
445.361	119.31
445.582	108.31
445.803	128.31
446.024	116.31
446.245	119.31
446.466	103.31
446.687	101.31
446.908	88.31
447.129	88.31
447.35	104.31
447.571	89.31
447.792	94.31
448.013	98.31
448.234	112.31
448.455	97.31
448.675	118.31
448.896	118.31
449.117	103.31
449.338	96.31
449.559	126.31
449.779	122.31
450	99.31
450.221	84.31
450.442	85.31
450.662	107.31
450.883	82.31
451.104	96.31
451.324	94.31
451.545	88.31
451.766	87.31
451.986	78.31
452.207	89.31
452.428	95.31
452.648	100.31
452.869	110.31
453.089	112.31
453.31	102.31
453.53	80.31
453.751	95.31
453.971	117.31
454.192	101.31
454.412	103.31
454.633	100.31
454.853	96.31
455.073	100.31
455.294	81.31
455.514	97.31
455.734	87.31
455.955	71.31
456.175	92.31
456.395	69.31
456.616	77.31
456.836	91.31
457.056	79.31
457.276	87.31
457.497	82.31
457.717	91.31
457.937	90.31
458.157	87.31
458.377	103.31
458.598	114.31
458.818	125.31
459.038	136.31
459.258	99.31
459.478	91.31
459.698	95.31
459.918	90.31
460.138	86.31
460.358	103.31
460.578	83.31
460.798	89.31
461.018	97.31
461.238	91.31
461.458	95.31
461.678	90.31
461.898	91.31
462.118	86.31
462.338	108.31
462.558	85.31
462.777	87.31
462.997	102.31
463.217	107.31
463.437	83.31
463.657	99.31
463.876	91.31
464.096	95.31
464.316	91.31
464.536	106.31
464.755	97.31
464.975	109.31
465.195	132.31
465.414	136.31
465.634	94.31
465.854	78.31
466.073	75.31
466.293	87.31
466.512	87.31
466.732	92.31
466.951	106.31
467.171	93.31
467.391	92.31
467.61	104.31
467.829	107.31
468.049	132.31
468.268	155.31
468.488	97.31
468.707	100.31
468.927	96.31
469.146	92.31
469.365	92.31
469.585	88.31
469.804	95.31
470.023	86.31
470.243	97.31
470.462	100.31
470.681	115.31
470.901	96.31
471.12	100.31
471.339	93.31
471.558	99.31
471.777	104.31
471.997	133.31
472.216	217.31
472.435	350.31
472.654	134.31
472.873	87.31
473.092	92.31
473.311	84.31
473.53	84.31
473.749	97.31
473.968	90.31
474.187	104.31
474.406	92.31
474.625	88.31
474.844	95.31
475.063	87.31
475.282	84.31
475.501	85.31
475.72	95.31
475.939	87.31
476.158	94.31
476.377	96.31
476.596	92.31
476.814	86.31
477.033	79.31
477.252	82.31
477.471	88.31
477.69	104.31
477.908	80.31
478.127	90.31
478.346	87.31
478.564	99.31
478.783	96.31
479.002	81.31
479.22	95.31
479.439	94.31
479.658	104.31
479.876	98.31
480.095	90.31
480.313	84.31
480.532	94.31
480.751	115.31
480.969	211.31
481.188	598.31
481.406	381.31
481.624	121.31
481.843	101.31
482.061	104.31
482.28	87.31
482.498	91.31
482.717	91.31
482.935	90.31
483.153	87.31
483.372	107.31
483.59	97.31
483.808	85.31
484.027	81.31
484.245	105.31
484.463	95.31
484.681	108.31
484.9	88.31
485.118	96.31
485.336	87.31
485.554	103.31
485.772	101.31
485.99	98.31
486.209	92.31
486.427	103.31
486.645	126.31
486.863	107.31
487.081	106.31
487.299	114.31
487.517	107.31
487.735	100.31
487.953	96.31
488.171	85.31
488.389	99.31
488.607	91.31
488.825	95.31
489.043	101.31
489.261	79.31
489.479	107.31
489.696	91.31
489.914	92.31
490.132	96.31
490.35	84.31
490.568	79.31
490.786	87.31
491.003	91.31
491.221	96.31
491.439	102.31
491.657	102.31
491.874	102.31
492.092	87.31
492.31	93.31
492.527	99.31
492.745	79.31
492.963	86.31
493.18	91.31
493.398	105.31
493.615	105.31
493.833	80.31
494.05	89.31
494.268	84.31
494.485	100.31
494.703	91.31
494.92	85.31
495.138	85.31
495.355	96.31
495.573	105.31
495.79	89.31
496.008	90.31
496.225	91.31
496.442	84.31
496.66	89.31
496.877	87.31
497.094	83.31
497.312	111.31
497.529	87.31
497.746	90.31
497.963	90.31
498.181	93.31
498.398	101.31
498.615	99.31
498.832	101.31
499.049	108.31
499.267	86.31
499.484	105.31
499.701	89.31
499.918	96.31
500.135	102.31
500.352	94.31
500.569	99.31
500.786	98.31
501.003	93.31
501.22	100.31
501.437	96.31
501.654	94.31
501.871	101.31
502.088	91.31
502.305	91.31
502.522	81.31
502.739	89.31
502.956	91.31
503.172	93.31
503.389	99.31
503.606	117.31
503.823	96.31
504.04	86.31
504.256	100.31
504.473	94.31
504.69	90.31
504.907	97.31
505.123	96.31
505.34	98.31
505.557	104.31
505.773	100.31
505.99	92.31
506.207	80.31
506.423	92.31
506.64	109.31
506.856	88.31
507.073	97.31
507.289	104.31
507.506	103.31
507.722	106.31
507.939	109.31
508.155	86.31
508.372	99.31
508.588	95.31
508.805	107.31
509.021	93.31
509.238	90.31
509.454	81.31
509.67	102.31
509.887	106.31
510.103	105.31
510.319	188.31
510.536	612.31
510.752	1849.31
510.968	545.31
511.184	156.31
511.401	113.31
511.617	99.31
511.833	91.31
512.049	94.31
512.265	94.31
512.481	99.31
512.698	85.31
512.914	88.31
513.13	101.31
513.346	87.31
513.562	96.31
513.778	91.31
