Data from Circ_1983_H10_HRD10591_00085.txt Node
Date: Wed Jan 03 12:27:01 EST 2024
User: Yrep
Spectrometer: HR+D1059
Trigger mode: 1
Integration Time (sec): 1.000000E-1
Scans to average: 1
Electric dark correction enabled: true
Nonlinearity correction enabled: false
Boxcar width: 0
XAxis mode: Wavelengths
Number of Pixels in Spectrum: 2048
>>>>>Begin Spectral Data<<<<<
223.165	-16.38
223.4	-16.38
223.635	-16.38
223.869	-8.38
224.104	-20.38
224.338	-15.38
224.573	-19.38
224.808	2.62
225.042	-4.38
225.277	-10.38
225.511	-8.38
225.746	-3.38
225.98	1.62
226.215	13.62
226.449	11.62
226.683	22.62
226.918	23.62
227.152	30.62
227.387	46.62
227.621	62.62
227.856	43.62
228.09	37.62
228.324	43.62
228.559	50.62
228.793	54.62
229.027	63.62
229.262	68.62
229.496	68.62
229.73	75.62
229.964	84.62
230.199	70.62
230.433	73.62
230.667	93.62
230.901	85.62
231.136	86.62
231.37	77.62
231.604	77.62
231.838	92.62
232.072	82.62
232.306	85.62
232.541	83.62
232.775	73.62
233.009	80.62
233.243	78.62
233.477	74.62
233.711	51.62
233.945	84.62
234.179	91.62
234.413	77.62
234.647	98.62
234.881	80.62
235.115	72.62
235.349	91.62
235.583	77.62
235.817	70.62
236.051	77.62
236.285	83.62
236.519	71.62
236.753	76.62
236.987	95.62
237.221	81.62
237.455	89.62
237.689	82.62
237.922	73.62
238.156	67.62
238.39	69.62
238.624	75.62
238.858	87.62
239.091	87.62
239.325	74.62
239.559	84.62
239.793	83.62
240.027	88.62
240.26	79.62
240.494	93.62
240.728	79.62
240.961	86.62
241.195	67.62
241.429	76.62
241.662	82.62
241.896	76.62
242.13	83.62
242.363	70.62
242.597	73.62
242.83	73.62
243.064	86.62
243.298	75.62
243.531	83.62
243.765	79.62
243.998	83.62
244.232	84.62
244.465	72.62
244.699	74.62
244.932	73.62
245.166	67.62
245.399	83.62
245.633	84.62
245.866	81.62
246.099	90.62
246.333	81.62
246.566	91.62
246.8	79.62
247.033	97.62
247.266	82.62
247.5	70.62
247.733	76.62
247.966	84.62
248.2	83.62
248.433	75.62
248.666	79.62
248.899	77.62
249.133	81.62
249.366	75.62
249.599	100.62
249.832	85.62
250.066	98.62
250.299	83.62
250.532	76.62
250.765	65.62
250.998	86.62
251.231	67.62
251.465	85.62
251.698	76.62
251.931	90.62
252.164	78.62
252.397	85.62
252.63	79.62
252.863	83.62
253.096	91.62
253.329	85.62
253.562	62.62
253.795	79.62
254.028	69.62
254.261	86.62
254.494	79.62
254.727	83.62
254.96	70.62
255.193	80.62
255.426	81.62
255.659	66.62
255.892	82.62
256.124	100.62
256.357	81.62
256.59	83.62
256.823	81.62
257.056	86.62
257.289	97.62
257.521	90.62
257.754	79.62
257.987	65.62
258.22	82.62
258.452	85.62
258.685	95.62
258.918	86.62
259.151	58.62
259.383	77.62
259.616	80.62
259.849	75.62
260.081	77.62
260.314	87.62
260.547	79.62
260.779	75.62
261.012	78.62
261.244	79.62
261.477	89.62
261.71	85.62
261.942	84.62
262.175	102.62
262.407	88.62
262.64	98.62
262.872	78.62
263.105	81.62
263.337	87.62
263.57	93.62
263.802	66.62
264.035	91.62
264.267	85.62
264.499	94.62
264.732	70.62
264.964	87.62
265.197	80.62
265.429	85.62
265.661	99.62
265.894	94.62
266.126	75.62
266.358	81.62
266.591	84.62
266.823	83.62
267.055	79.62
267.287	85.62
267.52	87.62
267.752	92.62
267.984	95.62
268.216	85.62
268.448	83.62
268.681	87.62
268.913	87.62
269.145	75.62
269.377	82.62
269.609	85.62
269.841	96.62
270.073	91.62
270.306	92.62
270.538	85.62
270.77	82.62
271.002	87.62
271.234	75.62
271.466	93.62
271.698	90.62
271.93	93.62
272.162	80.62
272.394	89.62
272.626	76.62
272.858	89.62
273.09	83.62
273.322	89.62
273.553	82.62
273.785	90.62
274.017	89.62
274.249	79.62
274.481	91.62
274.713	87.62
274.945	82.62
275.176	94.62
275.408	79.62
275.64	87.62
275.872	80.62
276.104	74.62
276.335	81.62
276.567	100.62
276.799	109.62
277.031	87.62
277.262	91.62
277.494	76.62
277.726	92.62
277.957	96.62
278.189	81.62
278.421	80.62
278.652	79.62
278.884	95.62
279.115	80.62
279.347	106.62
279.579	92.62
279.81	75.62
280.042	90.62
280.273	104.62
280.505	99.62
280.736	84.62
280.968	108.62
281.199	84.62
281.431	76.62
281.662	79.62
281.894	91.62
282.125	88.62
282.356	104.62
282.588	122.62
282.819	96.62
283.051	99.62
283.282	81.62
283.513	102.62
283.745	94.62
283.976	95.62
284.207	74.62
284.439	91.62
284.67	94.62
284.901	92.62
285.132	82.62
285.364	89.62
285.595	91.62
285.826	88.62
286.057	87.62
286.288	81.62
286.52	92.62
286.751	84.62
286.982	94.62
287.213	104.62
287.444	80.62
287.675	87.62
287.906	88.62
288.138	96.62
288.369	83.62
288.6	97.62
288.831	85.62
289.062	93.62
289.293	99.62
289.524	95.62
289.755	90.62
289.986	94.62
290.217	86.62
290.448	89.62
290.679	98.62
290.91	99.62
291.141	102.62
291.371	88.62
291.602	99.62
291.833	91.62
292.064	97.62
292.295	93.62
292.526	96.62
292.757	77.62
292.987	92.62
293.218	92.62
293.449	86.62
293.68	95.62
293.91	96.62
294.141	89.62
294.372	86.62
294.603	96.62
294.833	85.62
295.064	85.62
295.295	76.62
295.525	100.62
295.756	103.62
295.987	93.62
296.217	118.62
296.448	119.62
296.679	86.62
296.909	92.62
297.14	93.62
297.37	95.62
297.601	104.62
297.831	82.62
298.062	96.62
298.292	86.62
298.523	85.62
298.753	92.62
298.984	88.62
299.214	83.62
299.445	95.62
299.675	101.62
299.905	82.62
300.136	75.62
300.366	98.62
300.597	83.62
300.827	99.62
301.057	97.62
301.288	100.62
301.518	104.62
301.748	74.62
301.979	104.62
302.209	91.62
302.439	80.62
302.669	68.62
302.9	85.62
303.13	98.62
303.36	91.62
303.59	104.62
303.82	106.62
304.051	74.62
304.281	97.62
304.511	84.62
304.741	93.62
304.971	79.62
305.201	90.62
305.431	83.62
305.661	92.62
305.891	83.62
306.121	87.62
306.352	109.62
306.582	100.62
306.812	91.62
307.042	103.62
307.272	89.62
307.502	121.62
307.731	109.62
307.961	111.62
308.191	93.62
308.421	95.62
308.651	96.62
308.881	105.62
309.111	88.62
309.341	102.62
309.571	96.62
309.8	93.62
310.03	98.62
310.26	92.62
310.49	90.62
310.72	91.62
310.949	93.62
311.179	106.62
311.409	108.62
311.639	90.62
311.868	93.62
312.098	95.62
312.328	89.62
312.557	105.62
312.787	98.62
313.017	106.62
313.246	91.62
313.476	100.62
313.706	90.62
313.935	106.62
314.165	91.62
314.394	102.62
314.624	96.62
314.853	90.62
315.083	86.62
315.312	95.62
315.542	98.62
315.771	101.62
316.001	93.62
316.23	73.62
316.46	87.62
316.689	96.62
316.919	106.62
317.148	86.62
317.377	85.62
317.607	103.62
317.836	95.62
318.065	75.62
318.295	76.62
318.524	93.62
318.753	103.62
318.983	97.62
319.212	98.62
319.441	96.62
319.67	83.62
319.9	95.62
320.129	96.62
320.358	101.62
320.587	95.62
320.816	98.62
321.046	116.62
321.275	88.62
321.504	93.62
321.733	110.62
321.962	91.62
322.191	95.62
322.42	97.62
322.649	104.62
322.878	111.62
323.108	107.62
323.337	109.62
323.566	99.62
323.795	136.62
324.024	161.62
324.253	293.62
324.482	579.62
324.71	1160.62
324.939	1503.62
325.168	597.62
325.397	203.62
325.626	127.62
325.855	117.62
326.084	117.62
326.313	109.62
326.542	137.62
326.77	191.62
326.999	339.62
327.228	689.62
327.457	1164.62
327.686	931.62
327.914	271.62
328.143	192.62
328.372	174.62
328.6	133.62
328.829	108.62
329.058	102.62
329.287	121.62
329.515	110.62
329.744	121.62
329.972	139.62
330.201	191.62
330.43	247.62
330.658	140.62
330.887	121.62
331.115	116.62
331.344	109.62
331.572	102.62
331.801	108.62
332.03	89.62
332.258	106.62
332.486	89.62
332.715	99.62
332.943	100.62
333.172	96.62
333.4	101.62
333.629	109.62
333.857	133.62
334.085	119.62
334.314	195.62
334.542	283.62
334.771	266.62
334.999	131.62
335.227	106.62
335.455	85.62
335.684	115.62
335.912	94.62
336.14	108.62
336.369	95.62
336.597	88.62
336.825	97.62
337.053	100.62
337.281	109.62
337.51	77.62
337.738	89.62
337.966	94.62
338.194	95.62
338.422	89.62
338.65	96.62
338.878	84.62
339.106	91.62
339.334	101.62
339.562	81.62
339.79	81.62
340.018	76.62
340.246	99.62
340.474	95.62
340.702	80.62
340.93	90.62
341.158	87.62
341.386	90.62
341.614	92.62
341.842	107.62
342.07	91.62
342.298	84.62
342.526	82.62
342.754	79.62
342.981	81.62
343.209	96.62
343.437	100.62
343.665	84.62
343.893	91.62
344.12	89.62
344.348	84.62
344.576	90.62
344.804	102.62
345.031	100.62
345.259	104.62
345.487	99.62
345.714	85.62
345.942	87.62
346.17	93.62
346.397	102.62
346.625	95.62
346.853	84.62
347.08	93.62
347.308	85.62
347.535	84.62
347.763	102.62
347.99	93.62
348.218	91.62
348.445	93.62
348.673	93.62
348.9	102.62
349.128	91.62
349.355	88.62
349.583	90.62
349.81	94.62
350.037	96.62
350.265	89.62
350.492	82.62
350.72	80.62
350.947	102.62
351.174	104.62
351.402	106.62
351.629	98.62
351.856	104.62
352.083	93.62
352.311	101.62
352.538	102.62
352.765	101.62
352.992	111.62
353.22	102.62
353.447	89.62
353.674	99.62
353.901	89.62
354.128	93.62
354.355	92.62
354.583	114.62
354.81	84.62
355.037	120.62
355.264	89.62
355.491	100.62
355.718	95.62
355.945	82.62
356.172	105.62
356.399	83.62
356.626	95.62
356.853	97.62
357.08	97.62
357.307	88.62
357.534	106.62
357.761	106.62
357.988	101.62
358.215	97.62
358.441	108.62
358.668	89.62
358.895	93.62
359.122	101.62
359.349	93.62
359.576	83.62
359.802	87.62
360.029	94.62
360.256	96.62
360.483	96.62
360.709	97.62
360.936	90.62
361.163	100.62
361.39	94.62
361.616	96.62
361.843	86.62
362.07	84.62
362.296	86.62
362.523	98.62
362.749	97.62
362.976	84.62
363.203	88.62
363.429	90.62
363.656	92.62
363.882	84.62
364.109	99.62
364.335	84.62
364.562	99.62
364.788	91.62
365.015	102.62
365.241	114.62
365.468	96.62
365.694	100.62
365.92	93.62
366.147	91.62
366.373	85.62
366.599	86.62
366.826	91.62
367.052	76.62
367.278	81.62
367.505	97.62
367.731	85.62
367.957	93.62
368.184	87.62
368.41	99.62
368.636	98.62
368.862	103.62
369.089	92.62
369.315	84.62
369.541	89.62
369.767	83.62
369.993	82.62
370.219	90.62
370.445	76.62
370.672	83.62
370.898	74.62
371.124	72.62
371.35	82.62
371.576	100.62
371.802	91.62
372.028	93.62
372.254	99.62
372.48	79.62
372.706	87.62
372.932	93.62
373.158	82.62
373.384	95.62
373.61	96.62
373.835	92.62
374.061	92.62
374.287	104.62
374.513	73.62
374.739	81.62
374.965	85.62
375.191	85.62
375.416	91.62
375.642	76.62
375.868	91.62
376.094	91.62
376.319	91.62
376.545	97.62
376.771	81.62
376.997	81.62
377.222	104.62
377.448	86.62
377.674	90.62
377.899	89.62
378.125	91.62
378.35	99.62
378.576	97.62
378.802	85.62
379.027	75.62
379.253	102.62
379.478	88.62
379.704	93.62
379.929	103.62
380.155	91.62
380.38	88.62
380.606	82.62
380.831	89.62
381.057	96.62
381.282	85.62
381.507	102.62
381.733	101.62
381.958	99.62
382.184	89.62
382.409	92.62
382.634	109.62
382.86	99.62
383.085	97.62
383.31	108.62
383.535	103.62
383.761	94.62
383.986	108.62
384.211	104.62
384.436	94.62
384.662	102.62
384.887	92.62
385.112	104.62
385.337	109.62
385.562	106.62
385.787	98.62
386.013	96.62
386.238	96.62
386.463	98.62
386.688	109.62
386.913	91.62
387.138	124.62
387.363	111.62
387.588	108.62
387.813	115.62
388.038	116.62
388.263	103.62
388.488	99.62
388.713	96.62
388.938	95.62
389.163	100.62
389.387	94.62
389.612	92.62
389.837	103.62
390.062	94.62
390.287	100.62
390.512	73.62
390.736	95.62
390.961	74.62
391.186	102.62
391.411	92.62
391.636	96.62
391.86	99.62
392.085	74.62
392.31	68.62
392.534	96.62
392.759	91.62
392.984	95.62
393.208	107.62
393.433	106.62
393.658	98.62
393.882	88.62
394.107	97.62
394.331	86.62
394.556	94.62
394.78	92.62
395.005	85.62
395.229	94.62
395.454	97.62
395.678	89.62
395.903	92.62
396.127	87.62
396.352	85.62
396.576	86.62
396.801	73.62
397.025	93.62
397.249	87.62
397.474	100.62
397.698	95.62
397.922	79.62
398.147	86.62
398.371	80.62
398.595	83.62
398.82	86.62
399.044	90.62
399.268	81.62
399.492	100.62
399.717	84.62
399.941	105.62
400.165	81.62
400.389	88.62
400.613	86.62
400.837	85.62
401.062	85.62
401.286	91.62
401.51	86.62
401.734	93.62
401.958	92.62
402.182	105.62
402.406	140.62
402.63	120.62
402.854	87.62
403.078	92.62
403.302	101.62
403.526	75.62
403.75	92.62
403.974	79.62
404.198	90.62
404.422	96.62
404.645	91.62
404.869	82.62
405.093	86.62
405.317	107.62
405.541	97.62
405.765	97.62
405.988	102.62
406.212	135.62
406.436	165.62
406.66	118.62
406.883	94.62
407.107	96.62
407.331	97.62
407.555	108.62
407.778	89.62
408.002	85.62
408.226	85.62
408.449	95.62
408.673	88.62
408.896	87.62
409.12	86.62
409.344	93.62
409.567	81.62
409.791	78.62
410.014	95.62
410.238	101.62
410.461	88.62
410.685	97.62
410.908	95.62
411.132	104.62
411.355	102.62
411.578	102.62
411.802	81.62
412.025	87.62
412.249	85.62
412.472	89.62
412.695	101.62
412.919	100.62
413.142	92.62
413.365	97.62
413.589	105.62
413.812	88.62
414.035	85.62
414.258	91.62
414.482	89.62
414.705	94.62
414.928	99.62
415.151	92.62
415.374	74.62
415.597	74.62
415.821	87.62
416.044	88.62
416.267	99.62
416.49	93.62
416.713	79.62
416.936	82.62
417.159	84.62
417.382	106.62
417.605	99.62
417.828	92.62
418.051	73.62
418.274	100.62
418.497	90.62
418.72	85.62
418.943	65.62
419.166	85.62
419.389	95.62
419.611	89.62
419.834	79.62
420.057	76.62
420.28	85.62
420.503	99.62
420.726	91.62
420.948	82.62
421.171	81.62
421.394	83.62
421.617	83.62
421.839	87.62
422.062	84.62
422.285	81.62
422.507	105.62
422.73	87.62
422.953	89.62
423.175	92.62
423.398	92.62
423.621	88.62
423.843	104.62
424.066	98.62
424.288	90.62
424.511	83.62
424.733	97.62
424.956	91.62
425.178	99.62
425.401	89.62
425.623	104.62
425.846	83.62
426.068	96.62
426.291	96.62
426.513	82.62
426.735	83.62
426.958	98.62
427.18	109.62
427.402	104.62
427.625	128.62
427.847	113.62
428.069	117.62
428.292	89.62
428.514	98.62
428.736	81.62
428.958	96.62
429.181	85.62
429.403	87.62
429.625	88.62
429.847	107.62
430.069	99.62
430.292	92.62
430.514	81.62
430.736	66.62
430.958	89.62
431.18	93.62
431.402	72.62
431.624	79.62
431.846	69.62
432.068	76.62
432.29	79.62
432.512	88.62
432.734	63.62
432.956	91.62
433.178	103.62
433.4	87.62
433.622	77.62
433.844	83.62
434.066	98.62
434.287	96.62
434.509	85.62
434.731	88.62
434.953	88.62
435.175	100.62
435.397	89.62
435.618	82.62
435.84	99.62
436.062	97.62
436.284	107.62
436.505	109.62
436.727	110.62
436.949	85.62
437.17	76.62
437.392	89.62
437.614	90.62
437.835	88.62
438.057	115.62
438.278	93.62
438.5	99.62
438.721	116.62
438.943	89.62
439.165	92.62
439.386	90.62
439.608	92.62
439.829	99.62
440.05	99.62
440.272	122.62
440.493	97.62
440.715	97.62
440.936	89.62
441.158	73.62
441.379	93.62
441.6	79.62
441.822	93.62
442.043	91.62
442.264	99.62
442.486	95.62
442.707	87.62
442.928	113.62
443.149	129.62
443.371	115.62
443.592	79.62
443.813	82.62
444.034	95.62
444.255	101.62
444.476	84.62
444.698	97.62
444.919	80.62
445.14	133.62
445.361	127.62
445.582	103.62
445.803	112.62
446.024	109.62
446.245	114.62
446.466	100.62
446.687	95.62
446.908	91.62
447.129	98.62
447.35	87.62
447.571	89.62
447.792	100.62
448.013	100.62
448.234	88.62
448.455	93.62
448.675	99.62
448.896	111.62
449.117	88.62
449.338	90.62
449.559	97.62
449.779	99.62
450	91.62
450.221	95.62
450.442	93.62
450.662	98.62
450.883	110.62
451.104	102.62
451.324	83.62
451.545	85.62
451.766	79.62
451.986	80.62
452.207	97.62
452.428	98.62
452.648	99.62
452.869	104.62
453.089	93.62
453.31	99.62
453.53	92.62
453.751	93.62
453.971	105.62
454.192	108.62
454.412	96.62
454.633	87.62
454.853	106.62
455.073	96.62
455.294	69.62
455.514	100.62
455.734	80.62
455.955	88.62
456.175	91.62
456.395	74.62
456.616	77.62
456.836	79.62
457.056	75.62
457.276	88.62
457.497	95.62
457.717	84.62
457.937	73.62
458.157	90.62
458.377	83.62
458.598	92.62
458.818	120.62
459.038	124.62
459.258	107.62
459.478	91.62
459.698	79.62
459.918	91.62
460.138	88.62
460.358	83.62
460.578	83.62
460.798	82.62
461.018	85.62
461.238	79.62
461.458	90.62
461.678	92.62
461.898	77.62
462.118	81.62
462.338	80.62
462.558	93.62
462.777	81.62
462.997	95.62
463.217	92.62
463.437	83.62
463.657	83.62
463.876	93.62
464.096	89.62
464.316	81.62
464.536	91.62
464.755	90.62
464.975	99.62
465.195	137.62
465.414	117.62
465.634	96.62
465.854	92.62
466.073	92.62
466.293	87.62
466.512	74.62
466.732	98.62
466.951	79.62
467.171	79.62
467.391	105.62
467.61	93.62
467.829	93.62
468.049	149.62
468.268	170.62
468.488	106.62
468.707	101.62
468.927	82.62
469.146	80.62
469.365	73.62
469.585	95.62
469.804	93.62
470.023	104.62
470.243	84.62
470.462	89.62
470.681	107.62
470.901	86.62
471.12	97.62
471.339	84.62
471.558	89.62
471.777	90.62
471.997	117.62
472.216	217.62
472.435	376.62
472.654	155.62
472.873	96.62
473.092	84.62
473.311	87.62
473.53	98.62
473.749	100.62
473.968	83.62
474.187	100.62
474.406	79.62
474.625	82.62
474.844	97.62
475.063	94.62
475.282	91.62
475.501	98.62
475.72	101.62
475.939	95.62
476.158	89.62
476.377	91.62
476.596	90.62
476.814	79.62
477.033	93.62
477.252	79.62
477.471	96.62
477.69	76.62
477.908	100.62
478.127	99.62
478.346	86.62
478.564	91.62
478.783	93.62
479.002	90.62
479.22	82.62
479.439	91.62
479.658	92.62
479.876	94.62
480.095	87.62
480.313	88.62
480.532	103.62
480.751	118.62
480.969	225.62
481.188	647.62
481.406	391.62
481.624	123.62
481.843	93.62
482.061	90.62
482.28	84.62
482.498	97.62
482.717	89.62
482.935	91.62
483.153	80.62
483.372	85.62
483.59	83.62
483.808	89.62
484.027	95.62
484.245	87.62
484.463	100.62
484.681	90.62
484.9	89.62
485.118	95.62
485.336	99.62
485.554	99.62
485.772	112.62
485.99	101.62
486.209	103.62
486.427	93.62
486.645	108.62
486.863	111.62
487.081	105.62
487.299	100.62
487.517	76.62
487.735	87.62
487.953	90.62
488.171	100.62
488.389	88.62
488.607	86.62
488.825	76.62
489.043	88.62
489.261	91.62
489.479	85.62
489.696	88.62
489.914	90.62
490.132	90.62
490.35	85.62
490.568	92.62
490.786	89.62
491.003	95.62
491.221	72.62
491.439	88.62
491.657	98.62
491.874	88.62
492.092	87.62
492.31	83.62
492.527	96.62
492.745	102.62
492.963	99.62
493.18	101.62
493.398	99.62
493.615	99.62
493.833	100.62
494.05	92.62
494.268	89.62
494.485	100.62
494.703	95.62
494.92	85.62
495.138	97.62
495.355	85.62
495.573	94.62
495.79	81.62
496.008	99.62
496.225	84.62
496.442	90.62
496.66	94.62
496.877	106.62
497.094	99.62
497.312	94.62
497.529	81.62
497.746	96.62
497.963	76.62
498.181	95.62
498.398	103.62
498.615	93.62
498.832	91.62
499.049	84.62
499.267	85.62
499.484	76.62
499.701	94.62
499.918	94.62
500.135	89.62
500.352	84.62
500.569	93.62
500.786	83.62
501.003	105.62
501.22	97.62
501.437	85.62
501.654	95.62
501.871	99.62
502.088	96.62
502.305	93.62
502.522	84.62
502.739	76.62
502.956	83.62
503.172	84.62
503.389	81.62
503.606	89.62
503.823	90.62
504.04	95.62
504.256	85.62
504.473	100.62
504.69	101.62
504.907	98.62
505.123	94.62
505.34	86.62
505.557	83.62
505.773	90.62
505.99	92.62
506.207	84.62
506.423	90.62
506.64	94.62
506.856	90.62
507.073	100.62
507.289	90.62
507.506	102.62
507.722	97.62
507.939	104.62
508.155	96.62
508.372	80.62
508.588	83.62
508.805	98.62
509.021	85.62
509.238	83.62
509.454	91.62
509.67	75.62
509.887	108.62
510.103	115.62
510.319	165.62
510.536	549.62
510.752	1628.62
510.968	468.62
511.184	127.62
511.401	87.62
511.617	93.62
511.833	86.62
512.049	90.62
512.265	91.62
512.481	93.62
512.698	84.62
512.914	86.62
513.13	92.62
513.346	97.62
513.562	107.62
513.778	87.62
513.994	96.62
514.21	112.62
514.426	108.62
514.642	105.62
514.858	116.62
515.074	134.62
515.29	318.62
515.506	968.62
515.721	373.62
515.937	124.62
516.153	91.62
