Data from Circ_1983_H10_HRD10591_00047.txt Node
Date: Wed Jan 03 12:26:54 EST 2024
User: Yrep
Spectrometer: HR+D1059
Trigger mode: 1
Integration Time (sec): 1.000000E-1
Scans to average: 1
Electric dark correction enabled: true
Nonlinearity correction enabled: false
Boxcar width: 0
XAxis mode: Wavelengths
Number of Pixels in Spectrum: 2048
>>>>>Begin Spectral Data<<<<<
223.165	-15.62
223.4	-15.62
223.635	-15.62
223.869	-9.62
224.104	-35.62
224.338	-10.62
224.573	-13.62
224.808	-21.62
225.042	-3.62
225.277	-9.62
225.511	-0.62
225.746	8.38
225.98	9.38
226.215	16.38
226.449	11.38
226.683	31.38
226.918	21.38
227.152	22.38
227.387	39.38
227.621	29.38
227.856	35.38
228.09	67.38
228.324	55.38
228.559	63.38
228.793	45.38
229.027	65.38
229.262	69.38
229.496	65.38
229.73	76.38
229.964	80.38
230.199	84.38
230.433	87.38
230.667	89.38
230.901	84.38
231.136	81.38
231.37	84.38
231.604	81.38
231.838	78.38
232.072	80.38
232.306	80.38
232.541	86.38
232.775	82.38
233.009	87.38
233.243	79.38
233.477	77.38
233.711	83.38
233.945	87.38
234.179	72.38
234.413	81.38
234.647	81.38
234.881	81.38
235.115	85.38
235.349	72.38
235.583	88.38
235.817	65.38
236.051	66.38
236.285	88.38
236.519	76.38
236.753	81.38
236.987	73.38
237.221	70.38
237.455	75.38
237.689	75.38
237.922	72.38
238.156	72.38
238.39	72.38
238.624	74.38
238.858	70.38
239.091	58.38
239.325	82.38
239.559	86.38
239.793	79.38
240.027	66.38
240.26	77.38
240.494	77.38
240.728	74.38
240.961	70.38
241.195	75.38
241.429	78.38
241.662	85.38
241.896	79.38
242.13	61.38
242.363	74.38
242.597	72.38
242.83	93.38
243.064	83.38
243.298	85.38
243.531	70.38
243.765	85.38
243.998	77.38
244.232	85.38
244.465	82.38
244.699	63.38
244.932	76.38
245.166	77.38
245.399	65.38
245.633	64.38
245.866	61.38
246.099	84.38
246.333	74.38
246.566	66.38
246.8	67.38
247.033	80.38
247.266	70.38
247.5	77.38
247.733	82.38
247.966	79.38
248.2	69.38
248.433	77.38
248.666	80.38
248.899	81.38
249.133	91.38
249.366	96.38
249.599	84.38
249.832	79.38
250.066	96.38
250.299	76.38
250.532	89.38
250.765	79.38
250.998	83.38
251.231	84.38
251.465	79.38
251.698	71.38
251.931	72.38
252.164	80.38
252.397	76.38
252.63	68.38
252.863	57.38
253.096	83.38
253.329	75.38
253.562	91.38
253.795	88.38
254.028	86.38
254.261	82.38
254.494	76.38
254.727	93.38
254.96	81.38
255.193	87.38
255.426	74.38
255.659	74.38
255.892	84.38
256.124	85.38
256.357	84.38
256.59	84.38
256.823	75.38
257.056	74.38
257.289	92.38
257.521	91.38
257.754	89.38
257.987	74.38
258.22	89.38
258.452	76.38
258.685	80.38
258.918	85.38
259.151	82.38
259.383	83.38
259.616	87.38
259.849	89.38
260.081	80.38
260.314	72.38
260.547	94.38
260.779	77.38
261.012	100.38
261.244	92.38
261.477	83.38
261.71	91.38
261.942	105.38
262.175	100.38
262.407	95.38
262.64	81.38
262.872	76.38
263.105	73.38
263.337	86.38
263.57	71.38
263.802	86.38
264.035	89.38
264.267	86.38
264.499	75.38
264.732	88.38
264.964	78.38
265.197	75.38
265.429	97.38
265.661	89.38
265.894	85.38
266.126	70.38
266.358	87.38
266.591	74.38
266.823	81.38
267.055	91.38
267.287	87.38
267.52	71.38
267.752	79.38
267.984	95.38
268.216	91.38
268.448	68.38
268.681	76.38
268.913	72.38
269.145	90.38
269.377	86.38
269.609	79.38
269.841	82.38
270.073	96.38
270.306	96.38
270.538	72.38
270.77	91.38
271.002	86.38
271.234	82.38
271.466	76.38
271.698	92.38
271.93	85.38
272.162	87.38
272.394	88.38
272.626	92.38
272.858	93.38
273.09	82.38
273.322	92.38
273.553	85.38
273.785	85.38
274.017	87.38
274.249	89.38
274.481	84.38
274.713	89.38
274.945	99.38
275.176	85.38
275.408	87.38
275.64	76.38
275.872	91.38
276.104	80.38
276.335	104.38
276.567	109.38
276.799	105.38
277.031	93.38
277.262	90.38
277.494	94.38
277.726	111.38
277.957	87.38
278.189	81.38
278.421	90.38
278.652	96.38
278.884	80.38
279.115	92.38
279.347	91.38
279.579	75.38
279.81	98.38
280.042	96.38
280.273	91.38
280.505	92.38
280.736	83.38
280.968	86.38
281.199	84.38
281.431	83.38
281.662	72.38
281.894	89.38
282.125	92.38
282.356	101.38
282.588	127.38
282.819	120.38
283.051	88.38
283.282	84.38
283.513	93.38
283.745	81.38
283.976	92.38
284.207	97.38
284.439	81.38
284.67	82.38
284.901	80.38
285.132	68.38
285.364	77.38
285.595	82.38
285.826	91.38
286.057	77.38
286.288	95.38
286.52	81.38
286.751	95.38
286.982	89.38
287.213	86.38
287.444	91.38
287.675	99.38
287.906	102.38
288.138	85.38
288.369	85.38
288.6	87.38
288.831	76.38
289.062	95.38
289.293	72.38
289.524	95.38
289.755	76.38
289.986	89.38
290.217	91.38
290.448	99.38
290.679	93.38
290.91	89.38
291.141	81.38
291.371	79.38
291.602	89.38
291.833	84.38
292.064	75.38
292.295	79.38
292.526	85.38
292.757	82.38
292.987	85.38
293.218	87.38
293.449	84.38
293.68	89.38
293.91	85.38
294.141	93.38
294.372	83.38
294.603	87.38
294.833	80.38
295.064	91.38
295.295	104.38
295.525	83.38
295.756	99.38
295.987	100.38
296.217	111.38
296.448	116.38
296.679	84.38
296.909	89.38
297.14	86.38
297.37	93.38
297.601	85.38
297.831	83.38
298.062	99.38
298.292	87.38
298.523	96.38
298.753	89.38
298.984	88.38
299.214	87.38
299.445	101.38
299.675	100.38
299.905	102.38
300.136	96.38
300.366	91.38
300.597	90.38
300.827	100.38
301.057	92.38
301.288	88.38
301.518	98.38
301.748	95.38
301.979	102.38
302.209	92.38
302.439	85.38
302.669	83.38
302.9	77.38
303.13	93.38
303.36	97.38
303.59	103.38
303.82	97.38
304.051	85.38
304.281	96.38
304.511	96.38
304.741	82.38
304.971	103.38
305.201	90.38
305.431	90.38
305.661	89.38
305.891	90.38
306.121	77.38
306.352	106.38
306.582	96.38
306.812	96.38
307.042	92.38
307.272	99.38
307.502	100.38
307.731	105.38
307.961	87.38
308.191	80.38
308.421	97.38
308.651	95.38
308.881	84.38
309.111	95.38
309.341	98.38
309.571	106.38
309.8	97.38
310.03	103.38
310.26	95.38
310.49	90.38
310.72	115.38
310.949	84.38
311.179	91.38
311.409	93.38
311.639	88.38
311.868	99.38
312.098	90.38
312.328	113.38
312.557	101.38
312.787	88.38
313.017	100.38
313.246	92.38
313.476	90.38
313.706	100.38
313.935	83.38
314.165	94.38
314.394	93.38
314.624	85.38
314.853	89.38
315.083	100.38
315.312	97.38
315.542	95.38
315.771	89.38
316.001	91.38
316.23	80.38
316.46	84.38
316.689	96.38
316.919	102.38
317.148	77.38
317.377	101.38
317.607	95.38
317.836	88.38
318.065	89.38
318.295	104.38
318.524	85.38
318.753	75.38
318.983	88.38
319.212	96.38
319.441	87.38
319.67	91.38
319.9	91.38
320.129	75.38
320.358	98.38
320.587	86.38
320.816	99.38
321.046	81.38
321.275	87.38
321.504	106.38
321.733	103.38
321.962	80.38
322.191	95.38
322.42	112.38
322.649	99.38
322.878	99.38
323.108	113.38
323.337	115.38
323.566	117.38
323.795	136.38
324.024	169.38
324.253	314.38
324.482	631.38
324.71	1307.38
324.939	1699.38
325.168	624.38
325.397	191.38
325.626	132.38
325.855	109.38
326.084	103.38
326.313	106.38
326.542	123.38
326.77	207.38
326.999	377.38
327.228	722.38
327.457	1307.38
327.686	1045.38
327.914	307.38
328.143	175.38
328.372	167.38
328.6	130.38
328.829	113.38
329.058	120.38
329.287	128.38
329.515	105.38
329.744	105.38
329.972	119.38
330.201	143.38
330.43	211.38
330.658	150.38
330.887	129.38
331.115	106.38
331.344	89.38
331.572	106.38
331.801	92.38
332.03	103.38
332.258	103.38
332.486	97.38
332.715	111.38
332.943	90.38
333.172	88.38
333.4	98.38
333.629	107.38
333.857	99.38
334.085	105.38
334.314	160.38
334.542	233.38
334.771	200.38
334.999	120.38
335.227	98.38
335.455	95.38
335.684	95.38
335.912	90.38
336.14	92.38
336.369	104.38
336.597	92.38
336.825	109.38
337.053	97.38
337.281	87.38
337.51	84.38
337.738	99.38
337.966	81.38
338.194	91.38
338.422	74.38
338.65	88.38
338.878	97.38
339.106	92.38
339.334	101.38
339.562	83.38
339.79	89.38
340.018	79.38
340.246	100.38
340.474	95.38
340.702	101.38
340.93	91.38
341.158	85.38
341.386	82.38
341.614	88.38
341.842	88.38
342.07	74.38
342.298	88.38
342.526	95.38
342.754	82.38
342.981	87.38
343.209	91.38
343.437	96.38
343.665	83.38
343.893	94.38
344.12	86.38
344.348	86.38
344.576	98.38
344.804	80.38
345.031	94.38
345.259	92.38
345.487	101.38
345.714	90.38
345.942	90.38
346.17	95.38
346.397	103.38
346.625	87.38
346.853	85.38
347.08	88.38
347.308	90.38
347.535	87.38
347.763	93.38
347.99	103.38
348.218	103.38
348.445	96.38
348.673	91.38
348.9	97.38
349.128	99.38
349.355	90.38
349.583	80.38
349.81	87.38
350.037	89.38
350.265	97.38
350.492	101.38
350.72	97.38
350.947	96.38
351.174	98.38
351.402	116.38
351.629	99.38
351.856	83.38
352.083	105.38
352.311	96.38
352.538	105.38
352.765	97.38
352.992	103.38
353.22	97.38
353.447	106.38
353.674	89.38
353.901	84.38
354.128	104.38
354.355	90.38
354.583	103.38
354.81	101.38
355.037	90.38
355.264	87.38
355.491	101.38
355.718	87.38
355.945	91.38
356.172	88.38
356.399	101.38
356.626	95.38
356.853	94.38
357.08	93.38
357.307	81.38
357.534	92.38
357.761	98.38
357.988	83.38
358.215	91.38
358.441	90.38
358.668	83.38
358.895	96.38
359.122	88.38
359.349	85.38
359.576	110.38
359.802	108.38
360.029	88.38
360.256	100.38
360.483	84.38
360.709	87.38
360.936	99.38
361.163	95.38
361.39	81.38
361.616	80.38
361.843	92.38
362.07	85.38
362.296	98.38
362.523	91.38
362.749	100.38
362.976	102.38
363.203	84.38
363.429	86.38
363.656	89.38
363.882	67.38
364.109	93.38
364.335	91.38
364.562	93.38
364.788	89.38
365.015	94.38
365.241	103.38
365.468	86.38
365.694	97.38
365.92	97.38
366.147	96.38
366.373	90.38
366.599	82.38
366.826	84.38
367.052	93.38
367.278	88.38
367.505	87.38
367.731	90.38
367.957	79.38
368.184	85.38
368.41	101.38
368.636	113.38
368.862	117.38
369.089	108.38
369.315	100.38
369.541	86.38
369.767	83.38
369.993	73.38
370.219	75.38
370.445	79.38
370.672	92.38
370.898	81.38
371.124	97.38
371.35	89.38
371.576	86.38
371.802	86.38
372.028	75.38
372.254	85.38
372.48	82.38
372.706	89.38
372.932	95.38
373.158	90.38
373.384	83.38
373.61	85.38
373.835	83.38
374.061	79.38
374.287	75.38
374.513	95.38
374.739	87.38
374.965	91.38
375.191	86.38
375.416	80.38
375.642	88.38
375.868	85.38
376.094	80.38
376.319	85.38
376.545	81.38
376.771	98.38
376.997	76.38
377.222	91.38
377.448	89.38
377.674	80.38
377.899	89.38
378.125	93.38
378.35	85.38
378.576	98.38
378.802	89.38
379.027	85.38
379.253	89.38
379.478	87.38
379.704	95.38
379.929	87.38
380.155	97.38
380.38	76.38
380.606	80.38
380.831	80.38
381.057	85.38
381.282	80.38
381.507	86.38
381.733	101.38
381.958	96.38
382.184	106.38
382.409	104.38
382.634	88.38
382.86	119.38
383.085	104.38
383.31	90.38
383.535	96.38
383.761	100.38
383.986	85.38
384.211	98.38
384.436	100.38
384.662	96.38
384.887	107.38
385.112	92.38
385.337	101.38
385.562	106.38
385.787	107.38
386.013	106.38
386.238	96.38
386.463	98.38
386.688	101.38
386.913	99.38
387.138	99.38
387.363	101.38
387.588	93.38
387.813	91.38
388.038	99.38
388.263	101.38
388.488	108.38
388.713	105.38
388.938	85.38
389.163	86.38
389.387	95.38
389.612	90.38
389.837	73.38
390.062	84.38
390.287	91.38
390.512	90.38
390.736	100.38
390.961	90.38
391.186	82.38
391.411	82.38
391.636	90.38
391.86	77.38
392.085	84.38
392.31	81.38
392.534	75.38
392.759	79.38
392.984	94.38
393.208	104.38
393.433	109.38
393.658	109.38
393.882	101.38
394.107	79.38
394.331	84.38
394.556	91.38
394.78	87.38
395.005	86.38
395.229	71.38
395.454	85.38
395.678	71.38
395.903	81.38
396.127	89.38
396.352	75.38
396.576	93.38
396.801	98.38
397.025	107.38
397.249	95.38
397.474	88.38
397.698	84.38
397.922	80.38
398.147	83.38
398.371	85.38
398.595	100.38
398.82	99.38
399.044	72.38
399.268	83.38
399.492	83.38
399.717	83.38
399.941	75.38
400.165	91.38
400.389	93.38
400.613	99.38
400.837	84.38
401.062	81.38
401.286	93.38
401.51	92.38
401.734	95.38
401.958	101.38
402.182	112.38
402.406	135.38
402.63	101.38
402.854	96.38
403.078	88.38
403.302	93.38
403.526	96.38
403.75	95.38
403.974	83.38
404.198	81.38
404.422	100.38
404.645	71.38
404.869	95.38
405.093	83.38
405.317	90.38
405.541	99.38
405.765	108.38
405.988	103.38
406.212	153.38
406.436	183.38
406.66	122.38
406.883	87.38
407.107	106.38
407.331	91.38
407.555	93.38
407.778	84.38
408.002	92.38
408.226	97.38
408.449	99.38
408.673	95.38
408.896	84.38
409.12	93.38
409.344	72.38
409.567	88.38
409.791	80.38
410.014	95.38
410.238	95.38
410.461	93.38
410.685	99.38
410.908	112.38
411.132	97.38
411.355	93.38
411.578	101.38
411.802	94.38
412.025	96.38
412.249	99.38
412.472	88.38
412.695	92.38
412.919	76.38
413.142	90.38
413.365	83.38
413.589	98.38
413.812	89.38
414.035	91.38
414.258	80.38
414.482	89.38
414.705	97.38
414.928	86.38
415.151	88.38
415.374	90.38
415.597	87.38
415.821	90.38
416.044	86.38
416.267	84.38
416.49	92.38
416.713	93.38
416.936	81.38
417.159	96.38
417.382	79.38
417.605	89.38
417.828	81.38
418.051	79.38
418.274	85.38
418.497	83.38
418.72	89.38
418.943	88.38
419.166	102.38
419.389	95.38
419.611	90.38
419.834	85.38
420.057	97.38
420.28	85.38
420.503	76.38
420.726	87.38
420.948	88.38
421.171	101.38
421.394	84.38
421.617	97.38
421.839	69.38
422.062	79.38
422.285	88.38
422.507	102.38
422.73	98.38
422.953	84.38
423.175	89.38
423.398	99.38
423.621	89.38
423.843	77.38
424.066	95.38
424.288	75.38
424.511	80.38
424.733	75.38
424.956	89.38
425.178	97.38
425.401	87.38
425.623	96.38
425.846	80.38
426.068	94.38
426.291	90.38
426.513	81.38
426.735	79.38
426.958	94.38
427.18	82.38
427.402	122.38
427.625	142.38
427.847	117.38
428.069	113.38
428.292	85.38
428.514	93.38
428.736	84.38
428.958	81.38
429.181	80.38
429.403	85.38
429.625	84.38
429.847	83.38
430.069	96.38
430.292	93.38
430.514	93.38
430.736	95.38
430.958	85.38
431.18	76.38
431.402	83.38
431.624	88.38
431.846	71.38
432.068	79.38
432.29	92.38
432.512	88.38
432.734	83.38
432.956	80.38
433.178	91.38
433.4	94.38
433.622	91.38
433.844	91.38
434.066	96.38
434.287	106.38
434.509	88.38
434.731	77.38
434.953	91.38
435.175	98.38
435.397	83.38
435.618	76.38
435.84	93.38
436.062	109.38
436.284	90.38
436.505	104.38
436.727	91.38
436.949	94.38
437.17	86.38
437.392	81.38
437.614	69.38
437.835	113.38
438.057	108.38
438.278	106.38
438.5	93.38
438.721	107.38
438.943	107.38
439.165	96.38
439.386	86.38
439.608	107.38
439.829	103.38
440.05	116.38
440.272	116.38
440.493	90.38
440.715	84.38
440.936	78.38
441.158	91.38
441.379	81.38
441.6	79.38
441.822	97.38
442.043	95.38
442.264	99.38
442.486	95.38
442.707	99.38
442.928	85.38
443.149	119.38
443.371	113.38
443.592	102.38
443.813	91.38
444.034	97.38
444.255	88.38
444.476	97.38
444.698	93.38
444.919	89.38
445.14	139.38
445.361	121.38
445.582	100.38
445.803	113.38
446.024	128.38
446.245	113.38
446.466	100.38
446.687	80.38
446.908	80.38
447.129	83.38
447.35	91.38
447.571	96.38
447.792	92.38
448.013	85.38
448.234	85.38
448.455	71.38
448.675	99.38
448.896	93.38
449.117	98.38
449.338	93.38
449.559	118.38
449.779	117.38
450	84.38
450.221	83.38
450.442	103.38
450.662	97.38
450.883	88.38
451.104	100.38
451.324	93.38
451.545	88.38
451.766	84.38
451.986	95.38
452.207	76.38
452.428	79.38
452.648	91.38
452.869	103.38
453.089	105.38
453.31	98.38
453.53	91.38
453.751	82.38
453.971	95.38
454.192	104.38
454.412	85.38
454.633	73.38
454.853	83.38
455.073	89.38
455.294	94.38
455.514	84.38
455.734	89.38
455.955	88.38
456.175	81.38
456.395	83.38
456.616	98.38
456.836	88.38
457.056	81.38
457.276	73.38
457.497	95.38
457.717	84.38
457.937	68.38
458.157	84.38
458.377	97.38
458.598	82.38
458.818	131.38
459.038	136.38
459.258	113.38
459.478	82.38
459.698	85.38
459.918	74.38
460.138	88.38
460.358	83.38
460.578	76.38
460.798	85.38
461.018	83.38
461.238	84.38
461.458	81.38
461.678	76.38
461.898	87.38
462.118	88.38
462.338	91.38
462.558	82.38
462.777	92.38
462.997	83.38
463.217	71.38
463.437	93.38
463.657	85.38
463.876	100.38
464.096	84.38
464.316	74.38
464.536	83.38
464.755	80.38
464.975	92.38
465.195	139.38
465.414	150.38
465.634	84.38
465.854	88.38
466.073	85.38
466.293	89.38
466.512	86.38
466.732	89.38
466.951	98.38
467.171	93.38
467.391	93.38
467.61	94.38
467.829	86.38
468.049	123.38
468.268	131.38
468.488	97.38
468.707	73.38
468.927	97.38
469.146	95.38
469.365	85.38
469.585	73.38
469.804	102.38
470.023	94.38
470.243	78.38
470.462	96.38
470.681	96.38
470.901	94.38
471.12	91.38
471.339	81.38
471.558	92.38
471.777	89.38
471.997	106.38
472.216	191.38
472.435	289.38
472.654	125.38
472.873	92.38
473.092	80.38
473.311	99.38
473.53	88.38
473.749	89.38
473.968	90.38
474.187	100.38
474.406	92.38
474.625	83.38
474.844	100.38
475.063	75.38
475.282	94.38
475.501	93.38
475.72	87.38
475.939	77.38
476.158	81.38
476.377	80.38
476.596	86.38
476.814	89.38
477.033	89.38
477.252	91.38
477.471	93.38
477.69	87.38
477.908	102.38
478.127	91.38
478.346	89.38
478.564	96.38
478.783	105.38
479.002	96.38
479.22	103.38
479.439	102.38
479.658	96.38
479.876	90.38
480.095	87.38
480.313	83.38
480.532	88.38
480.751	107.38
480.969	174.38
481.188	491.38
481.406	295.38
481.624	113.38
481.843	101.38
482.061	71.38
482.28	102.38
482.498	89.38
482.717	96.38
482.935	98.38
483.153	95.38
483.372	83.38
483.59	80.38
483.808	92.38
484.027	75.38
484.245	84.38
484.463	88.38
484.681	93.38
484.9	91.38
485.118	104.38
485.336	97.38
485.554	82.38
485.772	87.38
485.99	100.38
486.209	101.38
486.427	100.38
486.645	96.38
486.863	109.38
487.081	111.38
487.299	105.38
487.517	76.38
487.735	80.38
487.953	88.38
488.171	96.38
488.389	99.38
488.607	91.38
488.825	83.38
489.043	76.38
489.261	87.38
489.479	91.38
489.696	92.38
489.914	82.38
490.132	77.38
490.35	91.38
490.568	102.38
490.786	83.38
491.003	91.38
491.221	94.38
491.439	108.38
491.657	94.38
491.874	97.38
492.092	88.38
492.31	89.38
492.527	95.38
492.745	72.38
492.963	104.38
493.18	98.38
493.398	84.38
493.615	83.38
493.833	82.38
494.05	92.38
494.268	94.38
494.485	96.38
494.703	76.38
494.92	90.38
495.138	106.38
495.355	100.38
495.573	91.38
495.79	93.38
496.008	93.38
496.225	101.38
496.442	95.38
496.66	101.38
496.877	83.38
497.094	95.38
497.312	89.38
497.529	83.38
497.746	92.38
497.963	92.38
498.181	80.38
498.398	93.38
498.615	100.38
498.832	98.38
499.049	90.38
499.267	94.38
499.484	91.38
499.701	99.38
499.918	87.38
500.135	79.38
500.352	90.38
500.569	79.38
500.786	90.38
501.003	83.38
501.22	79.38
501.437	95.38
501.654	98.38
501.871	106.38
502.088	97.38
502.305	106.38
502.522	90.38
502.739	83.38
502.956	102.38
503.172	83.38
503.389	93.38
503.606	101.38
503.823	84.38
504.04	89.38
504.256	90.38
504.473	85.38
504.69	95.38
504.907	97.38
505.123	94.38
505.34	93.38
505.557	91.38
505.773	97.38
505.99	95.38
506.207	86.38
506.423	92.38
506.64	93.38
506.856	81.38
507.073	89.38
507.289	95.38
507.506	109.38
507.722	97.38
507.939	100.38
508.155	101.38
508.372	96.38
508.588	94.38
508.805	82.38
509.021	98.38
509.238	84.38
509.454	93.38
509.67	99.38
509.887	93.38
510.103	116.38
510.319	174.38
510.536	607.38
510.752	1913.38
510.968	534.38
511.184	128.38
511.401	111.38
511.617	95.38
511.833	77.38
512.049	88.38
512.265	85.38
512.481	89.38
512.698	91.38
512.914	100.38
513.13	87.38
513.346	81.38
513.562	95.38
513.778	87.38
513.994	89.38
514.21	102.38
514.426	97.38
514.642	116.38
514.858	115.38
515.074	150.38
515.29	367.38
515.506	1135.38
515.721	428.38
515.937	125.38
516.153	112.38
516.369	95.38
516.585	91.38
