Data from Circ_1983_H10_HRD10591_00017.txt Node
Date: Wed Jan 03 12:26:48 EST 2024
User: Yrep
Spectrometer: HR+D1059
Trigger mode: 1
Integration Time (sec): 1.000000E-1
Scans to average: 1
Electric dark correction enabled: true
Nonlinearity correction enabled: false
Boxcar width: 0
XAxis mode: Wavelengths
Number of Pixels in Spectrum: 2048
>>>>>Begin Spectral Data<<<<<
223.165	-13
223.4	-13
223.635	-13
223.869	-15
224.104	-24
224.338	-21
224.573	-10
224.808	-11
225.042	6
225.277	-8
225.511	-6
225.746	11
225.98	-2
226.215	10
226.449	17
226.683	21
226.918	17
227.152	28
227.387	32
227.621	28
227.856	45
228.09	42
228.324	49
228.559	42
228.793	62
229.027	45
229.262	63
229.496	76
229.73	77
229.964	83
230.199	80
230.433	68
230.667	80
230.901	80
231.136	81
231.37	75
231.604	78
231.838	70
232.072	79
232.306	69
232.541	86
232.775	73
233.009	85
233.243	84
233.477	85
233.711	90
233.945	91
234.179	70
234.413	74
234.647	87
234.881	97
235.115	77
235.349	76
235.583	76
235.817	82
236.051	93
236.285	84
236.519	82
236.753	78
236.987	70
237.221	75
237.455	84
237.689	88
237.922	89
238.156	78
238.39	85
238.624	73
238.858	63
239.091	69
239.325	81
239.559	80
239.793	71
240.027	77
240.26	88
240.494	80
240.728	81
240.961	88
241.195	75
241.429	71
241.662	88
241.896	74
242.13	79
242.363	88
242.597	73
242.83	70
243.064	96
243.298	74
243.531	71
243.765	90
243.998	74
244.232	88
244.465	82
244.699	82
244.932	91
245.166	80
245.399	84
245.633	77
245.866	78
246.099	97
246.333	86
246.566	71
246.8	83
247.033	104
247.266	85
247.5	68
247.733	66
247.966	86
248.2	85
248.433	88
248.666	89
248.899	91
249.133	77
249.366	92
249.599	84
249.832	66
250.066	80
250.299	74
250.532	81
250.765	77
250.998	83
251.231	84
251.465	89
251.698	73
251.931	81
252.164	74
252.397	86
252.63	79
252.863	80
253.096	76
253.329	78
253.562	92
253.795	78
254.028	78
254.261	92
254.494	86
254.727	86
254.96	85
255.193	91
255.426	77
255.659	74
255.892	77
256.124	73
256.357	85
256.59	78
256.823	81
257.056	86
257.289	80
257.521	77
257.754	91
257.987	84
258.22	80
258.452	88
258.685	72
258.918	76
259.151	73
259.383	72
259.616	84
259.849	80
260.081	87
260.314	77
260.547	77
260.779	97
261.012	86
261.244	77
261.477	82
261.71	83
261.942	99
262.175	104
262.407	84
262.64	83
262.872	83
263.105	93
263.337	90
263.57	92
263.802	77
264.035	81
264.267	84
264.499	76
264.732	88
264.964	89
265.197	80
265.429	80
265.661	85
265.894	73
266.126	82
266.358	66
266.591	88
266.823	94
267.055	106
267.287	84
267.52	88
267.752	91
267.984	82
268.216	86
268.448	80
268.681	88
268.913	60
269.145	85
269.377	84
269.609	74
269.841	89
270.073	88
270.306	86
270.538	86
270.77	72
271.002	72
271.234	96
271.466	100
271.698	84
271.93	86
272.162	91
272.394	87
272.626	85
272.858	94
273.09	89
273.322	94
273.553	83
273.785	96
274.017	76
274.249	76
274.481	84
274.713	96
274.945	97
275.176	80
275.408	96
275.64	100
275.872	83
276.104	84
276.335	93
276.567	96
276.799	94
277.031	94
277.262	93
277.494	97
277.726	98
277.957	87
278.189	96
278.421	83
278.652	94
278.884	78
279.115	93
279.347	75
279.579	92
279.81	96
280.042	94
280.273	97
280.505	80
280.736	79
280.968	102
281.199	84
281.431	77
281.662	88
281.894	90
282.125	94
282.356	107
282.588	133
282.819	100
283.051	88
283.282	81
283.513	101
283.745	88
283.976	68
284.207	90
284.439	86
284.67	92
284.901	83
285.132	100
285.364	78
285.595	75
285.826	77
286.057	85
286.288	85
286.52	93
286.751	79
286.982	100
287.213	84
287.444	88
287.675	89
287.906	104
288.138	97
288.369	89
288.6	92
288.831	92
289.062	87
289.293	91
289.524	93
289.755	99
289.986	85
290.217	88
290.448	96
290.679	92
290.91	88
291.141	75
291.371	95
291.602	86
291.833	88
292.064	95
292.295	94
292.526	86
292.757	88
292.987	90
293.218	96
293.449	93
293.68	101
293.91	100
294.141	91
294.372	95
294.603	92
294.833	91
295.064	75
295.295	92
295.525	84
295.756	92
295.987	113
296.217	116
296.448	105
296.679	93
296.909	84
297.14	88
297.37	97
297.601	77
297.831	89
298.062	101
298.292	86
298.523	82
298.753	92
298.984	90
299.214	90
299.445	86
299.675	83
299.905	107
300.136	84
300.366	88
300.597	86
300.827	72
301.057	85
301.288	97
301.518	96
301.748	102
301.979	104
302.209	80
302.439	85
302.669	93
302.9	88
303.13	93
303.36	104
303.59	102
303.82	109
304.051	91
304.281	74
304.511	76
304.741	81
304.971	89
305.201	86
305.431	101
305.661	84
305.891	87
306.121	97
306.352	105
306.582	96
306.812	101
307.042	96
307.272	97
307.502	91
307.731	105
307.961	99
308.191	98
308.421	84
308.651	84
308.881	94
309.111	102
309.341	98
309.571	97
309.8	97
310.03	84
310.26	101
310.49	102
310.72	89
310.949	102
311.179	80
311.409	85
311.639	91
311.868	103
312.098	106
312.328	103
312.557	106
312.787	91
313.017	104
313.246	107
313.476	94
313.706	88
313.935	101
314.165	97
314.394	93
314.624	87
314.853	106
315.083	103
315.312	86
315.542	87
315.771	85
316.001	90
316.23	87
316.46	92
316.689	104
316.919	93
317.148	86
317.377	90
317.607	92
317.836	93
318.065	89
318.295	88
318.524	98
318.753	83
318.983	100
319.212	101
319.441	92
319.67	91
319.9	101
320.129	84
320.358	96
320.587	95
320.816	85
321.046	86
321.275	95
321.504	105
321.733	94
321.962	94
322.191	107
322.42	97
322.649	88
322.878	97
323.108	115
323.337	118
323.566	101
323.795	136
324.024	185
324.253	317
324.482	608
324.71	1210
324.939	1594
325.168	610
325.397	197
325.626	144
325.855	112
326.084	115
326.313	131
326.542	128
326.77	174
326.999	344
327.228	697
327.457	1265
327.686	998
327.914	296
328.143	170
328.372	147
328.6	114
328.829	104
329.058	108
329.287	112
329.515	97
329.744	102
329.972	114
330.201	117
330.43	148
330.658	129
330.887	114
331.115	113
331.344	99
331.572	96
331.801	114
332.03	106
332.258	88
332.486	87
332.715	93
332.943	81
333.172	91
333.4	92
333.629	104
333.857	118
334.085	122
334.314	125
334.542	162
334.771	140
334.999	96
335.227	96
335.455	83
335.684	96
335.912	101
336.14	103
336.369	92
336.597	113
336.825	96
337.053	102
337.281	112
337.51	101
337.738	87
337.966	92
338.194	96
338.422	85
338.65	81
338.878	77
339.106	88
339.334	99
339.562	82
339.79	98
340.018	83
340.246	80
340.474	99
340.702	92
340.93	66
341.158	87
341.386	99
341.614	91
341.842	81
342.07	99
342.298	82
342.526	83
342.754	82
342.981	103
343.209	100
343.437	91
343.665	91
343.893	108
344.12	85
344.348	94
344.576	89
344.804	94
345.031	96
345.259	82
345.487	73
345.714	90
345.942	96
346.17	96
346.397	91
346.625	92
346.853	75
347.08	107
347.308	100
347.535	107
347.763	108
347.99	109
348.218	101
348.445	95
348.673	92
348.9	103
349.128	84
349.355	89
349.583	92
349.81	101
350.037	92
350.265	84
350.492	96
350.72	96
350.947	89
351.174	107
351.402	97
351.629	89
351.856	103
352.083	109
352.311	107
352.538	99
352.765	107
352.992	108
353.22	105
353.447	100
353.674	98
353.901	89
354.128	94
354.355	97
354.583	104
354.81	109
355.037	112
355.264	104
355.491	101
355.718	98
355.945	100
356.172	98
356.399	106
356.626	80
356.853	96
357.08	106
357.307	96
357.534	93
357.761	81
357.988	94
358.215	102
358.441	95
358.668	85
358.895	82
359.122	100
359.349	99
359.576	87
359.802	91
360.029	106
360.256	87
360.483	82
360.709	99
360.936	98
361.163	103
361.39	91
361.616	89
361.843	89
362.07	98
362.296	94
362.523	96
362.749	81
362.976	90
363.203	87
363.429	89
363.656	84
363.882	83
364.109	84
364.335	96
364.562	93
364.788	98
365.015	91
365.241	77
365.468	107
365.694	89
365.92	98
366.147	91
366.373	85
366.599	89
366.826	73
367.052	72
367.278	81
367.505	84
367.731	97
367.957	81
368.184	85
368.41	105
368.636	105
368.862	103
369.089	106
369.315	81
369.541	83
369.767	84
369.993	84
370.219	92
370.445	83
370.672	81
370.898	86
371.124	86
371.35	80
371.576	88
371.802	78
372.028	98
372.254	85
372.48	88
372.706	96
372.932	84
373.158	94
373.384	91
373.61	97
373.835	90
374.061	85
374.287	93
374.513	92
374.739	91
374.965	82
375.191	101
375.416	94
375.642	90
375.868	91
376.094	92
376.319	90
376.545	88
376.771	102
376.997	101
377.222	98
377.448	101
377.674	103
377.899	100
378.125	89
378.35	107
378.576	94
378.802	99
379.027	77
379.253	99
379.478	84
379.704	88
379.929	104
380.155	97
380.38	93
380.606	102
380.831	102
381.057	111
381.282	104
381.507	104
381.733	102
381.958	80
382.184	110
382.409	112
382.634	115
382.86	101
383.085	93
383.31	109
383.535	104
383.761	112
383.986	117
384.211	111
384.436	106
384.662	112
384.887	109
385.112	103
385.337	114
385.562	103
385.787	115
386.013	114
386.238	119
386.463	101
386.688	117
386.913	113
387.138	132
387.363	106
387.588	109
387.813	124
388.038	123
388.263	139
388.488	125
388.713	89
388.938	106
389.163	96
389.387	97
389.612	105
389.837	89
390.062	101
390.287	97
390.512	90
390.736	88
390.961	96
391.186	102
391.411	86
391.636	102
391.86	97
392.085	86
392.31	94
392.534	94
392.759	92
392.984	100
393.208	120
393.433	142
393.658	110
393.882	99
394.107	78
394.331	104
394.556	88
394.78	84
395.005	92
395.229	93
395.454	86
395.678	83
395.903	75
396.127	85
396.352	91
396.576	86
396.801	117
397.025	115
397.249	92
397.474	82
397.698	78
397.922	91
398.147	72
398.371	90
398.595	84
398.82	86
399.044	92
399.268	71
399.492	88
399.717	90
399.941	92
400.165	86
400.389	86
400.613	76
400.837	83
401.062	93
401.286	99
401.51	89
401.734	93
401.958	102
402.182	106
402.406	122
402.63	109
402.854	83
403.078	95
403.302	88
403.526	100
403.75	96
403.974	93
404.198	96
404.422	95
404.645	93
404.869	103
405.093	93
405.317	98
405.541	92
405.765	100
405.988	108
406.212	132
406.436	183
406.66	122
406.883	94
407.107	102
407.331	91
407.555	99
407.778	91
408.002	101
408.226	74
408.449	97
408.673	87
408.896	84
409.12	93
409.344	84
409.567	104
409.791	98
410.014	104
410.238	95
410.461	92
410.685	94
410.908	95
411.132	99
411.355	90
411.578	85
411.802	86
412.025	100
412.249	97
412.472	76
412.695	87
412.919	81
413.142	86
413.365	99
413.589	97
413.812	88
414.035	86
414.258	92
414.482	90
414.705	96
414.928	99
415.151	85
415.374	92
415.597	90
415.821	109
416.044	97
416.267	92
416.49	89
416.713	98
416.936	89
417.159	83
417.382	75
417.605	103
417.828	88
418.051	81
418.274	85
418.497	89
418.72	85
418.943	73
419.166	98
419.389	106
419.611	93
419.834	89
420.057	87
420.28	91
420.503	75
420.726	90
420.948	93
421.171	99
421.394	84
421.617	88
421.839	85
422.062	86
422.285	95
422.507	88
422.73	100
422.953	96
423.175	94
423.398	89
423.621	94
423.843	73
424.066	86
424.288	80
424.511	101
424.733	96
424.956	87
425.178	82
425.401	93
425.623	100
425.846	98
426.068	103
426.291	76
426.513	92
426.735	89
426.958	88
427.18	98
427.402	103
427.625	136
427.847	112
428.069	106
428.292	98
428.514	90
428.736	77
428.958	83
429.181	75
429.403	80
429.625	84
429.847	104
430.069	83
430.292	98
430.514	81
430.736	75
430.958	85
431.18	100
431.402	82
431.624	75
431.846	80
432.068	85
432.29	86
432.512	85
432.734	90
432.956	96
433.178	96
433.4	91
433.622	90
433.844	102
434.066	80
434.287	81
434.509	105
434.731	92
434.953	93
435.175	88
435.397	98
435.618	98
435.84	91
436.062	108
436.284	90
436.505	95
436.727	93
436.949	94
437.17	82
437.392	99
437.614	102
437.835	97
438.057	89
438.278	84
438.5	104
438.721	94
438.943	93
439.165	86
439.386	82
439.608	101
439.829	92
440.05	108
440.272	117
440.493	90
440.715	96
440.936	85
441.158	82
441.379	97
441.6	84
441.822	105
442.043	95
442.264	114
442.486	97
442.707	94
442.928	98
443.149	106
443.371	109
443.592	107
443.813	112
444.034	87
444.255	99
444.476	83
444.698	106
444.919	84
445.14	134
445.361	119
445.582	101
445.803	129
446.024	121
446.245	104
446.466	98
446.687	88
446.908	81
447.129	98
447.35	85
447.571	88
447.792	97
448.013	89
448.234	101
448.455	100
448.675	91
448.896	102
449.117	103
449.338	95
449.559	102
449.779	103
450	74
450.221	96
450.442	102
450.662	94
450.883	85
451.104	110
451.324	96
451.545	92
451.766	92
451.986	90
452.207	81
452.428	75
452.648	78
452.869	92
453.089	104
453.31	109
453.53	86
453.751	84
453.971	96
454.192	98
454.412	92
454.633	83
454.853	76
455.073	74
455.294	78
455.514	94
455.734	75
455.955	92
456.175	94
456.395	88
456.616	102
456.836	83
457.056	85
457.276	87
457.497	83
457.717	82
457.937	90
458.157	91
458.377	78
458.598	88
458.818	133
459.038	126
459.258	83
459.478	89
459.698	86
459.918	83
460.138	77
460.358	87
460.578	88
460.798	97
461.018	93
461.238	104
461.458	87
461.678	79
461.898	79
462.118	85
462.338	95
462.558	82
462.777	73
462.997	88
463.217	80
463.437	100
463.657	85
463.876	81
464.096	73
464.316	77
464.536	94
464.755	100
464.975	95
465.195	126
465.414	129
465.634	89
465.854	92
466.073	76
466.293	87
466.512	90
466.732	93
466.951	83
467.171	94
467.391	85
467.61	91
467.829	96
468.049	105
468.268	120
468.488	92
468.707	80
468.927	84
469.146	85
469.365	85
469.585	84
469.804	84
470.023	77
470.243	93
470.462	105
470.681	103
470.901	82
471.12	84
471.339	87
471.558	91
471.777	100
471.997	91
472.216	132
472.435	178
472.654	97
472.873	99
473.092	84
473.311	84
473.53	88
473.749	105
473.968	91
474.187	105
474.406	94
474.625	87
474.844	89
475.063	87
475.282	106
475.501	88
475.72	88
475.939	90
476.158	78
476.377	97
476.596	93
476.814	99
477.033	80
477.252	83
477.471	78
477.69	92
477.908	81
478.127	86
478.346	76
478.564	93
478.783	96
479.002	70
479.22	100
479.439	106
479.658	98
479.876	107
480.095	88
480.313	104
480.532	92
480.751	114
480.969	135
481.188	267
481.406	195
481.624	124
481.843	96
482.061	102
482.28	74
482.498	84
482.717	77
482.935	86
483.153	86
483.372	77
483.59	100
483.808	70
484.027	93
484.245	86
484.463	94
484.681	92
484.9	82
485.118	100
485.336	95
485.554	104
485.772	110
485.99	111
486.209	103
486.427	114
486.645	109
486.863	122
487.081	102
487.299	111
487.517	99
487.735	80
487.953	92
488.171	96
488.389	88
488.607	114
488.825	102
489.043	94
489.261	89
489.479	83
489.696	110
489.914	105
490.132	86
490.35	89
490.568	90
490.786	95
491.003	89
491.221	87
491.439	103
491.657	92
491.874	90
492.092	97
492.31	84
492.527	92
492.745	85
492.963	95
493.18	94
493.398	96
493.615	100
493.833	97
494.05	83
494.268	81
494.485	104
494.703	101
494.92	94
495.138	90
495.355	85
495.573	89
495.79	97
496.008	93
496.225	89
496.442	86
496.66	90
496.877	90
497.094	92
497.312	104
497.529	97
497.746	105
497.963	81
498.181	114
498.398	92
498.615	104
498.832	96
499.049	89
499.267	91
499.484	89
499.701	96
499.918	90
500.135	86
500.352	93
500.569	76
500.786	96
501.003	91
501.22	99
501.437	89
501.654	97
501.871	89
502.088	92
502.305	88
502.522	92
502.739	99
502.956	92
503.172	101
503.389	97
503.606	84
503.823	94
504.04	87
504.256	81
504.473	94
504.69	99
504.907	93
505.123	94
505.34	85
505.557	96
505.773	88
505.99	97
506.207	82
506.423	92
506.64	91
506.856	97
507.073	73
507.289	88
507.506	104
507.722	100
507.939	107
508.155	89
508.372	80
508.588	96
508.805	110
509.021	98
509.238	101
509.454	93
509.67	95
509.887	105
510.103	121
510.319	180
510.536	562
510.752	1725
510.968	512
511.184	139
511.401	112
511.617	92
511.833	79
512.049	86
512.265	87
512.481	94
512.698	88
512.914	95
513.13	90
513.346	85
513.562	94
513.778	85
513.994	96
514.21	108
514.426	104
514.642	119
514.858	99
515.074	139
515.29	331
515.506	1035
515.721	396
515.937	133
516.153	102
516.369	92
516.585	92
516.801	89
517.016	93
517.232	86
517.448	95
517.664	98
517.879	84
518.095	96
518.311	98
518.527	105
518.742	86
518.958	94
519.173	90
519.389	93
519.605	88
519.82	105
520.036	98
520.251	103
520.467	105
520.682	97
520.898	120
521.113	106
521.329	123
521.544	158
521.76	418
521.975	1702
522.19	990
522.406	236
522.621	116
522.836	112
523.052	93
523.267	89
523.482	90
523.698	109
523.913	99
524.128	94
524.343	94
524.559	94
524.774	78
524.989	80
525.204	105
525.419	111
525.634	97
525.849	73
526.064	80
526.28	91
526.495	97
526.71	89
526.925	80
527.14	96
527.355	101
527.57	102
527.785	89
527.999	101
528.214	97
528.429	87
528.644	80
528.859	99
529.074	85
529.289	114
529.503	149
529.718	110
529.933	91
530.148	87
530.363	106
530.577	96
530.792	77
531.007	90
531.221	101
531.436	88
531.651	102
531.865	101
532.08	108
532.295	76
532.509	105
532.724	85
532.938	106
533.153	90
533.367	93
533.582	106
533.796	113
534.011	86
534.225	88
534.44	93
534.654	95
534.868	76
535.083	80
535.297	87
535.511	99
535.726	111
535.94	85
536.154	94
536.369	92
536.583	94
536.797	81
537.011	87
537.225	90
537.44	81
537.654	104
537.868	98
538.082	107
538.296	85
538.51	83
538.724	87
538.938	91
539.153	98
539.367	107
539.581	96
539.795	92
540.009	88
540.222	92
540.436	97
540.65	93
540.864	99
541.078	88
541.292	92
541.506	87
541.72	90
541.934	88
542.147	81
542.361	84
542.575	87
542.789	92
543.002	78
543.216	95
543.43	90
543.644	92
543.857	92
544.071	91
544.285	88
544.498	80
544.712	91
544.925	102
545.139	105
545.352	84
545.566	95
545.779	84
545.993	82
546.206	105
546.42	102
546.633	91
546.847	104
547.06	102
547.274	86
547.487	89
547.7	84
547.914	88
548.127	103
548.34	82
548.554	91
548.767	79
548.98	99
549.193	89
549.407	94
549.62	91
549.833	92
550.046	89
550.259	82
550.473	91
550.686	96
550.899	105
551.112	102
551.325	92
551.538	86
551.751	90
551.964	94
552.177	93
552.39	91
552.603	103
552.816	92
553.029	85
553.242	96
553.455	89
553.667	106
553.88	103
554.093	103
554.306	100
554.519	95
554.732	96
554.944	98
555.157	87
555.37	100
555.583	96
555.795	82
556.008	91
556.221	100
556.433	86
556.646	102
556.859	107
557.071	87
557.284	79
557.496	103
557.709	92
557.921	84
558.134	92
558.346	91
558.559	80
558.771	87
558.984	84
559.196	93
559.409	75
559.621	79
559.833	97
560.046	85
560.258	81
560.47	85
560.683	92
560.895	82
561.107	76
561.32	98
561.532	94
561.744	92
561.956	92
562.168	77
562.381	89
562.593	91
562.805	87
563.017	94
563.229	90
563.441	87
563.653	81
563.865	91
564.077	91
564.289	97
564.501	77
564.713	95
564.925	107
565.137	90
565.349	99
565.561	97
565.773	81
565.985	96
566.197	72
566.408	92
566.62	83
566.832	96
567.044	87
567.255	92
567.467	96
567.679	96
567.891	90
568.102	89
568.314	88
568.526	74
568.737	87
568.949	96
569.161	91
569.372	90
569.584	94
569.795	90
570.007	113
570.218	193
570.43	115
570.641	93
570.853	82
571.064	81
571.276	83
571.487	78
571.698	84
571.91	86
572.121	105
572.333	93
572.544	85
572.755	78
572.966	99
573.178	103
573.389	99
573.6	88
573.811	82
574.023	92
574.234	100
574.445	102
574.656	83
574.867	83
575.078	88
575.289	89
575.501	96
575.712	96
575.923	99
576.134	81
576.345	82
576.556	108
576.767	101
576.978	96
577.188	91
577.399	94
577.61	88
577.821	98
578.032	120
578.243	232
578.454	543
578.665	189
578.875	105
579.086	77
579.297	92
579.508	88
579.718	94
579.929	99
580.14	85
580.35	90
580.561	88
580.772	96
580.982	86
581.193	94
581.403	91
581.614	97
581.825	98
582.035	92
582.246	106
582.456	94
582.667	87
582.877	99
583.087	95
583.298	88
583.508	88
583.719	84
583.929	91
