Data from Circ_1983_H10_HRD10591_00058.txt Node
Date: Wed Jan 03 12:26:56 EST 2024
User: Yrep
Spectrometer: HR+D1059
Trigger mode: 1
Integration Time (sec): 1.000000E-1
Scans to average: 1
Electric dark correction enabled: true
Nonlinearity correction enabled: false
Boxcar width: 0
XAxis mode: Wavelengths
Number of Pixels in Spectrum: 2048
>>>>>Begin Spectral Data<<<<<
223.165	-12.12
223.4	-12.12
223.635	-12.12
223.869	-11.12
224.104	-27.12
224.338	-19.12
224.573	-10.12
224.808	-3.12
225.042	-0.12
225.277	2.88
225.511	2.88
225.746	2.88
225.98	0.88
226.215	4.88
226.449	19.88
226.683	3.88
226.918	12.88
227.152	31.88
227.387	39.88
227.621	25.88
227.856	65.88
228.09	46.88
228.324	50.88
228.559	55.88
228.793	58.88
229.027	69.88
229.262	60.88
229.496	60.88
229.73	80.88
229.964	73.88
230.199	73.88
230.433	76.88
230.667	72.88
230.901	73.88
231.136	70.88
231.37	90.88
231.604	74.88
231.838	82.88
232.072	73.88
232.306	92.88
232.541	86.88
232.775	76.88
233.009	65.88
233.243	87.88
233.477	79.88
233.711	78.88
233.945	88.88
234.179	70.88
234.413	72.88
234.647	84.88
234.881	90.88
235.115	83.88
235.349	88.88
235.583	83.88
235.817	80.88
236.051	75.88
236.285	85.88
236.519	66.88
236.753	87.88
236.987	77.88
237.221	84.88
237.455	86.88
237.689	86.88
237.922	67.88
238.156	72.88
238.39	69.88
238.624	70.88
238.858	65.88
239.091	71.88
239.325	74.88
239.559	81.88
239.793	74.88
240.027	71.88
240.26	77.88
240.494	75.88
240.728	76.88
240.961	85.88
241.195	74.88
241.429	71.88
241.662	70.88
241.896	70.88
242.13	70.88
242.363	80.88
242.597	81.88
242.83	66.88
243.064	80.88
243.298	96.88
243.531	93.88
243.765	74.88
243.998	76.88
244.232	81.88
244.465	74.88
244.699	77.88
244.932	76.88
245.166	85.88
245.399	84.88
245.633	90.88
245.866	63.88
246.099	77.88
246.333	88.88
246.566	84.88
246.8	94.88
247.033	67.88
247.266	76.88
247.5	70.88
247.733	77.88
247.966	82.88
248.2	78.88
248.433	83.88
248.666	88.88
248.899	77.88
249.133	89.88
249.366	74.88
249.599	92.88
249.832	83.88
250.066	78.88
250.299	73.88
250.532	86.88
250.765	82.88
250.998	75.88
251.231	80.88
251.465	85.88
251.698	96.88
251.931	86.88
252.164	74.88
252.397	80.88
252.63	82.88
252.863	90.88
253.096	83.88
253.329	77.88
253.562	72.88
253.795	75.88
254.028	93.88
254.261	83.88
254.494	75.88
254.727	76.88
254.96	85.88
255.193	76.88
255.426	80.88
255.659	88.88
255.892	85.88
256.124	91.88
256.357	87.88
256.59	95.88
256.823	84.88
257.056	81.88
257.289	87.88
257.521	77.88
257.754	74.88
257.987	84.88
258.22	104.88
258.452	97.88
258.685	77.88
258.918	98.88
259.151	86.88
259.383	83.88
259.616	82.88
259.849	85.88
260.081	102.88
260.314	76.88
260.547	61.88
260.779	90.88
261.012	103.88
261.244	89.88
261.477	88.88
261.71	97.88
261.942	108.88
262.175	98.88
262.407	89.88
262.64	70.88
262.872	82.88
263.105	86.88
263.337	77.88
263.57	82.88
263.802	94.88
264.035	94.88
264.267	91.88
264.499	81.88
264.732	77.88
264.964	84.88
265.197	83.88
265.429	78.88
265.661	72.88
265.894	71.88
266.126	79.88
266.358	85.88
266.591	68.88
266.823	84.88
267.055	76.88
267.287	71.88
267.52	68.88
267.752	83.88
267.984	85.88
268.216	93.88
268.448	94.88
268.681	99.88
268.913	72.88
269.145	91.88
269.377	91.88
269.609	90.88
269.841	82.88
270.073	82.88
270.306	88.88
270.538	70.88
270.77	89.88
271.002	82.88
271.234	89.88
271.466	82.88
271.698	88.88
271.93	98.88
272.162	102.88
272.394	75.88
272.626	82.88
272.858	84.88
273.09	79.88
273.322	89.88
273.553	72.88
273.785	91.88
274.017	80.88
274.249	78.88
274.481	80.88
274.713	87.88
274.945	84.88
275.176	102.88
275.408	91.88
275.64	84.88
275.872	84.88
276.104	97.88
276.335	85.88
276.567	90.88
276.799	105.88
277.031	102.88
277.262	96.88
277.494	90.88
277.726	86.88
277.957	74.88
278.189	91.88
278.421	96.88
278.652	84.88
278.884	84.88
279.115	74.88
279.347	90.88
279.579	83.88
279.81	97.88
280.042	112.88
280.273	94.88
280.505	86.88
280.736	101.88
280.968	72.88
281.199	69.88
281.431	82.88
281.662	90.88
281.894	81.88
282.125	87.88
282.356	102.88
282.588	109.88
282.819	115.88
283.051	92.88
283.282	83.88
283.513	82.88
283.745	80.88
283.976	88.88
284.207	89.88
284.439	81.88
284.67	93.88
284.901	89.88
285.132	84.88
285.364	94.88
285.595	74.88
285.826	84.88
286.057	74.88
286.288	80.88
286.52	82.88
286.751	81.88
286.982	93.88
287.213	69.88
287.444	89.88
287.675	88.88
287.906	89.88
288.138	107.88
288.369	84.88
288.6	96.88
288.831	82.88
289.062	99.88
289.293	98.88
289.524	83.88
289.755	96.88
289.986	85.88
290.217	82.88
290.448	84.88
290.679	89.88
290.91	99.88
291.141	88.88
291.371	91.88
291.602	80.88
291.833	85.88
292.064	84.88
292.295	82.88
292.526	93.88
292.757	82.88
292.987	93.88
293.218	88.88
293.449	92.88
293.68	96.88
293.91	85.88
294.141	80.88
294.372	100.88
294.603	74.88
294.833	86.88
295.064	86.88
295.295	77.88
295.525	84.88
295.756	92.88
295.987	107.88
296.217	124.88
296.448	108.88
296.679	91.88
296.909	87.88
297.14	101.88
297.37	94.88
297.601	86.88
297.831	86.88
298.062	100.88
298.292	84.88
298.523	83.88
298.753	75.88
298.984	90.88
299.214	77.88
299.445	84.88
299.675	76.88
299.905	92.88
300.136	98.88
300.366	99.88
300.597	90.88
300.827	93.88
301.057	109.88
301.288	97.88
301.518	94.88
301.748	88.88
301.979	112.88
302.209	97.88
302.439	98.88
302.669	86.88
302.9	102.88
303.13	88.88
303.36	84.88
303.59	93.88
303.82	110.88
304.051	86.88
304.281	94.88
304.511	100.88
304.741	96.88
304.971	89.88
305.201	95.88
305.431	83.88
305.661	84.88
305.891	102.88
306.121	84.88
306.352	86.88
306.582	104.88
306.812	90.88
307.042	82.88
307.272	80.88
307.502	86.88
307.731	102.88
307.961	103.88
308.191	86.88
308.421	105.88
308.651	93.88
308.881	96.88
309.111	94.88
309.341	105.88
309.571	104.88
309.8	84.88
310.03	93.88
310.26	101.88
310.49	83.88
310.72	102.88
310.949	85.88
311.179	108.88
311.409	100.88
311.639	102.88
311.868	106.88
312.098	111.88
312.328	103.88
312.557	85.88
312.787	102.88
313.017	112.88
313.246	88.88
313.476	75.88
313.706	94.88
313.935	89.88
314.165	100.88
314.394	99.88
314.624	87.88
314.853	90.88
315.083	90.88
315.312	91.88
315.542	76.88
315.771	86.88
316.001	86.88
316.23	94.88
316.46	85.88
316.689	83.88
316.919	93.88
317.148	91.88
317.377	83.88
317.607	90.88
317.836	88.88
318.065	80.88
318.295	88.88
318.524	90.88
318.753	96.88
318.983	109.88
319.212	92.88
319.441	97.88
319.67	94.88
319.9	80.88
320.129	96.88
320.358	98.88
320.587	85.88
320.816	94.88
321.046	102.88
321.275	112.88
321.504	91.88
321.733	109.88
321.962	97.88
322.191	95.88
322.42	87.88
322.649	87.88
322.878	116.88
323.108	99.88
323.337	113.88
323.566	116.88
323.795	125.88
324.024	169.88
324.253	288.88
324.482	625.88
324.71	1205.88
324.939	1572.88
325.168	615.88
325.397	208.88
325.626	123.88
325.855	119.88
326.084	121.88
326.313	131.88
326.542	138.88
326.77	192.88
326.999	333.88
327.228	709.88
327.457	1261.88
327.686	987.88
327.914	278.88
328.143	189.88
328.372	171.88
328.6	138.88
328.829	112.88
329.058	118.88
329.287	120.88
329.515	107.88
329.744	96.88
329.972	119.88
330.201	186.88
330.43	203.88
330.658	146.88
330.887	114.88
331.115	108.88
331.344	96.88
331.572	89.88
331.801	101.88
332.03	113.88
332.258	112.88
332.486	94.88
332.715	96.88
332.943	97.88
333.172	90.88
333.4	92.88
333.629	111.88
333.857	109.88
334.085	136.88
334.314	166.88
334.542	247.88
334.771	234.88
334.999	119.88
335.227	102.88
335.455	87.88
335.684	107.88
335.912	100.88
336.14	85.88
336.369	74.88
336.597	98.88
336.825	91.88
337.053	91.88
337.281	81.88
337.51	93.88
337.738	85.88
337.966	101.88
338.194	94.88
338.422	94.88
338.65	89.88
338.878	94.88
339.106	91.88
339.334	91.88
339.562	84.88
339.79	88.88
340.018	96.88
340.246	88.88
340.474	96.88
340.702	96.88
340.93	78.88
341.158	95.88
341.386	97.88
341.614	91.88
341.842	94.88
342.07	84.88
342.298	104.88
342.526	88.88
342.754	101.88
342.981	75.88
343.209	90.88
343.437	107.88
343.665	91.88
343.893	101.88
344.12	97.88
344.348	89.88
344.576	90.88
344.804	101.88
345.031	96.88
345.259	86.88
345.487	100.88
345.714	82.88
345.942	90.88
346.17	101.88
346.397	90.88
346.625	103.88
346.853	94.88
347.08	84.88
347.308	94.88
347.535	98.88
347.763	96.88
347.99	93.88
348.218	92.88
348.445	93.88
348.673	107.88
348.9	97.88
349.128	107.88
349.355	91.88
349.583	81.88
349.81	99.88
350.037	78.88
350.265	94.88
350.492	97.88
350.72	90.88
350.947	100.88
351.174	102.88
351.402	118.88
351.629	81.88
351.856	98.88
352.083	102.88
352.311	102.88
352.538	86.88
352.765	101.88
352.992	108.88
353.22	111.88
353.447	88.88
353.674	110.88
353.901	102.88
354.128	81.88
354.355	89.88
354.583	91.88
354.81	93.88
355.037	107.88
355.264	90.88
355.491	88.88
355.718	76.88
355.945	68.88
356.172	98.88
356.399	91.88
356.626	81.88
356.853	101.88
357.08	101.88
357.307	100.88
357.534	92.88
357.761	95.88
357.988	101.88
358.215	92.88
358.441	93.88
358.668	95.88
358.895	97.88
359.122	93.88
359.349	89.88
359.576	81.88
359.802	91.88
360.029	96.88
360.256	88.88
360.483	103.88
360.709	93.88
360.936	101.88
361.163	90.88
361.39	97.88
361.616	101.88
361.843	90.88
362.07	99.88
362.296	94.88
362.523	88.88
362.749	82.88
362.976	96.88
363.203	110.88
363.429	91.88
363.656	84.88
363.882	93.88
364.109	88.88
364.335	91.88
364.562	88.88
364.788	90.88
365.015	84.88
365.241	95.88
365.468	92.88
365.694	73.88
365.92	92.88
366.147	82.88
366.373	98.88
366.599	92.88
366.826	70.88
367.052	93.88
367.278	88.88
367.505	84.88
367.731	82.88
367.957	92.88
368.184	89.88
368.41	98.88
368.636	113.88
368.862	117.88
369.089	91.88
369.315	89.88
369.541	90.88
369.767	84.88
369.993	94.88
370.219	96.88
370.445	89.88
370.672	90.88
370.898	88.88
371.124	86.88
371.35	93.88
371.576	89.88
371.802	96.88
372.028	87.88
372.254	94.88
372.48	69.88
372.706	74.88
372.932	91.88
373.158	82.88
373.384	91.88
373.61	96.88
373.835	82.88
374.061	82.88
374.287	87.88
374.513	90.88
374.739	89.88
374.965	99.88
375.191	100.88
375.416	85.88
375.642	73.88
375.868	76.88
376.094	88.88
376.319	83.88
376.545	93.88
376.771	97.88
376.997	86.88
377.222	96.88
377.448	96.88
377.674	98.88
377.899	96.88
378.125	83.88
378.35	102.88
378.576	93.88
378.802	90.88
379.027	96.88
379.253	99.88
379.478	95.88
379.704	100.88
379.929	94.88
380.155	97.88
380.38	80.88
380.606	86.88
380.831	105.88
381.057	102.88
381.282	92.88
381.507	98.88
381.733	89.88
381.958	100.88
382.184	89.88
382.409	98.88
382.634	92.88
382.86	104.88
383.085	102.88
383.31	112.88
383.535	96.88
383.761	94.88
383.986	100.88
384.211	97.88
384.436	84.88
384.662	107.88
384.887	110.88
385.112	105.88
385.337	97.88
385.562	111.88
385.787	106.88
386.013	101.88
386.238	114.88
386.463	116.88
386.688	110.88
386.913	89.88
387.138	98.88
387.363	112.88
387.588	90.88
387.813	107.88
388.038	94.88
388.263	110.88
388.488	104.88
388.713	105.88
388.938	93.88
389.163	92.88
389.387	93.88
389.612	88.88
389.837	104.88
390.062	99.88
390.287	93.88
390.512	109.88
390.736	98.88
390.961	84.88
391.186	98.88
391.411	106.88
391.636	95.88
391.86	88.88
392.085	89.88
392.31	98.88
392.534	101.88
392.759	93.88
392.984	90.88
393.208	96.88
393.433	103.88
393.658	96.88
393.882	81.88
394.107	90.88
394.331	91.88
394.556	96.88
394.78	88.88
395.005	92.88
395.229	91.88
395.454	86.88
395.678	93.88
395.903	89.88
396.127	90.88
396.352	81.88
396.576	70.88
396.801	97.88
397.025	85.88
397.249	89.88
397.474	79.88
397.698	80.88
397.922	86.88
398.147	89.88
398.371	96.88
398.595	98.88
398.82	98.88
399.044	89.88
399.268	97.88
399.492	96.88
399.717	90.88
399.941	100.88
400.165	90.88
400.389	84.88
400.613	80.88
400.837	82.88
401.062	89.88
401.286	90.88
401.51	80.88
401.734	83.88
401.958	94.88
402.182	108.88
402.406	128.88
402.63	108.88
402.854	91.88
403.078	96.88
403.302	99.88
403.526	78.88
403.75	87.88
403.974	80.88
404.198	82.88
404.422	97.88
404.645	96.88
404.869	90.88
405.093	106.88
405.317	95.88
405.541	94.88
405.765	91.88
405.988	109.88
406.212	141.88
406.436	164.88
406.66	119.88
406.883	91.88
407.107	83.88
407.331	94.88
407.555	97.88
407.778	94.88
408.002	99.88
408.226	74.88
408.449	86.88
408.673	95.88
408.896	98.88
409.12	97.88
409.344	97.88
409.567	88.88
409.791	97.88
410.014	97.88
410.238	79.88
410.461	88.88
410.685	95.88
410.908	103.88
411.132	106.88
411.355	103.88
411.578	100.88
411.802	88.88
412.025	88.88
412.249	95.88
412.472	92.88
412.695	93.88
412.919	95.88
413.142	87.88
413.365	81.88
413.589	101.88
413.812	90.88
414.035	88.88
414.258	91.88
414.482	88.88
414.705	91.88
414.928	82.88
415.151	93.88
415.374	100.88
415.597	92.88
415.821	93.88
416.044	82.88
416.267	100.88
416.49	90.88
416.713	86.88
416.936	86.88
417.159	89.88
417.382	90.88
417.605	76.88
417.828	108.88
418.051	96.88
418.274	84.88
418.497	97.88
418.72	89.88
418.943	85.88
419.166	70.88
419.389	82.88
419.611	89.88
419.834	80.88
420.057	78.88
420.28	102.88
420.503	84.88
420.726	87.88
420.948	93.88
421.171	90.88
421.394	93.88
421.617	97.88
421.839	101.88
422.062	93.88
422.285	94.88
422.507	78.88
422.73	96.88
422.953	98.88
423.175	96.88
423.398	90.88
423.621	88.88
423.843	74.88
424.066	80.88
424.288	75.88
424.511	89.88
424.733	100.88
424.956	99.88
425.178	108.88
425.401	90.88
425.623	97.88
425.846	103.88
426.068	94.88
426.291	87.88
426.513	95.88
426.735	91.88
426.958	94.88
427.18	95.88
427.402	102.88
427.625	137.88
427.847	124.88
428.069	129.88
428.292	101.88
428.514	93.88
428.736	87.88
428.958	87.88
429.181	81.88
429.403	97.88
429.625	94.88
429.847	92.88
430.069	88.88
430.292	84.88
430.514	93.88
430.736	85.88
430.958	86.88
431.18	95.88
431.402	94.88
431.624	83.88
431.846	81.88
432.068	99.88
432.29	98.88
432.512	90.88
432.734	74.88
432.956	94.88
433.178	105.88
433.4	104.88
433.622	97.88
433.844	92.88
434.066	85.88
434.287	90.88
434.509	76.88
434.731	80.88
434.953	85.88
435.175	86.88
435.397	89.88
435.618	92.88
435.84	95.88
436.062	103.88
436.284	107.88
436.505	92.88
436.727	99.88
436.949	114.88
437.17	89.88
437.392	86.88
437.614	89.88
437.835	93.88
438.057	101.88
438.278	106.88
438.5	108.88
438.721	101.88
438.943	106.88
439.165	96.88
439.386	96.88
439.608	76.88
439.829	104.88
440.05	117.88
440.272	119.88
440.493	85.88
440.715	75.88
440.936	85.88
441.158	92.88
441.379	74.88
441.6	83.88
441.822	87.88
442.043	82.88
442.264	96.88
442.486	81.88
442.707	78.88
442.928	103.88
443.149	98.88
443.371	120.88
443.592	111.88
443.813	120.88
444.034	114.88
444.255	98.88
444.476	83.88
444.698	98.88
444.919	74.88
445.14	131.88
445.361	116.88
445.582	111.88
445.803	130.88
446.024	120.88
446.245	111.88
446.466	93.88
446.687	86.88
446.908	97.88
447.129	87.88
447.35	90.88
447.571	83.88
447.792	87.88
448.013	106.88
448.234	98.88
448.455	92.88
448.675	107.88
448.896	108.88
449.117	100.88
449.338	90.88
449.559	116.88
449.779	113.88
450	108.88
450.221	97.88
450.442	90.88
450.662	88.88
450.883	95.88
451.104	92.88
451.324	112.88
451.545	82.88
451.766	86.88
451.986	71.88
452.207	88.88
452.428	92.88
452.648	94.88
452.869	98.88
453.089	101.88
453.31	110.88
453.53	84.88
453.751	91.88
453.971	110.88
454.192	98.88
454.412	87.88
454.633	88.88
454.853	88.88
455.073	76.88
455.294	99.88
455.514	87.88
455.734	80.88
455.955	89.88
456.175	96.88
456.395	92.88
456.616	96.88
456.836	100.88
457.056	87.88
457.276	84.88
457.497	83.88
457.717	86.88
457.937	78.88
458.157	93.88
458.377	97.88
458.598	95.88
458.818	125.88
459.038	130.88
459.258	96.88
459.478	80.88
459.698	68.88
459.918	75.88
460.138	84.88
460.358	77.88
460.578	97.88
460.798	97.88
461.018	85.88
461.238	94.88
461.458	87.88
461.678	73.88
461.898	82.88
462.118	85.88
462.338	89.88
462.558	80.88
462.777	101.88
462.997	83.88
463.217	98.88
463.437	84.88
463.657	80.88
463.876	81.88
464.096	86.88
464.316	88.88
464.536	88.88
464.755	96.88
464.975	103.88
465.195	127.88
465.414	125.88
465.634	88.88
465.854	82.88
466.073	91.88
466.293	85.88
466.512	90.88
466.732	91.88
466.951	98.88
467.171	85.88
467.391	104.88
467.61	92.88
467.829	96.88
468.049	125.88
468.268	149.88
468.488	100.88
468.707	73.88
468.927	94.88
469.146	95.88
469.365	90.88
469.585	87.88
469.804	84.88
470.023	96.88
470.243	98.88
470.462	104.88
470.681	110.88
470.901	93.88
471.12	97.88
471.339	80.88
471.558	91.88
471.777	97.88
471.997	100.88
472.216	187.88
472.435	303.88
472.654	140.88
472.873	93.88
473.092	93.88
473.311	87.88
473.53	98.88
473.749	67.88
473.968	92.88
474.187	103.88
474.406	86.88
474.625	77.88
474.844	91.88
475.063	104.88
475.282	100.88
475.501	69.88
475.72	75.88
475.939	77.88
476.158	81.88
476.377	87.88
476.596	95.88
476.814	83.88
477.033	89.88
477.252	106.88
477.471	91.88
477.69	89.88
477.908	89.88
478.127	81.88
478.346	82.88
478.564	92.88
478.783	100.88
479.002	83.88
479.22	98.88
479.439	115.88
479.658	95.88
479.876	91.88
480.095	91.88
480.313	89.88
480.532	91.88
480.751	110.88
480.969	201.88
481.188	533.88
481.406	316.88
481.624	118.88
481.843	101.88
482.061	97.88
482.28	100.88
482.498	88.88
482.717	90.88
482.935	86.88
483.153	99.88
483.372	89.88
483.59	84.88
483.808	92.88
484.027	95.88
484.245	89.88
484.463	93.88
484.681	100.88
484.9	95.88
485.118	82.88
485.336	98.88
485.554	92.88
485.772	111.88
485.99	101.88
486.209	96.88
486.427	92.88
486.645	107.88
486.863	106.88
487.081	104.88
487.299	103.88
487.517	91.88
487.735	96.88
487.953	98.88
488.171	85.88
488.389	87.88
488.607	104.88
488.825	98.88
489.043	96.88
489.261	89.88
489.479	101.88
489.696	86.88
489.914	89.88
490.132	84.88
490.35	85.88
490.568	96.88
490.786	88.88
491.003	92.88
491.221	100.88
491.439	84.88
491.657	81.88
491.874	102.88
492.092	82.88
492.31	95.88
492.527	86.88
492.745	100.88
492.963	90.88
493.18	73.88
493.398	86.88
493.615	92.88
493.833	111.88
494.05	93.88
494.268	96.88
494.485	90.88
494.703	87.88
494.92	85.88
495.138	80.88
495.355	97.88
495.573	86.88
495.79	89.88
496.008	95.88
496.225	97.88
496.442	94.88
496.66	80.88
496.877	97.88
497.094	103.88
497.312	68.88
497.529	89.88
497.746	92.88
497.963	99.88
498.181	93.88
498.398	84.88
498.615	112.88
498.832	98.88
499.049	91.88
499.267	88.88
499.484	77.88
499.701	97.88
499.918	94.88
500.135	99.88
500.352	96.88
500.569	77.88
500.786	98.88
501.003	94.88
501.22	94.88
501.437	91.88
501.654	86.88
501.871	100.88
502.088	88.88
502.305	85.88
502.522	94.88
502.739	104.88
502.956	94.88
503.172	86.88
503.389	95.88
503.606	96.88
503.823	106.88
504.04	89.88
504.256	93.88
504.473	97.88
504.69	92.88
504.907	86.88
505.123	74.88
505.34	70.88
505.557	85.88
505.773	91.88
505.99	82.88
506.207	100.88
506.423	80.88
506.64	86.88
506.856	88.88
507.073	83.88
507.289	96.88
507.506	89.88
507.722	107.88
507.939	103.88
508.155	94.88
508.372	97.88
508.588	90.88
508.805	81.88
509.021	99.88
509.238	85.88
509.454	93.88
509.67	98.88
509.887	98.88
510.103	133.88
510.319	172.88
510.536	539.88
510.752	1692.88
510.968	486.88
511.184	138.88
511.401	99.88
511.617	105.88
511.833	90.88
512.049	91.88
512.265	88.88
512.481	82.88
512.698	92.88
512.914	94.88
513.13	94.88
513.346	86.88
513.562	77.88
513.778	82.88
513.994	96.88
514.21	91.88
514.426	99.88
514.642	123.88
514.858	109.88
515.074	147.88
515.29	326.88
515.506	986.88
515.721	377.88
515.937	141.88
516.153	118.88
