Data from Circ_1983_H10_HRD10591_00067.txt Node
Date: Wed Jan 03 12:26:58 EST 2024
User: Yrep
Spectrometer: HR+D1059
Trigger mode: 1
Integration Time (sec): 1.000000E-1
Scans to average: 1
Electric dark correction enabled: true
Nonlinearity correction enabled: false
Boxcar width: 0
XAxis mode: Wavelengths
Number of Pixels in Spectrum: 2048
>>>>>Begin Spectral Data<<<<<
223.165	-20.5
223.4	-20.5
223.635	-20.5
223.869	-9.5
224.104	-19.5
224.338	-15.5
224.573	-13.5
224.808	1.5
225.042	-11.5
225.277	-6.5
225.511	-7.5
225.746	-6.5
225.98	3.5
226.215	-5.5
226.449	16.5
226.683	27.5
226.918	26.5
227.152	40.5
227.387	34.5
227.621	44.5
227.856	48.5
228.09	30.5
228.324	36.5
228.559	54.5
228.793	43.5
229.027	54.5
229.262	64.5
229.496	60.5
229.73	64.5
229.964	68.5
230.199	78.5
230.433	84.5
230.667	74.5
230.901	80.5
231.136	69.5
231.37	73.5
231.604	73.5
231.838	84.5
232.072	73.5
232.306	72.5
232.541	89.5
232.775	78.5
233.009	87.5
233.243	94.5
233.477	80.5
233.711	67.5
233.945	74.5
234.179	83.5
234.413	80.5
234.647	66.5
234.881	88.5
235.115	67.5
235.349	67.5
235.583	72.5
235.817	72.5
236.051	81.5
236.285	80.5
236.519	81.5
236.753	71.5
236.987	84.5
237.221	76.5
237.455	73.5
237.689	84.5
237.922	78.5
238.156	66.5
238.39	81.5
238.624	70.5
238.858	67.5
239.091	69.5
239.325	71.5
239.559	84.5
239.793	79.5
240.027	76.5
240.26	82.5
240.494	73.5
240.728	83.5
240.961	67.5
241.195	71.5
241.429	82.5
241.662	72.5
241.896	58.5
242.13	77.5
242.363	78.5
242.597	80.5
242.83	78.5
243.064	69.5
243.298	65.5
243.531	76.5
243.765	82.5
243.998	77.5
244.232	64.5
244.465	72.5
244.699	76.5
244.932	69.5
245.166	74.5
245.399	76.5
245.633	64.5
245.866	75.5
246.099	78.5
246.333	69.5
246.566	65.5
246.8	65.5
247.033	63.5
247.266	68.5
247.5	61.5
247.733	94.5
247.966	65.5
248.2	88.5
248.433	78.5
248.666	81.5
248.899	90.5
249.133	86.5
249.366	90.5
249.599	85.5
249.832	71.5
250.066	81.5
250.299	72.5
250.532	76.5
250.765	65.5
250.998	80.5
251.231	64.5
251.465	80.5
251.698	65.5
251.931	58.5
252.164	82.5
252.397	85.5
252.63	69.5
252.863	68.5
253.096	64.5
253.329	85.5
253.562	70.5
253.795	64.5
254.028	83.5
254.261	66.5
254.494	78.5
254.727	98.5
254.96	79.5
255.193	70.5
255.426	68.5
255.659	84.5
255.892	78.5
256.124	77.5
256.357	60.5
256.59	81.5
256.823	74.5
257.056	80.5
257.289	78.5
257.521	82.5
257.754	58.5
257.987	82.5
258.22	78.5
258.452	100.5
258.685	85.5
258.918	85.5
259.151	76.5
259.383	72.5
259.616	71.5
259.849	68.5
260.081	70.5
260.314	64.5
260.547	68.5
260.779	92.5
261.012	87.5
261.244	82.5
261.477	82.5
261.71	98.5
261.942	107.5
262.175	110.5
262.407	76.5
262.64	86.5
262.872	86.5
263.105	90.5
263.337	89.5
263.57	70.5
263.802	85.5
264.035	78.5
264.267	80.5
264.499	70.5
264.732	80.5
264.964	86.5
265.197	69.5
265.429	87.5
265.661	68.5
265.894	69.5
266.126	90.5
266.358	67.5
266.591	76.5
266.823	78.5
267.055	82.5
267.287	89.5
267.52	72.5
267.752	86.5
267.984	84.5
268.216	81.5
268.448	76.5
268.681	73.5
268.913	84.5
269.145	85.5
269.377	88.5
269.609	84.5
269.841	71.5
270.073	76.5
270.306	97.5
270.538	71.5
270.77	80.5
271.002	85.5
271.234	83.5
271.466	97.5
271.698	69.5
271.93	101.5
272.162	87.5
272.394	90.5
272.626	70.5
272.858	92.5
273.09	89.5
273.322	76.5
273.553	80.5
273.785	86.5
274.017	68.5
274.249	61.5
274.481	79.5
274.713	91.5
274.945	101.5
275.176	90.5
275.408	88.5
275.64	82.5
275.872	81.5
276.104	86.5
276.335	83.5
276.567	93.5
276.799	100.5
277.031	94.5
277.262	91.5
277.494	84.5
277.726	82.5
277.957	84.5
278.189	99.5
278.421	72.5
278.652	78.5
278.884	88.5
279.115	70.5
279.347	86.5
279.579	77.5
279.81	98.5
280.042	82.5
280.273	101.5
280.505	91.5
280.736	80.5
280.968	80.5
281.199	92.5
281.431	75.5
281.662	93.5
281.894	65.5
282.125	84.5
282.356	105.5
282.588	119.5
282.819	111.5
283.051	80.5
283.282	96.5
283.513	83.5
283.745	72.5
283.976	72.5
284.207	81.5
284.439	77.5
284.67	88.5
284.901	84.5
285.132	88.5
285.364	88.5
285.595	73.5
285.826	92.5
286.057	89.5
286.288	61.5
286.52	86.5
286.751	76.5
286.982	96.5
287.213	85.5
287.444	79.5
287.675	85.5
287.906	87.5
288.138	88.5
288.369	88.5
288.6	74.5
288.831	86.5
289.062	77.5
289.293	66.5
289.524	86.5
289.755	88.5
289.986	82.5
290.217	97.5
290.448	89.5
290.679	81.5
290.91	78.5
291.141	73.5
291.371	76.5
291.602	91.5
291.833	92.5
292.064	84.5
292.295	82.5
292.526	96.5
292.757	81.5
292.987	105.5
293.218	82.5
293.449	86.5
293.68	81.5
293.91	81.5
294.141	78.5
294.372	113.5
294.603	101.5
294.833	78.5
295.064	96.5
295.295	83.5
295.525	83.5
295.756	92.5
295.987	88.5
296.217	126.5
296.448	106.5
296.679	84.5
296.909	87.5
297.14	71.5
297.37	89.5
297.601	77.5
297.831	89.5
298.062	84.5
298.292	90.5
298.523	96.5
298.753	82.5
298.984	88.5
299.214	91.5
299.445	84.5
299.675	112.5
299.905	101.5
300.136	80.5
300.366	90.5
300.597	83.5
300.827	89.5
301.057	86.5
301.288	93.5
301.518	88.5
301.748	90.5
301.979	98.5
302.209	86.5
302.439	97.5
302.669	83.5
302.9	89.5
303.13	80.5
303.36	104.5
303.59	103.5
303.82	101.5
304.051	90.5
304.281	83.5
304.511	88.5
304.741	90.5
304.971	86.5
305.201	72.5
305.431	84.5
305.661	96.5
305.891	96.5
306.121	101.5
306.352	90.5
306.582	97.5
306.812	88.5
307.042	88.5
307.272	99.5
307.502	96.5
307.731	98.5
307.961	91.5
308.191	84.5
308.421	84.5
308.651	80.5
308.881	86.5
309.111	72.5
309.341	86.5
309.571	101.5
309.8	86.5
310.03	82.5
310.26	86.5
310.49	99.5
310.72	98.5
310.949	98.5
311.179	80.5
311.409	98.5
311.639	87.5
311.868	93.5
312.098	90.5
312.328	96.5
312.557	101.5
312.787	96.5
313.017	85.5
313.246	82.5
313.476	92.5
313.706	92.5
313.935	91.5
314.165	97.5
314.394	92.5
314.624	86.5
314.853	86.5
315.083	83.5
315.312	90.5
315.542	85.5
315.771	77.5
316.001	79.5
316.23	93.5
316.46	88.5
316.689	97.5
316.919	86.5
317.148	83.5
317.377	87.5
317.607	84.5
317.836	96.5
318.065	87.5
318.295	90.5
318.524	80.5
318.753	87.5
318.983	84.5
319.212	99.5
319.441	101.5
319.67	81.5
319.9	85.5
320.129	96.5
320.358	90.5
320.587	85.5
320.816	95.5
321.046	111.5
321.275	93.5
321.504	94.5
321.733	93.5
321.962	102.5
322.191	97.5
322.42	101.5
322.649	93.5
322.878	106.5
323.108	97.5
323.337	102.5
323.566	103.5
323.795	142.5
324.024	174.5
324.253	324.5
324.482	680.5
324.71	1353.5
324.939	1780.5
325.168	651.5
325.397	193.5
325.626	127.5
325.855	117.5
326.084	120.5
326.313	106.5
326.542	131.5
326.77	196.5
326.999	382.5
327.228	760.5
327.457	1354.5
327.686	1092.5
327.914	312.5
328.143	190.5
328.372	188.5
328.6	136.5
328.829	104.5
329.058	103.5
329.287	103.5
329.515	103.5
329.744	99.5
329.972	137.5
330.201	176.5
330.43	229.5
330.658	159.5
330.887	118.5
331.115	108.5
331.344	110.5
331.572	106.5
331.801	113.5
332.03	85.5
332.258	91.5
332.486	88.5
332.715	84.5
332.943	89.5
333.172	90.5
333.4	112.5
333.629	101.5
333.857	113.5
334.085	131.5
334.314	183.5
334.542	270.5
334.771	266.5
334.999	137.5
335.227	94.5
335.455	89.5
335.684	117.5
335.912	90.5
336.14	101.5
336.369	107.5
336.597	99.5
336.825	72.5
337.053	87.5
337.281	92.5
337.51	105.5
337.738	93.5
337.966	93.5
338.194	81.5
338.422	100.5
338.65	102.5
338.878	101.5
339.106	87.5
339.334	89.5
339.562	81.5
339.79	96.5
340.018	81.5
340.246	86.5
340.474	84.5
340.702	87.5
340.93	90.5
341.158	99.5
341.386	87.5
341.614	98.5
341.842	86.5
342.07	95.5
342.298	95.5
342.526	69.5
342.754	83.5
342.981	106.5
343.209	91.5
343.437	90.5
343.665	87.5
343.893	88.5
344.12	79.5
344.348	89.5
344.576	93.5
344.804	95.5
345.031	96.5
345.259	87.5
345.487	89.5
345.714	82.5
345.942	92.5
346.17	84.5
346.397	84.5
346.625	98.5
346.853	83.5
347.08	104.5
347.308	101.5
347.535	89.5
347.763	103.5
347.99	94.5
348.218	76.5
348.445	94.5
348.673	89.5
348.9	88.5
349.128	98.5
349.355	90.5
349.583	91.5
349.81	90.5
350.037	101.5
350.265	83.5
350.492	82.5
350.72	78.5
350.947	88.5
351.174	87.5
351.402	100.5
351.629	100.5
351.856	114.5
352.083	97.5
352.311	80.5
352.538	101.5
352.765	92.5
352.992	97.5
353.22	96.5
353.447	102.5
353.674	100.5
353.901	93.5
354.128	93.5
354.355	84.5
354.583	100.5
354.81	95.5
355.037	85.5
355.264	94.5
355.491	88.5
355.718	95.5
355.945	81.5
356.172	93.5
356.399	90.5
356.626	85.5
356.853	85.5
357.08	77.5
357.307	95.5
357.534	88.5
357.761	90.5
357.988	101.5
358.215	103.5
358.441	86.5
358.668	79.5
358.895	101.5
359.122	98.5
359.349	90.5
359.576	81.5
359.802	98.5
360.029	115.5
360.256	106.5
360.483	96.5
360.709	88.5
360.936	89.5
361.163	87.5
361.39	85.5
361.616	105.5
361.843	87.5
362.07	90.5
362.296	95.5
362.523	89.5
362.749	86.5
362.976	95.5
363.203	86.5
363.429	82.5
363.656	85.5
363.882	84.5
364.109	97.5
364.335	92.5
364.562	100.5
364.788	95.5
365.015	98.5
365.241	104.5
365.468	88.5
365.694	96.5
365.92	80.5
366.147	76.5
366.373	92.5
366.599	74.5
366.826	101.5
367.052	80.5
367.278	85.5
367.505	89.5
367.731	102.5
367.957	84.5
368.184	81.5
368.41	84.5
368.636	100.5
368.862	105.5
369.089	88.5
369.315	90.5
369.541	99.5
369.767	105.5
369.993	85.5
370.219	95.5
370.445	91.5
370.672	76.5
370.898	72.5
371.124	80.5
371.35	83.5
371.576	84.5
371.802	81.5
372.028	88.5
372.254	86.5
372.48	66.5
372.706	80.5
372.932	64.5
373.158	87.5
373.384	98.5
373.61	84.5
373.835	88.5
374.061	105.5
374.287	83.5
374.513	92.5
374.739	71.5
374.965	59.5
375.191	100.5
375.416	95.5
375.642	84.5
375.868	97.5
376.094	74.5
376.319	92.5
376.545	93.5
376.771	76.5
376.997	94.5
377.222	98.5
377.448	85.5
377.674	104.5
377.899	80.5
378.125	86.5
378.35	88.5
378.576	88.5
378.802	77.5
379.027	85.5
379.253	109.5
379.478	88.5
379.704	90.5
379.929	77.5
380.155	90.5
380.38	94.5
380.606	93.5
380.831	85.5
381.057	90.5
381.282	83.5
381.507	114.5
381.733	97.5
381.958	92.5
382.184	88.5
382.409	97.5
382.634	82.5
382.86	105.5
383.085	102.5
383.31	86.5
383.535	103.5
383.761	88.5
383.986	117.5
384.211	95.5
384.436	102.5
384.662	99.5
384.887	88.5
385.112	91.5
385.337	108.5
385.562	104.5
385.787	103.5
386.013	106.5
386.238	106.5
386.463	101.5
386.688	90.5
386.913	91.5
387.138	97.5
387.363	95.5
387.588	93.5
387.813	93.5
388.038	88.5
388.263	112.5
388.488	105.5
388.713	91.5
388.938	84.5
389.163	93.5
389.387	94.5
389.612	87.5
389.837	86.5
390.062	96.5
390.287	95.5
390.512	84.5
390.736	76.5
390.961	90.5
391.186	83.5
391.411	93.5
391.636	89.5
391.86	102.5
392.085	81.5
392.31	97.5
392.534	90.5
392.759	80.5
392.984	101.5
393.208	100.5
393.433	119.5
393.658	103.5
393.882	81.5
394.107	81.5
394.331	96.5
394.556	77.5
394.78	90.5
395.005	82.5
395.229	83.5
395.454	96.5
395.678	83.5
395.903	80.5
396.127	95.5
396.352	99.5
396.576	95.5
396.801	86.5
397.025	92.5
397.249	89.5
397.474	90.5
397.698	83.5
397.922	78.5
398.147	69.5
398.371	95.5
398.595	87.5
398.82	78.5
399.044	80.5
399.268	74.5
399.492	82.5
399.717	97.5
399.941	78.5
400.165	77.5
400.389	92.5
400.613	89.5
400.837	67.5
401.062	94.5
401.286	82.5
401.51	88.5
401.734	82.5
401.958	90.5
402.182	121.5
402.406	143.5
402.63	112.5
402.854	82.5
403.078	87.5
403.302	90.5
403.526	84.5
403.75	84.5
403.974	79.5
404.198	76.5
404.422	76.5
404.645	70.5
404.869	82.5
405.093	89.5
405.317	98.5
405.541	104.5
405.765	95.5
405.988	103.5
406.212	146.5
406.436	195.5
406.66	137.5
406.883	98.5
407.107	89.5
407.331	87.5
407.555	93.5
407.778	95.5
408.002	89.5
408.226	82.5
408.449	93.5
408.673	93.5
408.896	93.5
409.12	93.5
409.344	92.5
409.567	86.5
409.791	103.5
410.014	88.5
410.238	86.5
410.461	86.5
410.685	83.5
410.908	90.5
411.132	108.5
411.355	101.5
411.578	85.5
411.802	87.5
412.025	85.5
412.249	87.5
412.472	81.5
412.695	78.5
412.919	84.5
413.142	86.5
413.365	74.5
413.589	92.5
413.812	89.5
414.035	82.5
414.258	82.5
414.482	82.5
414.705	97.5
414.928	77.5
415.151	99.5
415.374	101.5
415.597	97.5
415.821	79.5
416.044	93.5
416.267	66.5
416.49	80.5
416.713	99.5
416.936	97.5
417.159	73.5
417.382	84.5
417.605	85.5
417.828	88.5
418.051	88.5
418.274	86.5
418.497	74.5
418.72	79.5
418.943	88.5
419.166	90.5
419.389	97.5
419.611	83.5
419.834	70.5
420.057	79.5
420.28	98.5
420.503	73.5
420.726	72.5
420.948	84.5
421.171	94.5
421.394	79.5
421.617	89.5
421.839	95.5
422.062	80.5
422.285	82.5
422.507	96.5
422.73	99.5
422.953	82.5
423.175	96.5
423.398	84.5
423.621	90.5
423.843	70.5
424.066	90.5
424.288	82.5
424.511	80.5
424.733	78.5
424.956	96.5
425.178	92.5
425.401	89.5
425.623	80.5
425.846	89.5
426.068	102.5
426.291	96.5
426.513	87.5
426.735	91.5
426.958	94.5
427.18	105.5
427.402	110.5
427.625	136.5
427.847	136.5
428.069	114.5
428.292	90.5
428.514	77.5
428.736	96.5
428.958	82.5
429.181	86.5
429.403	87.5
429.625	92.5
429.847	76.5
430.069	81.5
430.292	92.5
430.514	86.5
430.736	79.5
430.958	69.5
431.18	85.5
431.402	86.5
431.624	70.5
431.846	87.5
432.068	78.5
432.29	86.5
432.512	66.5
432.734	76.5
432.956	84.5
433.178	82.5
433.4	90.5
433.622	87.5
433.844	73.5
434.066	94.5
434.287	95.5
434.509	91.5
434.731	84.5
434.953	84.5
435.175	80.5
435.397	79.5
435.618	81.5
435.84	89.5
436.062	93.5
436.284	106.5
436.505	84.5
436.727	86.5
436.949	84.5
437.17	99.5
437.392	76.5
437.614	78.5
437.835	86.5
438.057	107.5
438.278	91.5
438.5	105.5
438.721	100.5
438.943	97.5
439.165	89.5
439.386	91.5
439.608	88.5
439.829	92.5
440.05	122.5
440.272	117.5
440.493	101.5
440.715	88.5
440.936	90.5
441.158	89.5
441.379	89.5
441.6	98.5
441.822	83.5
442.043	82.5
442.264	86.5
442.486	103.5
442.707	92.5
442.928	96.5
443.149	126.5
443.371	116.5
443.592	87.5
443.813	104.5
444.034	88.5
444.255	77.5
444.476	81.5
444.698	74.5
444.919	92.5
445.14	135.5
445.361	112.5
445.582	100.5
445.803	116.5
446.024	112.5
446.245	137.5
446.466	103.5
446.687	83.5
446.908	84.5
447.129	76.5
447.35	108.5
447.571	79.5
447.792	84.5
448.013	80.5
448.234	99.5
448.455	91.5
448.675	104.5
448.896	111.5
449.117	85.5
449.338	93.5
449.559	115.5
449.779	105.5
450	82.5
450.221	79.5
450.442	77.5
450.662	87.5
450.883	101.5
451.104	106.5
451.324	92.5
451.545	81.5
451.766	82.5
451.986	76.5
452.207	70.5
452.428	93.5
452.648	78.5
452.869	100.5
453.089	97.5
453.31	108.5
453.53	76.5
453.751	93.5
453.971	100.5
454.192	103.5
454.412	93.5
454.633	82.5
454.853	88.5
455.073	78.5
455.294	81.5
455.514	81.5
455.734	91.5
455.955	79.5
456.175	69.5
456.395	76.5
456.616	91.5
456.836	79.5
457.056	82.5
457.276	90.5
457.497	79.5
457.717	81.5
457.937	89.5
458.157	76.5
458.377	86.5
458.598	101.5
458.818	119.5
459.038	124.5
459.258	95.5
459.478	80.5
459.698	81.5
459.918	80.5
460.138	79.5
460.358	83.5
460.578	98.5
460.798	71.5
461.018	88.5
461.238	88.5
461.458	76.5
461.678	79.5
461.898	91.5
462.118	80.5
462.338	80.5
462.558	66.5
462.777	84.5
462.997	74.5
463.217	88.5
463.437	65.5
463.657	92.5
463.876	85.5
464.096	76.5
464.316	95.5
464.536	93.5
464.755	92.5
464.975	106.5
465.195	143.5
465.414	156.5
465.634	101.5
465.854	83.5
466.073	73.5
466.293	87.5
466.512	82.5
466.732	85.5
466.951	87.5
467.171	95.5
467.391	96.5
467.61	94.5
467.829	111.5
468.049	133.5
468.268	156.5
468.488	103.5
468.707	80.5
468.927	80.5
469.146	81.5
469.365	87.5
469.585	82.5
469.804	78.5
470.023	93.5
470.243	96.5
470.462	88.5
470.681	110.5
470.901	82.5
471.12	90.5
471.339	82.5
471.558	97.5
471.777	99.5
471.997	122.5
472.216	210.5
472.435	328.5
472.654	120.5
472.873	99.5
473.092	87.5
473.311	82.5
473.53	93.5
473.749	79.5
473.968	90.5
474.187	97.5
474.406	89.5
474.625	78.5
474.844	81.5
475.063	88.5
475.282	75.5
475.501	91.5
475.72	85.5
475.939	76.5
476.158	83.5
476.377	80.5
476.596	90.5
476.814	90.5
477.033	95.5
477.252	100.5
477.471	81.5
477.69	76.5
477.908	83.5
478.127	88.5
478.346	78.5
478.564	95.5
478.783	84.5
479.002	83.5
479.22	89.5
479.439	110.5
479.658	95.5
479.876	78.5
480.095	80.5
480.313	85.5
480.532	97.5
480.751	114.5
480.969	209.5
481.188	602.5
481.406	360.5
481.624	120.5
481.843	89.5
482.061	88.5
482.28	97.5
482.498	76.5
482.717	83.5
482.935	81.5
483.153	76.5
483.372	86.5
483.59	88.5
483.808	88.5
484.027	80.5
484.245	102.5
484.463	79.5
484.681	77.5
484.9	94.5
485.118	87.5
485.336	91.5
485.554	102.5
485.772	101.5
485.99	102.5
486.209	101.5
486.427	101.5
486.645	97.5
486.863	109.5
487.081	106.5
487.299	100.5
487.517	88.5
487.735	93.5
487.953	85.5
488.171	86.5
488.389	89.5
488.607	93.5
488.825	82.5
489.043	92.5
489.261	104.5
489.479	86.5
489.696	71.5
489.914	92.5
490.132	78.5
490.35	88.5
490.568	64.5
490.786	84.5
491.003	75.5
491.221	81.5
491.439	94.5
491.657	95.5
491.874	85.5
492.092	94.5
492.31	81.5
492.527	88.5
492.745	77.5
492.963	101.5
493.18	88.5
493.398	93.5
493.615	95.5
493.833	103.5
494.05	96.5
494.268	87.5
494.485	95.5
494.703	87.5
494.92	70.5
495.138	102.5
495.355	88.5
495.573	98.5
495.79	91.5
496.008	87.5
496.225	96.5
496.442	67.5
496.66	100.5
496.877	82.5
497.094	70.5
497.312	84.5
497.529	85.5
497.746	89.5
497.963	90.5
498.181	87.5
498.398	86.5
498.615	93.5
498.832	82.5
499.049	101.5
499.267	97.5
499.484	81.5
499.701	89.5
499.918	89.5
500.135	80.5
500.352	95.5
500.569	76.5
500.786	86.5
501.003	93.5
501.22	83.5
501.437	92.5
501.654	94.5
501.871	96.5
502.088	90.5
502.305	93.5
502.522	90.5
502.739	104.5
502.956	95.5
503.172	96.5
503.389	96.5
503.606	82.5
503.823	92.5
504.04	98.5
504.256	81.5
504.473	90.5
504.69	85.5
504.907	89.5
505.123	89.5
505.34	81.5
505.557	78.5
505.773	88.5
505.99	92.5
506.207	100.5
506.423	89.5
506.64	101.5
506.856	89.5
507.073	86.5
507.289	86.5
507.506	91.5
507.722	92.5
507.939	104.5
508.155	86.5
508.372	84.5
508.588	94.5
508.805	84.5
509.021	86.5
509.238	88.5
509.454	99.5
509.67	90.5
509.887	114.5
510.103	107.5
510.319	174.5
510.536	623.5
510.752	1904.5
510.968	534.5
511.184	136.5
511.401	107.5
511.617	83.5
511.833	87.5
512.049	88.5
512.265	98.5
512.481	80.5
512.698	83.5
512.914	89.5
513.13	94.5
513.346	71.5
513.562	78.5
513.778	97.5
513.994	99.5
514.21	95.5
514.426	104.5
514.642	111.5
514.858	110.5
515.074	159.5
515.29	360.5
515.506	1188.5
515.721	442.5
515.937	111.5
516.153	102.5
516.369	92.5
516.585	98.5
516.801	94.5
517.016	88.5
517.232	98.5
517.448	92.5
517.664	84.5
517.879	74.5
518.095	87.5
518.311	90.5
518.527	95.5
518.742	85.5
518.958	84.5
519.173	92.5
519.389	79.5
519.605	99.5
519.82	106.5
520.036	97.5
520.251	116.5
520.467	115.5
520.682	95.5
520.898	103.5
521.113	104.5
521.329	129.5
521.544	176.5
521.76	460.5
521.975	1989.5
522.19	1171.5
522.406	272.5
522.621	112.5
522.836	84.5
523.052	84.5
523.267	81.5
523.482	87.5
523.698	89.5
523.913	109.5
524.128	87.5
524.343	80.5
524.559	89.5
524.774	93.5
524.989	96.5
525.204	94.5
525.419	94.5
525.634	82.5
525.849	90.5
526.064	77.5
526.28	85.5
526.495	98.5
526.71	98.5
526.925	85.5
527.14	90.5
527.355	85.5
527.57	96.5
527.785	84.5
527.999	80.5
528.214	88.5
528.429	96.5
528.644	84.5
528.859	87.5
529.074	93.5
529.289	122.5
529.503	153.5
529.718	103.5
529.933	82.5
530.148	86.5
530.363	100.5
530.577	86.5
530.792	78.5
531.007	96.5
531.221	78.5
531.436	98.5
531.651	88.5
531.865	90.5
532.08	101.5
532.295	74.5
532.509	86.5
532.724	70.5
532.938	90.5
533.153	94.5
533.367	99.5
533.582	84.5
533.796	81.5
534.011	86.5
534.225	81.5
534.44	93.5
534.654	109.5
534.868	81.5
535.083	84.5
535.297	88.5
535.511	87.5
535.726	96.5
535.94	91.5
536.154	89.5
536.369	92.5
536.583	96.5
