Data from Circ_1983_H10_HRD10591_00072.txt Node
Date: Wed Jan 03 12:26:59 EST 2024
User: Yrep
Spectrometer: HR+D1059
Trigger mode: 1
Integration Time (sec): 1.000000E-1
Scans to average: 1
Electric dark correction enabled: true
Nonlinearity correction enabled: false
Boxcar width: 0
XAxis mode: Wavelengths
Number of Pixels in Spectrum: 2048
>>>>>Begin Spectral Data<<<<<
223.165	-20.69
223.4	-20.69
223.635	-20.69
223.869	-29.69
224.104	-26.69
224.338	-15.69
224.573	-15.69
224.808	-10.69
225.042	-0.69
225.277	-2.69
225.511	4.31
225.746	8.31
225.98	2.31
226.215	21.31
226.449	20.31
226.683	10.31
226.918	27.31
227.152	28.31
227.387	32.31
227.621	57.31
227.856	51.31
228.09	56.31
228.324	47.31
228.559	71.31
228.793	58.31
229.027	63.31
229.262	62.31
229.496	56.31
229.73	86.31
229.964	81.31
230.199	55.31
230.433	85.31
230.667	84.31
230.901	87.31
231.136	80.31
231.37	86.31
231.604	70.31
231.838	77.31
232.072	86.31
232.306	74.31
232.541	79.31
232.775	77.31
233.009	70.31
233.243	83.31
233.477	90.31
233.711	77.31
233.945	87.31
234.179	96.31
234.413	74.31
234.647	86.31
234.881	75.31
235.115	88.31
235.349	80.31
235.583	74.31
235.817	81.31
236.051	77.31
236.285	85.31
236.519	66.31
236.753	76.31
236.987	80.31
237.221	87.31
237.455	75.31
237.689	76.31
237.922	68.31
238.156	85.31
238.39	82.31
238.624	69.31
238.858	71.31
239.091	73.31
239.325	81.31
239.559	82.31
239.793	88.31
240.027	85.31
240.26	81.31
240.494	86.31
240.728	92.31
240.961	70.31
241.195	76.31
241.429	83.31
241.662	84.31
241.896	70.31
242.13	73.31
242.363	90.31
242.597	73.31
242.83	60.31
243.064	80.31
243.298	80.31
243.531	74.31
243.765	88.31
243.998	82.31
244.232	75.31
244.465	78.31
244.699	77.31
244.932	86.31
245.166	83.31
245.399	87.31
245.633	84.31
245.866	75.31
246.099	96.31
246.333	97.31
246.566	77.31
246.8	86.31
247.033	69.31
247.266	86.31
247.5	76.31
247.733	76.31
247.966	69.31
248.2	84.31
248.433	82.31
248.666	72.31
248.899	84.31
249.133	84.31
249.366	91.31
249.599	96.31
249.832	81.31
250.066	76.31
250.299	82.31
250.532	84.31
250.765	77.31
250.998	74.31
251.231	85.31
251.465	86.31
251.698	72.31
251.931	75.31
252.164	87.31
252.397	89.31
252.63	80.31
252.863	62.31
253.096	70.31
253.329	78.31
253.562	88.31
253.795	73.31
254.028	74.31
254.261	93.31
254.494	79.31
254.727	80.31
254.96	86.31
255.193	82.31
255.426	85.31
255.659	66.31
255.892	83.31
256.124	96.31
256.357	94.31
256.59	84.31
256.823	81.31
257.056	67.31
257.289	76.31
257.521	85.31
257.754	78.31
257.987	72.31
258.22	89.31
258.452	83.31
258.685	98.31
258.918	90.31
259.151	78.31
259.383	80.31
259.616	69.31
259.849	91.31
260.081	88.31
260.314	80.31
260.547	90.31
260.779	84.31
261.012	90.31
261.244	90.31
261.477	92.31
261.71	92.31
261.942	96.31
262.175	117.31
262.407	91.31
262.64	78.31
262.872	76.31
263.105	85.31
263.337	90.31
263.57	69.31
263.802	93.31
264.035	89.31
264.267	79.31
264.499	73.31
264.732	88.31
264.964	82.31
265.197	85.31
265.429	85.31
265.661	80.31
265.894	89.31
266.126	93.31
266.358	76.31
266.591	90.31
266.823	97.31
267.055	81.31
267.287	77.31
267.52	71.31
267.752	84.31
267.984	82.31
268.216	84.31
268.448	85.31
268.681	100.31
268.913	79.31
269.145	93.31
269.377	72.31
269.609	76.31
269.841	97.31
270.073	97.31
270.306	95.31
270.538	90.31
270.77	95.31
271.002	75.31
271.234	75.31
271.466	84.31
271.698	88.31
271.93	82.31
272.162	82.31
272.394	91.31
272.626	92.31
272.858	85.31
273.09	92.31
273.322	73.31
273.553	84.31
273.785	92.31
274.017	77.31
274.249	84.31
274.481	76.31
274.713	99.31
274.945	102.31
275.176	95.31
275.408	97.31
275.64	83.31
275.872	81.31
276.104	80.31
276.335	76.31
276.567	102.31
276.799	101.31
277.031	101.31
277.262	93.31
277.494	89.31
277.726	74.31
277.957	72.31
278.189	87.31
278.421	83.31
278.652	87.31
278.884	92.31
279.115	94.31
279.347	84.31
279.579	83.31
279.81	89.31
280.042	104.31
280.273	109.31
280.505	99.31
280.736	99.31
280.968	91.31
281.199	90.31
281.431	96.31
281.662	75.31
281.894	99.31
282.125	97.31
282.356	118.31
282.588	129.31
282.819	108.31
283.051	92.31
283.282	88.31
283.513	90.31
283.745	97.31
283.976	84.31
284.207	89.31
284.439	91.31
284.67	102.31
284.901	97.31
285.132	77.31
285.364	76.31
285.595	85.31
285.826	97.31
286.057	94.31
286.288	96.31
286.52	88.31
286.751	93.31
286.982	75.31
287.213	82.31
287.444	92.31
287.675	87.31
287.906	88.31
288.138	95.31
288.369	87.31
288.6	77.31
288.831	84.31
289.062	104.31
289.293	92.31
289.524	87.31
289.755	96.31
289.986	98.31
290.217	99.31
290.448	91.31
290.679	96.31
290.91	83.31
291.141	80.31
291.371	91.31
291.602	90.31
291.833	98.31
292.064	104.31
292.295	89.31
292.526	106.31
292.757	75.31
292.987	88.31
293.218	95.31
293.449	104.31
293.68	91.31
293.91	96.31
294.141	99.31
294.372	92.31
294.603	84.31
294.833	91.31
295.064	77.31
295.295	88.31
295.525	86.31
295.756	86.31
295.987	102.31
296.217	132.31
296.448	124.31
296.679	101.31
296.909	93.31
297.14	106.31
297.37	96.31
297.601	82.31
297.831	85.31
298.062	101.31
298.292	91.31
298.523	92.31
298.753	87.31
298.984	93.31
299.214	85.31
299.445	115.31
299.675	84.31
299.905	86.31
300.136	88.31
300.366	87.31
300.597	94.31
300.827	77.31
301.057	98.31
301.288	91.31
301.518	84.31
301.748	89.31
301.979	113.31
302.209	96.31
302.439	88.31
302.669	72.31
302.9	77.31
303.13	100.31
303.36	88.31
303.59	90.31
303.82	117.31
304.051	92.31
304.281	90.31
304.511	99.31
304.741	98.31
304.971	94.31
305.201	95.31
305.431	82.31
305.661	89.31
305.891	94.31
306.121	101.31
306.352	100.31
306.582	112.31
306.812	93.31
307.042	94.31
307.272	84.31
307.502	98.31
307.731	120.31
307.961	92.31
308.191	87.31
308.421	101.31
308.651	102.31
308.881	85.31
309.111	102.31
309.341	101.31
309.571	99.31
309.8	104.31
310.03	98.31
310.26	91.31
310.49	99.31
310.72	102.31
310.949	89.31
311.179	88.31
311.409	98.31
311.639	95.31
311.868	88.31
312.098	105.31
312.328	91.31
312.557	100.31
312.787	97.31
313.017	104.31
313.246	96.31
313.476	88.31
313.706	110.31
313.935	94.31
314.165	94.31
314.394	105.31
314.624	102.31
314.853	102.31
315.083	94.31
315.312	88.31
315.542	99.31
315.771	87.31
316.001	97.31
316.23	80.31
316.46	92.31
316.689	101.31
316.919	96.31
317.148	93.31
317.377	88.31
317.607	97.31
317.836	98.31
318.065	89.31
318.295	90.31
318.524	91.31
318.753	104.31
318.983	109.31
319.212	108.31
319.441	105.31
319.67	104.31
319.9	106.31
320.129	91.31
320.358	93.31
320.587	88.31
320.816	100.31
321.046	87.31
321.275	88.31
321.504	90.31
321.733	98.31
321.962	98.31
322.191	85.31
322.42	103.31
322.649	96.31
322.878	122.31
323.108	120.31
323.337	125.31
323.566	129.31
323.795	125.31
324.024	182.31
324.253	331.31
324.482	643.31
324.71	1402.31
324.939	1824.31
325.168	687.31
325.397	214.31
325.626	146.31
325.855	115.31
326.084	108.31
326.313	129.31
326.542	145.31
326.77	197.31
326.999	390.31
327.228	775.31
327.457	1410.31
327.686	1109.31
327.914	310.31
328.143	195.31
328.372	201.31
328.6	127.31
328.829	124.31
329.058	132.31
329.287	117.31
329.515	97.31
329.744	110.31
329.972	141.31
330.201	197.31
330.43	245.31
330.658	167.31
330.887	144.31
331.115	125.31
331.344	100.31
331.572	111.31
331.801	113.31
332.03	105.31
332.258	100.31
332.486	103.31
332.715	90.31
332.943	93.31
333.172	103.31
333.4	101.31
333.629	116.31
333.857	106.31
334.085	128.31
334.314	204.31
334.542	312.31
334.771	284.31
334.999	114.31
335.227	113.31
335.455	95.31
335.684	101.31
335.912	94.31
336.14	111.31
336.369	104.31
336.597	103.31
336.825	97.31
337.053	107.31
337.281	81.31
337.51	92.31
337.738	91.31
337.966	94.31
338.194	99.31
338.422	98.31
338.65	90.31
338.878	87.31
339.106	92.31
339.334	84.31
339.562	94.31
339.79	88.31
340.018	90.31
340.246	88.31
340.474	94.31
340.702	100.31
340.93	93.31
341.158	108.31
341.386	101.31
341.614	101.31
341.842	94.31
342.07	93.31
342.298	75.31
342.526	92.31
342.754	80.31
342.981	83.31
343.209	87.31
343.437	94.31
343.665	85.31
343.893	84.31
344.12	94.31
344.348	84.31
344.576	83.31
344.804	77.31
345.031	82.31
345.259	85.31
345.487	95.31
345.714	93.31
345.942	78.31
346.17	100.31
346.397	96.31
346.625	93.31
346.853	85.31
347.08	83.31
347.308	100.31
347.535	99.31
347.763	94.31
347.99	90.31
348.218	98.31
348.445	103.31
348.673	100.31
348.9	109.31
349.128	90.31
349.355	105.31
349.583	100.31
349.81	72.31
350.037	109.31
350.265	105.31
350.492	90.31
350.72	95.31
350.947	107.31
351.174	97.31
351.402	107.31
351.629	113.31
351.856	91.31
352.083	102.31
352.311	108.31
352.538	107.31
352.765	96.31
352.992	103.31
353.22	110.31
353.447	94.31
353.674	110.31
353.901	85.31
354.128	96.31
354.355	96.31
354.583	91.31
354.81	93.31
355.037	87.31
355.264	100.31
355.491	102.31
355.718	106.31
355.945	93.31
356.172	90.31
356.399	99.31
356.626	89.31
356.853	102.31
357.08	101.31
357.307	108.31
357.534	96.31
357.761	114.31
357.988	88.31
358.215	94.31
358.441	90.31
358.668	100.31
358.895	89.31
359.122	108.31
359.349	102.31
359.576	99.31
359.802	103.31
360.029	105.31
360.256	96.31
360.483	100.31
360.709	92.31
360.936	85.31
361.163	90.31
361.39	102.31
361.616	89.31
361.843	92.31
362.07	99.31
362.296	93.31
362.523	104.31
362.749	95.31
362.976	83.31
363.203	95.31
363.429	96.31
363.656	89.31
363.882	97.31
364.109	94.31
364.335	85.31
364.562	104.31
364.788	96.31
365.015	91.31
365.241	97.31
365.468	103.31
365.694	106.31
365.92	101.31
366.147	77.31
366.373	106.31
366.599	99.31
366.826	93.31
367.052	86.31
367.278	82.31
367.505	100.31
367.731	91.31
367.957	91.31
368.184	98.31
368.41	81.31
368.636	104.31
368.862	96.31
369.089	104.31
369.315	98.31
369.541	86.31
369.767	89.31
369.993	78.31
370.219	94.31
370.445	82.31
370.672	81.31
370.898	81.31
371.124	89.31
371.35	84.31
371.576	71.31
371.802	89.31
372.028	97.31
372.254	105.31
372.48	86.31
372.706	77.31
372.932	81.31
373.158	90.31
373.384	102.31
373.61	103.31
373.835	99.31
374.061	93.31
374.287	86.31
374.513	95.31
374.739	97.31
374.965	100.31
375.191	104.31
375.416	101.31
375.642	86.31
375.868	108.31
376.094	90.31
376.319	89.31
376.545	81.31
376.771	87.31
376.997	84.31
377.222	107.31
377.448	85.31
377.674	92.31
377.899	94.31
378.125	107.31
378.35	93.31
378.576	99.31
378.802	84.31
379.027	106.31
379.253	85.31
379.478	84.31
379.704	94.31
379.929	87.31
380.155	101.31
380.38	96.31
380.606	94.31
380.831	90.31
381.057	107.31
381.282	107.31
381.507	89.31
381.733	101.31
381.958	97.31
382.184	88.31
382.409	116.31
382.634	107.31
382.86	98.31
383.085	88.31
383.31	101.31
383.535	107.31
383.761	107.31
383.986	101.31
384.211	93.31
384.436	108.31
384.662	108.31
384.887	97.31
385.112	93.31
385.337	104.31
385.562	103.31
385.787	104.31
386.013	123.31
386.238	108.31
386.463	107.31
386.688	117.31
386.913	102.31
387.138	100.31
387.363	103.31
387.588	99.31
387.813	96.31
388.038	112.31
388.263	101.31
388.488	105.31
388.713	98.31
388.938	96.31
389.163	91.31
389.387	102.31
389.612	102.31
389.837	91.31
390.062	110.31
390.287	97.31
390.512	73.31
390.736	81.31
390.961	87.31
391.186	94.31
391.411	91.31
391.636	96.31
391.86	89.31
392.085	77.31
392.31	95.31
392.534	90.31
392.759	105.31
392.984	77.31
393.208	84.31
393.433	116.31
393.658	108.31
393.882	82.31
394.107	77.31
394.331	83.31
394.556	86.31
394.78	67.31
395.005	87.31
395.229	92.31
395.454	86.31
395.678	89.31
395.903	93.31
396.127	91.31
396.352	78.31
396.576	88.31
396.801	88.31
397.025	90.31
397.249	103.31
397.474	97.31
397.698	104.31
397.922	92.31
398.147	70.31
398.371	81.31
398.595	95.31
398.82	75.31
399.044	94.31
399.268	82.31
399.492	91.31
399.717	95.31
399.941	81.31
400.165	92.31
400.389	89.31
400.613	86.31
400.837	89.31
401.062	87.31
401.286	75.31
401.51	85.31
401.734	90.31
401.958	114.31
402.182	117.31
402.406	142.31
402.63	111.31
402.854	112.31
403.078	100.31
403.302	109.31
403.526	90.31
403.75	94.31
403.974	101.31
404.198	100.31
404.422	77.31
404.645	88.31
404.869	101.31
405.093	100.31
405.317	94.31
405.541	99.31
405.765	100.31
405.988	107.31
406.212	139.31
406.436	188.31
406.66	123.31
406.883	93.31
407.107	81.31
407.331	109.31
407.555	92.31
407.778	82.31
408.002	88.31
408.226	93.31
408.449	105.31
408.673	93.31
408.896	93.31
409.12	101.31
409.344	96.31
409.567	96.31
409.791	94.31
410.014	101.31
410.238	103.31
410.461	96.31
410.685	90.31
410.908	107.31
411.132	118.31
411.355	90.31
411.578	85.31
411.802	79.31
412.025	82.31
412.249	100.31
412.472	84.31
412.695	105.31
412.919	100.31
413.142	88.31
413.365	89.31
413.589	97.31
413.812	81.31
414.035	94.31
414.258	96.31
414.482	97.31
414.705	84.31
414.928	93.31
415.151	97.31
415.374	92.31
415.597	79.31
415.821	76.31
416.044	92.31
416.267	94.31
416.49	105.31
416.713	89.31
416.936	94.31
417.159	86.31
417.382	92.31
417.605	96.31
417.828	89.31
418.051	98.31
418.274	99.31
418.497	98.31
418.72	94.31
418.943	90.31
419.166	91.31
419.389	90.31
419.611	84.31
419.834	100.31
420.057	92.31
420.28	93.31
420.503	102.31
420.726	92.31
420.948	91.31
421.171	104.31
421.394	95.31
421.617	100.31
421.839	84.31
422.062	84.31
422.285	94.31
422.507	108.31
422.73	98.31
422.953	91.31
423.175	89.31
423.398	101.31
423.621	102.31
423.843	98.31
424.066	78.31
424.288	90.31
424.511	91.31
424.733	84.31
424.956	97.31
425.178	89.31
425.401	100.31
425.623	95.31
425.846	94.31
426.068	98.31
426.291	90.31
426.513	100.31
426.735	98.31
426.958	97.31
427.18	100.31
427.402	120.31
427.625	162.31
427.847	144.31
428.069	125.31
428.292	102.31
428.514	82.31
428.736	99.31
428.958	84.31
429.181	88.31
429.403	85.31
429.625	95.31
429.847	102.31
430.069	110.31
430.292	100.31
430.514	88.31
430.736	91.31
430.958	81.31
431.18	92.31
431.402	72.31
431.624	80.31
431.846	93.31
432.068	74.31
432.29	83.31
432.512	88.31
432.734	89.31
432.956	98.31
433.178	94.31
433.4	102.31
433.622	109.31
433.844	86.31
434.066	104.31
434.287	92.31
434.509	91.31
434.731	106.31
434.953	88.31
435.175	78.31
435.397	96.31
435.618	92.31
435.84	99.31
436.062	119.31
436.284	109.31
436.505	96.31
436.727	107.31
436.949	85.31
437.17	99.31
437.392	87.31
437.614	103.31
437.835	106.31
438.057	122.31
438.278	114.31
438.5	106.31
438.721	108.31
438.943	101.31
439.165	98.31
439.386	99.31
439.608	82.31
439.829	96.31
440.05	128.31
440.272	154.31
440.493	104.31
440.715	105.31
440.936	96.31
441.158	87.31
441.379	85.31
441.6	85.31
441.822	88.31
442.043	86.31
442.264	99.31
442.486	101.31
442.707	85.31
442.928	100.31
443.149	114.31
443.371	123.31
443.592	104.31
443.813	110.31
444.034	89.31
444.255	98.31
444.476	99.31
444.698	102.31
444.919	100.31
445.14	137.31
445.361	136.31
445.582	110.31
445.803	126.31
446.024	132.31
446.245	107.31
446.466	100.31
446.687	90.31
446.908	84.31
447.129	80.31
447.35	88.31
447.571	90.31
447.792	94.31
448.013	98.31
448.234	113.31
448.455	83.31
448.675	96.31
448.896	117.31
449.117	98.31
449.338	100.31
449.559	125.31
449.779	132.31
450	90.31
450.221	96.31
450.442	99.31
450.662	98.31
450.883	96.31
451.104	93.31
451.324	80.31
451.545	94.31
451.766	90.31
451.986	94.31
452.207	100.31
452.428	92.31
452.648	89.31
452.869	102.31
453.089	109.31
453.31	108.31
453.53	96.31
453.751	76.31
453.971	107.31
454.192	114.31
454.412	89.31
454.633	89.31
454.853	89.31
455.073	95.31
455.294	94.31
455.514	99.31
455.734	100.31
455.955	96.31
456.175	90.31
456.395	90.31
456.616	83.31
456.836	85.31
457.056	82.31
457.276	91.31
457.497	88.31
457.717	85.31
457.937	77.31
458.157	86.31
458.377	100.31
458.598	105.31
458.818	125.31
459.038	151.31
459.258	104.31
459.478	96.31
459.698	91.31
459.918	85.31
460.138	76.31
460.358	84.31
460.578	90.31
460.798	84.31
461.018	83.31
461.238	85.31
461.458	80.31
461.678	96.31
461.898	81.31
462.118	92.31
462.338	90.31
462.558	79.31
462.777	85.31
462.997	86.31
463.217	85.31
463.437	94.31
463.657	97.31
463.876	91.31
464.096	83.31
464.316	99.31
464.536	96.31
464.755	98.31
464.975	91.31
465.195	159.31
465.414	140.31
465.634	96.31
465.854	81.31
466.073	87.31
466.293	100.31
466.512	78.31
466.732	94.31
466.951	101.31
467.171	96.31
467.391	96.31
467.61	114.31
467.829	120.31
468.049	153.31
468.268	164.31
468.488	93.31
468.707	84.31
468.927	84.31
469.146	84.31
469.365	97.31
469.585	84.31
469.804	84.31
470.023	90.31
470.243	86.31
470.462	101.31
470.681	103.31
470.901	106.31
471.12	97.31
471.339	93.31
471.558	90.31
471.777	113.31
471.997	116.31
472.216	225.31
472.435	388.31
472.654	146.31
472.873	99.31
473.092	90.31
473.311	94.31
473.53	98.31
473.749	90.31
473.968	101.31
474.187	107.31
474.406	100.31
474.625	84.31
474.844	88.31
475.063	84.31
475.282	78.31
475.501	106.31
475.72	97.31
475.939	81.31
476.158	87.31
476.377	98.31
476.596	76.31
476.814	91.31
477.033	109.31
477.252	94.31
477.471	103.31
477.69	90.31
477.908	101.31
478.127	92.31
478.346	94.31
478.564	93.31
478.783	108.31
479.002	95.31
479.22	93.31
479.439	105.31
479.658	103.31
479.876	109.31
480.095	109.31
480.313	99.31
480.532	104.31
480.751	118.31
480.969	228.31
481.188	696.31
481.406	424.31
481.624	107.31
481.843	95.31
482.061	87.31
482.28	87.31
482.498	93.31
482.717	103.31
482.935	99.31
483.153	93.31
483.372	98.31
483.59	98.31
483.808	87.31
484.027	98.31
484.245	93.31
484.463	90.31
484.681	92.31
484.9	89.31
485.118	91.31
485.336	98.31
485.554	113.31
485.772	110.31
485.99	105.31
486.209	103.31
486.427	117.31
486.645	108.31
486.863	104.31
487.081	84.31
487.299	93.31
487.517	96.31
487.735	96.31
487.953	97.31
488.171	93.31
488.389	84.31
488.607	99.31
488.825	96.31
489.043	100.31
489.261	86.31
489.479	90.31
489.696	87.31
489.914	106.31
490.132	76.31
490.35	101.31
490.568	103.31
490.786	95.31
491.003	102.31
491.221	91.31
491.439	92.31
491.657	91.31
491.874	78.31
492.092	84.31
492.31	81.31
492.527	93.31
492.745	92.31
492.963	93.31
493.18	88.31
493.398	102.31
493.615	90.31
493.833	87.31
494.05	88.31
494.268	83.31
494.485	90.31
494.703	92.31
494.92	93.31
495.138	91.31
495.355	79.31
495.573	82.31
495.79	93.31
496.008	98.31
496.225	88.31
496.442	89.31
496.66	98.31
496.877	100.31
497.094	105.31
497.312	96.31
497.529	87.31
497.746	92.31
497.963	90.31
498.181	107.31
498.398	99.31
498.615	101.31
498.832	109.31
499.049	98.31
499.267	90.31
499.484	87.31
499.701	94.31
499.918	92.31
500.135	84.31
500.352	92.31
500.569	96.31
500.786	92.31
501.003	95.31
501.22	96.31
501.437	98.31
501.654	94.31
501.871	102.31
502.088	84.31
502.305	105.31
502.522	108.31
502.739	98.31
502.956	85.31
503.172	106.31
503.389	103.31
503.606	109.31
503.823	100.31
504.04	107.31
504.256	77.31
504.473	102.31
504.69	107.31
504.907	89.31
505.123	89.31
505.34	101.31
505.557	96.31
505.773	92.31
505.99	87.31
506.207	96.31
506.423	89.31
506.64	86.31
506.856	86.31
507.073	88.31
507.289	97.31
507.506	101.31
507.722	110.31
507.939	104.31
508.155	108.31
508.372	96.31
508.588	101.31
508.805	84.31
509.021	92.31
509.238	82.31
509.454	98.31
509.67	106.31
509.887	97.31
510.103	120.31
510.319	208.31
510.536	629.31
510.752	1964.31
510.968	554.31
511.184	148.31
511.401	110.31
511.617	110.31
511.833	103.31
512.049	79.31
512.265	94.31
512.481	94.31
512.698	84.31
512.914	86.31
513.13	97.31
513.346	88.31
513.562	97.31
513.778	92.31
513.994	104.31
514.21	105.31
514.426	106.31
514.642	108.31
