Data from Circ_1983_H10_HRD10591_00014.txt Node
Date: Wed Jan 03 12:26:47 EST 2024
User: Yrep
Spectrometer: HR+D1059
Trigger mode: 1
Integration Time (sec): 1.000000E-1
Scans to average: 1
Electric dark correction enabled: true
Nonlinearity correction enabled: false
Boxcar width: 0
XAxis mode: Wavelengths
Number of Pixels in Spectrum: 2048
>>>>>Begin Spectral Data<<<<<
223.165	-21.19
223.4	-21.19
223.635	-21.19
223.869	-14.19
224.104	-7.19
224.338	-23.19
224.573	-16.19
224.808	-31.19
225.042	-4.19
225.277	4.81
225.511	-17.19
225.746	2.81
225.98	1.81
226.215	24.81
226.449	14.81
226.683	16.81
226.918	34.81
227.152	33.81
227.387	53.81
227.621	34.81
227.856	44.81
228.09	33.81
228.324	69.81
228.559	48.81
228.793	64.81
229.027	62.81
229.262	82.81
229.496	71.81
229.73	96.81
229.964	78.81
230.199	77.81
230.433	70.81
230.667	79.81
230.901	82.81
231.136	89.81
231.37	82.81
231.604	91.81
231.838	66.81
232.072	81.81
232.306	91.81
232.541	82.81
232.775	95.81
233.009	94.81
233.243	84.81
233.477	84.81
233.711	80.81
233.945	88.81
234.179	87.81
234.413	74.81
234.647	75.81
234.881	87.81
235.115	80.81
235.349	80.81
235.583	63.81
235.817	80.81
236.051	86.81
236.285	81.81
236.519	85.81
236.753	75.81
236.987	80.81
237.221	82.81
237.455	84.81
237.689	76.81
237.922	72.81
238.156	73.81
238.39	71.81
238.624	74.81
238.858	74.81
239.091	70.81
239.325	72.81
239.559	97.81
239.793	73.81
240.027	92.81
240.26	79.81
240.494	73.81
240.728	86.81
240.961	75.81
241.195	83.81
241.429	62.81
241.662	73.81
241.896	78.81
242.13	66.81
242.363	65.81
242.597	70.81
242.83	74.81
243.064	70.81
243.298	94.81
243.531	77.81
243.765	70.81
243.998	74.81
244.232	78.81
244.465	85.81
244.699	89.81
244.932	82.81
245.166	85.81
245.399	84.81
245.633	85.81
245.866	88.81
246.099	70.81
246.333	83.81
246.566	76.81
246.8	77.81
247.033	60.81
247.266	72.81
247.5	101.81
247.733	96.81
247.966	88.81
248.2	92.81
248.433	93.81
248.666	84.81
248.899	80.81
249.133	81.81
249.366	101.81
249.599	100.81
249.832	83.81
250.066	83.81
250.299	77.81
250.532	88.81
250.765	86.81
250.998	82.81
251.231	74.81
251.465	80.81
251.698	87.81
251.931	80.81
252.164	93.81
252.397	73.81
252.63	70.81
252.863	74.81
253.096	88.81
253.329	96.81
253.562	69.81
253.795	76.81
254.028	86.81
254.261	85.81
254.494	77.81
254.727	88.81
254.96	88.81
255.193	73.81
255.426	70.81
255.659	86.81
255.892	82.81
256.124	94.81
256.357	97.81
256.59	104.81
256.823	69.81
257.056	85.81
257.289	86.81
257.521	82.81
257.754	89.81
257.987	63.81
258.22	80.81
258.452	76.81
258.685	96.81
258.918	84.81
259.151	92.81
259.383	91.81
259.616	85.81
259.849	87.81
260.081	92.81
260.314	87.81
260.547	91.81
260.779	87.81
261.012	82.81
261.244	81.81
261.477	88.81
261.71	80.81
261.942	100.81
262.175	108.81
262.407	87.81
262.64	78.81
262.872	92.81
263.105	82.81
263.337	76.81
263.57	81.81
263.802	87.81
264.035	83.81
264.267	69.81
264.499	98.81
264.732	72.81
264.964	89.81
265.197	73.81
265.429	87.81
265.661	83.81
265.894	76.81
266.126	97.81
266.358	86.81
266.591	82.81
266.823	85.81
267.055	86.81
267.287	92.81
267.52	92.81
267.752	76.81
267.984	100.81
268.216	90.81
268.448	91.81
268.681	84.81
268.913	85.81
269.145	91.81
269.377	90.81
269.609	83.81
269.841	92.81
270.073	109.81
270.306	98.81
270.538	94.81
270.77	84.81
271.002	95.81
271.234	75.81
271.466	77.81
271.698	69.81
271.93	80.81
272.162	88.81
272.394	93.81
272.626	88.81
272.858	88.81
273.09	86.81
273.322	93.81
273.553	73.81
273.785	95.81
274.017	86.81
274.249	83.81
274.481	98.81
274.713	73.81
274.945	82.81
275.176	82.81
275.408	102.81
275.64	73.81
275.872	66.81
276.104	95.81
276.335	92.81
276.567	95.81
276.799	114.81
277.031	108.81
277.262	85.81
277.494	86.81
277.726	82.81
277.957	90.81
278.189	89.81
278.421	95.81
278.652	90.81
278.884	73.81
279.115	80.81
279.347	96.81
279.579	90.81
279.81	77.81
280.042	88.81
280.273	83.81
280.505	96.81
280.736	89.81
280.968	95.81
281.199	83.81
281.431	91.81
281.662	95.81
281.894	85.81
282.125	101.81
282.356	108.81
282.588	126.81
282.819	105.81
283.051	91.81
283.282	82.81
283.513	94.81
283.745	92.81
283.976	82.81
284.207	77.81
284.439	92.81
284.67	88.81
284.901	95.81
285.132	96.81
285.364	83.81
285.595	86.81
285.826	64.81
286.057	89.81
286.288	90.81
286.52	86.81
286.751	77.81
286.982	76.81
287.213	99.81
287.444	97.81
287.675	76.81
287.906	92.81
288.138	108.81
288.369	91.81
288.6	82.81
288.831	88.81
289.062	95.81
289.293	116.81
289.524	72.81
289.755	79.81
289.986	98.81
290.217	113.81
290.448	85.81
290.679	90.81
290.91	96.81
291.141	94.81
291.371	93.81
291.602	89.81
291.833	89.81
292.064	90.81
292.295	93.81
292.526	77.81
292.757	89.81
292.987	80.81
293.218	71.81
293.449	77.81
293.68	101.81
293.91	76.81
294.141	85.81
294.372	87.81
294.603	74.81
294.833	97.81
295.064	88.81
295.295	99.81
295.525	99.81
295.756	113.81
295.987	114.81
296.217	123.81
296.448	111.81
296.679	90.81
296.909	87.81
297.14	96.81
297.37	90.81
297.601	88.81
297.831	74.81
298.062	73.81
298.292	88.81
298.523	82.81
298.753	88.81
298.984	88.81
299.214	90.81
299.445	83.81
299.675	100.81
299.905	106.81
300.136	80.81
300.366	89.81
300.597	94.81
300.827	99.81
301.057	99.81
301.288	103.81
301.518	84.81
301.748	82.81
301.979	110.81
302.209	91.81
302.439	89.81
302.669	92.81
302.9	97.81
303.13	93.81
303.36	96.81
303.59	92.81
303.82	116.81
304.051	83.81
304.281	90.81
304.511	77.81
304.741	84.81
304.971	80.81
305.201	92.81
305.431	87.81
305.661	96.81
305.891	83.81
306.121	94.81
306.352	94.81
306.582	100.81
306.812	84.81
307.042	101.81
307.272	101.81
307.502	115.81
307.731	96.81
307.961	84.81
308.191	82.81
308.421	84.81
308.651	98.81
308.881	93.81
309.111	87.81
309.341	96.81
309.571	95.81
309.8	101.81
310.03	90.81
310.26	83.81
310.49	95.81
310.72	105.81
310.949	108.81
311.179	93.81
311.409	101.81
311.639	102.81
311.868	88.81
312.098	96.81
312.328	104.81
312.557	104.81
312.787	98.81
313.017	82.81
313.246	88.81
313.476	93.81
313.706	106.81
313.935	85.81
314.165	101.81
314.394	103.81
314.624	93.81
314.853	96.81
315.083	84.81
315.312	86.81
315.542	88.81
315.771	83.81
316.001	80.81
316.23	88.81
316.46	78.81
316.689	91.81
316.919	82.81
317.148	96.81
317.377	92.81
317.607	86.81
317.836	97.81
318.065	86.81
318.295	99.81
318.524	85.81
318.753	89.81
318.983	117.81
319.212	108.81
319.441	98.81
319.67	89.81
319.9	88.81
320.129	90.81
320.358	76.81
320.587	109.81
320.816	95.81
321.046	88.81
321.275	104.81
321.504	101.81
321.733	92.81
321.962	92.81
322.191	102.81
322.42	97.81
322.649	97.81
322.878	103.81
323.108	114.81
323.337	130.81
323.566	117.81
323.795	130.81
324.024	177.81
324.253	314.81
324.482	629.81
324.71	1300.81
324.939	1684.81
325.168	636.81
325.397	202.81
325.626	134.81
325.855	120.81
326.084	111.81
326.313	130.81
326.542	124.81
326.77	193.81
326.999	360.81
327.228	756.81
327.457	1334.81
327.686	1058.81
327.914	290.81
328.143	168.81
328.372	149.81
328.6	109.81
328.829	128.81
329.058	123.81
329.287	117.81
329.515	101.81
329.744	110.81
329.972	119.81
330.201	119.81
330.43	142.81
330.658	135.81
330.887	117.81
331.115	114.81
331.344	107.81
331.572	101.81
331.801	102.81
332.03	87.81
332.258	89.81
332.486	100.81
332.715	80.81
332.943	87.81
333.172	96.81
333.4	94.81
333.629	99.81
333.857	109.81
334.085	114.81
334.314	126.81
334.542	140.81
334.771	141.81
334.999	101.81
335.227	98.81
335.455	98.81
335.684	109.81
335.912	95.81
336.14	101.81
336.369	89.81
336.597	116.81
336.825	93.81
337.053	91.81
337.281	99.81
337.51	101.81
337.738	97.81
337.966	88.81
338.194	95.81
338.422	94.81
338.65	89.81
338.878	77.81
339.106	96.81
339.334	91.81
339.562	105.81
339.79	99.81
340.018	96.81
340.246	103.81
340.474	107.81
340.702	98.81
340.93	87.81
341.158	98.81
341.386	95.81
341.614	97.81
341.842	86.81
342.07	80.81
342.298	95.81
342.526	94.81
342.754	93.81
342.981	84.81
343.209	77.81
343.437	106.81
343.665	105.81
343.893	82.81
344.12	96.81
344.348	84.81
344.576	96.81
344.804	104.81
345.031	98.81
345.259	109.81
345.487	82.81
345.714	100.81
345.942	87.81
346.17	84.81
346.397	81.81
346.625	104.81
346.853	74.81
347.08	89.81
347.308	73.81
347.535	94.81
347.763	99.81
347.99	96.81
348.218	100.81
348.445	98.81
348.673	86.81
348.9	94.81
349.128	106.81
349.355	85.81
349.583	96.81
349.81	98.81
350.037	104.81
350.265	97.81
350.492	93.81
350.72	97.81
350.947	89.81
351.174	109.81
351.402	97.81
351.629	98.81
351.856	98.81
352.083	102.81
352.311	98.81
352.538	101.81
352.765	108.81
352.992	113.81
353.22	117.81
353.447	107.81
353.674	96.81
353.901	90.81
354.128	87.81
354.355	77.81
354.583	98.81
354.81	95.81
355.037	114.81
355.264	96.81
355.491	111.81
355.718	96.81
355.945	91.81
356.172	94.81
356.399	97.81
356.626	96.81
356.853	106.81
357.08	87.81
357.307	102.81
357.534	96.81
357.761	104.81
357.988	100.81
358.215	117.81
358.441	96.81
358.668	80.81
358.895	100.81
359.122	96.81
359.349	77.81
359.576	100.81
359.802	98.81
360.029	99.81
360.256	112.81
360.483	93.81
360.709	105.81
360.936	101.81
361.163	101.81
361.39	98.81
361.616	108.81
361.843	106.81
362.07	87.81
362.296	92.81
362.523	100.81
362.749	88.81
362.976	108.81
363.203	91.81
363.429	105.81
363.656	108.81
363.882	100.81
364.109	93.81
364.335	79.81
364.562	90.81
364.788	104.81
365.015	80.81
365.241	103.81
365.468	119.81
365.694	98.81
365.92	96.81
366.147	92.81
366.373	88.81
366.599	81.81
366.826	97.81
367.052	87.81
367.278	89.81
367.505	106.81
367.731	92.81
367.957	87.81
368.184	96.81
368.41	90.81
368.636	107.81
368.862	101.81
369.089	89.81
369.315	85.81
369.541	72.81
369.767	89.81
369.993	102.81
370.219	95.81
370.445	83.81
370.672	83.81
370.898	96.81
371.124	84.81
371.35	93.81
371.576	85.81
371.802	90.81
372.028	96.81
372.254	85.81
372.48	84.81
372.706	93.81
372.932	89.81
373.158	96.81
373.384	86.81
373.61	82.81
373.835	86.81
374.061	99.81
374.287	95.81
374.513	89.81
374.739	74.81
374.965	89.81
375.191	84.81
375.416	98.81
375.642	101.81
375.868	83.81
376.094	106.81
376.319	84.81
376.545	98.81
376.771	88.81
376.997	86.81
377.222	105.81
377.448	82.81
377.674	93.81
377.899	89.81
378.125	93.81
378.35	85.81
378.576	102.81
378.802	95.81
379.027	94.81
379.253	93.81
379.478	104.81
379.704	92.81
379.929	113.81
380.155	101.81
380.38	77.81
380.606	96.81
380.831	102.81
381.057	107.81
381.282	110.81
381.507	109.81
381.733	101.81
381.958	109.81
382.184	111.81
382.409	108.81
382.634	121.81
382.86	102.81
383.085	117.81
383.31	109.81
383.535	115.81
383.761	112.81
383.986	107.81
384.211	103.81
384.436	115.81
384.662	109.81
384.887	123.81
385.112	134.81
385.337	125.81
385.562	122.81
385.787	114.81
386.013	114.81
386.238	132.81
386.463	120.81
386.688	129.81
386.913	110.81
387.138	133.81
387.363	130.81
387.588	116.81
387.813	112.81
388.038	108.81
388.263	119.81
388.488	129.81
388.713	97.81
388.938	104.81
389.163	106.81
389.387	93.81
389.612	98.81
389.837	96.81
390.062	77.81
390.287	97.81
390.512	88.81
390.736	96.81
390.961	91.81
391.186	99.81
391.411	103.81
391.636	87.81
391.86	92.81
392.085	76.81
392.31	91.81
392.534	77.81
392.759	73.81
392.984	101.81
393.208	114.81
393.433	151.81
393.658	128.81
393.882	96.81
394.107	76.81
394.331	90.81
394.556	90.81
394.78	92.81
395.005	82.81
395.229	93.81
395.454	76.81
395.678	89.81
395.903	84.81
396.127	79.81
396.352	97.81
396.576	104.81
396.801	121.81
397.025	122.81
397.249	107.81
397.474	93.81
397.698	82.81
397.922	85.81
398.147	86.81
398.371	78.81
398.595	87.81
398.82	101.81
399.044	76.81
399.268	91.81
399.492	87.81
399.717	74.81
399.941	91.81
400.165	80.81
400.389	84.81
400.613	91.81
400.837	81.81
401.062	90.81
401.286	93.81
401.51	93.81
401.734	90.81
401.958	96.81
402.182	107.81
402.406	137.81
402.63	111.81
402.854	98.81
403.078	80.81
403.302	92.81
403.526	82.81
403.75	84.81
403.974	75.81
404.198	83.81
404.422	91.81
404.645	80.81
404.869	85.81
405.093	97.81
405.317	105.81
405.541	101.81
405.765	88.81
405.988	115.81
406.212	144.81
406.436	191.81
406.66	140.81
406.883	104.81
407.107	116.81
407.331	104.81
407.555	100.81
407.778	78.81
408.002	85.81
408.226	70.81
408.449	96.81
408.673	100.81
408.896	93.81
409.12	89.81
409.344	99.81
409.567	93.81
409.791	88.81
410.014	89.81
410.238	99.81
410.461	95.81
410.685	84.81
410.908	101.81
411.132	96.81
411.355	85.81
411.578	86.81
411.802	88.81
412.025	92.81
412.249	102.81
412.472	104.81
412.695	97.81
412.919	100.81
413.142	78.81
413.365	90.81
413.589	98.81
413.812	92.81
414.035	104.81
414.258	81.81
414.482	97.81
414.705	96.81
414.928	80.81
415.151	102.81
415.374	97.81
415.597	81.81
415.821	96.81
416.044	92.81
416.267	92.81
416.49	90.81
416.713	90.81
416.936	98.81
417.159	90.81
417.382	91.81
417.605	92.81
417.828	94.81
418.051	93.81
418.274	86.81
418.497	89.81
418.72	79.81
418.943	103.81
419.166	108.81
419.389	85.81
419.611	88.81
419.834	104.81
420.057	91.81
420.28	100.81
420.503	86.81
420.726	98.81
420.948	76.81
421.171	74.81
421.394	99.81
421.617	96.81
421.839	105.81
422.062	91.81
422.285	91.81
422.507	96.81
422.73	105.81
422.953	103.81
423.175	84.81
423.398	92.81
423.621	92.81
423.843	86.81
424.066	92.81
424.288	82.81
424.511	91.81
424.733	102.81
424.956	90.81
425.178	97.81
425.401	98.81
425.623	82.81
425.846	85.81
426.068	105.81
426.291	89.81
426.513	93.81
426.735	92.81
426.958	89.81
427.18	96.81
427.402	118.81
427.625	147.81
427.847	116.81
428.069	110.81
428.292	109.81
428.514	90.81
428.736	80.81
428.958	90.81
429.181	75.81
429.403	73.81
429.625	70.81
429.847	81.81
430.069	106.81
430.292	86.81
430.514	83.81
430.736	71.81
430.958	96.81
431.18	96.81
431.402	94.81
431.624	91.81
431.846	87.81
432.068	87.81
432.29	85.81
432.512	98.81
432.734	83.81
432.956	101.81
433.178	94.81
433.4	92.81
433.622	107.81
433.844	93.81
434.066	96.81
434.287	85.81
434.509	89.81
434.731	70.81
434.953	93.81
435.175	76.81
435.397	83.81
435.618	92.81
435.84	99.81
436.062	103.81
436.284	110.81
436.505	98.81
436.727	94.81
436.949	95.81
437.17	84.81
437.392	84.81
437.614	78.81
437.835	112.81
438.057	108.81
438.278	107.81
438.5	86.81
438.721	95.81
438.943	105.81
439.165	87.81
439.386	84.81
439.608	85.81
439.829	87.81
440.05	103.81
440.272	124.81
440.493	88.81
440.715	99.81
440.936	97.81
441.158	85.81
441.379	84.81
441.6	86.81
441.822	86.81
442.043	88.81
442.264	100.81
442.486	101.81
442.707	83.81
442.928	101.81
443.149	104.81
443.371	115.81
443.592	77.81
443.813	103.81
444.034	84.81
444.255	80.81
444.476	92.81
444.698	89.81
444.919	91.81
445.14	131.81
445.361	103.81
445.582	110.81
445.803	112.81
446.024	124.81
446.245	105.81
446.466	98.81
446.687	92.81
446.908	94.81
447.129	94.81
447.35	85.81
447.571	88.81
447.792	83.81
448.013	100.81
448.234	119.81
448.455	99.81
448.675	114.81
448.896	104.81
449.117	96.81
449.338	89.81
449.559	104.81
449.779	114.81
450	90.81
450.221	95.81
450.442	99.81
450.662	80.81
450.883	96.81
451.104	100.81
451.324	104.81
451.545	97.81
451.766	88.81
451.986	83.81
452.207	87.81
452.428	98.81
452.648	93.81
452.869	105.81
453.089	105.81
453.31	101.81
453.53	94.81
453.751	92.81
453.971	101.81
454.192	114.81
454.412	89.81
454.633	95.81
454.853	80.81
455.073	81.81
455.294	90.81
455.514	86.81
455.734	79.81
455.955	83.81
456.175	79.81
456.395	77.81
456.616	94.81
456.836	88.81
457.056	99.81
457.276	97.81
457.497	82.81
457.717	92.81
457.937	80.81
458.157	93.81
458.377	86.81
458.598	106.81
458.818	117.81
459.038	132.81
459.258	107.81
459.478	93.81
459.698	65.81
459.918	79.81
460.138	91.81
460.358	96.81
460.578	92.81
460.798	86.81
461.018	96.81
461.238	85.81
461.458	94.81
461.678	82.81
461.898	83.81
462.118	89.81
462.338	81.81
462.558	84.81
462.777	75.81
462.997	74.81
463.217	84.81
463.437	82.81
463.657	73.81
463.876	88.81
464.096	77.81
464.316	78.81
464.536	92.81
464.755	82.81
464.975	96.81
465.195	143.81
465.414	142.81
465.634	98.81
465.854	86.81
466.073	93.81
466.293	98.81
466.512	94.81
466.732	76.81
466.951	93.81
467.171	92.81
467.391	100.81
467.61	93.81
467.829	102.81
468.049	96.81
468.268	110.81
468.488	92.81
468.707	91.81
468.927	82.81
469.146	78.81
469.365	69.81
469.585	101.81
469.804	97.81
470.023	107.81
470.243	102.81
470.462	94.81
470.681	98.81
470.901	94.81
471.12	85.81
471.339	90.81
471.558	87.81
471.777	90.81
471.997	104.81
472.216	129.81
472.435	163.81
472.654	102.81
472.873	84.81
473.092	87.81
473.311	86.81
473.53	86.81
473.749	80.81
473.968	86.81
474.187	90.81
474.406	81.81
474.625	83.81
474.844	73.81
475.063	76.81
475.282	82.81
475.501	96.81
475.72	83.81
475.939	98.81
476.158	96.81
476.377	96.81
476.596	69.81
476.814	94.81
477.033	86.81
477.252	94.81
477.471	68.81
477.69	96.81
477.908	83.81
478.127	90.81
478.346	90.81
478.564	93.81
478.783	99.81
479.002	100.81
479.22	93.81
479.439	94.81
479.658	92.81
479.876	84.81
480.095	77.81
480.313	90.81
480.532	83.81
480.751	99.81
480.969	113.81
481.188	237.81
481.406	180.81
481.624	104.81
481.843	85.81
482.061	96.81
482.28	94.81
482.498	88.81
482.717	83.81
482.935	95.81
483.153	81.81
483.372	83.81
483.59	86.81
483.808	88.81
484.027	83.81
484.245	86.81
484.463	86.81
484.681	96.81
484.9	90.81
485.118	109.81
485.336	100.81
485.554	97.81
485.772	99.81
485.99	110.81
486.209	105.81
486.427	117.81
486.645	116.81
486.863	114.81
487.081	105.81
487.299	98.81
487.517	106.81
487.735	88.81
487.953	74.81
488.171	96.81
488.389	81.81
488.607	105.81
488.825	86.81
489.043	82.81
489.261	88.81
489.479	95.81
489.696	100.81
489.914	91.81
490.132	85.81
490.35	83.81
490.568	85.81
490.786	80.81
491.003	86.81
491.221	86.81
491.439	106.81
491.657	107.81
491.874	100.81
492.092	99.81
492.31	94.81
492.527	76.81
492.745	92.81
492.963	98.81
493.18	84.81
493.398	100.81
493.615	83.81
493.833	92.81
494.05	89.81
494.268	94.81
494.485	96.81
494.703	84.81
494.92	100.81
495.138	88.81
495.355	93.81
495.573	82.81
495.79	81.81
496.008	83.81
496.225	87.81
496.442	107.81
496.66	94.81
496.877	88.81
497.094	100.81
497.312	94.81
497.529	84.81
497.746	88.81
497.963	97.81
498.181	89.81
498.398	95.81
498.615	106.81
498.832	102.81
499.049	84.81
499.267	89.81
499.484	85.81
499.701	97.81
499.918	90.81
500.135	96.81
500.352	90.81
500.569	85.81
500.786	83.81
501.003	78.81
501.22	90.81
501.437	116.81
501.654	86.81
501.871	101.81
502.088	87.81
502.305	84.81
502.522	100.81
502.739	90.81
502.956	79.81
503.172	91.81
503.389	90.81
503.606	107.81
503.823	94.81
504.04	103.81
504.256	104.81
504.473	92.81
504.69	101.81
504.907	90.81
505.123	76.81
505.34	94.81
505.557	96.81
505.773	90.81
505.99	74.81
506.207	68.81
506.423	92.81
506.64	97.81
506.856	92.81
507.073	85.81
507.289	102.81
507.506	97.81
507.722	116.81
507.939	90.81
508.155	106.81
508.372	86.81
508.588	82.81
508.805	90.81
509.021	100.81
509.238	89.81
509.454	80.81
509.67	98.81
509.887	107.81
510.103	117.81
510.319	179.81
510.536	602.81
510.752	1872.81
510.968	528.81
511.184	144.81
511.401	98.81
511.617	111.81
511.833	76.81
512.049	105.81
512.265	88.81
512.481	80.81
512.698	83.81
512.914	87.81
513.13	96.81
513.346	89.81
513.562	93.81
513.778	86.81
513.994	96.81
514.21	110.81
514.426	100.81
514.642	117.81
514.858	105.81
515.074	148.81
515.29	354.81
