Data from Circ_1983_H10_HRD10591_00093.txt Node
Date: Wed Jan 03 12:27:03 EST 2024
User: Yrep
Spectrometer: HR+D1059
Trigger mode: 1
Integration Time (sec): 1.000000E-1
Scans to average: 1
Electric dark correction enabled: true
Nonlinearity correction enabled: false
Boxcar width: 0
XAxis mode: Wavelengths
Number of Pixels in Spectrum: 2048
>>>>>Begin Spectral Data<<<<<
223.165	-17.5
223.4	-17.5
223.635	-17.5
223.869	-9.5
224.104	-16.5
224.338	-4.5
224.573	-17.5
224.808	-27.5
225.042	-7.5
225.277	-7.5
225.511	0.5
225.746	12.5
225.98	1.5
226.215	9.5
226.449	13.5
226.683	17.5
226.918	12.5
227.152	40.5
227.387	32.5
227.621	43.5
227.856	42.5
228.09	47.5
228.324	58.5
228.559	50.5
228.793	53.5
229.027	67.5
229.262	65.5
229.496	63.5
229.73	86.5
229.964	73.5
230.199	74.5
230.433	81.5
230.667	80.5
230.901	87.5
231.136	89.5
231.37	101.5
231.604	72.5
231.838	90.5
232.072	90.5
232.306	84.5
232.541	82.5
232.775	95.5
233.009	86.5
233.243	84.5
233.477	86.5
233.711	88.5
233.945	80.5
234.179	87.5
234.413	74.5
234.647	76.5
234.881	76.5
235.115	88.5
235.349	74.5
235.583	87.5
235.817	82.5
236.051	84.5
236.285	74.5
236.519	82.5
236.753	82.5
236.987	74.5
237.221	93.5
237.455	89.5
237.689	81.5
237.922	82.5
238.156	84.5
238.39	83.5
238.624	69.5
238.858	78.5
239.091	89.5
239.325	70.5
239.559	72.5
239.793	76.5
240.027	76.5
240.26	67.5
240.494	77.5
240.728	90.5
240.961	56.5
241.195	63.5
241.429	74.5
241.662	92.5
241.896	77.5
242.13	90.5
242.363	78.5
242.597	88.5
242.83	69.5
243.064	78.5
243.298	75.5
243.531	87.5
243.765	76.5
243.998	79.5
244.232	81.5
244.465	67.5
244.699	98.5
244.932	92.5
245.166	69.5
245.399	76.5
245.633	88.5
245.866	94.5
246.099	73.5
246.333	76.5
246.566	78.5
246.8	71.5
247.033	76.5
247.266	74.5
247.5	81.5
247.733	86.5
247.966	77.5
248.2	85.5
248.433	77.5
248.666	90.5
248.899	84.5
249.133	92.5
249.366	90.5
249.599	94.5
249.832	84.5
250.066	80.5
250.299	77.5
250.532	86.5
250.765	97.5
250.998	70.5
251.231	82.5
251.465	80.5
251.698	96.5
251.931	87.5
252.164	82.5
252.397	73.5
252.63	88.5
252.863	68.5
253.096	80.5
253.329	80.5
253.562	91.5
253.795	85.5
254.028	79.5
254.261	78.5
254.494	80.5
254.727	74.5
254.96	90.5
255.193	90.5
255.426	75.5
255.659	72.5
255.892	82.5
256.124	90.5
256.357	82.5
256.59	100.5
256.823	83.5
257.056	90.5
257.289	93.5
257.521	94.5
257.754	89.5
257.987	72.5
258.22	96.5
258.452	77.5
258.685	65.5
258.918	91.5
259.151	86.5
259.383	82.5
259.616	88.5
259.849	81.5
260.081	85.5
260.314	71.5
260.547	88.5
260.779	82.5
261.012	97.5
261.244	86.5
261.477	85.5
261.71	101.5
261.942	105.5
262.175	121.5
262.407	97.5
262.64	86.5
262.872	61.5
263.105	75.5
263.337	90.5
263.57	86.5
263.802	100.5
264.035	83.5
264.267	82.5
264.499	88.5
264.732	91.5
264.964	81.5
265.197	81.5
265.429	88.5
265.661	89.5
265.894	88.5
266.126	94.5
266.358	80.5
266.591	84.5
266.823	95.5
267.055	68.5
267.287	80.5
267.52	93.5
267.752	101.5
267.984	90.5
268.216	92.5
268.448	84.5
268.681	86.5
268.913	67.5
269.145	83.5
269.377	95.5
269.609	73.5
269.841	76.5
270.073	79.5
270.306	88.5
270.538	85.5
270.77	78.5
271.002	81.5
271.234	90.5
271.466	90.5
271.698	75.5
271.93	85.5
272.162	86.5
272.394	75.5
272.626	87.5
272.858	80.5
273.09	97.5
273.322	88.5
273.553	69.5
273.785	96.5
274.017	91.5
274.249	73.5
274.481	98.5
274.713	84.5
274.945	96.5
275.176	96.5
275.408	80.5
275.64	75.5
275.872	94.5
276.104	78.5
276.335	89.5
276.567	88.5
276.799	112.5
277.031	102.5
277.262	107.5
277.494	89.5
277.726	77.5
277.957	98.5
278.189	85.5
278.421	75.5
278.652	95.5
278.884	86.5
279.115	91.5
279.347	95.5
279.579	107.5
279.81	97.5
280.042	99.5
280.273	114.5
280.505	96.5
280.736	88.5
280.968	84.5
281.199	84.5
281.431	76.5
281.662	84.5
281.894	89.5
282.125	86.5
282.356	110.5
282.588	123.5
282.819	100.5
283.051	85.5
283.282	89.5
283.513	94.5
283.745	88.5
283.976	83.5
284.207	94.5
284.439	89.5
284.67	81.5
284.901	94.5
285.132	87.5
285.364	86.5
285.595	83.5
285.826	82.5
286.057	82.5
286.288	85.5
286.52	84.5
286.751	86.5
286.982	98.5
287.213	93.5
287.444	86.5
287.675	81.5
287.906	89.5
288.138	90.5
288.369	98.5
288.6	96.5
288.831	79.5
289.062	80.5
289.293	86.5
289.524	73.5
289.755	92.5
289.986	94.5
290.217	80.5
290.448	93.5
290.679	80.5
290.91	105.5
291.141	96.5
291.371	85.5
291.602	87.5
291.833	75.5
292.064	69.5
292.295	83.5
292.526	82.5
292.757	90.5
292.987	97.5
293.218	108.5
293.449	89.5
293.68	72.5
293.91	89.5
294.141	90.5
294.372	77.5
294.603	87.5
294.833	101.5
295.064	85.5
295.295	88.5
295.525	91.5
295.756	93.5
295.987	114.5
296.217	118.5
296.448	113.5
296.679	104.5
296.909	90.5
297.14	96.5
297.37	100.5
297.601	100.5
297.831	94.5
298.062	92.5
298.292	101.5
298.523	93.5
298.753	89.5
298.984	78.5
299.214	81.5
299.445	96.5
299.675	75.5
299.905	76.5
300.136	94.5
300.366	84.5
300.597	80.5
300.827	90.5
301.057	94.5
301.288	105.5
301.518	106.5
301.748	110.5
301.979	98.5
302.209	89.5
302.439	104.5
302.669	83.5
302.9	84.5
303.13	102.5
303.36	104.5
303.59	93.5
303.82	109.5
304.051	109.5
304.281	93.5
304.511	96.5
304.741	88.5
304.971	87.5
305.201	102.5
305.431	89.5
305.661	88.5
305.891	95.5
306.121	86.5
306.352	96.5
306.582	93.5
306.812	100.5
307.042	95.5
307.272	104.5
307.502	97.5
307.731	96.5
307.961	91.5
308.191	83.5
308.421	105.5
308.651	105.5
308.881	85.5
309.111	96.5
309.341	98.5
309.571	87.5
309.8	107.5
310.03	104.5
310.26	94.5
310.49	90.5
310.72	86.5
310.949	104.5
311.179	84.5
311.409	94.5
311.639	99.5
311.868	87.5
312.098	104.5
312.328	102.5
312.557	89.5
312.787	97.5
313.017	107.5
313.246	83.5
313.476	98.5
313.706	94.5
313.935	93.5
314.165	93.5
314.394	87.5
314.624	92.5
314.853	96.5
315.083	100.5
315.312	75.5
315.542	86.5
315.771	101.5
316.001	74.5
316.23	95.5
316.46	78.5
316.689	90.5
316.919	94.5
317.148	97.5
317.377	105.5
317.607	104.5
317.836	88.5
318.065	80.5
318.295	92.5
318.524	98.5
318.753	94.5
318.983	105.5
319.212	98.5
319.441	107.5
319.67	99.5
319.9	90.5
320.129	89.5
320.358	92.5
320.587	81.5
320.816	91.5
321.046	100.5
321.275	89.5
321.504	97.5
321.733	76.5
321.962	82.5
322.191	98.5
322.42	113.5
322.649	98.5
322.878	104.5
323.108	108.5
323.337	120.5
323.566	130.5
323.795	123.5
324.024	187.5
324.253	313.5
324.482	645.5
324.71	1336.5
324.939	1777.5
325.168	656.5
325.397	209.5
325.626	136.5
325.855	126.5
326.084	116.5
326.313	102.5
326.542	126.5
326.77	199.5
326.999	370.5
327.228	748.5
327.457	1376.5
327.686	1085.5
327.914	324.5
328.143	202.5
328.372	186.5
328.6	160.5
328.829	123.5
329.058	110.5
329.287	128.5
329.515	121.5
329.744	123.5
329.972	147.5
330.201	245.5
330.43	297.5
330.658	177.5
330.887	145.5
331.115	119.5
331.344	85.5
331.572	96.5
331.801	92.5
332.03	101.5
332.258	90.5
332.486	89.5
332.715	100.5
332.943	87.5
333.172	94.5
333.4	109.5
333.629	106.5
333.857	113.5
334.085	156.5
334.314	208.5
334.542	359.5
334.771	349.5
334.999	150.5
335.227	100.5
335.455	102.5
335.684	95.5
335.912	106.5
336.14	96.5
336.369	88.5
336.597	86.5
336.825	88.5
337.053	86.5
337.281	89.5
337.51	93.5
337.738	97.5
337.966	93.5
338.194	83.5
338.422	102.5
338.65	97.5
338.878	105.5
339.106	99.5
339.334	96.5
339.562	94.5
339.79	96.5
340.018	85.5
340.246	85.5
340.474	90.5
340.702	95.5
340.93	97.5
341.158	89.5
341.386	86.5
341.614	96.5
341.842	98.5
342.07	90.5
342.298	90.5
342.526	91.5
342.754	103.5
342.981	79.5
343.209	105.5
343.437	98.5
343.665	77.5
343.893	78.5
344.12	82.5
344.348	89.5
344.576	107.5
344.804	85.5
345.031	97.5
345.259	99.5
345.487	96.5
345.714	96.5
345.942	109.5
346.17	85.5
346.397	88.5
346.625	89.5
346.853	86.5
347.08	89.5
347.308	90.5
347.535	96.5
347.763	100.5
347.99	101.5
348.218	100.5
348.445	101.5
348.673	95.5
348.9	105.5
349.128	97.5
349.355	90.5
349.583	89.5
349.81	74.5
350.037	88.5
350.265	84.5
350.492	99.5
350.72	96.5
350.947	91.5
351.174	97.5
351.402	113.5
351.629	101.5
351.856	114.5
352.083	101.5
352.311	119.5
352.538	104.5
352.765	109.5
352.992	109.5
353.22	109.5
353.447	96.5
353.674	93.5
353.901	92.5
354.128	97.5
354.355	94.5
354.583	93.5
354.81	105.5
355.037	92.5
355.264	104.5
355.491	102.5
355.718	88.5
355.945	109.5
356.172	80.5
356.399	96.5
356.626	101.5
356.853	91.5
357.08	95.5
357.307	101.5
357.534	85.5
357.761	100.5
357.988	95.5
358.215	96.5
358.441	92.5
358.668	93.5
358.895	77.5
359.122	80.5
359.349	94.5
359.576	78.5
359.802	98.5
360.029	109.5
360.256	97.5
360.483	76.5
360.709	84.5
360.936	96.5
361.163	89.5
361.39	76.5
361.616	105.5
361.843	78.5
362.07	86.5
362.296	101.5
362.523	97.5
362.749	90.5
362.976	85.5
363.203	90.5
363.429	89.5
363.656	90.5
363.882	91.5
364.109	92.5
364.335	103.5
364.562	99.5
364.788	91.5
365.015	76.5
365.241	97.5
365.468	96.5
365.694	92.5
365.92	98.5
366.147	103.5
366.373	90.5
366.599	93.5
366.826	93.5
367.052	94.5
367.278	102.5
367.505	82.5
367.731	87.5
367.957	86.5
368.184	90.5
368.41	89.5
368.636	92.5
368.862	101.5
369.089	96.5
369.315	90.5
369.541	93.5
369.767	81.5
369.993	91.5
370.219	94.5
370.445	85.5
370.672	84.5
370.898	82.5
371.124	94.5
371.35	87.5
371.576	94.5
371.802	81.5
372.028	75.5
372.254	92.5
372.48	87.5
372.706	92.5
372.932	92.5
373.158	95.5
373.384	102.5
373.61	99.5
373.835	94.5
374.061	82.5
374.287	99.5
374.513	69.5
374.739	86.5
374.965	100.5
375.191	96.5
375.416	81.5
375.642	102.5
375.868	92.5
376.094	89.5
376.319	82.5
376.545	92.5
376.771	100.5
376.997	87.5
377.222	100.5
377.448	94.5
377.674	69.5
377.899	89.5
378.125	53.5
378.35	108.5
378.576	90.5
378.802	96.5
379.027	97.5
379.253	93.5
379.478	96.5
379.704	90.5
379.929	84.5
380.155	97.5
380.38	95.5
380.606	86.5
380.831	105.5
381.057	73.5
381.282	93.5
381.507	92.5
381.733	91.5
381.958	95.5
382.184	82.5
382.409	93.5
382.634	97.5
382.86	97.5
383.085	88.5
383.31	92.5
383.535	80.5
383.761	93.5
383.986	89.5
384.211	89.5
384.436	89.5
384.662	103.5
384.887	104.5
385.112	96.5
385.337	106.5
385.562	96.5
385.787	96.5
386.013	102.5
386.238	95.5
386.463	99.5
386.688	110.5
386.913	111.5
387.138	104.5
387.363	105.5
387.588	91.5
387.813	96.5
388.038	92.5
388.263	89.5
388.488	116.5
388.713	92.5
388.938	84.5
389.163	110.5
389.387	100.5
389.612	88.5
389.837	91.5
390.062	76.5
390.287	93.5
390.512	94.5
390.736	88.5
390.961	86.5
391.186	101.5
391.411	96.5
391.636	74.5
391.86	96.5
392.085	92.5
392.31	98.5
392.534	98.5
392.759	100.5
392.984	91.5
393.208	99.5
393.433	94.5
393.658	84.5
393.882	90.5
394.107	91.5
394.331	88.5
394.556	76.5
394.78	107.5
395.005	94.5
395.229	81.5
395.454	84.5
395.678	84.5
395.903	81.5
396.127	89.5
396.352	97.5
396.576	77.5
396.801	106.5
397.025	104.5
397.249	89.5
397.474	88.5
397.698	74.5
397.922	96.5
398.147	94.5
398.371	97.5
398.595	91.5
398.82	93.5
399.044	90.5
399.268	86.5
399.492	94.5
399.717	78.5
399.941	93.5
400.165	80.5
400.389	93.5
400.613	70.5
400.837	82.5
401.062	77.5
401.286	86.5
401.51	80.5
401.734	77.5
401.958	100.5
402.182	102.5
402.406	154.5
402.63	108.5
402.854	81.5
403.078	89.5
403.302	88.5
403.526	72.5
403.75	92.5
403.974	90.5
404.198	95.5
404.422	80.5
404.645	85.5
404.869	82.5
405.093	93.5
405.317	96.5
405.541	92.5
405.765	89.5
405.988	110.5
406.212	158.5
406.436	199.5
406.66	124.5
406.883	101.5
407.107	73.5
407.331	90.5
407.555	109.5
407.778	87.5
408.002	85.5
408.226	90.5
408.449	82.5
408.673	91.5
408.896	88.5
409.12	93.5
409.344	89.5
409.567	100.5
409.791	102.5
410.014	84.5
410.238	93.5
410.461	85.5
410.685	87.5
410.908	106.5
411.132	107.5
411.355	110.5
411.578	100.5
411.802	98.5
412.025	95.5
412.249	100.5
412.472	93.5
412.695	116.5
412.919	84.5
413.142	103.5
413.365	88.5
413.589	91.5
413.812	104.5
414.035	106.5
414.258	97.5
414.482	89.5
414.705	88.5
414.928	100.5
415.151	90.5
415.374	93.5
415.597	87.5
415.821	91.5
416.044	83.5
416.267	86.5
416.49	83.5
416.713	74.5
416.936	84.5
417.159	75.5
417.382	97.5
417.605	102.5
417.828	94.5
418.051	76.5
418.274	86.5
418.497	94.5
418.72	94.5
418.943	101.5
419.166	103.5
419.389	93.5
419.611	82.5
419.834	83.5
420.057	84.5
420.28	96.5
420.503	92.5
420.726	81.5
420.948	94.5
421.171	90.5
421.394	85.5
421.617	86.5
421.839	82.5
422.062	88.5
422.285	77.5
422.507	111.5
422.73	98.5
422.953	82.5
423.175	81.5
423.398	72.5
423.621	69.5
423.843	81.5
424.066	79.5
424.288	74.5
424.511	75.5
424.733	96.5
424.956	94.5
425.178	98.5
425.401	109.5
425.623	91.5
425.846	86.5
426.068	90.5
426.291	90.5
426.513	98.5
426.735	91.5
426.958	102.5
427.18	103.5
427.402	110.5
427.625	149.5
427.847	134.5
428.069	125.5
428.292	85.5
428.514	94.5
428.736	74.5
428.958	76.5
429.181	76.5
429.403	85.5
429.625	71.5
429.847	80.5
430.069	102.5
430.292	82.5
430.514	93.5
430.736	75.5
430.958	92.5
431.18	88.5
431.402	84.5
431.624	82.5
431.846	88.5
432.068	80.5
432.29	87.5
432.512	80.5
432.734	91.5
432.956	92.5
433.178	99.5
433.4	97.5
433.622	86.5
433.844	89.5
434.066	83.5
434.287	84.5
434.509	80.5
434.731	87.5
434.953	99.5
435.175	88.5
435.397	89.5
435.618	82.5
435.84	99.5
436.062	116.5
436.284	103.5
436.505	100.5
436.727	99.5
436.949	87.5
437.17	79.5
437.392	85.5
437.614	83.5
437.835	102.5
438.057	106.5
438.278	104.5
438.5	97.5
438.721	115.5
438.943	100.5
439.165	92.5
439.386	89.5
439.608	88.5
439.829	96.5
440.05	116.5
440.272	128.5
440.493	108.5
440.715	93.5
440.936	85.5
441.158	76.5
441.379	85.5
441.6	92.5
441.822	93.5
442.043	81.5
442.264	100.5
442.486	100.5
442.707	92.5
442.928	94.5
443.149	121.5
443.371	111.5
443.592	88.5
443.813	108.5
444.034	97.5
444.255	97.5
444.476	80.5
444.698	94.5
444.919	89.5
445.14	137.5
445.361	117.5
445.582	101.5
445.803	128.5
446.024	127.5
446.245	128.5
446.466	99.5
446.687	96.5
446.908	96.5
447.129	70.5
447.35	98.5
447.571	89.5
447.792	86.5
448.013	85.5
448.234	105.5
448.455	103.5
448.675	108.5
448.896	99.5
449.117	87.5
449.338	108.5
449.559	117.5
449.779	118.5
450	88.5
450.221	76.5
450.442	92.5
450.662	78.5
450.883	107.5
451.104	83.5
451.324	82.5
451.545	84.5
451.766	85.5
451.986	91.5
452.207	98.5
452.428	96.5
452.648	94.5
452.869	102.5
453.089	101.5
453.31	114.5
453.53	82.5
453.751	91.5
453.971	102.5
454.192	107.5
454.412	99.5
454.633	73.5
454.853	81.5
455.073	91.5
455.294	82.5
455.514	107.5
455.734	89.5
455.955	82.5
456.175	97.5
456.395	93.5
456.616	84.5
456.836	90.5
457.056	88.5
457.276	82.5
457.497	86.5
457.717	77.5
457.937	92.5
458.157	94.5
458.377	85.5
458.598	100.5
458.818	134.5
459.038	146.5
459.258	109.5
459.478	94.5
459.698	90.5
459.918	93.5
460.138	91.5
460.358	95.5
460.578	89.5
460.798	94.5
461.018	89.5
461.238	88.5
461.458	86.5
461.678	90.5
461.898	80.5
462.118	93.5
462.338	86.5
462.558	100.5
462.777	90.5
462.997	94.5
463.217	91.5
463.437	105.5
463.657	85.5
463.876	83.5
464.096	94.5
464.316	81.5
464.536	88.5
464.755	90.5
464.975	101.5
465.195	144.5
465.414	129.5
465.634	86.5
465.854	80.5
466.073	88.5
466.293	90.5
466.512	77.5
466.732	92.5
466.951	88.5
467.171	90.5
467.391	94.5
467.61	106.5
467.829	106.5
468.049	171.5
468.268	205.5
468.488	98.5
468.707	93.5
468.927	84.5
469.146	82.5
469.365	104.5
469.585	98.5
469.804	97.5
470.023	97.5
470.243	99.5
470.462	91.5
470.681	92.5
470.901	91.5
471.12	82.5
471.339	86.5
471.558	88.5
471.777	96.5
471.997	123.5
472.216	270.5
472.435	491.5
472.654	166.5
472.873	95.5
473.092	89.5
473.311	85.5
473.53	81.5
473.749	77.5
473.968	99.5
474.187	104.5
474.406	97.5
474.625	92.5
474.844	80.5
475.063	92.5
475.282	91.5
475.501	94.5
475.72	86.5
475.939	79.5
476.158	84.5
476.377	88.5
476.596	92.5
476.814	101.5
477.033	76.5
477.252	88.5
477.471	89.5
477.69	83.5
477.908	91.5
478.127	81.5
478.346	83.5
478.564	87.5
478.783	98.5
479.002	105.5
479.22	104.5
479.439	103.5
479.658	109.5
479.876	112.5
480.095	91.5
480.313	102.5
480.532	105.5
480.751	125.5
480.969	261.5
481.188	848.5
481.406	517.5
481.624	130.5
481.843	94.5
482.061	94.5
482.28	96.5
482.498	94.5
482.717	84.5
482.935	91.5
483.153	99.5
483.372	85.5
483.59	85.5
483.808	86.5
484.027	92.5
484.245	97.5
484.463	82.5
484.681	80.5
484.9	86.5
485.118	96.5
485.336	96.5
485.554	92.5
485.772	88.5
485.99	105.5
486.209	111.5
486.427	110.5
486.645	100.5
486.863	98.5
487.081	93.5
487.299	93.5
487.517	95.5
487.735	117.5
487.953	102.5
488.171	100.5
488.389	84.5
488.607	105.5
488.825	98.5
489.043	101.5
489.261	91.5
489.479	99.5
489.696	87.5
489.914	103.5
490.132	95.5
490.35	110.5
490.568	87.5
490.786	90.5
491.003	94.5
491.221	97.5
491.439	94.5
491.657	96.5
491.874	106.5
492.092	99.5
492.31	91.5
492.527	99.5
492.745	86.5
492.963	81.5
493.18	88.5
493.398	87.5
493.615	81.5
493.833	102.5
494.05	95.5
494.268	92.5
494.485	100.5
494.703	92.5
494.92	80.5
495.138	79.5
495.355	87.5
495.573	104.5
495.79	91.5
496.008	81.5
496.225	104.5
496.442	88.5
496.66	110.5
496.877	101.5
497.094	100.5
497.312	79.5
497.529	86.5
497.746	90.5
497.963	103.5
498.181	91.5
498.398	99.5
498.615	108.5
498.832	99.5
499.049	79.5
499.267	94.5
499.484	68.5
499.701	86.5
499.918	99.5
500.135	80.5
500.352	78.5
500.569	84.5
500.786	102.5
501.003	81.5
501.22	93.5
501.437	86.5
501.654	101.5
501.871	102.5
502.088	102.5
502.305	104.5
502.522	91.5
502.739	91.5
502.956	87.5
503.172	91.5
503.389	84.5
503.606	96.5
503.823	101.5
504.04	101.5
504.256	99.5
504.473	94.5
504.69	96.5
504.907	86.5
505.123	98.5
505.34	96.5
505.557	93.5
505.773	94.5
505.99	90.5
506.207	97.5
506.423	82.5
506.64	82.5
506.856	86.5
507.073	101.5
507.289	88.5
507.506	107.5
507.722	116.5
507.939	101.5
508.155	89.5
508.372	91.5
508.588	91.5
508.805	111.5
509.021	98.5
509.238	103.5
509.454	73.5
509.67	100.5
509.887	107.5
510.103	116.5
510.319	192.5
510.536	640.5
510.752	1989.5
510.968	554.5
511.184	133.5
511.401	118.5
511.617	85.5
511.833	93.5
512.049	92.5
512.265	80.5
512.481	93.5
512.698	94.5
512.914	97.5
513.13	96.5
513.346	77.5
513.562	105.5
513.778	105.5
513.994	94.5
514.21	103.5
514.426	117.5
514.642	114.5
514.858	117.5
515.074	163.5
515.29	389.5
515.506	1232.5
515.721	462.5
515.937	127.5
516.153	107.5
516.369	109.5
516.585	92.5
516.801	107.5
517.016	106.5
517.232	84.5
517.448	91.5
517.664	81.5
517.879	88.5
518.095	94.5
518.311	94.5
518.527	89.5
518.742	83.5
518.958	96.5
519.173	88.5
519.389	102.5
519.605	89.5
519.82	86.5
520.036	93.5
520.251	114.5
520.467	115.5
520.682	98.5
520.898	106.5
521.113	115.5
521.329	126.5
521.544	180.5
521.76	482.5
521.975	2020.5
522.19	1194.5
522.406	265.5
522.621	115.5
522.836	83.5
523.052	94.5
523.267	88.5
523.482	97.5
523.698	93.5
523.913	117.5
524.128	88.5
524.343	94.5
524.559	94.5
524.774	90.5
524.989	87.5
525.204	91.5
525.419	96.5
525.634	103.5
525.849	99.5
526.064	106.5
526.28	87.5
526.495	84.5
526.71	101.5
526.925	84.5
527.14	85.5
527.355	83.5
527.57	98.5
527.785	85.5
527.999	94.5
528.214	82.5
528.429	97.5
528.644	92.5
528.859	101.5
529.074	101.5
529.289	110.5
529.503	166.5
529.718	107.5
529.933	111.5
530.148	103.5
530.363	86.5
530.577	96.5
530.792	101.5
531.007	81.5
531.221	77.5
531.436	100.5
531.651	89.5
531.865	78.5
532.08	105.5
532.295	106.5
532.509	108.5
532.724	107.5
532.938	92.5
533.153	90.5
533.367	99.5
533.582	91.5
533.796	101.5
534.011	95.5
534.225	103.5
534.44	92.5
534.654	91.5
534.868	83.5
535.083	97.5
