Data from Circ_1983_H10_HRD10591_00074.txt Node
Date: Wed Jan 03 12:26:59 EST 2024
User: Yrep
Spectrometer: HR+D1059
Trigger mode: 1
Integration Time (sec): 1.000000E-1
Scans to average: 1
Electric dark correction enabled: true
Nonlinearity correction enabled: false
Boxcar width: 0
XAxis mode: Wavelengths
Number of Pixels in Spectrum: 2048
>>>>>Begin Spectral Data<<<<<
223.165	-13.81
223.4	-13.81
223.635	-13.81
223.869	-14.81
224.104	-19.81
224.338	-24.81
224.573	-17.81
224.808	-17.81
225.042	1.19
225.277	-15.81
225.511	-0.81
225.746	8.19
225.98	2.19
226.215	20.19
226.449	23.19
226.683	13.19
226.918	34.19
227.152	23.19
227.387	46.19
227.621	32.19
227.856	36.19
228.09	34.19
228.324	45.19
228.559	48.19
228.793	62.19
229.027	48.19
229.262	64.19
229.496	67.19
229.73	85.19
229.964	95.19
230.199	71.19
230.433	66.19
230.667	80.19
230.901	81.19
231.136	76.19
231.37	82.19
231.604	72.19
231.838	74.19
232.072	68.19
232.306	70.19
232.541	85.19
232.775	83.19
233.009	87.19
233.243	80.19
233.477	86.19
233.711	75.19
233.945	82.19
234.179	69.19
234.413	78.19
234.647	59.19
234.881	70.19
235.115	82.19
235.349	91.19
235.583	75.19
235.817	83.19
236.051	76.19
236.285	74.19
236.519	82.19
236.753	86.19
236.987	70.19
237.221	80.19
237.455	78.19
237.689	79.19
237.922	80.19
238.156	66.19
238.39	65.19
238.624	72.19
238.858	72.19
239.091	76.19
239.325	85.19
239.559	75.19
239.793	86.19
240.027	85.19
240.26	66.19
240.494	70.19
240.728	57.19
240.961	67.19
241.195	82.19
241.429	76.19
241.662	78.19
241.896	88.19
242.13	72.19
242.363	90.19
242.597	75.19
242.83	73.19
243.064	74.19
243.298	70.19
243.531	75.19
243.765	82.19
243.998	73.19
244.232	74.19
244.465	77.19
244.699	78.19
244.932	58.19
245.166	83.19
245.399	73.19
245.633	86.19
245.866	78.19
246.099	82.19
246.333	67.19
246.566	81.19
246.8	73.19
247.033	72.19
247.266	76.19
247.5	74.19
247.733	68.19
247.966	79.19
248.2	82.19
248.433	78.19
248.666	91.19
248.899	88.19
249.133	76.19
249.366	101.19
249.599	86.19
249.832	78.19
250.066	103.19
250.299	74.19
250.532	85.19
250.765	74.19
250.998	74.19
251.231	86.19
251.465	72.19
251.698	89.19
251.931	87.19
252.164	75.19
252.397	83.19
252.63	88.19
252.863	86.19
253.096	67.19
253.329	66.19
253.562	81.19
253.795	94.19
254.028	81.19
254.261	81.19
254.494	98.19
254.727	66.19
254.96	72.19
255.193	90.19
255.426	75.19
255.659	86.19
255.892	84.19
256.124	79.19
256.357	74.19
256.59	76.19
256.823	83.19
257.056	86.19
257.289	78.19
257.521	69.19
257.754	81.19
257.987	91.19
258.22	87.19
258.452	67.19
258.685	84.19
258.918	60.19
259.151	73.19
259.383	65.19
259.616	75.19
259.849	75.19
260.081	69.19
260.314	92.19
260.547	88.19
260.779	92.19
261.012	78.19
261.244	86.19
261.477	86.19
261.71	87.19
261.942	103.19
262.175	103.19
262.407	99.19
262.64	86.19
262.872	74.19
263.105	80.19
263.337	88.19
263.57	76.19
263.802	78.19
264.035	71.19
264.267	78.19
264.499	72.19
264.732	81.19
264.964	92.19
265.197	74.19
265.429	70.19
265.661	89.19
265.894	63.19
266.126	82.19
266.358	79.19
266.591	74.19
266.823	93.19
267.055	82.19
267.287	88.19
267.52	72.19
267.752	89.19
267.984	72.19
268.216	83.19
268.448	91.19
268.681	84.19
268.913	90.19
269.145	78.19
269.377	75.19
269.609	79.19
269.841	82.19
270.073	78.19
270.306	92.19
270.538	71.19
270.77	76.19
271.002	86.19
271.234	87.19
271.466	90.19
271.698	86.19
271.93	73.19
272.162	96.19
272.394	84.19
272.626	74.19
272.858	98.19
273.09	93.19
273.322	84.19
273.553	75.19
273.785	74.19
274.017	75.19
274.249	87.19
274.481	88.19
274.713	83.19
274.945	99.19
275.176	91.19
275.408	70.19
275.64	86.19
275.872	87.19
276.104	92.19
276.335	77.19
276.567	86.19
276.799	102.19
277.031	90.19
277.262	84.19
277.494	75.19
277.726	89.19
277.957	78.19
278.189	76.19
278.421	89.19
278.652	80.19
278.884	80.19
279.115	91.19
279.347	90.19
279.579	93.19
279.81	81.19
280.042	100.19
280.273	111.19
280.505	91.19
280.736	88.19
280.968	78.19
281.199	96.19
281.431	84.19
281.662	90.19
281.894	96.19
282.125	89.19
282.356	104.19
282.588	122.19
282.819	104.19
283.051	83.19
283.282	90.19
283.513	88.19
283.745	92.19
283.976	92.19
284.207	87.19
284.439	91.19
284.67	81.19
284.901	93.19
285.132	82.19
285.364	83.19
285.595	81.19
285.826	89.19
286.057	93.19
286.288	82.19
286.52	79.19
286.751	96.19
286.982	85.19
287.213	77.19
287.444	80.19
287.675	95.19
287.906	78.19
288.138	83.19
288.369	95.19
288.6	68.19
288.831	81.19
289.062	94.19
289.293	78.19
289.524	83.19
289.755	88.19
289.986	82.19
290.217	84.19
290.448	83.19
290.679	86.19
290.91	89.19
291.141	75.19
291.371	86.19
291.602	106.19
291.833	90.19
292.064	87.19
292.295	87.19
292.526	93.19
292.757	87.19
292.987	86.19
293.218	98.19
293.449	86.19
293.68	92.19
293.91	87.19
294.141	103.19
294.372	89.19
294.603	70.19
294.833	78.19
295.064	82.19
295.295	90.19
295.525	100.19
295.756	94.19
295.987	91.19
296.217	108.19
296.448	108.19
296.679	102.19
296.909	94.19
297.14	97.19
297.37	93.19
297.601	95.19
297.831	95.19
298.062	81.19
298.292	99.19
298.523	87.19
298.753	90.19
298.984	90.19
299.214	103.19
299.445	81.19
299.675	94.19
299.905	88.19
300.136	100.19
300.366	85.19
300.597	85.19
300.827	89.19
301.057	99.19
301.288	96.19
301.518	99.19
301.748	89.19
301.979	92.19
302.209	92.19
302.439	87.19
302.669	70.19
302.9	88.19
303.13	90.19
303.36	88.19
303.59	100.19
303.82	99.19
304.051	96.19
304.281	111.19
304.511	93.19
304.741	90.19
304.971	91.19
305.201	83.19
305.431	79.19
305.661	97.19
305.891	107.19
306.121	91.19
306.352	107.19
306.582	98.19
306.812	97.19
307.042	96.19
307.272	90.19
307.502	99.19
307.731	111.19
307.961	99.19
308.191	83.19
308.421	84.19
308.651	92.19
308.881	96.19
309.111	94.19
309.341	81.19
309.571	80.19
309.8	98.19
310.03	95.19
310.26	95.19
310.49	86.19
310.72	96.19
310.949	90.19
311.179	89.19
311.409	82.19
311.639	80.19
311.868	90.19
312.098	95.19
312.328	80.19
312.557	89.19
312.787	96.19
313.017	94.19
313.246	85.19
313.476	90.19
313.706	94.19
313.935	92.19
314.165	87.19
314.394	79.19
314.624	88.19
314.853	80.19
315.083	100.19
315.312	81.19
315.542	97.19
315.771	77.19
316.001	86.19
316.23	83.19
316.46	91.19
316.689	92.19
316.919	88.19
317.148	84.19
317.377	88.19
317.607	80.19
317.836	92.19
318.065	87.19
318.295	94.19
318.524	85.19
318.753	86.19
318.983	92.19
319.212	103.19
319.441	111.19
319.67	103.19
319.9	89.19
320.129	90.19
320.358	88.19
320.587	75.19
320.816	99.19
321.046	94.19
321.275	106.19
321.504	81.19
321.733	94.19
321.962	99.19
322.191	95.19
322.42	92.19
322.649	102.19
322.878	101.19
323.108	104.19
323.337	120.19
323.566	125.19
323.795	147.19
324.024	180.19
324.253	296.19
324.482	599.19
324.71	1246.19
324.939	1551.19
325.168	614.19
325.397	207.19
325.626	122.19
325.855	123.19
326.084	127.19
326.313	104.19
326.542	135.19
326.77	174.19
326.999	352.19
327.228	684.19
327.457	1239.19
327.686	967.19
327.914	295.19
328.143	198.19
328.372	182.19
328.6	124.19
328.829	104.19
329.058	120.19
329.287	115.19
329.515	114.19
329.744	116.19
329.972	118.19
330.201	181.19
330.43	231.19
330.658	169.19
330.887	122.19
331.115	116.19
331.344	91.19
331.572	78.19
331.801	97.19
332.03	99.19
332.258	86.19
332.486	82.19
332.715	98.19
332.943	96.19
333.172	99.19
333.4	99.19
333.629	103.19
333.857	110.19
334.085	131.19
334.314	176.19
334.542	272.19
334.771	270.19
334.999	123.19
335.227	105.19
335.455	76.19
335.684	106.19
335.912	98.19
336.14	91.19
336.369	97.19
336.597	87.19
336.825	98.19
337.053	95.19
337.281	96.19
337.51	82.19
337.738	82.19
337.966	91.19
338.194	99.19
338.422	94.19
338.65	89.19
338.878	92.19
339.106	90.19
339.334	86.19
339.562	76.19
339.79	103.19
340.018	89.19
340.246	100.19
340.474	93.19
340.702	94.19
340.93	81.19
341.158	90.19
341.386	84.19
341.614	90.19
341.842	68.19
342.07	96.19
342.298	90.19
342.526	81.19
342.754	96.19
342.981	99.19
343.209	84.19
343.437	100.19
343.665	90.19
343.893	86.19
344.12	86.19
344.348	94.19
344.576	85.19
344.804	90.19
345.031	97.19
345.259	95.19
345.487	88.19
345.714	82.19
345.942	82.19
346.17	90.19
346.397	86.19
346.625	104.19
346.853	93.19
347.08	92.19
347.308	107.19
347.535	91.19
347.763	91.19
347.99	103.19
348.218	89.19
348.445	99.19
348.673	96.19
348.9	96.19
349.128	79.19
349.355	85.19
349.583	80.19
349.81	87.19
350.037	88.19
350.265	97.19
350.492	80.19
350.72	87.19
350.947	109.19
351.174	91.19
351.402	106.19
351.629	98.19
351.856	87.19
352.083	93.19
352.311	88.19
352.538	102.19
352.765	98.19
352.992	97.19
353.22	96.19
353.447	109.19
353.674	83.19
353.901	94.19
354.128	90.19
354.355	93.19
354.583	98.19
354.81	94.19
355.037	98.19
355.264	90.19
355.491	93.19
355.718	86.19
355.945	78.19
356.172	82.19
356.399	98.19
356.626	90.19
356.853	91.19
357.08	99.19
357.307	84.19
357.534	89.19
357.761	86.19
357.988	104.19
358.215	94.19
358.441	90.19
358.668	80.19
358.895	90.19
359.122	92.19
359.349	91.19
359.576	88.19
359.802	108.19
360.029	98.19
360.256	98.19
360.483	81.19
360.709	96.19
360.936	96.19
361.163	105.19
361.39	82.19
361.616	88.19
361.843	92.19
362.07	95.19
362.296	96.19
362.523	99.19
362.749	86.19
362.976	96.19
363.203	79.19
363.429	89.19
363.656	102.19
363.882	86.19
364.109	91.19
364.335	69.19
364.562	88.19
364.788	90.19
365.015	81.19
365.241	91.19
365.468	95.19
365.694	95.19
365.92	88.19
366.147	86.19
366.373	102.19
366.599	87.19
366.826	90.19
367.052	81.19
367.278	91.19
367.505	97.19
367.731	82.19
367.957	96.19
368.184	86.19
368.41	94.19
368.636	105.19
368.862	97.19
369.089	101.19
369.315	92.19
369.541	76.19
369.767	79.19
369.993	99.19
370.219	91.19
370.445	82.19
370.672	71.19
370.898	83.19
371.124	99.19
371.35	97.19
371.576	92.19
371.802	86.19
372.028	88.19
372.254	81.19
372.48	76.19
372.706	90.19
372.932	87.19
373.158	79.19
373.384	84.19
373.61	104.19
373.835	76.19
374.061	87.19
374.287	98.19
374.513	83.19
374.739	86.19
374.965	78.19
375.191	87.19
375.416	112.19
375.642	92.19
375.868	82.19
376.094	94.19
376.319	82.19
376.545	93.19
376.771	80.19
376.997	82.19
377.222	89.19
377.448	85.19
377.674	93.19
377.899	88.19
378.125	86.19
378.35	90.19
378.576	79.19
378.802	94.19
379.027	93.19
379.253	86.19
379.478	78.19
379.704	84.19
379.929	90.19
380.155	87.19
380.38	78.19
380.606	87.19
380.831	96.19
381.057	102.19
381.282	92.19
381.507	88.19
381.733	85.19
381.958	88.19
382.184	94.19
382.409	96.19
382.634	110.19
382.86	102.19
383.085	90.19
383.31	95.19
383.535	107.19
383.761	106.19
383.986	90.19
384.211	79.19
384.436	80.19
384.662	90.19
384.887	107.19
385.112	85.19
385.337	95.19
385.562	103.19
385.787	111.19
386.013	99.19
386.238	129.19
386.463	90.19
386.688	102.19
386.913	96.19
387.138	99.19
387.363	104.19
387.588	90.19
387.813	107.19
388.038	102.19
388.263	102.19
388.488	104.19
388.713	100.19
388.938	104.19
389.163	99.19
389.387	89.19
389.612	80.19
389.837	87.19
390.062	85.19
390.287	104.19
390.512	84.19
390.736	96.19
390.961	100.19
391.186	102.19
391.411	92.19
391.636	87.19
391.86	83.19
392.085	86.19
392.31	85.19
392.534	95.19
392.759	91.19
392.984	98.19
393.208	76.19
393.433	91.19
393.658	88.19
393.882	92.19
394.107	88.19
394.331	82.19
394.556	95.19
394.78	85.19
395.005	91.19
395.229	82.19
395.454	95.19
395.678	93.19
395.903	88.19
396.127	90.19
396.352	89.19
396.576	82.19
396.801	83.19
397.025	90.19
397.249	90.19
397.474	94.19
397.698	87.19
397.922	81.19
398.147	97.19
398.371	87.19
398.595	90.19
398.82	81.19
399.044	83.19
399.268	82.19
399.492	86.19
399.717	76.19
399.941	98.19
400.165	102.19
400.389	89.19
400.613	98.19
400.837	103.19
401.062	97.19
401.286	75.19
401.51	103.19
401.734	76.19
401.958	94.19
402.182	122.19
402.406	136.19
402.63	102.19
402.854	84.19
403.078	92.19
403.302	87.19
403.526	84.19
403.75	75.19
403.974	67.19
404.198	79.19
404.422	92.19
404.645	93.19
404.869	92.19
405.093	105.19
405.317	117.19
405.541	95.19
405.765	88.19
405.988	107.19
406.212	147.19
406.436	182.19
406.66	109.19
406.883	84.19
407.107	82.19
407.331	80.19
407.555	91.19
407.778	100.19
408.002	81.19
408.226	91.19
408.449	89.19
408.673	95.19
408.896	89.19
409.12	88.19
409.344	82.19
409.567	98.19
409.791	82.19
410.014	101.19
410.238	85.19
410.461	81.19
410.685	107.19
410.908	98.19
411.132	109.19
411.355	77.19
411.578	75.19
411.802	91.19
412.025	84.19
412.249	92.19
412.472	89.19
412.695	94.19
412.919	87.19
413.142	80.19
413.365	88.19
413.589	87.19
413.812	87.19
414.035	86.19
414.258	92.19
414.482	99.19
414.705	102.19
414.928	96.19
415.151	98.19
415.374	118.19
415.597	83.19
415.821	75.19
416.044	90.19
416.267	94.19
416.49	84.19
416.713	85.19
416.936	86.19
417.159	90.19
417.382	96.19
417.605	96.19
417.828	94.19
418.051	79.19
418.274	88.19
418.497	86.19
418.72	80.19
418.943	83.19
419.166	85.19
419.389	84.19
419.611	99.19
419.834	100.19
420.057	90.19
420.28	90.19
420.503	101.19
420.726	88.19
420.948	84.19
421.171	100.19
421.394	98.19
421.617	86.19
421.839	78.19
422.062	83.19
422.285	89.19
422.507	88.19
422.73	95.19
422.953	93.19
423.175	89.19
423.398	88.19
423.621	85.19
423.843	72.19
424.066	87.19
424.288	101.19
424.511	94.19
424.733	101.19
424.956	85.19
425.178	97.19
425.401	86.19
425.623	103.19
425.846	86.19
426.068	81.19
426.291	103.19
426.513	102.19
426.735	99.19
426.958	96.19
427.18	85.19
427.402	109.19
427.625	146.19
427.847	126.19
428.069	113.19
428.292	80.19
428.514	88.19
428.736	93.19
428.958	85.19
429.181	74.19
429.403	75.19
429.625	87.19
429.847	81.19
430.069	95.19
430.292	83.19
430.514	93.19
430.736	94.19
430.958	79.19
431.18	80.19
431.402	76.19
431.624	64.19
431.846	82.19
432.068	88.19
432.29	80.19
432.512	96.19
432.734	78.19
432.956	91.19
433.178	76.19
433.4	89.19
433.622	106.19
433.844	91.19
434.066	99.19
434.287	91.19
434.509	87.19
434.731	75.19
434.953	80.19
435.175	76.19
435.397	90.19
435.618	81.19
435.84	93.19
436.062	100.19
436.284	93.19
436.505	96.19
436.727	83.19
436.949	86.19
437.17	84.19
437.392	73.19
437.614	86.19
437.835	105.19
438.057	108.19
438.278	94.19
438.5	80.19
438.721	92.19
438.943	99.19
439.165	91.19
439.386	74.19
439.608	81.19
439.829	86.19
440.05	108.19
440.272	126.19
440.493	79.19
440.715	97.19
440.936	78.19
441.158	86.19
441.379	94.19
441.6	87.19
441.822	84.19
442.043	82.19
442.264	105.19
442.486	98.19
442.707	96.19
442.928	84.19
443.149	125.19
443.371	110.19
443.592	113.19
443.813	99.19
444.034	94.19
444.255	91.19
444.476	92.19
444.698	76.19
444.919	70.19
445.14	124.19
445.361	124.19
445.582	102.19
445.803	129.19
446.024	125.19
446.245	121.19
446.466	100.19
446.687	94.19
446.908	98.19
447.129	86.19
447.35	82.19
447.571	99.19
447.792	78.19
448.013	87.19
448.234	98.19
448.455	86.19
448.675	104.19
448.896	90.19
449.117	91.19
449.338	100.19
449.559	107.19
449.779	104.19
450	87.19
450.221	100.19
450.442	100.19
450.662	93.19
450.883	99.19
451.104	77.19
451.324	82.19
451.545	95.19
451.766	77.19
451.986	97.19
452.207	93.19
452.428	89.19
452.648	103.19
452.869	102.19
453.089	99.19
453.31	118.19
453.53	86.19
453.751	90.19
453.971	97.19
454.192	108.19
454.412	84.19
454.633	91.19
454.853	91.19
455.073	92.19
455.294	79.19
455.514	95.19
455.734	94.19
455.955	99.19
456.175	82.19
456.395	89.19
456.616	80.19
456.836	88.19
457.056	83.19
457.276	99.19
457.497	80.19
457.717	83.19
457.937	77.19
458.157	84.19
458.377	81.19
458.598	103.19
458.818	120.19
459.038	133.19
459.258	99.19
459.478	98.19
459.698	75.19
459.918	86.19
460.138	90.19
460.358	87.19
460.578	80.19
460.798	87.19
461.018	82.19
461.238	87.19
461.458	84.19
461.678	79.19
461.898	84.19
462.118	74.19
462.338	92.19
462.558	104.19
462.777	96.19
462.997	69.19
463.217	90.19
463.437	92.19
463.657	93.19
463.876	88.19
464.096	106.19
464.316	76.19
464.536	82.19
464.755	78.19
464.975	83.19
465.195	123.19
465.414	119.19
465.634	88.19
465.854	98.19
466.073	93.19
466.293	89.19
466.512	72.19
466.732	80.19
466.951	86.19
467.171	103.19
467.391	72.19
467.61	102.19
467.829	90.19
468.049	158.19
468.268	159.19
468.488	105.19
468.707	80.19
468.927	89.19
469.146	86.19
469.365	85.19
469.585	100.19
469.804	88.19
470.023	100.19
470.243	85.19
470.462	84.19
470.681	94.19
470.901	82.19
471.12	76.19
471.339	76.19
471.558	80.19
471.777	82.19
471.997	110.19
472.216	220.19
472.435	371.19
472.654	144.19
472.873	90.19
473.092	101.19
473.311	82.19
473.53	93.19
473.749	87.19
473.968	100.19
474.187	103.19
474.406	102.19
474.625	93.19
474.844	87.19
475.063	94.19
475.282	82.19
475.501	95.19
475.72	88.19
475.939	88.19
476.158	95.19
476.377	79.19
476.596	88.19
476.814	91.19
477.033	93.19
477.252	86.19
477.471	95.19
477.69	75.19
477.908	94.19
478.127	80.19
478.346	74.19
478.564	94.19
478.783	88.19
479.002	87.19
479.22	73.19
479.439	93.19
479.658	95.19
479.876	99.19
480.095	96.19
480.313	100.19
480.532	105.19
480.751	116.19
480.969	214.19
481.188	600.19
481.406	376.19
481.624	118.19
481.843	105.19
482.061	93.19
482.28	79.19
482.498	80.19
482.717	91.19
482.935	91.19
483.153	85.19
483.372	88.19
483.59	80.19
483.808	92.19
484.027	97.19
484.245	84.19
484.463	97.19
484.681	98.19
484.9	102.19
485.118	98.19
485.336	98.19
485.554	91.19
485.772	90.19
485.99	109.19
486.209	99.19
486.427	107.19
486.645	107.19
486.863	112.19
487.081	112.19
487.299	101.19
487.517	82.19
487.735	84.19
487.953	80.19
488.171	97.19
488.389	98.19
488.607	95.19
488.825	90.19
489.043	79.19
489.261	87.19
489.479	99.19
489.696	79.19
489.914	83.19
490.132	87.19
490.35	82.19
490.568	76.19
490.786	84.19
491.003	95.19
491.221	90.19
491.439	94.19
491.657	98.19
491.874	97.19
492.092	88.19
492.31	94.19
492.527	99.19
492.745	92.19
492.963	87.19
493.18	97.19
493.398	94.19
493.615	90.19
493.833	84.19
494.05	95.19
494.268	91.19
494.485	85.19
494.703	88.19
494.92	82.19
495.138	98.19
495.355	90.19
495.573	79.19
495.79	84.19
496.008	87.19
496.225	102.19
496.442	82.19
496.66	89.19
496.877	82.19
497.094	98.19
497.312	94.19
497.529	79.19
497.746	92.19
497.963	92.19
498.181	95.19
498.398	99.19
498.615	102.19
498.832	94.19
499.049	89.19
499.267	88.19
499.484	82.19
499.701	74.19
499.918	85.19
500.135	73.19
500.352	84.19
500.569	72.19
500.786	86.19
501.003	82.19
501.22	98.19
501.437	82.19
501.654	90.19
501.871	102.19
502.088	82.19
502.305	88.19
502.522	85.19
502.739	76.19
502.956	94.19
503.172	82.19
503.389	72.19
503.606	88.19
503.823	83.19
504.04	85.19
504.256	96.19
504.473	84.19
504.69	90.19
504.907	98.19
505.123	92.19
505.34	89.19
505.557	94.19
505.773	88.19
505.99	83.19
506.207	78.19
506.423	104.19
506.64	80.19
506.856	95.19
507.073	72.19
507.289	91.19
507.506	86.19
507.722	88.19
507.939	99.19
508.155	94.19
508.372	91.19
508.588	92.19
508.805	97.19
509.021	97.19
509.238	108.19
509.454	100.19
509.67	98.19
509.887	95.19
510.103	109.19
510.319	183.19
510.536	575.19
510.752	1714.19
510.968	480.19
511.184	132.19
511.401	106.19
511.617	94.19
511.833	107.19
512.049	86.19
512.265	75.19
512.481	80.19
512.698	92.19
512.914	92.19
513.13	86.19
513.346	102.19
513.562	71.19
513.778	105.19
513.994	85.19
514.21	88.19
514.426	103.19
514.642	119.19
514.858	108.19
515.074	147.19
515.29	337.19
515.506	1027.19
515.721	375.19
515.937	116.19
516.153	106.19
516.369	100.19
516.585	87.19
516.801	84.19
