Data from Circ_1983_H10_HRD10591_00010.txt Node
Date: Wed Jan 03 12:26:46 EST 2024
User: Yrep
Spectrometer: HR+D1059
Trigger mode: 1
Integration Time (sec): 1.000000E-1
Scans to average: 1
Electric dark correction enabled: true
Nonlinearity correction enabled: false
Boxcar width: 0
XAxis mode: Wavelengths
Number of Pixels in Spectrum: 2048
>>>>>Begin Spectral Data<<<<<
223.165	-17.5
223.4	-17.5
223.635	-17.5
223.869	-22.5
224.104	-6.5
224.338	-15.5
224.573	-4.5
224.808	-2.5
225.042	-5.5
225.277	0.5
225.511	-10.5
225.746	6.5
225.98	5.5
226.215	9.5
226.449	4.5
226.683	7.5
226.918	24.5
227.152	26.5
227.387	21.5
227.621	36.5
227.856	61.5
228.09	54.5
228.324	56.5
228.559	56.5
228.793	69.5
229.027	73.5
229.262	82.5
229.496	66.5
229.73	83.5
229.964	77.5
230.199	94.5
230.433	74.5
230.667	81.5
230.901	85.5
231.136	70.5
231.37	83.5
231.604	81.5
231.838	86.5
232.072	76.5
232.306	86.5
232.541	82.5
232.775	77.5
233.009	71.5
233.243	82.5
233.477	97.5
233.711	84.5
233.945	93.5
234.179	81.5
234.413	85.5
234.647	88.5
234.881	75.5
235.115	71.5
235.349	72.5
235.583	89.5
235.817	86.5
236.051	80.5
236.285	93.5
236.519	78.5
236.753	76.5
236.987	77.5
237.221	82.5
237.455	91.5
237.689	86.5
237.922	76.5
238.156	59.5
238.39	70.5
238.624	88.5
238.858	68.5
239.091	72.5
239.325	66.5
239.559	62.5
239.793	85.5
240.027	91.5
240.26	69.5
240.494	84.5
240.728	81.5
240.961	65.5
241.195	76.5
241.429	72.5
241.662	87.5
241.896	82.5
242.13	80.5
242.363	71.5
242.597	92.5
242.83	89.5
243.064	84.5
243.298	81.5
243.531	83.5
243.765	69.5
243.998	66.5
244.232	77.5
244.465	84.5
244.699	87.5
244.932	83.5
245.166	79.5
245.399	79.5
245.633	77.5
245.866	81.5
246.099	73.5
246.333	65.5
246.566	94.5
246.8	84.5
247.033	88.5
247.266	69.5
247.5	70.5
247.733	83.5
247.966	73.5
248.2	90.5
248.433	91.5
248.666	72.5
248.899	82.5
249.133	79.5
249.366	73.5
249.599	93.5
249.832	76.5
250.066	85.5
250.299	87.5
250.532	81.5
250.765	78.5
250.998	72.5
251.231	82.5
251.465	82.5
251.698	84.5
251.931	90.5
252.164	83.5
252.397	82.5
252.63	75.5
252.863	88.5
253.096	85.5
253.329	72.5
253.562	83.5
253.795	75.5
254.028	100.5
254.261	93.5
254.494	77.5
254.727	82.5
254.96	71.5
255.193	80.5
255.426	93.5
255.659	81.5
255.892	73.5
256.124	84.5
256.357	72.5
256.59	83.5
256.823	80.5
257.056	58.5
257.289	78.5
257.521	84.5
257.754	78.5
257.987	84.5
258.22	83.5
258.452	78.5
258.685	77.5
258.918	89.5
259.151	92.5
259.383	95.5
259.616	76.5
259.849	96.5
260.081	71.5
260.314	67.5
260.547	82.5
260.779	75.5
261.012	90.5
261.244	76.5
261.477	70.5
261.71	91.5
261.942	108.5
262.175	110.5
262.407	84.5
262.64	86.5
262.872	89.5
263.105	85.5
263.337	86.5
263.57	100.5
263.802	70.5
264.035	88.5
264.267	96.5
264.499	83.5
264.732	84.5
264.964	71.5
265.197	75.5
265.429	76.5
265.661	82.5
265.894	74.5
266.126	78.5
266.358	72.5
266.591	84.5
266.823	92.5
267.055	85.5
267.287	70.5
267.52	85.5
267.752	89.5
267.984	95.5
268.216	90.5
268.448	76.5
268.681	97.5
268.913	76.5
269.145	82.5
269.377	78.5
269.609	101.5
269.841	98.5
270.073	84.5
270.306	84.5
270.538	81.5
270.77	85.5
271.002	87.5
271.234	85.5
271.466	82.5
271.698	85.5
271.93	73.5
272.162	90.5
272.394	98.5
272.626	97.5
272.858	84.5
273.09	78.5
273.322	81.5
273.553	94.5
273.785	82.5
274.017	92.5
274.249	95.5
274.481	93.5
274.713	79.5
274.945	89.5
275.176	86.5
275.408	75.5
275.64	84.5
275.872	88.5
276.104	87.5
276.335	96.5
276.567	103.5
276.799	98.5
277.031	74.5
277.262	90.5
277.494	86.5
277.726	90.5
277.957	89.5
278.189	77.5
278.421	72.5
278.652	84.5
278.884	98.5
279.115	84.5
279.347	89.5
279.579	88.5
279.81	82.5
280.042	98.5
280.273	104.5
280.505	97.5
280.736	97.5
280.968	90.5
281.199	81.5
281.431	77.5
281.662	68.5
281.894	71.5
282.125	93.5
282.356	116.5
282.588	126.5
282.819	124.5
283.051	91.5
283.282	80.5
283.513	85.5
283.745	89.5
283.976	83.5
284.207	88.5
284.439	87.5
284.67	97.5
284.901	90.5
285.132	92.5
285.364	80.5
285.595	96.5
285.826	84.5
286.057	88.5
286.288	86.5
286.52	85.5
286.751	91.5
286.982	85.5
287.213	90.5
287.444	76.5
287.675	81.5
287.906	85.5
288.138	81.5
288.369	93.5
288.6	84.5
288.831	97.5
289.062	95.5
289.293	91.5
289.524	97.5
289.755	85.5
289.986	100.5
290.217	99.5
290.448	84.5
290.679	86.5
290.91	90.5
291.141	86.5
291.371	85.5
291.602	73.5
291.833	72.5
292.064	89.5
292.295	93.5
292.526	82.5
292.757	97.5
292.987	89.5
293.218	79.5
293.449	89.5
293.68	91.5
293.91	81.5
294.141	103.5
294.372	89.5
294.603	92.5
294.833	84.5
295.064	90.5
295.295	91.5
295.525	80.5
295.756	84.5
295.987	112.5
296.217	119.5
296.448	122.5
296.679	93.5
296.909	99.5
297.14	85.5
297.37	89.5
297.601	77.5
297.831	99.5
298.062	91.5
298.292	80.5
298.523	100.5
298.753	77.5
298.984	101.5
299.214	85.5
299.445	91.5
299.675	85.5
299.905	92.5
300.136	84.5
300.366	92.5
300.597	96.5
300.827	96.5
301.057	91.5
301.288	81.5
301.518	96.5
301.748	83.5
301.979	96.5
302.209	102.5
302.439	70.5
302.669	78.5
302.9	89.5
303.13	94.5
303.36	96.5
303.59	88.5
303.82	90.5
304.051	93.5
304.281	85.5
304.511	90.5
304.741	77.5
304.971	70.5
305.201	87.5
305.431	92.5
305.661	87.5
305.891	96.5
306.121	81.5
306.352	102.5
306.582	94.5
306.812	89.5
307.042	82.5
307.272	100.5
307.502	85.5
307.731	100.5
307.961	90.5
308.191	80.5
308.421	85.5
308.651	98.5
308.881	103.5
309.111	97.5
309.341	87.5
309.571	103.5
309.8	98.5
310.03	97.5
310.26	99.5
310.49	90.5
310.72	98.5
310.949	96.5
311.179	91.5
311.409	92.5
311.639	89.5
311.868	95.5
312.098	88.5
312.328	80.5
312.557	90.5
312.787	94.5
313.017	105.5
313.246	86.5
313.476	83.5
313.706	92.5
313.935	83.5
314.165	87.5
314.394	94.5
314.624	88.5
314.853	106.5
315.083	95.5
315.312	80.5
315.542	107.5
315.771	94.5
316.001	101.5
316.23	93.5
316.46	96.5
316.689	84.5
316.919	94.5
317.148	97.5
317.377	92.5
317.607	91.5
317.836	109.5
318.065	96.5
318.295	94.5
318.524	86.5
318.753	99.5
318.983	106.5
319.212	104.5
319.441	104.5
319.67	112.5
319.9	101.5
320.129	91.5
320.358	98.5
320.587	105.5
320.816	101.5
321.046	90.5
321.275	98.5
321.504	100.5
321.733	95.5
321.962	97.5
322.191	106.5
322.42	106.5
322.649	114.5
322.878	105.5
323.108	105.5
323.337	106.5
323.566	106.5
323.795	130.5
324.024	171.5
324.253	308.5
324.482	624.5
324.71	1262.5
324.939	1680.5
325.168	637.5
325.397	208.5
325.626	150.5
325.855	120.5
326.084	114.5
326.313	102.5
326.542	134.5
326.77	202.5
326.999	359.5
327.228	757.5
327.457	1332.5
327.686	1062.5
327.914	274.5
328.143	165.5
328.372	125.5
328.6	123.5
328.829	115.5
329.058	104.5
329.287	116.5
329.515	108.5
329.744	115.5
329.972	99.5
330.201	113.5
330.43	130.5
330.658	125.5
330.887	135.5
331.115	121.5
331.344	100.5
331.572	106.5
331.801	94.5
332.03	95.5
332.258	88.5
332.486	96.5
332.715	104.5
332.943	106.5
333.172	91.5
333.4	105.5
333.629	100.5
333.857	103.5
334.085	109.5
334.314	115.5
334.542	148.5
334.771	136.5
334.999	100.5
335.227	99.5
335.455	99.5
335.684	91.5
335.912	104.5
336.14	91.5
336.369	102.5
336.597	103.5
336.825	102.5
337.053	97.5
337.281	93.5
337.51	84.5
337.738	88.5
337.966	93.5
338.194	89.5
338.422	96.5
338.65	102.5
338.878	88.5
339.106	93.5
339.334	101.5
339.562	90.5
339.79	82.5
340.018	84.5
340.246	101.5
340.474	100.5
340.702	88.5
340.93	88.5
341.158	78.5
341.386	94.5
341.614	91.5
341.842	84.5
342.07	92.5
342.298	92.5
342.526	92.5
342.754	102.5
342.981	79.5
343.209	90.5
343.437	97.5
343.665	84.5
343.893	91.5
344.12	100.5
344.348	94.5
344.576	92.5
344.804	97.5
345.031	97.5
345.259	99.5
345.487	98.5
345.714	93.5
345.942	91.5
346.17	101.5
346.397	97.5
346.625	94.5
346.853	92.5
347.08	96.5
347.308	88.5
347.535	89.5
347.763	89.5
347.99	102.5
348.218	92.5
348.445	98.5
348.673	96.5
348.9	96.5
349.128	105.5
349.355	101.5
349.583	96.5
349.81	88.5
350.037	104.5
350.265	110.5
350.492	91.5
350.72	96.5
350.947	96.5
351.174	108.5
351.402	109.5
351.629	93.5
351.856	103.5
352.083	105.5
352.311	111.5
352.538	119.5
352.765	115.5
352.992	113.5
353.22	111.5
353.447	102.5
353.674	101.5
353.901	97.5
354.128	85.5
354.355	88.5
354.583	91.5
354.81	100.5
355.037	115.5
355.264	107.5
355.491	92.5
355.718	93.5
355.945	105.5
356.172	104.5
356.399	88.5
356.626	95.5
356.853	84.5
357.08	92.5
357.307	104.5
357.534	94.5
357.761	94.5
357.988	114.5
358.215	113.5
358.441	98.5
358.668	113.5
358.895	113.5
359.122	90.5
359.349	98.5
359.576	86.5
359.802	104.5
360.029	109.5
360.256	107.5
360.483	96.5
360.709	99.5
360.936	103.5
361.163	95.5
361.39	90.5
361.616	99.5
361.843	89.5
362.07	92.5
362.296	93.5
362.523	88.5
362.749	103.5
362.976	92.5
363.203	100.5
363.429	94.5
363.656	84.5
363.882	84.5
364.109	70.5
364.335	75.5
364.562	92.5
364.788	86.5
365.015	86.5
365.241	75.5
365.468	92.5
365.694	89.5
365.92	110.5
366.147	100.5
366.373	82.5
366.599	91.5
366.826	101.5
367.052	86.5
367.278	93.5
367.505	93.5
367.731	101.5
367.957	74.5
368.184	72.5
368.41	92.5
368.636	110.5
368.862	100.5
369.089	102.5
369.315	95.5
369.541	109.5
369.767	106.5
369.993	86.5
370.219	94.5
370.445	72.5
370.672	87.5
370.898	102.5
371.124	86.5
371.35	85.5
371.576	93.5
371.802	101.5
372.028	88.5
372.254	86.5
372.48	97.5
372.706	91.5
372.932	95.5
373.158	94.5
373.384	91.5
373.61	93.5
373.835	98.5
374.061	105.5
374.287	101.5
374.513	100.5
374.739	88.5
374.965	94.5
375.191	98.5
375.416	84.5
375.642	94.5
375.868	92.5
376.094	102.5
376.319	84.5
376.545	105.5
376.771	94.5
376.997	103.5
377.222	91.5
377.448	95.5
377.674	101.5
377.899	98.5
378.125	97.5
378.35	87.5
378.576	96.5
378.802	97.5
379.027	94.5
379.253	97.5
379.478	106.5
379.704	101.5
379.929	112.5
380.155	116.5
380.38	94.5
380.606	108.5
380.831	107.5
381.057	100.5
381.282	116.5
381.507	120.5
381.733	112.5
381.958	100.5
382.184	106.5
382.409	115.5
382.634	128.5
382.86	105.5
383.085	112.5
383.31	132.5
383.535	123.5
383.761	109.5
383.986	128.5
384.211	112.5
384.436	99.5
384.662	115.5
384.887	132.5
385.112	130.5
385.337	135.5
385.562	120.5
385.787	116.5
386.013	140.5
386.238	135.5
386.463	122.5
386.688	132.5
386.913	134.5
387.138	107.5
387.363	118.5
387.588	111.5
387.813	119.5
388.038	130.5
388.263	162.5
388.488	148.5
388.713	115.5
388.938	107.5
389.163	105.5
389.387	97.5
389.612	98.5
389.837	88.5
390.062	97.5
390.287	96.5
390.512	77.5
390.736	93.5
390.961	93.5
391.186	93.5
391.411	81.5
391.636	105.5
391.86	87.5
392.085	84.5
392.31	100.5
392.534	82.5
392.759	100.5
392.984	100.5
393.208	110.5
393.433	167.5
393.658	127.5
393.882	87.5
394.107	86.5
394.331	91.5
394.556	93.5
394.78	85.5
395.005	82.5
395.229	96.5
395.454	84.5
395.678	93.5
395.903	84.5
396.127	85.5
396.352	101.5
396.576	109.5
396.801	103.5
397.025	141.5
397.249	109.5
397.474	98.5
397.698	91.5
397.922	93.5
398.147	85.5
398.371	89.5
398.595	84.5
398.82	92.5
399.044	90.5
399.268	75.5
399.492	96.5
399.717	101.5
399.941	86.5
400.165	100.5
400.389	97.5
400.613	78.5
400.837	86.5
401.062	100.5
401.286	80.5
401.51	76.5
401.734	80.5
401.958	103.5
402.182	97.5
402.406	117.5
402.63	105.5
402.854	104.5
403.078	93.5
403.302	86.5
403.526	97.5
403.75	84.5
403.974	88.5
404.198	88.5
404.422	101.5
404.645	90.5
404.869	84.5
405.093	93.5
405.317	85.5
405.541	91.5
405.765	98.5
405.988	104.5
406.212	137.5
406.436	188.5
406.66	137.5
406.883	105.5
407.107	98.5
407.331	93.5
407.555	96.5
407.778	88.5
408.002	94.5
408.226	72.5
408.449	91.5
408.673	95.5
408.896	106.5
409.12	101.5
409.344	96.5
409.567	95.5
409.791	91.5
410.014	91.5
410.238	100.5
410.461	102.5
410.685	111.5
410.908	94.5
411.132	113.5
411.355	103.5
411.578	86.5
411.802	87.5
412.025	88.5
412.249	99.5
412.472	89.5
412.695	93.5
412.919	83.5
413.142	86.5
413.365	84.5
413.589	98.5
413.812	104.5
414.035	94.5
414.258	86.5
414.482	85.5
414.705	92.5
414.928	93.5
415.151	88.5
415.374	93.5
415.597	84.5
415.821	101.5
416.044	101.5
416.267	100.5
416.49	109.5
416.713	96.5
416.936	98.5
417.159	97.5
417.382	98.5
417.605	86.5
417.828	102.5
418.051	110.5
418.274	98.5
418.497	96.5
418.72	98.5
418.943	82.5
419.166	84.5
419.389	90.5
419.611	87.5
419.834	93.5
420.057	92.5
420.28	84.5
420.503	91.5
420.726	103.5
420.948	93.5
421.171	96.5
421.394	92.5
421.617	97.5
421.839	86.5
422.062	68.5
422.285	87.5
422.507	97.5
422.73	100.5
422.953	104.5
423.175	92.5
423.398	109.5
423.621	88.5
423.843	91.5
424.066	74.5
424.288	73.5
424.511	97.5
424.733	101.5
424.956	99.5
425.178	84.5
425.401	93.5
425.623	94.5
425.846	107.5
426.068	96.5
426.291	110.5
426.513	85.5
426.735	89.5
426.958	74.5
427.18	106.5
427.402	123.5
427.625	125.5
427.847	107.5
428.069	122.5
428.292	87.5
428.514	78.5
428.736	74.5
428.958	83.5
429.181	85.5
429.403	101.5
429.625	75.5
429.847	94.5
430.069	102.5
430.292	93.5
430.514	90.5
430.736	88.5
430.958	83.5
431.18	100.5
431.402	97.5
431.624	75.5
431.846	82.5
432.068	84.5
432.29	96.5
432.512	87.5
432.734	94.5
432.956	103.5
433.178	108.5
433.4	88.5
433.622	85.5
433.844	89.5
434.066	97.5
434.287	92.5
434.509	91.5
434.731	92.5
434.953	76.5
435.175	65.5
435.397	84.5
435.618	80.5
435.84	94.5
436.062	95.5
436.284	96.5
436.505	92.5
436.727	100.5
436.949	94.5
437.17	78.5
437.392	92.5
437.614	82.5
437.835	99.5
438.057	109.5
438.278	100.5
438.5	86.5
438.721	93.5
438.943	92.5
439.165	86.5
439.386	88.5
439.608	90.5
439.829	104.5
440.05	107.5
440.272	115.5
440.493	95.5
440.715	80.5
440.936	95.5
441.158	80.5
441.379	92.5
441.6	100.5
441.822	70.5
442.043	83.5
442.264	99.5
442.486	106.5
442.707	91.5
442.928	93.5
443.149	122.5
443.371	119.5
443.592	110.5
443.813	104.5
444.034	95.5
444.255	87.5
444.476	90.5
444.698	77.5
444.919	86.5
445.14	133.5
445.361	114.5
445.582	108.5
445.803	109.5
446.024	126.5
446.245	126.5
446.466	112.5
446.687	75.5
446.908	83.5
447.129	88.5
447.35	90.5
447.571	88.5
447.792	97.5
448.013	89.5
448.234	105.5
448.455	96.5
448.675	106.5
448.896	113.5
449.117	97.5
449.338	85.5
449.559	119.5
449.779	125.5
450	87.5
450.221	97.5
450.442	99.5
450.662	71.5
450.883	96.5
451.104	87.5
451.324	113.5
451.545	97.5
451.766	86.5
451.986	75.5
452.207	84.5
452.428	78.5
452.648	85.5
452.869	86.5
453.089	104.5
453.31	103.5
453.53	89.5
453.751	105.5
453.971	99.5
454.192	88.5
454.412	93.5
454.633	94.5
454.853	88.5
455.073	70.5
455.294	92.5
455.514	107.5
455.734	85.5
455.955	83.5
456.175	87.5
456.395	92.5
456.616	86.5
456.836	77.5
457.056	86.5
457.276	73.5
457.497	75.5
457.717	91.5
457.937	82.5
458.157	85.5
458.377	89.5
458.598	96.5
458.818	122.5
459.038	142.5
459.258	96.5
459.478	84.5
459.698	77.5
459.918	98.5
460.138	88.5
460.358	84.5
460.578	85.5
460.798	77.5
461.018	80.5
461.238	91.5
461.458	89.5
461.678	96.5
461.898	78.5
462.118	76.5
462.338	94.5
462.558	88.5
462.777	81.5
462.997	86.5
463.217	85.5
463.437	102.5
463.657	97.5
463.876	84.5
464.096	87.5
464.316	103.5
464.536	67.5
464.755	92.5
464.975	96.5
465.195	129.5
465.414	135.5
465.634	92.5
465.854	78.5
466.073	99.5
466.293	98.5
466.512	89.5
466.732	89.5
466.951	89.5
467.171	84.5
467.391	86.5
467.61	97.5
467.829	76.5
468.049	93.5
468.268	105.5
468.488	95.5
468.707	88.5
468.927	90.5
469.146	75.5
469.365	70.5
469.585	85.5
469.804	84.5
470.023	94.5
470.243	85.5
470.462	98.5
470.681	108.5
470.901	106.5
471.12	88.5
471.339	88.5
471.558	87.5
471.777	87.5
471.997	91.5
472.216	114.5
472.435	138.5
472.654	100.5
472.873	94.5
473.092	91.5
473.311	81.5
473.53	91.5
473.749	81.5
473.968	102.5
474.187	87.5
474.406	99.5
474.625	92.5
474.844	88.5
475.063	94.5
475.282	87.5
475.501	83.5
475.72	88.5
475.939	75.5
476.158	81.5
476.377	83.5
476.596	94.5
476.814	100.5
477.033	86.5
477.252	85.5
477.471	87.5
477.69	92.5
477.908	87.5
478.127	90.5
478.346	80.5
478.564	93.5
478.783	94.5
479.002	85.5
479.22	97.5
479.439	102.5
479.658	81.5
479.876	82.5
480.095	101.5
480.313	107.5
480.532	96.5
480.751	99.5
480.969	110.5
481.188	206.5
481.406	151.5
481.624	88.5
481.843	91.5
482.061	99.5
482.28	100.5
482.498	95.5
482.717	94.5
482.935	91.5
483.153	92.5
483.372	75.5
483.59	105.5
483.808	96.5
484.027	88.5
484.245	92.5
484.463	97.5
484.681	103.5
484.9	94.5
485.118	88.5
485.336	100.5
485.554	92.5
485.772	112.5
485.99	104.5
486.209	111.5
486.427	110.5
486.645	114.5
486.863	102.5
487.081	110.5
487.299	93.5
487.517	92.5
487.735	88.5
487.953	88.5
488.171	89.5
488.389	104.5
488.607	90.5
488.825	99.5
489.043	76.5
489.261	101.5
489.479	81.5
489.696	97.5
489.914	84.5
490.132	85.5
490.35	95.5
490.568	92.5
490.786	88.5
491.003	102.5
491.221	91.5
491.439	101.5
491.657	105.5
491.874	100.5
492.092	95.5
492.31	91.5
492.527	89.5
492.745	84.5
492.963	101.5
493.18	105.5
493.398	98.5
493.615	89.5
493.833	97.5
494.05	89.5
494.268	78.5
494.485	89.5
494.703	101.5
494.92	86.5
495.138	96.5
495.355	87.5
495.573	87.5
495.79	100.5
496.008	88.5
496.225	80.5
496.442	87.5
496.66	93.5
496.877	78.5
497.094	89.5
497.312	84.5
497.529	97.5
497.746	91.5
497.963	85.5
498.181	93.5
498.398	89.5
498.615	111.5
498.832	100.5
499.049	75.5
499.267	95.5
499.484	84.5
499.701	93.5
499.918	92.5
500.135	84.5
500.352	88.5
500.569	89.5
500.786	101.5
501.003	84.5
501.22	92.5
501.437	90.5
501.654	82.5
501.871	94.5
502.088	107.5
502.305	90.5
502.522	92.5
502.739	75.5
502.956	86.5
503.172	96.5
503.389	87.5
503.606	94.5
503.823	81.5
504.04	90.5
504.256	102.5
504.473	84.5
504.69	91.5
504.907	87.5
505.123	91.5
505.34	88.5
505.557	99.5
505.773	93.5
505.99	83.5
506.207	95.5
506.423	77.5
506.64	82.5
506.856	92.5
507.073	83.5
507.289	101.5
507.506	109.5
507.722	97.5
507.939	88.5
508.155	92.5
508.372	85.5
508.588	93.5
508.805	93.5
509.021	92.5
509.238	94.5
509.454	93.5
509.67	110.5
509.887	116.5
510.103	113.5
510.319	174.5
510.536	585.5
510.752	1685.5
510.968	495.5
511.184	132.5
511.401	102.5
511.617	104.5
511.833	91.5
512.049	85.5
512.265	88.5
512.481	90.5
512.698	84.5
512.914	80.5
513.13	85.5
513.346	89.5
513.562	96.5
513.778	96.5
513.994	100.5
514.21	97.5
514.426	101.5
514.642	118.5
514.858	116.5
515.074	141.5
515.29	332.5
515.506	1012.5
515.721	384.5
515.937	120.5
516.153	112.5
516.369	107.5
516.585	81.5
516.801	95.5
517.016	90.5
517.232	93.5
517.448	82.5
517.664	78.5
517.879	92.5
518.095	100.5
518.311	91.5
518.527	97.5
518.742	92.5
518.958	88.5
519.173	89.5
519.389	91.5
519.605	97.5
519.82	99.5
520.036	96.5
520.251	112.5
520.467	84.5
520.682	91.5
520.898	91.5
521.113	117.5
521.329	127.5
521.544	176.5
521.76	405.5
521.975	1605.5
522.19	963.5
522.406	225.5
522.621	116.5
522.836	101.5
523.052	100.5
523.267	105.5
523.482	103.5
523.698	86.5
523.913	116.5
524.128	89.5
524.343	97.5
524.559	92.5
524.774	96.5
524.989	93.5
525.204	88.5
525.419	96.5
525.634	92.5
525.849	101.5
526.064	98.5
526.28	99.5
526.495	90.5
526.71	95.5
526.925	91.5
527.14	91.5
527.355	87.5
527.57	94.5
527.785	81.5
527.999	86.5
528.214	82.5
528.429	107.5
528.644	98.5
528.859	86.5
529.074	104.5
529.289	108.5
529.503	157.5
529.718	97.5
529.933	95.5
530.148	84.5
530.363	93.5
530.577	84.5
530.792	104.5
531.007	94.5
531.221	80.5
531.436	101.5
531.651	84.5
531.865	72.5
532.08	88.5
532.295	94.5
532.509	88.5
532.724	109.5
532.938	98.5
533.153	82.5
533.367	96.5
533.582	74.5
533.796	81.5
534.011	84.5
534.225	95.5
534.44	109.5
534.654	93.5
534.868	92.5
