Data from Circ_1983_H10_HRD10591_00005.txt Node
Date: Wed Jan 03 12:26:45 EST 2024
User: Yrep
Spectrometer: HR+D1059
Trigger mode: 1
Integration Time (sec): 1.000000E-1
Scans to average: 1
Electric dark correction enabled: true
Nonlinearity correction enabled: false
Boxcar width: 0
XAxis mode: Wavelengths
Number of Pixels in Spectrum: 2048
>>>>>Begin Spectral Data<<<<<
223.165	-14.31
223.4	-14.31
223.635	-14.31
223.869	-29.31
224.104	-26.31
224.338	-5.31
224.573	-24.31
224.808	-15.31
225.042	3.69
225.277	-10.31
225.511	1.69
225.746	-2.31
225.98	9.69
226.215	12.69
226.449	17.69
226.683	25.69
226.918	35.69
227.152	20.69
227.387	23.69
227.621	18.69
227.856	39.69
228.09	49.69
228.324	43.69
228.559	51.69
228.793	60.69
229.027	64.69
229.262	53.69
229.496	70.69
229.73	65.69
229.964	81.69
230.199	65.69
230.433	82.69
230.667	53.69
230.901	71.69
231.136	70.69
231.37	79.69
231.604	82.69
231.838	82.69
232.072	77.69
232.306	80.69
232.541	86.69
232.775	74.69
233.009	71.69
233.243	66.69
233.477	85.69
233.711	82.69
233.945	72.69
234.179	80.69
234.413	81.69
234.647	85.69
234.881	75.69
235.115	76.69
235.349	70.69
235.583	74.69
235.817	72.69
236.051	84.69
236.285	68.69
236.519	80.69
236.753	75.69
236.987	61.69
237.221	66.69
237.455	79.69
237.689	64.69
237.922	71.69
238.156	73.69
238.39	58.69
238.624	74.69
238.858	76.69
239.091	66.69
239.325	81.69
239.559	76.69
239.793	80.69
240.027	74.69
240.26	55.69
240.494	64.69
240.728	75.69
240.961	64.69
241.195	64.69
241.429	64.69
241.662	81.69
241.896	67.69
242.13	63.69
242.363	59.69
242.597	70.69
242.83	86.69
243.064	71.69
243.298	72.69
243.531	71.69
243.765	70.69
243.998	77.69
244.232	59.69
244.465	81.69
244.699	64.69
244.932	70.69
245.166	81.69
245.399	68.69
245.633	63.69
245.866	67.69
246.099	85.69
246.333	69.69
246.566	72.69
246.8	75.69
247.033	90.69
247.266	77.69
247.5	78.69
247.733	69.69
247.966	67.69
248.2	67.69
248.433	77.69
248.666	79.69
248.899	76.69
249.133	80.69
249.366	87.69
249.599	87.69
249.832	81.69
250.066	86.69
250.299	66.69
250.532	66.69
250.765	81.69
250.998	75.69
251.231	82.69
251.465	76.69
251.698	77.69
251.931	77.69
252.164	70.69
252.397	55.69
252.63	79.69
252.863	79.69
253.096	69.69
253.329	70.69
253.562	82.69
253.795	80.69
254.028	78.69
254.261	90.69
254.494	79.69
254.727	70.69
254.96	75.69
255.193	82.69
255.426	74.69
255.659	70.69
255.892	69.69
256.124	71.69
256.357	83.69
256.59	62.69
256.823	78.69
257.056	78.69
257.289	78.69
257.521	77.69
257.754	84.69
257.987	60.69
258.22	85.69
258.452	67.69
258.685	59.69
258.918	86.69
259.151	86.69
259.383	82.69
259.616	75.69
259.849	76.69
260.081	81.69
260.314	65.69
260.547	71.69
260.779	81.69
261.012	79.69
261.244	78.69
261.477	84.69
261.71	79.69
261.942	95.69
262.175	100.69
262.407	83.69
262.64	62.69
262.872	80.69
263.105	78.69
263.337	71.69
263.57	76.69
263.802	95.69
264.035	62.69
264.267	81.69
264.499	69.69
264.732	78.69
264.964	79.69
265.197	69.69
265.429	72.69
265.661	77.69
265.894	74.69
266.126	75.69
266.358	70.69
266.591	71.69
266.823	90.69
267.055	84.69
267.287	74.69
267.52	81.69
267.752	78.69
267.984	69.69
268.216	76.69
268.448	80.69
268.681	96.69
268.913	75.69
269.145	64.69
269.377	71.69
269.609	90.69
269.841	86.69
270.073	83.69
270.306	70.69
270.538	66.69
270.77	70.69
271.002	78.69
271.234	91.69
271.466	67.69
271.698	67.69
271.93	82.69
272.162	85.69
272.394	70.69
272.626	90.69
272.858	78.69
273.09	85.69
273.322	87.69
273.553	77.69
273.785	83.69
274.017	84.69
274.249	68.69
274.481	69.69
274.713	82.69
274.945	80.69
275.176	99.69
275.408	88.69
275.64	80.69
275.872	85.69
276.104	82.69
276.335	73.69
276.567	72.69
276.799	76.69
277.031	78.69
277.262	71.69
277.494	77.69
277.726	79.69
277.957	90.69
278.189	72.69
278.421	85.69
278.652	78.69
278.884	80.69
279.115	79.69
279.347	83.69
279.579	82.69
279.81	92.69
280.042	76.69
280.273	85.69
280.505	74.69
280.736	63.69
280.968	86.69
281.199	80.69
281.431	93.69
281.662	91.69
281.894	92.69
282.125	86.69
282.356	105.69
282.588	114.69
282.819	81.69
283.051	86.69
283.282	77.69
283.513	95.69
283.745	79.69
283.976	72.69
284.207	75.69
284.439	99.69
284.67	79.69
284.901	66.69
285.132	93.69
285.364	68.69
285.595	82.69
285.826	84.69
286.057	86.69
286.288	78.69
286.52	74.69
286.751	78.69
286.982	70.69
287.213	91.69
287.444	76.69
287.675	78.69
287.906	93.69
288.138	79.69
288.369	73.69
288.6	84.69
288.831	77.69
289.062	84.69
289.293	92.69
289.524	81.69
289.755	76.69
289.986	76.69
290.217	79.69
290.448	77.69
290.679	75.69
290.91	84.69
291.141	69.69
291.371	76.69
291.602	84.69
291.833	91.69
292.064	86.69
292.295	67.69
292.526	92.69
292.757	83.69
292.987	85.69
293.218	78.69
293.449	87.69
293.68	86.69
293.91	82.69
294.141	77.69
294.372	86.69
294.603	79.69
294.833	94.69
295.064	77.69
295.295	86.69
295.525	88.69
295.756	86.69
295.987	91.69
296.217	112.69
296.448	110.69
296.679	83.69
296.909	98.69
297.14	86.69
297.37	76.69
297.601	87.69
297.831	82.69
298.062	89.69
298.292	83.69
298.523	77.69
298.753	78.69
298.984	83.69
299.214	84.69
299.445	86.69
299.675	79.69
299.905	88.69
300.136	88.69
300.366	83.69
300.597	70.69
300.827	81.69
301.057	70.69
301.288	99.69
301.518	69.69
301.748	78.69
301.979	96.69
302.209	87.69
302.439	86.69
302.669	98.69
302.9	86.69
303.13	78.69
303.36	97.69
303.59	86.69
303.82	104.69
304.051	95.69
304.281	87.69
304.511	106.69
304.741	79.69
304.971	77.69
305.201	60.69
305.431	85.69
305.661	96.69
305.891	83.69
306.121	84.69
306.352	85.69
306.582	100.69
306.812	93.69
307.042	83.69
307.272	85.69
307.502	89.69
307.731	87.69
307.961	85.69
308.191	78.69
308.421	96.69
308.651	87.69
308.881	79.69
309.111	71.69
309.341	72.69
309.571	102.69
309.8	102.69
310.03	86.69
310.26	93.69
310.49	78.69
310.72	90.69
310.949	93.69
311.179	94.69
311.409	70.69
311.639	105.69
311.868	82.69
312.098	78.69
312.328	88.69
312.557	92.69
312.787	107.69
313.017	77.69
313.246	92.69
313.476	80.69
313.706	85.69
313.935	82.69
314.165	96.69
314.394	97.69
314.624	88.69
314.853	91.69
315.083	84.69
315.312	73.69
315.542	92.69
315.771	91.69
316.001	84.69
316.23	79.69
316.46	86.69
316.689	86.69
316.919	69.69
317.148	82.69
317.377	79.69
317.607	84.69
317.836	78.69
318.065	94.69
318.295	85.69
318.524	75.69
318.753	74.69
318.983	92.69
319.212	78.69
319.441	87.69
319.67	90.69
319.9	81.69
320.129	80.69
320.358	92.69
320.587	86.69
320.816	95.69
321.046	70.69
321.275	81.69
321.504	91.69
321.733	84.69
321.962	99.69
322.191	81.69
322.42	101.69
322.649	83.69
322.878	107.69
323.108	94.69
323.337	103.69
323.566	108.69
323.795	119.69
324.024	154.69
324.253	261.69
324.482	520.69
324.71	981.69
324.939	1274.69
325.168	502.69
325.397	182.69
325.626	123.69
325.855	108.69
326.084	106.69
326.313	110.69
326.542	119.69
326.77	162.69
326.999	287.69
327.228	572.69
327.457	1021.69
327.686	815.69
327.914	242.69
328.143	145.69
328.372	126.69
328.6	96.69
328.829	96.69
329.058	106.69
329.287	104.69
329.515	100.69
329.744	98.69
329.972	94.69
330.201	106.69
330.43	102.69
330.658	93.69
330.887	121.69
331.115	92.69
331.344	103.69
331.572	88.69
331.801	92.69
332.03	95.69
332.258	98.69
332.486	92.69
332.715	98.69
332.943	75.69
333.172	88.69
333.4	84.69
333.629	91.69
333.857	90.69
334.085	98.69
334.314	102.69
334.542	111.69
334.771	104.69
334.999	96.69
335.227	85.69
335.455	80.69
335.684	89.69
335.912	91.69
336.14	89.69
336.369	94.69
336.597	97.69
336.825	90.69
337.053	81.69
337.281	98.69
337.51	76.69
337.738	90.69
337.966	89.69
338.194	91.69
338.422	82.69
338.65	80.69
338.878	81.69
339.106	78.69
339.334	87.69
339.562	75.69
339.79	93.69
340.018	77.69
340.246	76.69
340.474	98.69
340.702	89.69
340.93	86.69
341.158	90.69
341.386	76.69
341.614	84.69
341.842	94.69
342.07	75.69
342.298	82.69
342.526	79.69
342.754	78.69
342.981	96.69
343.209	80.69
343.437	85.69
343.665	81.69
343.893	88.69
344.12	90.69
344.348	85.69
344.576	79.69
344.804	94.69
345.031	90.69
345.259	76.69
345.487	76.69
345.714	98.69
345.942	86.69
346.17	74.69
346.397	83.69
346.625	91.69
346.853	84.69
347.08	95.69
347.308	93.69
347.535	99.69
347.763	79.69
347.99	81.69
348.218	74.69
348.445	89.69
348.673	88.69
348.9	96.69
349.128	95.69
349.355	90.69
349.583	84.69
349.81	88.69
350.037	98.69
350.265	92.69
350.492	79.69
350.72	104.69
350.947	80.69
351.174	79.69
351.402	96.69
351.629	86.69
351.856	94.69
352.083	80.69
352.311	80.69
352.538	86.69
352.765	97.69
352.992	103.69
353.22	94.69
353.447	100.69
353.674	80.69
353.901	85.69
354.128	96.69
354.355	85.69
354.583	104.69
354.81	98.69
355.037	92.69
355.264	98.69
355.491	94.69
355.718	84.69
355.945	83.69
356.172	90.69
356.399	95.69
356.626	97.69
356.853	90.69
357.08	96.69
357.307	91.69
357.534	73.69
357.761	83.69
357.988	93.69
358.215	91.69
358.441	99.69
358.668	88.69
358.895	90.69
359.122	81.69
359.349	88.69
359.576	89.69
359.802	84.69
360.029	87.69
360.256	94.69
360.483	85.69
360.709	81.69
360.936	90.69
361.163	88.69
361.39	86.69
361.616	89.69
361.843	93.69
362.07	84.69
362.296	108.69
362.523	81.69
362.749	99.69
362.976	95.69
363.203	84.69
363.429	68.69
363.656	86.69
363.882	83.69
364.109	83.69
364.335	81.69
364.562	83.69
364.788	73.69
365.015	64.69
365.241	74.69
365.468	87.69
365.694	95.69
365.92	77.69
366.147	86.69
366.373	87.69
366.599	74.69
366.826	76.69
367.052	88.69
367.278	84.69
367.505	67.69
367.731	90.69
367.957	88.69
368.184	94.69
368.41	75.69
368.636	82.69
368.862	98.69
369.089	93.69
369.315	88.69
369.541	82.69
369.767	90.69
369.993	86.69
370.219	80.69
370.445	83.69
370.672	82.69
370.898	85.69
371.124	83.69
371.35	73.69
371.576	66.69
371.802	92.69
372.028	81.69
372.254	68.69
372.48	82.69
372.706	76.69
372.932	90.69
373.158	80.69
373.384	92.69
373.61	78.69
373.835	95.69
374.061	86.69
374.287	82.69
374.513	91.69
374.739	98.69
374.965	91.69
375.191	88.69
375.416	71.69
375.642	71.69
375.868	82.69
376.094	80.69
376.319	90.69
376.545	83.69
376.771	80.69
376.997	89.69
377.222	94.69
377.448	98.69
377.674	93.69
377.899	86.69
378.125	87.69
378.35	88.69
378.576	89.69
378.802	88.69
379.027	94.69
379.253	94.69
379.478	86.69
379.704	102.69
379.929	83.69
380.155	97.69
380.38	91.69
380.606	90.69
380.831	80.69
381.057	101.69
381.282	74.69
381.507	88.69
381.733	103.69
381.958	94.69
382.184	93.69
382.409	98.69
382.634	102.69
382.86	110.69
383.085	128.69
383.31	117.69
383.535	108.69
383.761	93.69
383.986	98.69
384.211	106.69
384.436	108.69
384.662	101.69
384.887	103.69
385.112	118.69
385.337	104.69
385.562	126.69
385.787	116.69
386.013	128.69
386.238	130.69
386.463	105.69
386.688	104.69
386.913	113.69
387.138	104.69
387.363	108.69
387.588	107.69
387.813	116.69
388.038	126.69
388.263	109.69
388.488	132.69
388.713	97.69
388.938	101.69
389.163	76.69
389.387	80.69
389.612	85.69
389.837	89.69
390.062	93.69
390.287	85.69
390.512	79.69
390.736	91.69
390.961	85.69
391.186	92.69
391.411	80.69
391.636	94.69
391.86	86.69
392.085	70.69
392.31	78.69
392.534	89.69
392.759	92.69
392.984	81.69
393.208	98.69
393.433	100.69
393.658	104.69
393.882	93.69
394.107	99.69
394.331	88.69
394.556	76.69
394.78	96.69
395.005	80.69
395.229	83.69
395.454	81.69
395.678	76.69
395.903	82.69
396.127	88.69
396.352	87.69
396.576	86.69
396.801	106.69
397.025	92.69
397.249	81.69
397.474	76.69
397.698	74.69
397.922	81.69
398.147	68.69
398.371	80.69
398.595	81.69
398.82	94.69
399.044	72.69
399.268	78.69
399.492	80.69
399.717	76.69
399.941	95.69
400.165	84.69
400.389	78.69
400.613	70.69
400.837	72.69
401.062	75.69
401.286	86.69
401.51	91.69
401.734	78.69
401.958	80.69
402.182	93.69
402.406	118.69
402.63	87.69
402.854	80.69
403.078	81.69
403.302	62.69
403.526	78.69
403.75	68.69
403.974	82.69
404.198	81.69
404.422	85.69
404.645	68.69
404.869	84.69
405.093	75.69
405.317	86.69
405.541	89.69
405.765	87.69
405.988	80.69
406.212	102.69
406.436	127.69
406.66	99.69
406.883	87.69
407.107	94.69
407.331	83.69
407.555	78.69
407.778	75.69
408.002	87.69
408.226	81.69
408.449	62.69
408.673	83.69
408.896	88.69
409.12	76.69
409.344	85.69
409.567	77.69
409.791	77.69
410.014	86.69
410.238	87.69
410.461	78.69
410.685	86.69
410.908	71.69
411.132	92.69
411.355	94.69
411.578	79.69
411.802	89.69
412.025	85.69
412.249	92.69
412.472	92.69
412.695	86.69
412.919	75.69
413.142	95.69
413.365	67.69
413.589	91.69
413.812	76.69
414.035	95.69
414.258	95.69
414.482	81.69
414.705	71.69
414.928	79.69
415.151	92.69
415.374	86.69
415.597	79.69
415.821	83.69
416.044	87.69
416.267	84.69
416.49	83.69
416.713	78.69
416.936	84.69
417.159	80.69
417.382	84.69
417.605	82.69
417.828	89.69
418.051	96.69
418.274	78.69
418.497	83.69
418.72	89.69
418.943	85.69
419.166	63.69
419.389	92.69
419.611	68.69
419.834	89.69
420.057	82.69
420.28	93.69
420.503	84.69
420.726	82.69
420.948	86.69
421.171	88.69
421.394	85.69
421.617	84.69
421.839	77.69
422.062	94.69
422.285	93.69
422.507	95.69
422.73	97.69
422.953	82.69
423.175	87.69
423.398	86.69
423.621	87.69
423.843	74.69
424.066	84.69
424.288	78.69
424.511	78.69
424.733	79.69
424.956	83.69
425.178	82.69
425.401	82.69
425.623	87.69
425.846	93.69
426.068	72.69
426.291	74.69
426.513	94.69
426.735	79.69
426.958	85.69
427.18	80.69
427.402	115.69
427.625	118.69
427.847	104.69
428.069	82.69
428.292	83.69
428.514	78.69
428.736	74.69
428.958	74.69
429.181	75.69
429.403	73.69
429.625	81.69
429.847	83.69
430.069	76.69
430.292	91.69
430.514	74.69
430.736	83.69
430.958	81.69
431.18	79.69
431.402	82.69
431.624	68.69
431.846	72.69
432.068	90.69
432.29	90.69
432.512	98.69
432.734	80.69
432.956	91.69
433.178	86.69
433.4	92.69
433.622	96.69
433.844	83.69
434.066	87.69
434.287	88.69
434.509	88.69
434.731	72.69
434.953	76.69
435.175	71.69
435.397	85.69
435.618	97.69
435.84	96.69
436.062	105.69
436.284	83.69
436.505	84.69
436.727	93.69
436.949	79.69
437.17	84.69
437.392	84.69
437.614	84.69
437.835	72.69
438.057	83.69
438.278	81.69
438.5	105.69
438.721	101.69
438.943	92.69
439.165	93.69
439.386	78.69
439.608	88.69
439.829	81.69
440.05	101.69
440.272	102.69
440.493	69.69
440.715	86.69
440.936	82.69
441.158	77.69
441.379	67.69
441.6	70.69
441.822	84.69
442.043	71.69
442.264	78.69
442.486	90.69
442.707	68.69
442.928	84.69
443.149	101.69
443.371	98.69
443.592	93.69
443.813	85.69
444.034	93.69
444.255	80.69
444.476	80.69
444.698	78.69
444.919	82.69
445.14	122.69
445.361	94.69
445.582	95.69
445.803	115.69
446.024	88.69
446.245	102.69
446.466	87.69
446.687	69.69
446.908	85.69
447.129	79.69
447.35	75.69
447.571	83.69
447.792	91.69
448.013	87.69
448.234	88.69
448.455	90.69
448.675	91.69
448.896	76.69
449.117	78.69
449.338	93.69
449.559	99.69
449.779	94.69
450	84.69
450.221	94.69
450.442	76.69
450.662	96.69
450.883	92.69
451.104	93.69
451.324	90.69
451.545	75.69
451.766	97.69
451.986	88.69
452.207	70.69
452.428	87.69
452.648	86.69
452.869	91.69
453.089	78.69
453.31	92.69
453.53	100.69
453.751	72.69
453.971	104.69
454.192	91.69
454.412	90.69
454.633	80.69
454.853	71.69
455.073	75.69
455.294	88.69
455.514	79.69
455.734	69.69
455.955	74.69
456.175	84.69
456.395	86.69
456.616	70.69
456.836	77.69
457.056	78.69
457.276	84.69
457.497	84.69
457.717	91.69
457.937	84.69
458.157	75.69
458.377	89.69
458.598	79.69
458.818	109.69
459.038	110.69
459.258	84.69
459.478	77.69
459.698	76.69
459.918	90.69
460.138	80.69
460.358	82.69
460.578	77.69
460.798	71.69
461.018	84.69
461.238	82.69
461.458	86.69
461.678	71.69
461.898	77.69
462.118	76.69
462.338	70.69
462.558	80.69
462.777	90.69
462.997	68.69
463.217	68.69
463.437	86.69
463.657	89.69
463.876	65.69
464.096	69.69
464.316	79.69
464.536	92.69
464.755	99.69
464.975	85.69
465.195	121.69
465.414	100.69
465.634	72.69
465.854	84.69
466.073	63.69
466.293	72.69
466.512	87.69
466.732	78.69
466.951	82.69
467.171	70.69
467.391	90.69
467.61	85.69
467.829	80.69
468.049	93.69
468.268	95.69
468.488	85.69
468.707	81.69
468.927	67.69
469.146	91.69
469.365	77.69
469.585	83.69
469.804	76.69
470.023	76.69
470.243	91.69
470.462	97.69
470.681	89.69
470.901	85.69
471.12	86.69
471.339	64.69
471.558	94.69
471.777	71.69
471.997	68.69
472.216	99.69
472.435	132.69
472.654	83.69
472.873	81.69
473.092	82.69
473.311	75.69
473.53	68.69
473.749	90.69
473.968	95.69
474.187	94.69
474.406	83.69
474.625	85.69
474.844	87.69
475.063	70.69
475.282	85.69
475.501	77.69
475.72	83.69
475.939	87.69
476.158	64.69
476.377	84.69
476.596	78.69
476.814	75.69
477.033	87.69
477.252	87.69
477.471	74.69
477.69	75.69
477.908	81.69
478.127	78.69
478.346	78.69
478.564	92.69
478.783	85.69
479.002	85.69
479.22	80.69
479.439	88.69
479.658	87.69
479.876	75.69
480.095	84.69
480.313	75.69
480.532	88.69
480.751	89.69
480.969	110.69
481.188	183.69
481.406	132.69
481.624	94.69
481.843	90.69
482.061	74.69
482.28	62.69
482.498	76.69
482.717	89.69
482.935	77.69
483.153	90.69
483.372	74.69
483.59	72.69
483.808	75.69
484.027	76.69
484.245	83.69
484.463	90.69
484.681	87.69
484.9	95.69
485.118	99.69
485.336	93.69
485.554	73.69
485.772	87.69
485.99	92.69
486.209	110.69
486.427	97.69
486.645	103.69
486.863	94.69
487.081	90.69
487.299	95.69
487.517	80.69
487.735	85.69
487.953	82.69
488.171	88.69
488.389	96.69
488.607	97.69
488.825	83.69
489.043	62.69
489.261	87.69
489.479	86.69
489.696	73.69
489.914	78.69
490.132	108.69
490.35	86.69
490.568	78.69
490.786	78.69
491.003	92.69
491.221	86.69
491.439	81.69
491.657	80.69
491.874	90.69
492.092	73.69
492.31	93.69
492.527	70.69
492.745	80.69
492.963	70.69
493.18	74.69
493.398	92.69
493.615	92.69
493.833	84.69
494.05	101.69
494.268	82.69
494.485	88.69
494.703	80.69
494.92	101.69
495.138	83.69
495.355	89.69
495.573	86.69
495.79	83.69
496.008	88.69
496.225	65.69
496.442	92.69
496.66	78.69
496.877	76.69
497.094	82.69
497.312	77.69
497.529	79.69
497.746	77.69
497.963	81.69
498.181	84.69
498.398	88.69
498.615	95.69
498.832	103.69
499.049	91.69
499.267	84.69
499.484	85.69
499.701	87.69
499.918	83.69
500.135	80.69
500.352	83.69
500.569	80.69
500.786	81.69
501.003	68.69
501.22	81.69
501.437	91.69
501.654	98.69
501.871	80.69
502.088	78.69
502.305	78.69
502.522	81.69
502.739	96.69
502.956	87.69
503.172	76.69
503.389	91.69
503.606	97.69
503.823	81.69
504.04	83.69
504.256	94.69
504.473	80.69
504.69	91.69
504.907	82.69
505.123	83.69
505.34	93.69
505.557	84.69
505.773	86.69
505.99	73.69
506.207	86.69
506.423	76.69
506.64	85.69
506.856	93.69
507.073	72.69
507.289	85.69
507.506	84.69
507.722	71.69
507.939	84.69
508.155	89.69
508.372	78.69
508.588	77.69
508.805	75.69
509.021	93.69
509.238	83.69
509.454	82.69
509.67	90.69
509.887	107.69
510.103	107.69
510.319	160.69
510.536	433.69
510.752	1234.69
510.968	366.69
511.184	112.69
511.401	99.69
511.617	90.69
511.833	83.69
512.049	83.69
512.265	68.69
512.481	90.69
512.698	76.69
512.914	75.69
513.13	95.69
513.346	80.69
513.562	77.69
513.778	69.69
513.994	92.69
514.21	85.69
514.426	91.69
514.642	100.69
514.858	96.69
515.074	128.69
515.29	248.69
515.506	704.69
515.721	286.69
515.937	110.69
516.153	82.69
516.369	75.69
516.585	82.69
516.801	79.69
517.016	92.69
517.232	101.69
517.448	78.69
517.664	89.69
517.879	87.69
518.095	82.69
518.311	80.69
