Data from Circ_1983_H10_HRD10591_00094.txt Node
Date: Wed Jan 03 12:27:03 EST 2024
User: Yrep
Spectrometer: HR+D1059
Trigger mode: 1
Integration Time (sec): 1.000000E-1
Scans to average: 1
Electric dark correction enabled: true
Nonlinearity correction enabled: false
Boxcar width: 0
XAxis mode: Wavelengths
Number of Pixels in Spectrum: 2048
>>>>>Begin Spectral Data<<<<<
223.165	-16.31
223.4	-16.31
223.635	-16.31
223.869	-11.31
224.104	-11.31
224.338	-14.31
224.573	-10.31
224.808	-17.31
225.042	-10.31
225.277	-6.31
225.511	-8.31
225.746	-1.31
225.98	2.69
226.215	18.69
226.449	22.69
226.683	22.69
226.918	14.69
227.152	25.69
227.387	34.69
227.621	40.69
227.856	35.69
228.09	44.69
228.324	59.69
228.559	55.69
228.793	55.69
229.027	69.69
229.262	72.69
229.496	61.69
229.73	72.69
229.964	71.69
230.199	74.69
230.433	71.69
230.667	80.69
230.901	77.69
231.136	75.69
231.37	76.69
231.604	81.69
231.838	78.69
232.072	93.69
232.306	88.69
232.541	86.69
232.775	97.69
233.009	75.69
233.243	73.69
233.477	82.69
233.711	84.69
233.945	88.69
234.179	99.69
234.413	83.69
234.647	75.69
234.881	88.69
235.115	85.69
235.349	68.69
235.583	76.69
235.817	89.69
236.051	74.69
236.285	89.69
236.519	77.69
236.753	70.69
236.987	81.69
237.221	80.69
237.455	96.69
237.689	91.69
237.922	82.69
238.156	60.69
238.39	74.69
238.624	71.69
238.858	85.69
239.091	69.69
239.325	94.69
239.559	91.69
239.793	68.69
240.027	87.69
240.26	58.69
240.494	69.69
240.728	69.69
240.961	74.69
241.195	91.69
241.429	77.69
241.662	59.69
241.896	84.69
242.13	74.69
242.363	65.69
242.597	75.69
242.83	84.69
243.064	76.69
243.298	77.69
243.531	68.69
243.765	75.69
243.998	74.69
244.232	78.69
244.465	82.69
244.699	79.69
244.932	77.69
245.166	70.69
245.399	80.69
245.633	84.69
245.866	92.69
246.099	76.69
246.333	71.69
246.566	88.69
246.8	74.69
247.033	89.69
247.266	74.69
247.5	80.69
247.733	76.69
247.966	88.69
248.2	71.69
248.433	90.69
248.666	82.69
248.899	78.69
249.133	88.69
249.366	100.69
249.599	86.69
249.832	88.69
250.066	93.69
250.299	81.69
250.532	84.69
250.765	94.69
250.998	78.69
251.231	84.69
251.465	80.69
251.698	87.69
251.931	98.69
252.164	91.69
252.397	84.69
252.63	83.69
252.863	85.69
253.096	92.69
253.329	75.69
253.562	82.69
253.795	74.69
254.028	92.69
254.261	73.69
254.494	75.69
254.727	76.69
254.96	74.69
255.193	84.69
255.426	87.69
255.659	85.69
255.892	68.69
256.124	84.69
256.357	85.69
256.59	67.69
256.823	82.69
257.056	90.69
257.289	76.69
257.521	99.69
257.754	80.69
257.987	80.69
258.22	81.69
258.452	88.69
258.685	74.69
258.918	87.69
259.151	64.69
259.383	73.69
259.616	90.69
259.849	96.69
260.081	84.69
260.314	92.69
260.547	89.69
260.779	86.69
261.012	81.69
261.244	80.69
261.477	75.69
261.71	87.69
261.942	109.69
262.175	126.69
262.407	93.69
262.64	84.69
262.872	78.69
263.105	66.69
263.337	80.69
263.57	73.69
263.802	88.69
264.035	92.69
264.267	89.69
264.499	87.69
264.732	83.69
264.964	90.69
265.197	88.69
265.429	96.69
265.661	84.69
265.894	67.69
266.126	83.69
266.358	78.69
266.591	84.69
266.823	88.69
267.055	85.69
267.287	78.69
267.52	79.69
267.752	76.69
267.984	94.69
268.216	109.69
268.448	80.69
268.681	95.69
268.913	83.69
269.145	77.69
269.377	90.69
269.609	78.69
269.841	83.69
270.073	86.69
270.306	85.69
270.538	91.69
270.77	82.69
271.002	94.69
271.234	83.69
271.466	90.69
271.698	73.69
271.93	94.69
272.162	82.69
272.394	82.69
272.626	86.69
272.858	80.69
273.09	91.69
273.322	85.69
273.553	88.69
273.785	87.69
274.017	88.69
274.249	86.69
274.481	97.69
274.713	92.69
274.945	80.69
275.176	91.69
275.408	92.69
275.64	85.69
275.872	87.69
276.104	96.69
276.335	90.69
276.567	88.69
276.799	105.69
277.031	88.69
277.262	89.69
277.494	89.69
277.726	88.69
277.957	89.69
278.189	85.69
278.421	85.69
278.652	73.69
278.884	83.69
279.115	92.69
279.347	84.69
279.579	94.69
279.81	103.69
280.042	99.69
280.273	94.69
280.505	101.69
280.736	112.69
280.968	88.69
281.199	90.69
281.431	85.69
281.662	100.69
281.894	88.69
282.125	90.69
282.356	109.69
282.588	120.69
282.819	108.69
283.051	85.69
283.282	99.69
283.513	91.69
283.745	106.69
283.976	74.69
284.207	87.69
284.439	92.69
284.67	99.69
284.901	100.69
285.132	97.69
285.364	77.69
285.595	93.69
285.826	74.69
286.057	88.69
286.288	90.69
286.52	74.69
286.751	82.69
286.982	88.69
287.213	78.69
287.444	94.69
287.675	80.69
287.906	93.69
288.138	90.69
288.369	96.69
288.6	89.69
288.831	92.69
289.062	90.69
289.293	92.69
289.524	90.69
289.755	97.69
289.986	84.69
290.217	86.69
290.448	93.69
290.679	72.69
290.91	79.69
291.141	89.69
291.371	89.69
291.602	105.69
291.833	88.69
292.064	82.69
292.295	77.69
292.526	97.69
292.757	94.69
292.987	82.69
293.218	93.69
293.449	76.69
293.68	85.69
293.91	90.69
294.141	98.69
294.372	90.69
294.603	84.69
294.833	90.69
295.064	91.69
295.295	88.69
295.525	89.69
295.756	93.69
295.987	105.69
296.217	124.69
296.448	128.69
296.679	89.69
296.909	96.69
297.14	93.69
297.37	87.69
297.601	74.69
297.831	89.69
298.062	84.69
298.292	96.69
298.523	85.69
298.753	103.69
298.984	74.69
299.214	76.69
299.445	88.69
299.675	90.69
299.905	99.69
300.136	84.69
300.366	91.69
300.597	94.69
300.827	103.69
301.057	89.69
301.288	114.69
301.518	100.69
301.748	78.69
301.979	91.69
302.209	78.69
302.439	101.69
302.669	76.69
302.9	98.69
303.13	84.69
303.36	93.69
303.59	101.69
303.82	106.69
304.051	92.69
304.281	87.69
304.511	94.69
304.741	92.69
304.971	92.69
305.201	90.69
305.431	98.69
305.661	88.69
305.891	91.69
306.121	85.69
306.352	89.69
306.582	89.69
306.812	94.69
307.042	101.69
307.272	97.69
307.502	92.69
307.731	100.69
307.961	89.69
308.191	82.69
308.421	96.69
308.651	83.69
308.881	84.69
309.111	94.69
309.341	102.69
309.571	94.69
309.8	91.69
310.03	89.69
310.26	98.69
310.49	96.69
310.72	115.69
310.949	101.69
311.179	92.69
311.409	89.69
311.639	84.69
311.868	88.69
312.098	100.69
312.328	85.69
312.557	87.69
312.787	97.69
313.017	96.69
313.246	99.69
313.476	87.69
313.706	110.69
313.935	95.69
314.165	104.69
314.394	102.69
314.624	93.69
314.853	97.69
315.083	104.69
315.312	89.69
315.542	78.69
315.771	84.69
316.001	90.69
316.23	103.69
316.46	84.69
316.689	83.69
316.919	95.69
317.148	99.69
317.377	96.69
317.607	83.69
317.836	84.69
318.065	80.69
318.295	91.69
318.524	86.69
318.753	98.69
318.983	90.69
319.212	101.69
319.441	98.69
319.67	108.69
319.9	100.69
320.129	104.69
320.358	102.69
320.587	86.69
320.816	100.69
321.046	109.69
321.275	100.69
321.504	93.69
321.733	90.69
321.962	100.69
322.191	103.69
322.42	103.69
322.649	101.69
322.878	108.69
323.108	93.69
323.337	121.69
323.566	124.69
323.795	135.69
324.024	174.69
324.253	299.69
324.482	594.69
324.71	1252.69
324.939	1617.69
325.168	612.69
325.397	200.69
325.626	137.69
325.855	98.69
326.084	111.69
326.313	116.69
326.542	126.69
326.77	214.69
326.999	346.69
327.228	706.69
327.457	1241.69
327.686	1024.69
327.914	311.69
328.143	200.69
328.372	176.69
328.6	147.69
328.829	110.69
329.058	112.69
329.287	151.69
329.515	110.69
329.744	116.69
329.972	130.69
330.201	205.69
330.43	262.69
330.658	177.69
330.887	129.69
331.115	119.69
331.344	88.69
331.572	106.69
331.801	96.69
332.03	94.69
332.258	100.69
332.486	92.69
332.715	100.69
332.943	108.69
333.172	89.69
333.4	103.69
333.629	119.69
333.857	123.69
334.085	154.69
334.314	208.69
334.542	329.69
334.771	288.69
334.999	145.69
335.227	105.69
335.455	92.69
335.684	85.69
335.912	110.69
336.14	98.69
336.369	102.69
336.597	105.69
336.825	93.69
337.053	92.69
337.281	95.69
337.51	90.69
337.738	93.69
337.966	88.69
338.194	83.69
338.422	90.69
338.65	84.69
338.878	100.69
339.106	94.69
339.334	92.69
339.562	91.69
339.79	86.69
340.018	86.69
340.246	92.69
340.474	91.69
340.702	89.69
340.93	88.69
341.158	74.69
341.386	89.69
341.614	77.69
341.842	97.69
342.07	94.69
342.298	82.69
342.526	82.69
342.754	84.69
342.981	89.69
343.209	96.69
343.437	102.69
343.665	93.69
343.893	114.69
344.12	88.69
344.348	80.69
344.576	84.69
344.804	89.69
345.031	97.69
345.259	82.69
345.487	89.69
345.714	98.69
345.942	99.69
346.17	91.69
346.397	89.69
346.625	106.69
346.853	98.69
347.08	84.69
347.308	86.69
347.535	99.69
347.763	81.69
347.99	99.69
348.218	100.69
348.445	85.69
348.673	94.69
348.9	89.69
349.128	108.69
349.355	88.69
349.583	96.69
349.81	92.69
350.037	90.69
350.265	86.69
350.492	98.69
350.72	84.69
350.947	124.69
351.174	106.69
351.402	115.69
351.629	113.69
351.856	100.69
352.083	78.69
352.311	109.69
352.538	110.69
352.765	110.69
352.992	113.69
353.22	114.69
353.447	97.69
353.674	98.69
353.901	96.69
354.128	87.69
354.355	85.69
354.583	92.69
354.81	91.69
355.037	94.69
355.264	108.69
355.491	97.69
355.718	108.69
355.945	101.69
356.172	83.69
356.399	87.69
356.626	86.69
356.853	95.69
357.08	87.69
357.307	100.69
357.534	83.69
357.761	109.69
357.988	104.69
358.215	88.69
358.441	104.69
358.668	105.69
358.895	88.69
359.122	94.69
359.349	99.69
359.576	97.69
359.802	85.69
360.029	94.69
360.256	102.69
360.483	90.69
360.709	77.69
360.936	91.69
361.163	81.69
361.39	94.69
361.616	91.69
361.843	91.69
362.07	98.69
362.296	106.69
362.523	102.69
362.749	90.69
362.976	88.69
363.203	83.69
363.429	96.69
363.656	82.69
363.882	86.69
364.109	95.69
364.335	82.69
364.562	77.69
364.788	72.69
365.015	114.69
365.241	92.69
365.468	103.69
365.694	86.69
365.92	102.69
366.147	90.69
366.373	86.69
366.599	92.69
366.826	91.69
367.052	98.69
367.278	94.69
367.505	87.69
367.731	97.69
367.957	89.69
368.184	87.69
368.41	92.69
368.636	102.69
368.862	117.69
369.089	105.69
369.315	85.69
369.541	96.69
369.767	93.69
369.993	93.69
370.219	89.69
370.445	92.69
370.672	87.69
370.898	102.69
371.124	89.69
371.35	85.69
371.576	84.69
371.802	89.69
372.028	80.69
372.254	91.69
372.48	96.69
372.706	85.69
372.932	87.69
373.158	85.69
373.384	83.69
373.61	94.69
373.835	88.69
374.061	88.69
374.287	87.69
374.513	89.69
374.739	107.69
374.965	86.69
375.191	88.69
375.416	75.69
375.642	93.69
375.868	83.69
376.094	84.69
376.319	96.69
376.545	90.69
376.771	96.69
376.997	95.69
377.222	86.69
377.448	80.69
377.674	94.69
377.899	78.69
378.125	80.69
378.35	88.69
378.576	80.69
378.802	91.69
379.027	98.69
379.253	103.69
379.478	86.69
379.704	99.69
379.929	106.69
380.155	84.69
380.38	86.69
380.606	90.69
380.831	81.69
381.057	95.69
381.282	96.69
381.507	95.69
381.733	89.69
381.958	108.69
382.184	89.69
382.409	96.69
382.634	90.69
382.86	102.69
383.085	105.69
383.31	100.69
383.535	109.69
383.761	85.69
383.986	98.69
384.211	101.69
384.436	102.69
384.662	101.69
384.887	93.69
385.112	97.69
385.337	112.69
385.562	100.69
385.787	110.69
386.013	111.69
386.238	106.69
386.463	94.69
386.688	100.69
386.913	103.69
387.138	96.69
387.363	85.69
387.588	99.69
387.813	98.69
388.038	112.69
388.263	107.69
388.488	100.69
388.713	93.69
388.938	99.69
389.163	100.69
389.387	103.69
389.612	101.69
389.837	89.69
390.062	95.69
390.287	92.69
390.512	80.69
390.736	93.69
390.961	82.69
391.186	92.69
391.411	97.69
391.636	88.69
391.86	88.69
392.085	93.69
392.31	87.69
392.534	86.69
392.759	86.69
392.984	89.69
393.208	93.69
393.433	105.69
393.658	101.69
393.882	87.69
394.107	85.69
394.331	101.69
394.556	102.69
394.78	99.69
395.005	92.69
395.229	94.69
395.454	80.69
395.678	94.69
395.903	81.69
396.127	99.69
396.352	84.69
396.576	81.69
396.801	99.69
397.025	98.69
397.249	88.69
397.474	84.69
397.698	85.69
397.922	78.69
398.147	86.69
398.371	84.69
398.595	90.69
398.82	87.69
399.044	80.69
399.268	90.69
399.492	84.69
399.717	99.69
399.941	82.69
400.165	94.69
400.389	88.69
400.613	93.69
400.837	90.69
401.062	85.69
401.286	91.69
401.51	91.69
401.734	87.69
401.958	97.69
402.182	109.69
402.406	136.69
402.63	106.69
402.854	89.69
403.078	105.69
403.302	90.69
403.526	85.69
403.75	101.69
403.974	85.69
404.198	102.69
404.422	85.69
404.645	88.69
404.869	98.69
405.093	109.69
405.317	105.69
405.541	106.69
405.765	105.69
405.988	116.69
406.212	123.69
406.436	174.69
406.66	130.69
406.883	97.69
407.107	96.69
407.331	91.69
407.555	95.69
407.778	81.69
408.002	101.69
408.226	85.69
408.449	88.69
408.673	77.69
408.896	96.69
409.12	95.69
409.344	74.69
409.567	90.69
409.791	92.69
410.014	97.69
410.238	83.69
410.461	104.69
410.685	92.69
410.908	76.69
411.132	104.69
411.355	88.69
411.578	82.69
411.802	96.69
412.025	93.69
412.249	100.69
412.472	91.69
412.695	101.69
412.919	93.69
413.142	91.69
413.365	86.69
413.589	91.69
413.812	89.69
414.035	82.69
414.258	96.69
414.482	87.69
414.705	96.69
414.928	85.69
415.151	94.69
415.374	87.69
415.597	90.69
415.821	101.69
416.044	92.69
416.267	82.69
416.49	92.69
416.713	82.69
416.936	91.69
417.159	74.69
417.382	82.69
417.605	94.69
417.828	100.69
418.051	86.69
418.274	101.69
418.497	86.69
418.72	89.69
418.943	101.69
419.166	86.69
419.389	93.69
419.611	86.69
419.834	104.69
420.057	104.69
420.28	99.69
420.503	99.69
420.726	81.69
420.948	82.69
421.171	98.69
421.394	89.69
421.617	80.69
421.839	89.69
422.062	89.69
422.285	95.69
422.507	97.69
422.73	110.69
422.953	74.69
423.175	92.69
423.398	97.69
423.621	84.69
423.843	87.69
424.066	86.69
424.288	92.69
424.511	85.69
424.733	100.69
424.956	80.69
425.178	92.69
425.401	92.69
425.623	88.69
425.846	87.69
426.068	97.69
426.291	101.69
426.513	95.69
426.735	87.69
426.958	81.69
427.18	96.69
427.402	107.69
427.625	129.69
427.847	129.69
428.069	140.69
428.292	110.69
428.514	78.69
428.736	92.69
428.958	96.69
429.181	84.69
429.403	82.69
429.625	82.69
429.847	96.69
430.069	91.69
430.292	88.69
430.514	89.69
430.736	69.69
430.958	79.69
431.18	87.69
431.402	85.69
431.624	69.69
431.846	90.69
432.068	90.69
432.29	72.69
432.512	78.69
432.734	91.69
432.956	92.69
433.178	85.69
433.4	90.69
433.622	90.69
433.844	90.69
434.066	91.69
434.287	99.69
434.509	90.69
434.731	115.69
434.953	101.69
435.175	90.69
435.397	89.69
435.618	88.69
435.84	91.69
436.062	107.69
436.284	98.69
436.505	92.69
436.727	104.69
436.949	90.69
437.17	81.69
437.392	74.69
437.614	86.69
437.835	96.69
438.057	117.69
438.278	96.69
438.5	88.69
438.721	105.69
438.943	93.69
439.165	92.69
439.386	86.69
439.608	97.69
439.829	109.69
440.05	109.69
440.272	132.69
440.493	104.69
440.715	87.69
440.936	70.69
441.158	82.69
441.379	85.69
441.6	98.69
441.822	84.69
442.043	90.69
442.264	97.69
442.486	108.69
442.707	92.69
442.928	105.69
443.149	109.69
443.371	101.69
443.592	89.69
443.813	99.69
444.034	99.69
444.255	89.69
444.476	88.69
444.698	84.69
444.919	84.69
445.14	127.69
445.361	126.69
445.582	105.69
445.803	123.69
446.024	124.69
446.245	121.69
446.466	102.69
446.687	92.69
446.908	94.69
447.129	69.69
447.35	85.69
447.571	86.69
447.792	89.69
448.013	98.69
448.234	100.69
448.455	106.69
448.675	111.69
448.896	102.69
449.117	96.69
449.338	88.69
449.559	122.69
449.779	118.69
450	89.69
450.221	87.69
450.442	92.69
450.662	86.69
450.883	84.69
451.104	89.69
451.324	90.69
451.545	71.69
451.766	70.69
451.986	82.69
452.207	93.69
452.428	87.69
452.648	91.69
452.869	88.69
453.089	83.69
453.31	84.69
453.53	84.69
453.751	102.69
453.971	102.69
454.192	106.69
454.412	88.69
454.633	86.69
454.853	84.69
455.073	84.69
455.294	89.69
455.514	93.69
455.734	90.69
455.955	84.69
456.175	89.69
456.395	77.69
456.616	78.69
456.836	90.69
457.056	86.69
457.276	69.69
457.497	89.69
457.717	78.69
457.937	90.69
458.157	92.69
458.377	90.69
458.598	85.69
458.818	98.69
459.038	130.69
459.258	104.69
459.478	84.69
459.698	83.69
459.918	96.69
460.138	89.69
460.358	87.69
460.578	77.69
460.798	72.69
461.018	91.69
461.238	87.69
461.458	90.69
461.678	82.69
461.898	71.69
462.118	82.69
462.338	82.69
462.558	78.69
462.777	90.69
462.997	95.69
463.217	85.69
463.437	92.69
463.657	100.69
463.876	92.69
464.096	96.69
464.316	88.69
464.536	83.69
464.755	90.69
464.975	87.69
465.195	129.69
465.414	145.69
465.634	101.69
465.854	90.69
466.073	97.69
466.293	84.69
466.512	76.69
466.732	94.69
466.951	74.69
467.171	93.69
467.391	89.69
467.61	102.69
467.829	107.69
468.049	152.69
468.268	164.69
468.488	98.69
468.707	87.69
468.927	88.69
469.146	83.69
469.365	90.69
469.585	91.69
469.804	99.69
470.023	88.69
470.243	83.69
470.462	85.69
470.681	109.69
470.901	82.69
471.12	82.69
471.339	78.69
471.558	83.69
471.777	113.69
471.997	121.69
472.216	232.69
472.435	418.69
472.654	150.69
472.873	103.69
473.092	84.69
473.311	101.69
473.53	84.69
473.749	92.69
473.968	93.69
474.187	99.69
474.406	93.69
474.625	106.69
474.844	94.69
475.063	76.69
475.282	90.69
475.501	80.69
475.72	100.69
475.939	85.69
476.158	86.69
476.377	92.69
476.596	90.69
476.814	80.69
477.033	90.69
477.252	89.69
477.471	87.69
477.69	96.69
477.908	75.69
478.127	96.69
478.346	99.69
478.564	85.69
478.783	102.69
479.002	85.69
479.22	82.69
479.439	106.69
479.658	104.69
479.876	93.69
480.095	92.69
480.313	96.69
480.532	98.69
480.751	121.69
480.969	244.69
481.188	728.69
481.406	459.69
481.624	119.69
481.843	99.69
482.061	94.69
482.28	75.69
482.498	95.69
482.717	100.69
482.935	101.69
483.153	94.69
483.372	97.69
483.59	91.69
483.808	78.69
484.027	91.69
484.245	93.69
484.463	92.69
484.681	97.69
484.9	94.69
485.118	95.69
485.336	93.69
485.554	100.69
485.772	96.69
485.99	108.69
486.209	110.69
486.427	106.69
486.645	105.69
486.863	112.69
487.081	92.69
487.299	93.69
487.517	99.69
487.735	96.69
487.953	95.69
488.171	94.69
488.389	95.69
488.607	106.69
488.825	107.69
489.043	88.69
489.261	68.69
489.479	95.69
489.696	86.69
489.914	86.69
490.132	91.69
490.35	113.69
490.568	99.69
490.786	93.69
491.003	86.69
491.221	103.69
491.439	84.69
491.657	92.69
491.874	92.69
492.092	98.69
492.31	84.69
492.527	93.69
492.745	88.69
492.963	87.69
493.18	81.69
493.398	90.69
493.615	95.69
493.833	83.69
494.05	84.69
494.268	84.69
494.485	92.69
494.703	93.69
494.92	94.69
495.138	82.69
495.355	93.69
495.573	89.69
495.79	93.69
496.008	93.69
496.225	86.69
496.442	78.69
496.66	86.69
496.877	84.69
497.094	84.69
497.312	95.69
497.529	91.69
497.746	94.69
497.963	94.69
498.181	96.69
498.398	101.69
498.615	115.69
498.832	107.69
499.049	86.69
499.267	96.69
499.484	96.69
499.701	84.69
499.918	101.69
500.135	92.69
500.352	88.69
500.569	79.69
500.786	103.69
501.003	92.69
501.22	103.69
501.437	91.69
501.654	87.69
501.871	97.69
502.088	94.69
502.305	95.69
502.522	104.69
502.739	91.69
502.956	90.69
503.172	100.69
503.389	88.69
503.606	89.69
503.823	85.69
504.04	98.69
504.256	104.69
504.473	76.69
504.69	89.69
504.907	90.69
505.123	94.69
505.34	83.69
505.557	84.69
505.773	92.69
505.99	90.69
506.207	91.69
506.423	98.69
506.64	90.69
506.856	92.69
507.073	102.69
507.289	97.69
507.506	104.69
507.722	108.69
507.939	98.69
508.155	100.69
508.372	89.69
508.588	94.69
508.805	97.69
509.021	97.69
509.238	94.69
509.454	90.69
509.67	96.69
509.887	107.69
510.103	115.69
510.319	174.69
510.536	597.69
510.752	1709.69
510.968	492.69
511.184	135.69
511.401	101.69
511.617	90.69
511.833	83.69
512.049	84.69
512.265	94.69
512.481	89.69
512.698	75.69
512.914	86.69
513.13	102.69
513.346	93.69
513.562	90.69
513.778	94.69
513.994	105.69
514.21	97.69
514.426	107.69
514.642	111.69
514.858	114.69
515.074	138.69
515.29	320.69
515.506	1027.69
515.721	386.69
515.937	139.69
