Data from Circ_1983_H10_HRD10591_00070.txt Node
Date: Wed Jan 03 12:26:58 EST 2024
User: Yrep
Spectrometer: HR+D1059
Trigger mode: 1
Integration Time (sec): 1.000000E-1
Scans to average: 1
Electric dark correction enabled: true
Nonlinearity correction enabled: false
Boxcar width: 0
XAxis mode: Wavelengths
Number of Pixels in Spectrum: 2048
>>>>>Begin Spectral Data<<<<<
223.165	-23.81
223.4	-23.81
223.635	-23.81
223.869	-19.81
224.104	-3.81
224.338	-21.81
224.573	-12.81
224.808	-10.81
225.042	-1.81
225.277	-11.81
225.511	6.19
225.746	2.19
225.98	13.19
226.215	7.19
226.449	1.19
226.683	10.19
226.918	33.19
227.152	33.19
227.387	29.19
227.621	44.19
227.856	36.19
228.09	50.19
228.324	59.19
228.559	48.19
228.793	56.19
229.027	68.19
229.262	80.19
229.496	66.19
229.73	82.19
229.964	89.19
230.199	81.19
230.433	81.19
230.667	86.19
230.901	70.19
231.136	68.19
231.37	77.19
231.604	81.19
231.838	68.19
232.072	84.19
232.306	69.19
232.541	72.19
232.775	73.19
233.009	74.19
233.243	90.19
233.477	80.19
233.711	93.19
233.945	88.19
234.179	71.19
234.413	88.19
234.647	74.19
234.881	82.19
235.115	89.19
235.349	86.19
235.583	63.19
235.817	77.19
236.051	74.19
236.285	83.19
236.519	86.19
236.753	68.19
236.987	86.19
237.221	85.19
237.455	94.19
237.689	69.19
237.922	76.19
238.156	78.19
238.39	91.19
238.624	90.19
238.858	74.19
239.091	77.19
239.325	61.19
239.559	80.19
239.793	68.19
240.027	77.19
240.26	92.19
240.494	80.19
240.728	81.19
240.961	89.19
241.195	71.19
241.429	65.19
241.662	81.19
241.896	80.19
242.13	85.19
242.363	79.19
242.597	80.19
242.83	75.19
243.064	73.19
243.298	73.19
243.531	77.19
243.765	67.19
243.998	76.19
244.232	72.19
244.465	83.19
244.699	78.19
244.932	73.19
245.166	81.19
245.399	78.19
245.633	90.19
245.866	74.19
246.099	81.19
246.333	84.19
246.566	72.19
246.8	74.19
247.033	70.19
247.266	69.19
247.5	79.19
247.733	85.19
247.966	80.19
248.2	82.19
248.433	91.19
248.666	79.19
248.899	99.19
249.133	74.19
249.366	95.19
249.599	92.19
249.832	87.19
250.066	82.19
250.299	88.19
250.532	72.19
250.765	91.19
250.998	91.19
251.231	85.19
251.465	87.19
251.698	80.19
251.931	85.19
252.164	70.19
252.397	91.19
252.63	80.19
252.863	82.19
253.096	90.19
253.329	78.19
253.562	89.19
253.795	94.19
254.028	86.19
254.261	74.19
254.494	96.19
254.727	87.19
254.96	82.19
255.193	84.19
255.426	92.19
255.659	84.19
255.892	99.19
256.124	88.19
256.357	89.19
256.59	72.19
256.823	93.19
257.056	78.19
257.289	82.19
257.521	80.19
257.754	84.19
257.987	93.19
258.22	83.19
258.452	89.19
258.685	83.19
258.918	77.19
259.151	80.19
259.383	86.19
259.616	93.19
259.849	80.19
260.081	71.19
260.314	86.19
260.547	87.19
260.779	98.19
261.012	86.19
261.244	88.19
261.477	99.19
261.71	85.19
261.942	99.19
262.175	99.19
262.407	86.19
262.64	84.19
262.872	88.19
263.105	92.19
263.337	81.19
263.57	80.19
263.802	82.19
264.035	71.19
264.267	75.19
264.499	85.19
264.732	93.19
264.964	77.19
265.197	88.19
265.429	89.19
265.661	96.19
265.894	85.19
266.126	91.19
266.358	94.19
266.591	86.19
266.823	77.19
267.055	98.19
267.287	92.19
267.52	76.19
267.752	84.19
267.984	96.19
268.216	87.19
268.448	96.19
268.681	79.19
268.913	86.19
269.145	74.19
269.377	76.19
269.609	74.19
269.841	86.19
270.073	93.19
270.306	92.19
270.538	74.19
270.77	80.19
271.002	101.19
271.234	96.19
271.466	101.19
271.698	74.19
271.93	75.19
272.162	90.19
272.394	90.19
272.626	87.19
272.858	84.19
273.09	85.19
273.322	80.19
273.553	73.19
273.785	90.19
274.017	86.19
274.249	91.19
274.481	84.19
274.713	85.19
274.945	88.19
275.176	80.19
275.408	84.19
275.64	85.19
275.872	85.19
276.104	80.19
276.335	82.19
276.567	98.19
276.799	99.19
277.031	94.19
277.262	95.19
277.494	87.19
277.726	93.19
277.957	82.19
278.189	86.19
278.421	93.19
278.652	98.19
278.884	91.19
279.115	76.19
279.347	96.19
279.579	87.19
279.81	84.19
280.042	90.19
280.273	86.19
280.505	89.19
280.736	94.19
280.968	92.19
281.199	89.19
281.431	75.19
281.662	78.19
281.894	108.19
282.125	93.19
282.356	114.19
282.588	124.19
282.819	119.19
283.051	88.19
283.282	93.19
283.513	93.19
283.745	83.19
283.976	81.19
284.207	87.19
284.439	78.19
284.67	93.19
284.901	100.19
285.132	86.19
285.364	98.19
285.595	85.19
285.826	76.19
286.057	90.19
286.288	101.19
286.52	70.19
286.751	88.19
286.982	78.19
287.213	76.19
287.444	71.19
287.675	92.19
287.906	87.19
288.138	95.19
288.369	78.19
288.6	76.19
288.831	87.19
289.062	84.19
289.293	93.19
289.524	93.19
289.755	82.19
289.986	83.19
290.217	75.19
290.448	94.19
290.679	89.19
290.91	92.19
291.141	82.19
291.371	92.19
291.602	91.19
291.833	96.19
292.064	88.19
292.295	71.19
292.526	88.19
292.757	69.19
292.987	88.19
293.218	88.19
293.449	92.19
293.68	88.19
293.91	98.19
294.141	88.19
294.372	81.19
294.603	88.19
294.833	98.19
295.064	92.19
295.295	85.19
295.525	83.19
295.756	99.19
295.987	95.19
296.217	105.19
296.448	101.19
296.679	88.19
296.909	99.19
297.14	92.19
297.37	91.19
297.601	82.19
297.831	89.19
298.062	90.19
298.292	94.19
298.523	86.19
298.753	82.19
298.984	103.19
299.214	84.19
299.445	97.19
299.675	105.19
299.905	96.19
300.136	84.19
300.366	79.19
300.597	94.19
300.827	102.19
301.057	84.19
301.288	92.19
301.518	85.19
301.748	82.19
301.979	90.19
302.209	77.19
302.439	87.19
302.669	81.19
302.9	88.19
303.13	92.19
303.36	85.19
303.59	85.19
303.82	98.19
304.051	89.19
304.281	87.19
304.511	98.19
304.741	78.19
304.971	75.19
305.201	93.19
305.431	81.19
305.661	76.19
305.891	88.19
306.121	99.19
306.352	105.19
306.582	108.19
306.812	88.19
307.042	93.19
307.272	90.19
307.502	106.19
307.731	106.19
307.961	99.19
308.191	86.19
308.421	96.19
308.651	105.19
308.881	89.19
309.111	73.19
309.341	91.19
309.571	97.19
309.8	86.19
310.03	82.19
310.26	97.19
310.49	92.19
310.72	107.19
310.949	91.19
311.179	100.19
311.409	86.19
311.639	90.19
311.868	86.19
312.098	89.19
312.328	104.19
312.557	90.19
312.787	89.19
313.017	85.19
313.246	87.19
313.476	84.19
313.706	84.19
313.935	92.19
314.165	87.19
314.394	101.19
314.624	93.19
314.853	106.19
315.083	94.19
315.312	93.19
315.542	96.19
315.771	107.19
316.001	93.19
316.23	96.19
316.46	88.19
316.689	97.19
316.919	97.19
317.148	89.19
317.377	98.19
317.607	92.19
317.836	101.19
318.065	98.19
318.295	90.19
318.524	96.19
318.753	95.19
318.983	82.19
319.212	87.19
319.441	108.19
319.67	104.19
319.9	89.19
320.129	87.19
320.358	90.19
320.587	94.19
320.816	98.19
321.046	104.19
321.275	106.19
321.504	92.19
321.733	88.19
321.962	90.19
322.191	101.19
322.42	91.19
322.649	95.19
322.878	91.19
323.108	99.19
323.337	109.19
323.566	116.19
323.795	124.19
324.024	167.19
324.253	298.19
324.482	605.19
324.71	1239.19
324.939	1544.19
325.168	618.19
325.397	202.19
325.626	149.19
325.855	116.19
326.084	111.19
326.313	122.19
326.542	133.19
326.77	198.19
326.999	366.19
327.228	700.19
327.457	1266.19
327.686	993.19
327.914	304.19
328.143	193.19
328.372	182.19
328.6	125.19
328.829	109.19
329.058	112.19
329.287	117.19
329.515	116.19
329.744	113.19
329.972	143.19
330.201	189.19
330.43	234.19
330.658	139.19
330.887	124.19
331.115	100.19
331.344	90.19
331.572	89.19
331.801	101.19
332.03	97.19
332.258	96.19
332.486	98.19
332.715	98.19
332.943	102.19
333.172	97.19
333.4	99.19
333.629	107.19
333.857	107.19
334.085	129.19
334.314	191.19
334.542	278.19
334.771	264.19
334.999	132.19
335.227	88.19
335.455	96.19
335.684	89.19
335.912	83.19
336.14	104.19
336.369	103.19
336.597	95.19
336.825	113.19
337.053	97.19
337.281	99.19
337.51	85.19
337.738	90.19
337.966	84.19
338.194	96.19
338.422	96.19
338.65	93.19
338.878	95.19
339.106	107.19
339.334	92.19
339.562	94.19
339.79	91.19
340.018	86.19
340.246	83.19
340.474	85.19
340.702	82.19
340.93	98.19
341.158	78.19
341.386	86.19
341.614	89.19
341.842	84.19
342.07	86.19
342.298	106.19
342.526	101.19
342.754	82.19
342.981	109.19
343.209	98.19
343.437	102.19
343.665	92.19
343.893	95.19
344.12	97.19
344.348	93.19
344.576	104.19
344.804	92.19
345.031	96.19
345.259	107.19
345.487	100.19
345.714	94.19
345.942	100.19
346.17	88.19
346.397	88.19
346.625	92.19
346.853	101.19
347.08	92.19
347.308	89.19
347.535	92.19
347.763	91.19
347.99	92.19
348.218	89.19
348.445	96.19
348.673	96.19
348.9	103.19
349.128	101.19
349.355	88.19
349.583	98.19
349.81	99.19
350.037	87.19
350.265	99.19
350.492	97.19
350.72	92.19
350.947	110.19
351.174	106.19
351.402	80.19
351.629	96.19
351.856	85.19
352.083	100.19
352.311	103.19
352.538	101.19
352.765	110.19
352.992	117.19
353.22	111.19
353.447	91.19
353.674	102.19
353.901	92.19
354.128	100.19
354.355	92.19
354.583	92.19
354.81	113.19
355.037	92.19
355.264	96.19
355.491	108.19
355.718	101.19
355.945	102.19
356.172	92.19
356.399	86.19
356.626	85.19
356.853	90.19
357.08	102.19
357.307	99.19
357.534	87.19
357.761	86.19
357.988	90.19
358.215	96.19
358.441	105.19
358.668	93.19
358.895	90.19
359.122	85.19
359.349	90.19
359.576	93.19
359.802	96.19
360.029	100.19
360.256	100.19
360.483	108.19
360.709	104.19
360.936	89.19
361.163	93.19
361.39	93.19
361.616	93.19
361.843	85.19
362.07	101.19
362.296	93.19
362.523	105.19
362.749	94.19
362.976	66.19
363.203	100.19
363.429	93.19
363.656	81.19
363.882	97.19
364.109	91.19
364.335	97.19
364.562	75.19
364.788	88.19
365.015	89.19
365.241	107.19
365.468	90.19
365.694	97.19
365.92	99.19
366.147	94.19
366.373	87.19
366.599	84.19
366.826	96.19
367.052	91.19
367.278	102.19
367.505	98.19
367.731	100.19
367.957	92.19
368.184	81.19
368.41	86.19
368.636	103.19
368.862	117.19
369.089	86.19
369.315	89.19
369.541	79.19
369.767	93.19
369.993	93.19
370.219	97.19
370.445	75.19
370.672	76.19
370.898	77.19
371.124	91.19
371.35	89.19
371.576	88.19
371.802	94.19
372.028	84.19
372.254	88.19
372.48	94.19
372.706	92.19
372.932	85.19
373.158	94.19
373.384	92.19
373.61	85.19
373.835	95.19
374.061	90.19
374.287	76.19
374.513	78.19
374.739	80.19
374.965	99.19
375.191	80.19
375.416	92.19
375.642	87.19
375.868	86.19
376.094	99.19
376.319	98.19
376.545	102.19
376.771	99.19
376.997	88.19
377.222	80.19
377.448	87.19
377.674	97.19
377.899	82.19
378.125	92.19
378.35	77.19
378.576	89.19
378.802	82.19
379.027	102.19
379.253	82.19
379.478	90.19
379.704	103.19
379.929	90.19
380.155	86.19
380.38	76.19
380.606	96.19
380.831	92.19
381.057	111.19
381.282	93.19
381.507	105.19
381.733	101.19
381.958	96.19
382.184	88.19
382.409	95.19
382.634	99.19
382.86	98.19
383.085	106.19
383.31	93.19
383.535	101.19
383.761	101.19
383.986	88.19
384.211	92.19
384.436	109.19
384.662	102.19
384.887	108.19
385.112	120.19
385.337	102.19
385.562	100.19
385.787	112.19
386.013	107.19
386.238	109.19
386.463	97.19
386.688	119.19
386.913	95.19
387.138	102.19
387.363	103.19
387.588	104.19
387.813	107.19
388.038	104.19
388.263	109.19
388.488	105.19
388.713	100.19
388.938	91.19
389.163	113.19
389.387	103.19
389.612	100.19
389.837	92.19
390.062	86.19
390.287	101.19
390.512	94.19
390.736	89.19
390.961	92.19
391.186	89.19
391.411	99.19
391.636	94.19
391.86	86.19
392.085	83.19
392.31	84.19
392.534	91.19
392.759	80.19
392.984	90.19
393.208	98.19
393.433	109.19
393.658	106.19
393.882	92.19
394.107	89.19
394.331	65.19
394.556	88.19
394.78	96.19
395.005	92.19
395.229	84.19
395.454	88.19
395.678	81.19
395.903	87.19
396.127	96.19
396.352	96.19
396.576	97.19
396.801	94.19
397.025	77.19
397.249	78.19
397.474	92.19
397.698	82.19
397.922	83.19
398.147	80.19
398.371	82.19
398.595	93.19
398.82	95.19
399.044	75.19
399.268	84.19
399.492	70.19
399.717	89.19
399.941	89.19
400.165	101.19
400.389	77.19
400.613	71.19
400.837	87.19
401.062	87.19
401.286	96.19
401.51	85.19
401.734	100.19
401.958	98.19
402.182	117.19
402.406	122.19
402.63	114.19
402.854	98.19
403.078	89.19
403.302	91.19
403.526	83.19
403.75	97.19
403.974	100.19
404.198	88.19
404.422	92.19
404.645	102.19
404.869	97.19
405.093	98.19
405.317	101.19
405.541	91.19
405.765	87.19
405.988	103.19
406.212	138.19
406.436	185.19
406.66	114.19
406.883	91.19
407.107	90.19
407.331	87.19
407.555	92.19
407.778	103.19
408.002	79.19
408.226	92.19
408.449	90.19
408.673	74.19
408.896	81.19
409.12	100.19
409.344	82.19
409.567	85.19
409.791	87.19
410.014	81.19
410.238	92.19
410.461	85.19
410.685	86.19
410.908	99.19
411.132	97.19
411.355	95.19
411.578	88.19
411.802	80.19
412.025	82.19
412.249	101.19
412.472	104.19
412.695	92.19
412.919	98.19
413.142	101.19
413.365	77.19
413.589	96.19
413.812	97.19
414.035	101.19
414.258	94.19
414.482	93.19
414.705	86.19
414.928	86.19
415.151	96.19
415.374	73.19
415.597	89.19
415.821	95.19
416.044	93.19
416.267	103.19
416.49	89.19
416.713	101.19
416.936	91.19
417.159	91.19
417.382	86.19
417.605	91.19
417.828	96.19
418.051	88.19
418.274	86.19
418.497	86.19
418.72	82.19
418.943	102.19
419.166	84.19
419.389	93.19
419.611	75.19
419.834	97.19
420.057	98.19
420.28	86.19
420.503	89.19
420.726	99.19
420.948	93.19
421.171	76.19
421.394	106.19
421.617	89.19
421.839	90.19
422.062	88.19
422.285	99.19
422.507	94.19
422.73	90.19
422.953	75.19
423.175	84.19
423.398	95.19
423.621	100.19
423.843	89.19
424.066	87.19
424.288	94.19
424.511	104.19
424.733	102.19
424.956	100.19
425.178	99.19
425.401	98.19
425.623	106.19
425.846	91.19
426.068	92.19
426.291	89.19
426.513	99.19
426.735	102.19
426.958	91.19
427.18	90.19
427.402	124.19
427.625	137.19
427.847	124.19
428.069	134.19
428.292	98.19
428.514	94.19
428.736	93.19
428.958	92.19
429.181	85.19
429.403	90.19
429.625	99.19
429.847	96.19
430.069	91.19
430.292	85.19
430.514	86.19
430.736	78.19
430.958	82.19
431.18	82.19
431.402	76.19
431.624	86.19
431.846	84.19
432.068	89.19
432.29	87.19
432.512	79.19
432.734	85.19
432.956	94.19
433.178	103.19
433.4	95.19
433.622	102.19
433.844	87.19
434.066	86.19
434.287	77.19
434.509	105.19
434.731	96.19
434.953	92.19
435.175	86.19
435.397	98.19
435.618	89.19
435.84	112.19
436.062	98.19
436.284	109.19
436.505	101.19
436.727	90.19
436.949	86.19
437.17	99.19
437.392	72.19
437.614	98.19
437.835	94.19
438.057	105.19
438.278	91.19
438.5	93.19
438.721	114.19
438.943	91.19
439.165	92.19
439.386	84.19
439.608	99.19
439.829	92.19
440.05	106.19
440.272	117.19
440.493	88.19
440.715	78.19
440.936	100.19
441.158	87.19
441.379	84.19
441.6	89.19
441.822	96.19
442.043	93.19
442.264	101.19
442.486	103.19
442.707	109.19
442.928	90.19
443.149	124.19
443.371	107.19
443.592	99.19
443.813	100.19
444.034	113.19
444.255	99.19
444.476	99.19
444.698	92.19
444.919	88.19
445.14	139.19
445.361	124.19
445.582	117.19
445.803	124.19
446.024	101.19
446.245	119.19
446.466	91.19
446.687	94.19
446.908	91.19
447.129	97.19
447.35	91.19
447.571	91.19
447.792	92.19
448.013	92.19
448.234	97.19
448.455	96.19
448.675	112.19
448.896	103.19
449.117	105.19
449.338	101.19
449.559	112.19
449.779	109.19
450	88.19
450.221	92.19
450.442	84.19
450.662	84.19
450.883	106.19
451.104	105.19
451.324	101.19
451.545	93.19
451.766	99.19
451.986	90.19
452.207	82.19
452.428	102.19
452.648	93.19
452.869	110.19
453.089	116.19
453.31	107.19
453.53	96.19
453.751	82.19
453.971	99.19
454.192	105.19
454.412	100.19
454.633	96.19
454.853	96.19
455.073	98.19
455.294	93.19
455.514	96.19
455.734	82.19
455.955	89.19
456.175	90.19
456.395	96.19
456.616	84.19
456.836	102.19
457.056	82.19
457.276	97.19
457.497	101.19
457.717	84.19
457.937	94.19
458.157	90.19
458.377	91.19
458.598	88.19
458.818	110.19
459.038	127.19
459.258	95.19
459.478	100.19
459.698	91.19
459.918	86.19
460.138	84.19
460.358	97.19
460.578	93.19
460.798	72.19
461.018	93.19
461.238	93.19
461.458	76.19
461.678	84.19
461.898	85.19
462.118	96.19
462.338	89.19
462.558	86.19
462.777	90.19
462.997	101.19
463.217	87.19
463.437	84.19
463.657	86.19
463.876	93.19
464.096	91.19
464.316	93.19
464.536	101.19
464.755	92.19
464.975	90.19
465.195	141.19
465.414	125.19
465.634	97.19
465.854	83.19
466.073	93.19
466.293	96.19
466.512	88.19
466.732	82.19
466.951	106.19
467.171	83.19
467.391	110.19
467.61	105.19
467.829	97.19
468.049	144.19
468.268	164.19
468.488	97.19
468.707	90.19
468.927	94.19
469.146	84.19
469.365	83.19
469.585	100.19
469.804	89.19
470.023	90.19
470.243	95.19
470.462	94.19
470.681	98.19
470.901	97.19
471.12	95.19
471.339	94.19
471.558	92.19
471.777	101.19
471.997	126.19
472.216	212.19
472.435	363.19
472.654	143.19
472.873	105.19
473.092	73.19
473.311	89.19
473.53	77.19
473.749	87.19
473.968	110.19
474.187	97.19
474.406	88.19
474.625	89.19
474.844	84.19
475.063	81.19
475.282	89.19
475.501	83.19
475.72	86.19
475.939	85.19
476.158	87.19
476.377	96.19
476.596	78.19
476.814	88.19
477.033	84.19
477.252	69.19
477.471	84.19
477.69	77.19
477.908	98.19
478.127	90.19
478.346	90.19
478.564	93.19
478.783	100.19
479.002	89.19
479.22	105.19
479.439	100.19
479.658	91.19
479.876	92.19
480.095	90.19
480.313	99.19
480.532	91.19
480.751	99.19
480.969	214.19
481.188	589.19
481.406	366.19
481.624	119.19
481.843	100.19
482.061	98.19
482.28	75.19
482.498	101.19
482.717	99.19
482.935	104.19
483.153	91.19
483.372	76.19
483.59	98.19
483.808	89.19
484.027	94.19
484.245	101.19
484.463	97.19
484.681	96.19
484.9	95.19
485.118	89.19
485.336	77.19
485.554	101.19
485.772	100.19
485.99	107.19
486.209	104.19
486.427	111.19
486.645	117.19
486.863	114.19
487.081	100.19
487.299	93.19
487.517	93.19
487.735	100.19
487.953	92.19
488.171	96.19
488.389	102.19
488.607	98.19
488.825	84.19
489.043	99.19
489.261	98.19
489.479	101.19
489.696	80.19
489.914	88.19
490.132	73.19
490.35	108.19
490.568	98.19
490.786	81.19
491.003	94.19
491.221	88.19
491.439	83.19
491.657	103.19
491.874	105.19
492.092	85.19
492.31	91.19
492.527	93.19
492.745	102.19
492.963	98.19
493.18	96.19
493.398	86.19
493.615	91.19
493.833	85.19
494.05	96.19
494.268	96.19
494.485	82.19
494.703	83.19
494.92	95.19
495.138	94.19
495.355	98.19
495.573	85.19
495.79	89.19
496.008	101.19
496.225	92.19
496.442	90.19
496.66	91.19
496.877	94.19
497.094	93.19
497.312	78.19
497.529	86.19
497.746	90.19
497.963	90.19
498.181	85.19
498.398	95.19
498.615	109.19
498.832	86.19
499.049	97.19
499.267	93.19
499.484	88.19
499.701	87.19
499.918	99.19
500.135	89.19
500.352	86.19
500.569	101.19
500.786	87.19
501.003	93.19
501.22	97.19
501.437	104.19
501.654	91.19
501.871	98.19
502.088	92.19
502.305	86.19
502.522	93.19
502.739	101.19
502.956	94.19
503.172	91.19
503.389	87.19
503.606	91.19
503.823	101.19
504.04	98.19
504.256	92.19
504.473	82.19
504.69	80.19
504.907	92.19
505.123	90.19
505.34	91.19
505.557	99.19
505.773	92.19
505.99	83.19
506.207	77.19
506.423	94.19
506.64	86.19
506.856	96.19
507.073	98.19
507.289	85.19
507.506	78.19
507.722	103.19
507.939	103.19
508.155	94.19
508.372	97.19
508.588	94.19
508.805	80.19
509.021	100.19
509.238	96.19
509.454	94.19
509.67	90.19
509.887	109.19
510.103	106.19
510.319	177.19
510.536	554.19
510.752	1684.19
510.968	493.19
511.184	152.19
511.401	108.19
511.617	103.19
511.833	87.19
512.049	90.19
512.265	90.19
512.481	97.19
512.698	88.19
512.914	89.19
513.13	88.19
513.346	83.19
513.562	94.19
513.778	100.19
513.994	88.19
514.21	95.19
514.426	98.19
514.642	113.19
514.858	120.19
515.074	145.19
515.29	311.19
515.506	994.19
515.721	384.19
515.937	128.19
