Data from Circ_1983_H10_HRD10591_00099.txt Node
Date: Wed Jan 03 12:27:04 EST 2024
User: Yrep
Spectrometer: HR+D1059
Trigger mode: 1
Integration Time (sec): 1.000000E-1
Scans to average: 1
Electric dark correction enabled: true
Nonlinearity correction enabled: false
Boxcar width: 0
XAxis mode: Wavelengths
Number of Pixels in Spectrum: 2048
>>>>>Begin Spectral Data<<<<<
223.165	-22.44
223.4	-22.44
223.635	-22.44
223.869	-16.44
224.104	-14.44
224.338	-3.44
224.573	-17.44
224.808	-10.44
225.042	-13.44
225.277	-13.44
225.511	-10.44
225.746	10.56
225.98	1.56
226.215	18.56
226.449	10.56
226.683	23.56
226.918	21.56
227.152	35.56
227.387	29.56
227.621	40.56
227.856	51.56
228.09	37.56
228.324	38.56
228.559	53.56
228.793	55.56
229.027	70.56
229.262	74.56
229.496	54.56
229.73	92.56
229.964	77.56
230.199	81.56
230.433	68.56
230.667	70.56
230.901	83.56
231.136	81.56
231.37	85.56
231.604	83.56
231.838	84.56
232.072	76.56
232.306	86.56
232.541	95.56
232.775	92.56
233.009	76.56
233.243	84.56
233.477	72.56
233.711	87.56
233.945	91.56
234.179	94.56
234.413	79.56
234.647	90.56
234.881	74.56
235.115	75.56
235.349	76.56
235.583	75.56
235.817	95.56
236.051	84.56
236.285	89.56
236.519	73.56
236.753	87.56
236.987	68.56
237.221	81.56
237.455	77.56
237.689	74.56
237.922	90.56
238.156	67.56
238.39	77.56
238.624	62.56
238.858	84.56
239.091	76.56
239.325	85.56
239.559	81.56
239.793	77.56
240.027	75.56
240.26	78.56
240.494	75.56
240.728	60.56
240.961	71.56
241.195	80.56
241.429	73.56
241.662	66.56
241.896	91.56
242.13	58.56
242.363	68.56
242.597	65.56
242.83	74.56
243.064	75.56
243.298	90.56
243.531	71.56
243.765	75.56
243.998	86.56
244.232	90.56
244.465	89.56
244.699	83.56
244.932	86.56
245.166	85.56
245.399	83.56
245.633	78.56
245.866	81.56
246.099	85.56
246.333	75.56
246.566	69.56
246.8	85.56
247.033	79.56
247.266	75.56
247.5	82.56
247.733	72.56
247.966	77.56
248.2	85.56
248.433	94.56
248.666	87.56
248.899	76.56
249.133	87.56
249.366	89.56
249.599	82.56
249.832	85.56
250.066	91.56
250.299	84.56
250.532	88.56
250.765	77.56
250.998	66.56
251.231	72.56
251.465	86.56
251.698	86.56
251.931	74.56
252.164	73.56
252.397	89.56
252.63	87.56
252.863	88.56
253.096	91.56
253.329	87.56
253.562	94.56
253.795	84.56
254.028	82.56
254.261	74.56
254.494	83.56
254.727	86.56
254.96	73.56
255.193	75.56
255.426	79.56
255.659	92.56
255.892	82.56
256.124	86.56
256.357	74.56
256.59	98.56
256.823	77.56
257.056	83.56
257.289	78.56
257.521	82.56
257.754	88.56
257.987	93.56
258.22	70.56
258.452	71.56
258.685	96.56
258.918	83.56
259.151	92.56
259.383	84.56
259.616	86.56
259.849	93.56
260.081	86.56
260.314	83.56
260.547	79.56
260.779	82.56
261.012	88.56
261.244	91.56
261.477	92.56
261.71	85.56
261.942	98.56
262.175	109.56
262.407	91.56
262.64	80.56
262.872	77.56
263.105	78.56
263.337	72.56
263.57	79.56
263.802	87.56
264.035	78.56
264.267	83.56
264.499	95.56
264.732	74.56
264.964	93.56
265.197	67.56
265.429	85.56
265.661	78.56
265.894	89.56
266.126	90.56
266.358	78.56
266.591	93.56
266.823	92.56
267.055	85.56
267.287	75.56
267.52	100.56
267.752	83.56
267.984	82.56
268.216	88.56
268.448	91.56
268.681	88.56
268.913	79.56
269.145	73.56
269.377	88.56
269.609	78.56
269.841	73.56
270.073	86.56
270.306	81.56
270.538	98.56
270.77	96.56
271.002	87.56
271.234	94.56
271.466	82.56
271.698	72.56
271.93	86.56
272.162	84.56
272.394	98.56
272.626	85.56
272.858	93.56
273.09	83.56
273.322	101.56
273.553	87.56
273.785	94.56
274.017	94.56
274.249	76.56
274.481	83.56
274.713	82.56
274.945	102.56
275.176	85.56
275.408	76.56
275.64	86.56
275.872	87.56
276.104	79.56
276.335	97.56
276.567	106.56
276.799	110.56
277.031	96.56
277.262	102.56
277.494	91.56
277.726	84.56
277.957	90.56
278.189	85.56
278.421	90.56
278.652	89.56
278.884	88.56
279.115	86.56
279.347	99.56
279.579	91.56
279.81	96.56
280.042	95.56
280.273	88.56
280.505	98.56
280.736	79.56
280.968	92.56
281.199	104.56
281.431	93.56
281.662	79.56
281.894	74.56
282.125	93.56
282.356	106.56
282.588	120.56
282.819	87.56
283.051	93.56
283.282	101.56
283.513	87.56
283.745	83.56
283.976	93.56
284.207	91.56
284.439	90.56
284.67	95.56
284.901	88.56
285.132	93.56
285.364	92.56
285.595	96.56
285.826	75.56
286.057	92.56
286.288	95.56
286.52	81.56
286.751	98.56
286.982	101.56
287.213	80.56
287.444	113.56
287.675	93.56
287.906	86.56
288.138	97.56
288.369	87.56
288.6	86.56
288.831	81.56
289.062	97.56
289.293	85.56
289.524	98.56
289.755	83.56
289.986	86.56
290.217	83.56
290.448	84.56
290.679	74.56
290.91	89.56
291.141	87.56
291.371	99.56
291.602	96.56
291.833	82.56
292.064	94.56
292.295	109.56
292.526	85.56
292.757	83.56
292.987	73.56
293.218	89.56
293.449	97.56
293.68	88.56
293.91	89.56
294.141	92.56
294.372	86.56
294.603	89.56
294.833	100.56
295.064	86.56
295.295	99.56
295.525	95.56
295.756	104.56
295.987	110.56
296.217	127.56
296.448	113.56
296.679	95.56
296.909	97.56
297.14	82.56
297.37	89.56
297.601	88.56
297.831	91.56
298.062	93.56
298.292	95.56
298.523	92.56
298.753	92.56
298.984	108.56
299.214	87.56
299.445	89.56
299.675	99.56
299.905	103.56
300.136	94.56
300.366	85.56
300.597	99.56
300.827	95.56
301.057	111.56
301.288	86.56
301.518	111.56
301.748	76.56
301.979	105.56
302.209	76.56
302.439	99.56
302.669	95.56
302.9	109.56
303.13	98.56
303.36	89.56
303.59	104.56
303.82	91.56
304.051	89.56
304.281	84.56
304.511	93.56
304.741	93.56
304.971	105.56
305.201	88.56
305.431	96.56
305.661	95.56
305.891	96.56
306.121	101.56
306.352	95.56
306.582	107.56
306.812	92.56
307.042	99.56
307.272	97.56
307.502	112.56
307.731	101.56
307.961	81.56
308.191	77.56
308.421	97.56
308.651	89.56
308.881	88.56
309.111	95.56
309.341	93.56
309.571	75.56
309.8	96.56
310.03	94.56
310.26	87.56
310.49	90.56
310.72	92.56
310.949	118.56
311.179	97.56
311.409	91.56
311.639	104.56
311.868	94.56
312.098	97.56
312.328	96.56
312.557	83.56
312.787	104.56
313.017	105.56
313.246	104.56
313.476	102.56
313.706	100.56
313.935	99.56
314.165	99.56
314.394	104.56
314.624	97.56
314.853	99.56
315.083	91.56
315.312	92.56
315.542	81.56
315.771	94.56
316.001	83.56
316.23	106.56
316.46	85.56
316.689	97.56
316.919	82.56
317.148	103.56
317.377	106.56
317.607	97.56
317.836	90.56
318.065	107.56
318.295	94.56
318.524	92.56
318.753	90.56
318.983	88.56
319.212	96.56
319.441	94.56
319.67	119.56
319.9	107.56
320.129	97.56
320.358	84.56
320.587	97.56
320.816	102.56
321.046	76.56
321.275	87.56
321.504	99.56
321.733	100.56
321.962	97.56
322.191	96.56
322.42	98.56
322.649	103.56
322.878	114.56
323.108	112.56
323.337	110.56
323.566	121.56
323.795	123.56
324.024	170.56
324.253	307.56
324.482	581.56
324.71	1233.56
324.939	1587.56
325.168	625.56
325.397	189.56
325.626	124.56
325.855	109.56
326.084	116.56
326.313	93.56
326.542	142.56
326.77	187.56
326.999	351.56
327.228	698.56
327.457	1235.56
327.686	1003.56
327.914	302.56
328.143	201.56
328.372	179.56
328.6	148.56
328.829	122.56
329.058	113.56
329.287	106.56
329.515	115.56
329.744	122.56
329.972	141.56
330.201	214.56
330.43	262.56
330.658	167.56
330.887	137.56
331.115	115.56
331.344	96.56
331.572	97.56
331.801	99.56
332.03	98.56
332.258	105.56
332.486	87.56
332.715	109.56
332.943	88.56
333.172	91.56
333.4	113.56
333.629	120.56
333.857	127.56
334.085	138.56
334.314	219.56
334.542	332.56
334.771	305.56
334.999	124.56
335.227	102.56
335.455	91.56
335.684	107.56
335.912	87.56
336.14	90.56
336.369	113.56
336.597	105.56
336.825	101.56
337.053	104.56
337.281	93.56
337.51	98.56
337.738	87.56
337.966	98.56
338.194	105.56
338.422	108.56
338.65	88.56
338.878	90.56
339.106	90.56
339.334	102.56
339.562	93.56
339.79	86.56
340.018	85.56
340.246	98.56
340.474	95.56
340.702	92.56
340.93	101.56
341.158	91.56
341.386	83.56
341.614	85.56
341.842	97.56
342.07	93.56
342.298	95.56
342.526	104.56
342.754	88.56
342.981	97.56
343.209	99.56
343.437	109.56
343.665	79.56
343.893	93.56
344.12	109.56
344.348	106.56
344.576	89.56
344.804	89.56
345.031	86.56
345.259	102.56
345.487	103.56
345.714	91.56
345.942	95.56
346.17	94.56
346.397	109.56
346.625	103.56
346.853	103.56
347.08	95.56
347.308	95.56
347.535	93.56
347.763	92.56
347.99	104.56
348.218	93.56
348.445	93.56
348.673	86.56
348.9	101.56
349.128	89.56
349.355	91.56
349.583	94.56
349.81	97.56
350.037	92.56
350.265	97.56
350.492	110.56
350.72	95.56
350.947	87.56
351.174	107.56
351.402	115.56
351.629	101.56
351.856	89.56
352.083	93.56
352.311	105.56
352.538	98.56
352.765	97.56
352.992	115.56
353.22	106.56
353.447	109.56
353.674	106.56
353.901	99.56
354.128	107.56
354.355	106.56
354.583	102.56
354.81	108.56
355.037	101.56
355.264	100.56
355.491	97.56
355.718	88.56
355.945	95.56
356.172	90.56
356.399	99.56
356.626	91.56
356.853	98.56
357.08	107.56
357.307	91.56
357.534	105.56
357.761	89.56
357.988	106.56
358.215	92.56
358.441	94.56
358.668	92.56
358.895	103.56
359.122	84.56
359.349	78.56
359.576	88.56
359.802	98.56
360.029	107.56
360.256	92.56
360.483	100.56
360.709	99.56
360.936	100.56
361.163	91.56
361.39	94.56
361.616	76.56
361.843	91.56
362.07	87.56
362.296	93.56
362.523	92.56
362.749	78.56
362.976	89.56
363.203	97.56
363.429	89.56
363.656	97.56
363.882	95.56
364.109	108.56
364.335	91.56
364.562	81.56
364.788	94.56
365.015	98.56
365.241	112.56
365.468	113.56
365.694	101.56
365.92	101.56
366.147	90.56
366.373	84.56
366.599	88.56
366.826	87.56
367.052	87.56
367.278	92.56
367.505	85.56
367.731	93.56
367.957	91.56
368.184	102.56
368.41	91.56
368.636	108.56
368.862	113.56
369.089	103.56
369.315	105.56
369.541	91.56
369.767	101.56
369.993	100.56
370.219	81.56
370.445	82.56
370.672	86.56
370.898	97.56
371.124	81.56
371.35	90.56
371.576	95.56
371.802	100.56
372.028	86.56
372.254	98.56
372.48	95.56
372.706	101.56
372.932	89.56
373.158	86.56
373.384	98.56
373.61	102.56
373.835	108.56
374.061	91.56
374.287	90.56
374.513	83.56
374.739	81.56
374.965	103.56
375.191	97.56
375.416	87.56
375.642	90.56
375.868	92.56
376.094	98.56
376.319	103.56
376.545	74.56
376.771	87.56
376.997	97.56
377.222	83.56
377.448	92.56
377.674	87.56
377.899	86.56
378.125	85.56
378.35	93.56
378.576	95.56
378.802	101.56
379.027	87.56
379.253	105.56
379.478	100.56
379.704	110.56
379.929	98.56
380.155	99.56
380.38	96.56
380.606	88.56
380.831	107.56
381.057	105.56
381.282	100.56
381.507	99.56
381.733	78.56
381.958	103.56
382.184	96.56
382.409	106.56
382.634	106.56
382.86	90.56
383.085	97.56
383.31	103.56
383.535	99.56
383.761	99.56
383.986	98.56
384.211	99.56
384.436	91.56
384.662	101.56
384.887	100.56
385.112	97.56
385.337	110.56
385.562	102.56
385.787	107.56
386.013	108.56
386.238	123.56
386.463	116.56
386.688	112.56
386.913	103.56
387.138	92.56
387.363	110.56
387.588	101.56
387.813	104.56
388.038	111.56
388.263	112.56
388.488	115.56
388.713	101.56
388.938	100.56
389.163	82.56
389.387	88.56
389.612	99.56
389.837	95.56
390.062	98.56
390.287	95.56
390.512	84.56
390.736	101.56
390.961	91.56
391.186	93.56
391.411	109.56
391.636	97.56
391.86	102.56
392.085	80.56
392.31	81.56
392.534	83.56
392.759	84.56
392.984	95.56
393.208	105.56
393.433	83.56
393.658	91.56
393.882	106.56
394.107	86.56
394.331	100.56
394.556	91.56
394.78	71.56
395.005	86.56
395.229	99.56
395.454	87.56
395.678	86.56
395.903	99.56
396.127	81.56
396.352	83.56
396.576	94.56
396.801	90.56
397.025	91.56
397.249	94.56
397.474	83.56
397.698	89.56
397.922	83.56
398.147	75.56
398.371	85.56
398.595	89.56
398.82	97.56
399.044	87.56
399.268	95.56
399.492	91.56
399.717	103.56
399.941	95.56
400.165	91.56
400.389	90.56
400.613	88.56
400.837	94.56
401.062	94.56
401.286	100.56
401.51	84.56
401.734	101.56
401.958	106.56
402.182	124.56
402.406	136.56
402.63	109.56
402.854	108.56
403.078	95.56
403.302	89.56
403.526	87.56
403.75	97.56
403.974	91.56
404.198	89.56
404.422	86.56
404.645	93.56
404.869	86.56
405.093	91.56
405.317	103.56
405.541	85.56
405.765	84.56
405.988	110.56
406.212	147.56
406.436	177.56
406.66	123.56
406.883	97.56
407.107	85.56
407.331	101.56
407.555	87.56
407.778	103.56
408.002	76.56
408.226	103.56
408.449	97.56
408.673	83.56
408.896	84.56
409.12	93.56
409.344	74.56
409.567	91.56
409.791	105.56
410.014	107.56
410.238	99.56
410.461	98.56
410.685	102.56
410.908	107.56
411.132	99.56
411.355	101.56
411.578	93.56
411.802	87.56
412.025	90.56
412.249	100.56
412.472	97.56
412.695	106.56
412.919	96.56
413.142	95.56
413.365	99.56
413.589	80.56
413.812	91.56
414.035	88.56
414.258	85.56
414.482	87.56
414.705	93.56
414.928	84.56
415.151	78.56
415.374	78.56
415.597	86.56
415.821	78.56
416.044	79.56
416.267	85.56
416.49	81.56
416.713	95.56
416.936	89.56
417.159	89.56
417.382	89.56
417.605	78.56
417.828	98.56
418.051	87.56
418.274	85.56
418.497	90.56
418.72	91.56
418.943	97.56
419.166	80.56
419.389	82.56
419.611	94.56
419.834	88.56
420.057	90.56
420.28	91.56
420.503	89.56
420.726	93.56
420.948	85.56
421.171	99.56
421.394	85.56
421.617	97.56
421.839	98.56
422.062	83.56
422.285	101.56
422.507	94.56
422.73	91.56
422.953	92.56
423.175	85.56
423.398	93.56
423.621	86.56
423.843	89.56
424.066	97.56
424.288	86.56
424.511	83.56
424.733	83.56
424.956	100.56
425.178	79.56
425.401	81.56
425.623	90.56
425.846	95.56
426.068	96.56
426.291	81.56
426.513	93.56
426.735	89.56
426.958	87.56
427.18	110.56
427.402	102.56
427.625	152.56
427.847	130.56
428.069	126.56
428.292	94.56
428.514	101.56
428.736	100.56
428.958	85.56
429.181	92.56
429.403	86.56
429.625	93.56
429.847	93.56
430.069	78.56
430.292	91.56
430.514	81.56
430.736	93.56
430.958	88.56
431.18	89.56
431.402	86.56
431.624	100.56
431.846	78.56
432.068	94.56
432.29	98.56
432.512	89.56
432.734	92.56
432.956	92.56
433.178	106.56
433.4	93.56
433.622	83.56
433.844	92.56
434.066	98.56
434.287	84.56
434.509	78.56
434.731	80.56
434.953	85.56
435.175	77.56
435.397	88.56
435.618	97.56
435.84	84.56
436.062	104.56
436.284	100.56
436.505	111.56
436.727	91.56
436.949	97.56
437.17	94.56
437.392	100.56
437.614	76.56
437.835	101.56
438.057	111.56
438.278	104.56
438.5	87.56
438.721	105.56
438.943	100.56
439.165	99.56
439.386	94.56
439.608	77.56
439.829	105.56
440.05	115.56
440.272	107.56
440.493	101.56
440.715	97.56
440.936	87.56
441.158	90.56
441.379	85.56
441.6	82.56
441.822	87.56
442.043	94.56
442.264	95.56
442.486	104.56
442.707	92.56
442.928	99.56
443.149	106.56
443.371	111.56
443.592	101.56
443.813	109.56
444.034	101.56
444.255	99.56
444.476	90.56
444.698	92.56
444.919	89.56
445.14	121.56
445.361	110.56
445.582	97.56
445.803	116.56
446.024	118.56
446.245	122.56
446.466	98.56
446.687	86.56
446.908	97.56
447.129	101.56
447.35	97.56
447.571	81.56
447.792	105.56
448.013	96.56
448.234	110.56
448.455	87.56
448.675	99.56
448.896	101.56
449.117	106.56
449.338	99.56
449.559	115.56
449.779	107.56
450	93.56
450.221	93.56
450.442	92.56
450.662	91.56
450.883	95.56
451.104	105.56
451.324	102.56
451.545	94.56
451.766	95.56
451.986	85.56
452.207	98.56
452.428	83.56
452.648	103.56
452.869	97.56
453.089	99.56
453.31	108.56
453.53	87.56
453.751	99.56
453.971	103.56
454.192	97.56
454.412	89.56
454.633	87.56
454.853	84.56
455.073	89.56
455.294	94.56
455.514	98.56
455.734	88.56
455.955	78.56
456.175	87.56
456.395	90.56
456.616	100.56
456.836	91.56
457.056	97.56
457.276	71.56
457.497	78.56
457.717	87.56
457.937	90.56
458.157	103.56
458.377	87.56
458.598	100.56
458.818	129.56
459.038	138.56
459.258	109.56
459.478	99.56
459.698	90.56
459.918	84.56
460.138	93.56
460.358	89.56
460.578	84.56
460.798	83.56
461.018	68.56
461.238	89.56
461.458	86.56
461.678	97.56
461.898	91.56
462.118	82.56
462.338	99.56
462.558	86.56
462.777	94.56
462.997	96.56
463.217	98.56
463.437	97.56
463.657	88.56
463.876	97.56
464.096	93.56
464.316	93.56
464.536	100.56
464.755	95.56
464.975	101.56
465.195	131.56
465.414	123.56
465.634	89.56
465.854	94.56
466.073	89.56
466.293	95.56
466.512	101.56
466.732	85.56
466.951	82.56
467.171	97.56
467.391	107.56
467.61	103.56
467.829	109.56
468.049	162.56
468.268	176.56
468.488	96.56
468.707	94.56
468.927	88.56
469.146	84.56
469.365	84.56
469.585	97.56
469.804	100.56
470.023	94.56
470.243	93.56
470.462	106.56
470.681	101.56
470.901	91.56
471.12	103.56
471.339	92.56
471.558	81.56
471.777	96.56
471.997	122.56
472.216	248.56
472.435	434.56
472.654	180.56
472.873	102.56
473.092	84.56
473.311	102.56
473.53	89.56
473.749	102.56
473.968	81.56
474.187	90.56
474.406	91.56
474.625	90.56
474.844	86.56
475.063	86.56
475.282	81.56
475.501	83.56
475.72	94.56
475.939	95.56
476.158	83.56
476.377	100.56
476.596	87.56
476.814	89.56
477.033	96.56
477.252	85.56
477.471	74.56
477.69	94.56
477.908	87.56
478.127	81.56
478.346	102.56
478.564	97.56
478.783	88.56
479.002	107.56
479.22	95.56
479.439	92.56
479.658	103.56
479.876	104.56
480.095	98.56
480.313	96.56
480.532	110.56
480.751	123.56
480.969	228.56
481.188	758.56
481.406	458.56
481.624	139.56
481.843	100.56
482.061	91.56
482.28	87.56
482.498	97.56
482.717	87.56
482.935	96.56
483.153	90.56
483.372	85.56
483.59	81.56
483.808	96.56
484.027	91.56
484.245	86.56
484.463	97.56
484.681	84.56
484.9	99.56
485.118	95.56
485.336	94.56
485.554	95.56
485.772	92.56
485.99	105.56
486.209	102.56
486.427	105.56
486.645	113.56
486.863	107.56
487.081	91.56
487.299	106.56
487.517	89.56
487.735	109.56
487.953	91.56
488.171	92.56
488.389	82.56
488.607	91.56
488.825	77.56
489.043	90.56
489.261	99.56
489.479	100.56
489.696	85.56
489.914	95.56
490.132	90.56
490.35	109.56
490.568	76.56
490.786	77.56
491.003	102.56
491.221	88.56
491.439	101.56
491.657	104.56
491.874	106.56
492.092	86.56
492.31	89.56
492.527	93.56
492.745	102.56
492.963	97.56
493.18	94.56
493.398	96.56
493.615	89.56
493.833	76.56
494.05	89.56
494.268	109.56
494.485	92.56
494.703	94.56
494.92	89.56
495.138	97.56
495.355	88.56
495.573	99.56
495.79	100.56
496.008	85.56
496.225	97.56
496.442	77.56
496.66	101.56
496.877	86.56
497.094	105.56
497.312	81.56
497.529	86.56
497.746	98.56
497.963	91.56
498.181	81.56
498.398	93.56
498.615	117.56
498.832	103.56
499.049	88.56
499.267	93.56
499.484	109.56
499.701	94.56
499.918	85.56
500.135	103.56
500.352	95.56
500.569	79.56
500.786	101.56
501.003	92.56
501.22	79.56
501.437	93.56
501.654	86.56
501.871	110.56
502.088	91.56
502.305	107.56
502.522	88.56
502.739	90.56
502.956	86.56
503.172	88.56
503.389	100.56
503.606	97.56
503.823	93.56
504.04	96.56
504.256	104.56
504.473	89.56
504.69	91.56
504.907	99.56
505.123	107.56
505.34	92.56
505.557	86.56
505.773	87.56
505.99	82.56
506.207	81.56
506.423	89.56
506.64	94.56
506.856	99.56
507.073	106.56
507.289	96.56
507.506	99.56
507.722	93.56
507.939	100.56
508.155	92.56
508.372	97.56
508.588	99.56
508.805	95.56
509.021	106.56
509.238	89.56
509.454	96.56
509.67	94.56
509.887	108.56
510.103	102.56
510.319	185.56
510.536	571.56
510.752	1699.56
510.968	494.56
511.184	140.56
511.401	107.56
511.617	86.56
511.833	101.56
512.049	100.56
512.265	98.56
512.481	77.56
512.698	89.56
512.914	99.56
513.13	81.56
513.346	99.56
513.562	102.56
513.778	99.56
513.994	89.56
514.21	101.56
514.426	108.56
514.642	112.56
514.858	119.56
515.074	147.56
