Data from Circ_1983_H10_HRD10591_00034.txt Node
Date: Wed Jan 03 12:26:51 EST 2024
User: Yrep
Spectrometer: HR+D1059
Trigger mode: 1
Integration Time (sec): 1.000000E-1
Scans to average: 1
Electric dark correction enabled: true
Nonlinearity correction enabled: false
Boxcar width: 0
XAxis mode: Wavelengths
Number of Pixels in Spectrum: 2048
>>>>>Begin Spectral Data<<<<<
223.165	-25.69
223.4	-25.69
223.635	-25.69
223.869	-28.69
224.104	-16.69
224.338	-18.69
224.573	-10.69
224.808	-20.69
225.042	-6.69
225.277	-8.69
225.511	-2.69
225.746	7.31
225.98	2.31
226.215	18.31
226.449	27.31
226.683	25.31
226.918	23.31
227.152	35.31
227.387	37.31
227.621	42.31
227.856	46.31
228.09	44.31
228.324	47.31
228.559	49.31
228.793	55.31
229.027	68.31
229.262	68.31
229.496	70.31
229.73	73.31
229.964	78.31
230.199	79.31
230.433	84.31
230.667	80.31
230.901	77.31
231.136	56.31
231.37	77.31
231.604	63.31
231.838	61.31
232.072	74.31
232.306	90.31
232.541	81.31
232.775	73.31
233.009	89.31
233.243	75.31
233.477	89.31
233.711	89.31
233.945	72.31
234.179	69.31
234.413	78.31
234.647	72.31
234.881	68.31
235.115	78.31
235.349	73.31
235.583	92.31
235.817	81.31
236.051	71.31
236.285	83.31
236.519	58.31
236.753	80.31
236.987	70.31
237.221	71.31
237.455	77.31
237.689	67.31
237.922	74.31
238.156	75.31
238.39	79.31
238.624	73.31
238.858	67.31
239.091	66.31
239.325	84.31
239.559	78.31
239.793	95.31
240.027	81.31
240.26	69.31
240.494	74.31
240.728	61.31
240.961	74.31
241.195	80.31
241.429	81.31
241.662	81.31
241.896	69.31
242.13	85.31
242.363	86.31
242.597	78.31
242.83	72.31
243.064	75.31
243.298	57.31
243.531	88.31
243.765	64.31
243.998	84.31
244.232	76.31
244.465	81.31
244.699	85.31
244.932	90.31
245.166	69.31
245.399	70.31
245.633	77.31
245.866	85.31
246.099	77.31
246.333	73.31
246.566	71.31
246.8	75.31
247.033	82.31
247.266	72.31
247.5	63.31
247.733	64.31
247.966	85.31
248.2	83.31
248.433	90.31
248.666	81.31
248.899	84.31
249.133	72.31
249.366	93.31
249.599	97.31
249.832	80.31
250.066	85.31
250.299	87.31
250.532	79.31
250.765	75.31
250.998	85.31
251.231	94.31
251.465	73.31
251.698	66.31
251.931	61.31
252.164	78.31
252.397	73.31
252.63	74.31
252.863	82.31
253.096	77.31
253.329	81.31
253.562	78.31
253.795	82.31
254.028	74.31
254.261	83.31
254.494	78.31
254.727	78.31
254.96	88.31
255.193	71.31
255.426	77.31
255.659	76.31
255.892	84.31
256.124	88.31
256.357	70.31
256.59	64.31
256.823	74.31
257.056	84.31
257.289	81.31
257.521	90.31
257.754	72.31
257.987	73.31
258.22	81.31
258.452	91.31
258.685	69.31
258.918	75.31
259.151	90.31
259.383	85.31
259.616	85.31
259.849	81.31
260.081	84.31
260.314	91.31
260.547	86.31
260.779	81.31
261.012	73.31
261.244	84.31
261.477	80.31
261.71	101.31
261.942	111.31
262.175	108.31
262.407	82.31
262.64	75.31
262.872	75.31
263.105	72.31
263.337	89.31
263.57	88.31
263.802	93.31
264.035	78.31
264.267	86.31
264.499	81.31
264.732	91.31
264.964	78.31
265.197	76.31
265.429	89.31
265.661	63.31
265.894	77.31
266.126	81.31
266.358	85.31
266.591	72.31
266.823	74.31
267.055	79.31
267.287	72.31
267.52	71.31
267.752	87.31
267.984	89.31
268.216	90.31
268.448	98.31
268.681	100.31
268.913	85.31
269.145	95.31
269.377	96.31
269.609	88.31
269.841	83.31
270.073	67.31
270.306	72.31
270.538	85.31
270.77	86.31
271.002	68.31
271.234	99.31
271.466	51.31
271.698	67.31
271.93	72.31
272.162	65.31
272.394	95.31
272.626	94.31
272.858	96.31
273.09	75.31
273.322	70.31
273.553	72.31
273.785	84.31
274.017	74.31
274.249	65.31
274.481	85.31
274.713	84.31
274.945	74.31
275.176	86.31
275.408	85.31
275.64	81.31
275.872	86.31
276.104	82.31
276.335	84.31
276.567	74.31
276.799	102.31
277.031	68.31
277.262	91.31
277.494	99.31
277.726	96.31
277.957	85.31
278.189	93.31
278.421	88.31
278.652	86.31
278.884	86.31
279.115	87.31
279.347	82.31
279.579	86.31
279.81	97.31
280.042	78.31
280.273	84.31
280.505	86.31
280.736	94.31
280.968	86.31
281.199	89.31
281.431	93.31
281.662	94.31
281.894	94.31
282.125	100.31
282.356	110.31
282.588	107.31
282.819	119.31
283.051	97.31
283.282	89.31
283.513	85.31
283.745	90.31
283.976	73.31
284.207	82.31
284.439	90.31
284.67	87.31
284.901	85.31
285.132	81.31
285.364	65.31
285.595	82.31
285.826	98.31
286.057	91.31
286.288	79.31
286.52	97.31
286.751	89.31
286.982	85.31
287.213	75.31
287.444	91.31
287.675	89.31
287.906	107.31
288.138	91.31
288.369	76.31
288.6	92.31
288.831	84.31
289.062	81.31
289.293	93.31
289.524	90.31
289.755	81.31
289.986	83.31
290.217	74.31
290.448	83.31
290.679	78.31
290.91	81.31
291.141	90.31
291.371	89.31
291.602	81.31
291.833	71.31
292.064	82.31
292.295	85.31
292.526	72.31
292.757	86.31
292.987	83.31
293.218	101.31
293.449	82.31
293.68	97.31
293.91	82.31
294.141	98.31
294.372	85.31
294.603	76.31
294.833	77.31
295.064	74.31
295.295	86.31
295.525	75.31
295.756	99.31
295.987	101.31
296.217	124.31
296.448	108.31
296.679	89.31
296.909	87.31
297.14	89.31
297.37	83.31
297.601	87.31
297.831	90.31
298.062	88.31
298.292	90.31
298.523	75.31
298.753	85.31
298.984	89.31
299.214	91.31
299.445	97.31
299.675	87.31
299.905	77.31
300.136	86.31
300.366	89.31
300.597	92.31
300.827	87.31
301.057	85.31
301.288	96.31
301.518	79.31
301.748	95.31
301.979	100.31
302.209	93.31
302.439	87.31
302.669	91.31
302.9	82.31
303.13	81.31
303.36	90.31
303.59	103.31
303.82	101.31
304.051	94.31
304.281	86.31
304.511	89.31
304.741	85.31
304.971	82.31
305.201	73.31
305.431	83.31
305.661	92.31
305.891	88.31
306.121	96.31
306.352	99.31
306.582	95.31
306.812	94.31
307.042	102.31
307.272	83.31
307.502	77.31
307.731	106.31
307.961	107.31
308.191	98.31
308.421	102.31
308.651	92.31
308.881	88.31
309.111	102.31
309.341	85.31
309.571	100.31
309.8	96.31
310.03	96.31
310.26	92.31
310.49	86.31
310.72	78.31
310.949	89.31
311.179	90.31
311.409	95.31
311.639	90.31
311.868	103.31
312.098	91.31
312.328	92.31
312.557	90.31
312.787	97.31
313.017	105.31
313.246	101.31
313.476	96.31
313.706	87.31
313.935	88.31
314.165	98.31
314.394	116.31
314.624	73.31
314.853	81.31
315.083	103.31
315.312	95.31
315.542	90.31
315.771	87.31
316.001	96.31
316.23	79.31
316.46	89.31
316.689	90.31
316.919	85.31
317.148	89.31
317.377	104.31
317.607	95.31
317.836	88.31
318.065	84.31
318.295	79.31
318.524	82.31
318.753	89.31
318.983	93.31
319.212	90.31
319.441	90.31
319.67	81.31
319.9	103.31
320.129	89.31
320.358	95.31
320.587	95.31
320.816	94.31
321.046	75.31
321.275	97.31
321.504	81.31
321.733	96.31
321.962	98.31
322.191	86.31
322.42	94.31
322.649	89.31
322.878	112.31
323.108	113.31
323.337	119.31
323.566	109.31
323.795	121.31
324.024	172.31
324.253	305.31
324.482	647.31
324.71	1328.31
324.939	1663.31
325.168	634.31
325.397	216.31
325.626	136.31
325.855	119.31
326.084	109.31
326.313	127.31
326.542	137.31
326.77	176.31
326.999	369.31
327.228	740.31
327.457	1345.31
327.686	1069.31
327.914	304.31
328.143	175.31
328.372	165.31
328.6	133.31
328.829	118.31
329.058	119.31
329.287	116.31
329.515	105.31
329.744	115.31
329.972	120.31
330.201	149.31
330.43	177.31
330.658	118.31
330.887	121.31
331.115	109.31
331.344	107.31
331.572	110.31
331.801	101.31
332.03	101.31
332.258	88.31
332.486	79.31
332.715	93.31
332.943	96.31
333.172	96.31
333.4	92.31
333.629	97.31
333.857	88.31
334.085	135.31
334.314	146.31
334.542	210.31
334.771	189.31
334.999	119.31
335.227	97.31
335.455	89.31
335.684	97.31
335.912	95.31
336.14	99.31
336.369	103.31
336.597	97.31
336.825	98.31
337.053	80.31
337.281	74.31
337.51	92.31
337.738	99.31
337.966	106.31
338.194	89.31
338.422	90.31
338.65	86.31
338.878	104.31
339.106	81.31
339.334	103.31
339.562	91.31
339.79	91.31
340.018	92.31
340.246	107.31
340.474	91.31
340.702	83.31
340.93	86.31
341.158	82.31
341.386	91.31
341.614	80.31
341.842	85.31
342.07	85.31
342.298	94.31
342.526	87.31
342.754	82.31
342.981	87.31
343.209	89.31
343.437	83.31
343.665	90.31
343.893	93.31
344.12	87.31
344.348	98.31
344.576	85.31
344.804	74.31
345.031	90.31
345.259	105.31
345.487	97.31
345.714	92.31
345.942	86.31
346.17	99.31
346.397	100.31
346.625	89.31
346.853	87.31
347.08	77.31
347.308	106.31
347.535	103.31
347.763	91.31
347.99	99.31
348.218	91.31
348.445	97.31
348.673	93.31
348.9	99.31
349.128	94.31
349.355	97.31
349.583	103.31
349.81	91.31
350.037	90.31
350.265	92.31
350.492	80.31
350.72	101.31
350.947	90.31
351.174	95.31
351.402	114.31
351.629	98.31
351.856	100.31
352.083	103.31
352.311	101.31
352.538	113.31
352.765	89.31
352.992	101.31
353.22	100.31
353.447	95.31
353.674	99.31
353.901	98.31
354.128	98.31
354.355	89.31
354.583	92.31
354.81	92.31
355.037	108.31
355.264	96.31
355.491	94.31
355.718	88.31
355.945	91.31
356.172	95.31
356.399	87.31
356.626	102.31
356.853	79.31
357.08	78.31
357.307	92.31
357.534	81.31
357.761	85.31
357.988	104.31
358.215	97.31
358.441	104.31
358.668	82.31
358.895	74.31
359.122	82.31
359.349	86.31
359.576	82.31
359.802	109.31
360.029	115.31
360.256	95.31
360.483	84.31
360.709	71.31
360.936	70.31
361.163	78.31
361.39	88.31
361.616	92.31
361.843	94.31
362.07	89.31
362.296	97.31
362.523	90.31
362.749	82.31
362.976	94.31
363.203	89.31
363.429	83.31
363.656	84.31
363.882	85.31
364.109	85.31
364.335	86.31
364.562	87.31
364.788	82.31
365.015	96.31
365.241	82.31
365.468	97.31
365.694	100.31
365.92	93.31
366.147	72.31
366.373	97.31
366.599	85.31
366.826	71.31
367.052	78.31
367.278	92.31
367.505	81.31
367.731	77.31
367.957	87.31
368.184	110.31
368.41	109.31
368.636	103.31
368.862	98.31
369.089	98.31
369.315	89.31
369.541	66.31
369.767	75.31
369.993	81.31
370.219	78.31
370.445	98.31
370.672	78.31
370.898	73.31
371.124	89.31
371.35	88.31
371.576	69.31
371.802	87.31
372.028	94.31
372.254	86.31
372.48	88.31
372.706	94.31
372.932	78.31
373.158	78.31
373.384	102.31
373.61	89.31
373.835	80.31
374.061	95.31
374.287	86.31
374.513	103.31
374.739	78.31
374.965	85.31
375.191	77.31
375.416	82.31
375.642	84.31
375.868	95.31
376.094	89.31
376.319	97.31
376.545	93.31
376.771	111.31
376.997	87.31
377.222	83.31
377.448	77.31
377.674	98.31
377.899	104.31
378.125	108.31
378.35	90.31
378.576	89.31
378.802	95.31
379.027	83.31
379.253	86.31
379.478	88.31
379.704	95.31
379.929	85.31
380.155	93.31
380.38	79.31
380.606	97.31
380.831	99.31
381.057	107.31
381.282	101.31
381.507	94.31
381.733	101.31
381.958	91.31
382.184	101.31
382.409	86.31
382.634	104.31
382.86	79.31
383.085	85.31
383.31	94.31
383.535	91.31
383.761	104.31
383.986	98.31
384.211	104.31
384.436	99.31
384.662	87.31
384.887	103.31
385.112	119.31
385.337	91.31
385.562	93.31
385.787	96.31
386.013	108.31
386.238	115.31
386.463	100.31
386.688	119.31
386.913	99.31
387.138	100.31
387.363	112.31
387.588	103.31
387.813	93.31
388.038	103.31
388.263	124.31
388.488	113.31
388.713	104.31
388.938	81.31
389.163	87.31
389.387	80.31
389.612	92.31
389.837	99.31
390.062	96.31
390.287	93.31
390.512	95.31
390.736	95.31
390.961	80.31
391.186	87.31
391.411	83.31
391.636	85.31
391.86	91.31
392.085	86.31
392.31	78.31
392.534	87.31
392.759	82.31
392.984	94.31
393.208	104.31
393.433	116.31
393.658	103.31
393.882	92.31
394.107	89.31
394.331	82.31
394.556	90.31
394.78	80.31
395.005	87.31
395.229	90.31
395.454	89.31
395.678	80.31
395.903	73.31
396.127	84.31
396.352	78.31
396.576	93.31
396.801	101.31
397.025	120.31
397.249	84.31
397.474	81.31
397.698	97.31
397.922	86.31
398.147	97.31
398.371	86.31
398.595	77.31
398.82	84.31
399.044	96.31
399.268	88.31
399.492	88.31
399.717	82.31
399.941	73.31
400.165	85.31
400.389	93.31
400.613	92.31
400.837	92.31
401.062	81.31
401.286	87.31
401.51	88.31
401.734	95.31
401.958	105.31
402.182	117.31
402.406	130.31
402.63	106.31
402.854	73.31
403.078	71.31
403.302	94.31
403.526	83.31
403.75	82.31
403.974	95.31
404.198	73.31
404.422	84.31
404.645	95.31
404.869	81.31
405.093	87.31
405.317	88.31
405.541	85.31
405.765	80.31
405.988	104.31
406.212	139.31
406.436	181.31
406.66	122.31
406.883	102.31
407.107	83.31
407.331	104.31
407.555	86.31
407.778	81.31
408.002	74.31
408.226	91.31
408.449	73.31
408.673	83.31
408.896	82.31
409.12	100.31
409.344	91.31
409.567	85.31
409.791	88.31
410.014	97.31
410.238	90.31
410.461	84.31
410.685	110.31
410.908	96.31
411.132	86.31
411.355	89.31
411.578	93.31
411.802	73.31
412.025	93.31
412.249	89.31
412.472	75.31
412.695	94.31
412.919	83.31
413.142	75.31
413.365	89.31
413.589	83.31
413.812	88.31
414.035	95.31
414.258	88.31
414.482	92.31
414.705	86.31
414.928	88.31
415.151	70.31
415.374	90.31
415.597	82.31
415.821	87.31
416.044	86.31
416.267	75.31
416.49	75.31
416.713	94.31
416.936	84.31
417.159	81.31
417.382	95.31
417.605	89.31
417.828	98.31
418.051	91.31
418.274	85.31
418.497	77.31
418.72	81.31
418.943	79.31
419.166	93.31
419.389	101.31
419.611	80.31
419.834	103.31
420.057	85.31
420.28	96.31
420.503	78.31
420.726	83.31
420.948	93.31
421.171	93.31
421.394	91.31
421.617	78.31
421.839	82.31
422.062	83.31
422.285	93.31
422.507	93.31
422.73	101.31
422.953	83.31
423.175	87.31
423.398	84.31
423.621	87.31
423.843	89.31
424.066	86.31
424.288	87.31
424.511	77.31
424.733	88.31
424.956	98.31
425.178	85.31
425.401	93.31
425.623	105.31
425.846	75.31
426.068	97.31
426.291	86.31
426.513	89.31
426.735	83.31
426.958	70.31
427.18	83.31
427.402	113.31
427.625	128.31
427.847	115.31
428.069	99.31
428.292	85.31
428.514	83.31
428.736	82.31
428.958	63.31
429.181	67.31
429.403	88.31
429.625	74.31
429.847	93.31
430.069	105.31
430.292	94.31
430.514	79.31
430.736	81.31
430.958	75.31
431.18	102.31
431.402	74.31
431.624	82.31
431.846	85.31
432.068	82.31
432.29	91.31
432.512	77.31
432.734	72.31
432.956	73.31
433.178	90.31
433.4	90.31
433.622	75.31
433.844	95.31
434.066	103.31
434.287	88.31
434.509	102.31
434.731	85.31
434.953	103.31
435.175	90.31
435.397	82.31
435.618	91.31
435.84	95.31
436.062	87.31
436.284	113.31
436.505	94.31
436.727	85.31
436.949	101.31
437.17	78.31
437.392	79.31
437.614	88.31
437.835	105.31
438.057	112.31
438.278	90.31
438.5	90.31
438.721	115.31
438.943	96.31
439.165	81.31
439.386	84.31
439.608	74.31
439.829	93.31
440.05	116.31
440.272	109.31
440.493	94.31
440.715	89.31
440.936	89.31
441.158	86.31
441.379	83.31
441.6	89.31
441.822	70.31
442.043	67.31
442.264	89.31
442.486	86.31
442.707	95.31
442.928	81.31
443.149	115.31
443.371	128.31
443.592	92.31
443.813	113.31
444.034	102.31
444.255	101.31
444.476	86.31
444.698	81.31
444.919	83.31
445.14	139.31
445.361	112.31
445.582	112.31
445.803	102.31
446.024	109.31
446.245	107.31
446.466	97.31
446.687	79.31
446.908	94.31
447.129	93.31
447.35	84.31
447.571	95.31
447.792	86.31
448.013	79.31
448.234	98.31
448.455	95.31
448.675	100.31
448.896	101.31
449.117	102.31
449.338	83.31
449.559	102.31
449.779	104.31
450	87.31
450.221	80.31
450.442	79.31
450.662	87.31
450.883	98.31
451.104	109.31
451.324	89.31
451.545	91.31
451.766	89.31
451.986	81.31
452.207	80.31
452.428	88.31
452.648	101.31
452.869	103.31
453.089	99.31
453.31	88.31
453.53	95.31
453.751	90.31
453.971	96.31
454.192	95.31
454.412	89.31
454.633	84.31
454.853	90.31
455.073	78.31
455.294	83.31
455.514	89.31
455.734	93.31
455.955	63.31
456.175	81.31
456.395	63.31
456.616	70.31
456.836	85.31
457.056	102.31
457.276	90.31
457.497	86.31
457.717	87.31
457.937	100.31
458.157	91.31
458.377	89.31
458.598	98.31
458.818	125.31
459.038	128.31
459.258	107.31
459.478	72.31
459.698	91.31
459.918	74.31
460.138	74.31
460.358	83.31
460.578	83.31
460.798	83.31
461.018	85.31
461.238	77.31
461.458	85.31
461.678	88.31
461.898	88.31
462.118	81.31
462.338	83.31
462.558	92.31
462.777	99.31
462.997	87.31
463.217	81.31
463.437	75.31
463.657	85.31
463.876	85.31
464.096	88.31
464.316	84.31
464.536	84.31
464.755	96.31
464.975	98.31
465.195	133.31
465.414	151.31
465.634	105.31
465.854	79.31
466.073	85.31
466.293	89.31
466.512	73.31
466.732	87.31
466.951	97.31
467.171	111.31
467.391	83.31
467.61	89.31
467.829	91.31
468.049	107.31
468.268	120.31
468.488	99.31
468.707	94.31
468.927	83.31
469.146	87.31
469.365	68.31
469.585	90.31
469.804	98.31
470.023	107.31
470.243	83.31
470.462	81.31
470.681	108.31
470.901	83.31
471.12	78.31
471.339	87.31
471.558	86.31
471.777	94.31
471.997	93.31
472.216	159.31
472.435	260.31
472.654	114.31
472.873	85.31
473.092	97.31
473.311	84.31
473.53	88.31
473.749	102.31
473.968	94.31
474.187	92.31
474.406	93.31
474.625	100.31
474.844	82.31
475.063	87.31
475.282	83.31
475.501	86.31
475.72	68.31
475.939	98.31
476.158	79.31
476.377	88.31
476.596	85.31
476.814	90.31
477.033	95.31
477.252	80.31
477.471	97.31
477.69	82.31
477.908	93.31
478.127	84.31
478.346	85.31
478.564	94.31
478.783	97.31
479.002	88.31
479.22	96.31
479.439	88.31
479.658	117.31
479.876	93.31
480.095	99.31
480.313	101.31
480.532	85.31
480.751	102.31
480.969	165.31
481.188	386.31
481.406	271.31
481.624	101.31
481.843	79.31
482.061	87.31
482.28	90.31
482.498	95.31
482.717	88.31
482.935	77.31
483.153	81.31
483.372	81.31
483.59	86.31
483.808	93.31
484.027	81.31
484.245	90.31
484.463	82.31
484.681	85.31
484.9	86.31
485.118	95.31
485.336	104.31
485.554	98.31
485.772	101.31
485.99	115.31
486.209	122.31
486.427	95.31
486.645	89.31
486.863	113.31
487.081	93.31
487.299	95.31
487.517	84.31
487.735	107.31
487.953	94.31
488.171	96.31
488.389	90.31
488.607	80.31
488.825	109.31
489.043	90.31
489.261	93.31
489.479	87.31
489.696	86.31
489.914	88.31
490.132	86.31
490.35	72.31
490.568	85.31
490.786	86.31
491.003	89.31
491.221	79.31
491.439	91.31
491.657	103.31
491.874	93.31
492.092	94.31
492.31	93.31
492.527	96.31
492.745	87.31
492.963	89.31
493.18	103.31
493.398	106.31
493.615	110.31
493.833	99.31
494.05	101.31
494.268	85.31
494.485	88.31
494.703	93.31
494.92	95.31
495.138	88.31
495.355	95.31
495.573	97.31
495.79	86.31
496.008	94.31
496.225	85.31
496.442	71.31
496.66	97.31
496.877	84.31
497.094	81.31
497.312	88.31
497.529	97.31
497.746	85.31
497.963	80.31
498.181	83.31
498.398	85.31
498.615	95.31
498.832	95.31
499.049	91.31
499.267	88.31
499.484	97.31
499.701	93.31
499.918	91.31
500.135	81.31
500.352	77.31
500.569	93.31
500.786	81.31
501.003	91.31
501.22	94.31
501.437	61.31
501.654	79.31
501.871	97.31
502.088	85.31
502.305	88.31
502.522	90.31
502.739	91.31
502.956	90.31
503.172	80.31
503.389	100.31
503.606	103.31
503.823	96.31
504.04	92.31
504.256	93.31
504.473	97.31
504.69	90.31
504.907	81.31
505.123	93.31
505.34	88.31
505.557	87.31
505.773	75.31
505.99	79.31
506.207	88.31
506.423	86.31
506.64	77.31
506.856	93.31
507.073	89.31
507.289	90.31
507.506	92.31
507.722	99.31
507.939	94.31
508.155	83.31
508.372	87.31
508.588	85.31
508.805	91.31
509.021	81.31
509.238	111.31
509.454	114.31
509.67	82.31
509.887	107.31
510.103	119.31
510.319	189.31
510.536	586.31
510.752	1871.31
510.968	498.31
511.184	143.31
511.401	109.31
511.617	105.31
511.833	103.31
512.049	97.31
512.265	87.31
512.481	90.31
512.698	83.31
512.914	85.31
513.13	98.31
513.346	102.31
513.562	87.31
513.778	89.31
513.994	93.31
514.21	95.31
514.426	108.31
514.642	109.31
514.858	116.31
515.074	151.31
515.29	354.31
515.506	1068.31
515.721	398.31
515.937	134.31
516.153	93.31
516.369	89.31
516.585	89.31
