Data from Circ_1983_H10_HRD10591_00084.txt Node
Date: Wed Jan 03 12:27:01 EST 2024
User: Yrep
Spectrometer: HR+D1059
Trigger mode: 1
Integration Time (sec): 1.000000E-1
Scans to average: 1
Electric dark correction enabled: true
Nonlinearity correction enabled: false
Boxcar width: 0
XAxis mode: Wavelengths
Number of Pixels in Spectrum: 2048
>>>>>Begin Spectral Data<<<<<
223.165	-5.44
223.4	-5.44
223.635	-5.44
223.869	-16.44
224.104	-17.44
224.338	-31.44
224.573	-14.44
224.808	-12.44
225.042	-11.44
225.277	-10.44
225.511	6.56
225.746	6.56
225.98	5.56
226.215	14.56
226.449	16.56
226.683	14.56
226.918	23.56
227.152	31.56
227.387	46.56
227.621	30.56
227.856	48.56
228.09	34.56
228.324	72.56
228.559	44.56
228.793	49.56
229.027	52.56
229.262	68.56
229.496	69.56
229.73	82.56
229.964	80.56
230.199	64.56
230.433	80.56
230.667	86.56
230.901	68.56
231.136	89.56
231.37	100.56
231.604	85.56
231.838	66.56
232.072	90.56
232.306	83.56
232.541	76.56
232.775	73.56
233.009	73.56
233.243	88.56
233.477	86.56
233.711	99.56
233.945	84.56
234.179	90.56
234.413	75.56
234.647	78.56
234.881	76.56
235.115	90.56
235.349	68.56
235.583	72.56
235.817	76.56
236.051	81.56
236.285	76.56
236.519	75.56
236.753	71.56
236.987	77.56
237.221	92.56
237.455	81.56
237.689	73.56
237.922	76.56
238.156	74.56
238.39	62.56
238.624	78.56
238.858	79.56
239.091	79.56
239.325	73.56
239.559	94.56
239.793	80.56
240.027	80.56
240.26	87.56
240.494	76.56
240.728	85.56
240.961	75.56
241.195	72.56
241.429	83.56
241.662	83.56
241.896	92.56
242.13	72.56
242.363	75.56
242.597	86.56
242.83	81.56
243.064	73.56
243.298	76.56
243.531	83.56
243.765	74.56
243.998	76.56
244.232	82.56
244.465	80.56
244.699	86.56
244.932	85.56
245.166	80.56
245.399	86.56
245.633	77.56
245.866	95.56
246.099	83.56
246.333	70.56
246.566	80.56
246.8	66.56
247.033	70.56
247.266	77.56
247.5	85.56
247.733	75.56
247.966	88.56
248.2	81.56
248.433	77.56
248.666	73.56
248.899	87.56
249.133	71.56
249.366	98.56
249.599	92.56
249.832	92.56
250.066	85.56
250.299	77.56
250.532	86.56
250.765	72.56
250.998	75.56
251.231	68.56
251.465	70.56
251.698	81.56
251.931	68.56
252.164	75.56
252.397	75.56
252.63	85.56
252.863	77.56
253.096	87.56
253.329	101.56
253.562	78.56
253.795	75.56
254.028	88.56
254.261	84.56
254.494	75.56
254.727	72.56
254.96	84.56
255.193	72.56
255.426	86.56
255.659	72.56
255.892	90.56
256.124	94.56
256.357	76.56
256.59	71.56
256.823	77.56
257.056	81.56
257.289	77.56
257.521	91.56
257.754	74.56
257.987	72.56
258.22	85.56
258.452	78.56
258.685	84.56
258.918	92.56
259.151	91.56
259.383	87.56
259.616	77.56
259.849	74.56
260.081	85.56
260.314	83.56
260.547	81.56
260.779	78.56
261.012	79.56
261.244	94.56
261.477	76.56
261.71	87.56
261.942	92.56
262.175	92.56
262.407	85.56
262.64	92.56
262.872	80.56
263.105	80.56
263.337	80.56
263.57	69.56
263.802	84.56
264.035	77.56
264.267	78.56
264.499	96.56
264.732	88.56
264.964	80.56
265.197	61.56
265.429	84.56
265.661	72.56
265.894	77.56
266.126	91.56
266.358	86.56
266.591	78.56
266.823	74.56
267.055	74.56
267.287	83.56
267.52	84.56
267.752	74.56
267.984	86.56
268.216	74.56
268.448	85.56
268.681	92.56
268.913	96.56
269.145	82.56
269.377	81.56
269.609	84.56
269.841	80.56
270.073	88.56
270.306	99.56
270.538	78.56
270.77	90.56
271.002	84.56
271.234	94.56
271.466	93.56
271.698	78.56
271.93	74.56
272.162	83.56
272.394	92.56
272.626	84.56
272.858	93.56
273.09	90.56
273.322	87.56
273.553	92.56
273.785	86.56
274.017	68.56
274.249	99.56
274.481	84.56
274.713	71.56
274.945	81.56
275.176	84.56
275.408	85.56
275.64	76.56
275.872	82.56
276.104	95.56
276.335	86.56
276.567	94.56
276.799	102.56
277.031	94.56
277.262	100.56
277.494	89.56
277.726	91.56
277.957	90.56
278.189	77.56
278.421	70.56
278.652	77.56
278.884	92.56
279.115	99.56
279.347	85.56
279.579	88.56
279.81	96.56
280.042	98.56
280.273	107.56
280.505	109.56
280.736	96.56
280.968	84.56
281.199	77.56
281.431	71.56
281.662	84.56
281.894	90.56
282.125	84.56
282.356	119.56
282.588	133.56
282.819	103.56
283.051	83.56
283.282	74.56
283.513	70.56
283.745	95.56
283.976	87.56
284.207	100.56
284.439	92.56
284.67	86.56
284.901	84.56
285.132	86.56
285.364	88.56
285.595	90.56
285.826	84.56
286.057	80.56
286.288	65.56
286.52	88.56
286.751	84.56
286.982	92.56
287.213	83.56
287.444	82.56
287.675	77.56
287.906	96.56
288.138	88.56
288.369	101.56
288.6	89.56
288.831	98.56
289.062	97.56
289.293	87.56
289.524	102.56
289.755	89.56
289.986	96.56
290.217	70.56
290.448	98.56
290.679	93.56
290.91	101.56
291.141	97.56
291.371	89.56
291.602	98.56
291.833	86.56
292.064	91.56
292.295	96.56
292.526	92.56
292.757	90.56
292.987	98.56
293.218	92.56
293.449	99.56
293.68	92.56
293.91	103.56
294.141	93.56
294.372	89.56
294.603	78.56
294.833	100.56
295.064	97.56
295.295	99.56
295.525	90.56
295.756	94.56
295.987	110.56
296.217	130.56
296.448	115.56
296.679	100.56
296.909	87.56
297.14	97.56
297.37	85.56
297.601	91.56
297.831	89.56
298.062	93.56
298.292	93.56
298.523	86.56
298.753	84.56
298.984	89.56
299.214	86.56
299.445	97.56
299.675	84.56
299.905	84.56
300.136	93.56
300.366	92.56
300.597	98.56
300.827	93.56
301.057	94.56
301.288	108.56
301.518	99.56
301.748	99.56
301.979	110.56
302.209	92.56
302.439	88.56
302.669	96.56
302.9	98.56
303.13	90.56
303.36	93.56
303.59	106.56
303.82	104.56
304.051	99.56
304.281	96.56
304.511	102.56
304.741	92.56
304.971	103.56
305.201	90.56
305.431	77.56
305.661	88.56
305.891	92.56
306.121	91.56
306.352	87.56
306.582	106.56
306.812	90.56
307.042	103.56
307.272	99.56
307.502	81.56
307.731	102.56
307.961	81.56
308.191	88.56
308.421	100.56
308.651	94.56
308.881	89.56
309.111	100.56
309.341	102.56
309.571	99.56
309.8	78.56
310.03	91.56
310.26	105.56
310.49	90.56
310.72	88.56
310.949	101.56
311.179	97.56
311.409	88.56
311.639	86.56
311.868	93.56
312.098	93.56
312.328	97.56
312.557	96.56
312.787	100.56
313.017	88.56
313.246	98.56
313.476	96.56
313.706	92.56
313.935	101.56
314.165	86.56
314.394	85.56
314.624	96.56
314.853	94.56
315.083	83.56
315.312	84.56
315.542	72.56
315.771	93.56
316.001	84.56
316.23	77.56
316.46	86.56
316.689	96.56
316.919	70.56
317.148	91.56
317.377	95.56
317.607	86.56
317.836	87.56
318.065	101.56
318.295	110.56
318.524	81.56
318.753	87.56
318.983	89.56
319.212	107.56
319.441	107.56
319.67	97.56
319.9	82.56
320.129	77.56
320.358	87.56
320.587	92.56
320.816	107.56
321.046	106.56
321.275	89.56
321.504	100.56
321.733	104.56
321.962	92.56
322.191	103.56
322.42	86.56
322.649	101.56
322.878	103.56
323.108	107.56
323.337	112.56
323.566	113.56
323.795	136.56
324.024	178.56
324.253	297.56
324.482	599.56
324.71	1208.56
324.939	1573.56
325.168	598.56
325.397	212.56
325.626	123.56
325.855	130.56
326.084	105.56
326.313	129.56
326.542	132.56
326.77	202.56
326.999	357.56
327.228	687.56
327.457	1234.56
327.686	1000.56
327.914	297.56
328.143	201.56
328.372	168.56
328.6	139.56
328.829	109.56
329.058	111.56
329.287	108.56
329.515	106.56
329.744	126.56
329.972	147.56
330.201	202.56
330.43	238.56
330.658	151.56
330.887	139.56
331.115	119.56
331.344	96.56
331.572	86.56
331.801	83.56
332.03	98.56
332.258	77.56
332.486	95.56
332.715	99.56
332.943	94.56
333.172	99.56
333.4	105.56
333.629	97.56
333.857	113.56
334.085	139.56
334.314	209.56
334.542	294.56
334.771	275.56
334.999	124.56
335.227	106.56
335.455	92.56
335.684	99.56
335.912	87.56
336.14	114.56
336.369	102.56
336.597	109.56
336.825	93.56
337.053	100.56
337.281	101.56
337.51	87.56
337.738	105.56
337.966	103.56
338.194	96.56
338.422	96.56
338.65	95.56
338.878	99.56
339.106	104.56
339.334	90.56
339.562	106.56
339.79	99.56
340.018	94.56
340.246	94.56
340.474	89.56
340.702	109.56
340.93	92.56
341.158	99.56
341.386	93.56
341.614	106.56
341.842	100.56
342.07	98.56
342.298	85.56
342.526	94.56
342.754	98.56
342.981	95.56
343.209	84.56
343.437	98.56
343.665	93.56
343.893	96.56
344.12	95.56
344.348	102.56
344.576	94.56
344.804	77.56
345.031	96.56
345.259	98.56
345.487	101.56
345.714	80.56
345.942	84.56
346.17	86.56
346.397	95.56
346.625	105.56
346.853	101.56
347.08	86.56
347.308	73.56
347.535	96.56
347.763	94.56
347.99	113.56
348.218	113.56
348.445	117.56
348.673	101.56
348.9	115.56
349.128	88.56
349.355	85.56
349.583	75.56
349.81	97.56
350.037	92.56
350.265	94.56
350.492	101.56
350.72	92.56
350.947	92.56
351.174	109.56
351.402	102.56
351.629	90.56
351.856	95.56
352.083	100.56
352.311	108.56
352.538	96.56
352.765	101.56
352.992	114.56
353.22	101.56
353.447	99.56
353.674	102.56
353.901	92.56
354.128	97.56
354.355	118.56
354.583	103.56
354.81	92.56
355.037	90.56
355.264	96.56
355.491	83.56
355.718	90.56
355.945	98.56
356.172	95.56
356.399	98.56
356.626	110.56
356.853	105.56
357.08	97.56
357.307	99.56
357.534	102.56
357.761	97.56
357.988	85.56
358.215	84.56
358.441	87.56
358.668	107.56
358.895	87.56
359.122	87.56
359.349	96.56
359.576	92.56
359.802	83.56
360.029	92.56
360.256	101.56
360.483	96.56
360.709	98.56
360.936	97.56
361.163	96.56
361.39	82.56
361.616	91.56
361.843	89.56
362.07	100.56
362.296	93.56
362.523	80.56
362.749	97.56
362.976	98.56
363.203	104.56
363.429	85.56
363.656	93.56
363.882	82.56
364.109	84.56
364.335	94.56
364.562	93.56
364.788	92.56
365.015	89.56
365.241	91.56
365.468	90.56
365.694	106.56
365.92	91.56
366.147	77.56
366.373	95.56
366.599	86.56
366.826	88.56
367.052	88.56
367.278	98.56
367.505	105.56
367.731	98.56
367.957	94.56
368.184	101.56
368.41	96.56
368.636	109.56
368.862	108.56
369.089	97.56
369.315	75.56
369.541	83.56
369.767	84.56
369.993	90.56
370.219	101.56
370.445	93.56
370.672	97.56
370.898	82.56
371.124	107.56
371.35	84.56
371.576	86.56
371.802	95.56
372.028	73.56
372.254	88.56
372.48	89.56
372.706	79.56
372.932	95.56
373.158	89.56
373.384	103.56
373.61	93.56
373.835	99.56
374.061	84.56
374.287	88.56
374.513	90.56
374.739	90.56
374.965	90.56
375.191	85.56
375.416	88.56
375.642	97.56
375.868	87.56
376.094	87.56
376.319	90.56
376.545	84.56
376.771	88.56
376.997	90.56
377.222	86.56
377.448	100.56
377.674	82.56
377.899	91.56
378.125	100.56
378.35	94.56
378.576	88.56
378.802	99.56
379.027	110.56
379.253	107.56
379.478	87.56
379.704	99.56
379.929	97.56
380.155	88.56
380.38	86.56
380.606	100.56
380.831	88.56
381.057	94.56
381.282	94.56
381.507	96.56
381.733	106.56
381.958	92.56
382.184	109.56
382.409	85.56
382.634	76.56
382.86	101.56
383.085	109.56
383.31	104.56
383.535	98.56
383.761	93.56
383.986	106.56
384.211	95.56
384.436	94.56
384.662	97.56
384.887	93.56
385.112	100.56
385.337	103.56
385.562	104.56
385.787	101.56
386.013	104.56
386.238	105.56
386.463	96.56
386.688	104.56
386.913	105.56
387.138	109.56
387.363	110.56
387.588	91.56
387.813	106.56
388.038	108.56
388.263	114.56
388.488	109.56
388.713	97.56
388.938	81.56
389.163	99.56
389.387	93.56
389.612	98.56
389.837	70.56
390.062	89.56
390.287	86.56
390.512	88.56
390.736	92.56
390.961	94.56
391.186	91.56
391.411	101.56
391.636	98.56
391.86	110.56
392.085	82.56
392.31	98.56
392.534	97.56
392.759	84.56
392.984	75.56
393.208	106.56
393.433	103.56
393.658	102.56
393.882	71.56
394.107	90.56
394.331	87.56
394.556	94.56
394.78	94.56
395.005	93.56
395.229	88.56
395.454	101.56
395.678	109.56
395.903	96.56
396.127	88.56
396.352	75.56
396.576	92.56
396.801	83.56
397.025	76.56
397.249	91.56
397.474	83.56
397.698	75.56
397.922	93.56
398.147	65.56
398.371	91.56
398.595	86.56
398.82	82.56
399.044	82.56
399.268	85.56
399.492	88.56
399.717	95.56
399.941	89.56
400.165	90.56
400.389	97.56
400.613	99.56
400.837	90.56
401.062	90.56
401.286	91.56
401.51	90.56
401.734	97.56
401.958	96.56
402.182	108.56
402.406	128.56
402.63	95.56
402.854	102.56
403.078	86.56
403.302	93.56
403.526	87.56
403.75	101.56
403.974	92.56
404.198	89.56
404.422	86.56
404.645	97.56
404.869	92.56
405.093	101.56
405.317	103.56
405.541	88.56
405.765	105.56
405.988	114.56
406.212	141.56
406.436	171.56
406.66	115.56
406.883	98.56
407.107	75.56
407.331	94.56
407.555	112.56
407.778	95.56
408.002	95.56
408.226	107.56
408.449	88.56
408.673	102.56
408.896	87.56
409.12	112.56
409.344	105.56
409.567	96.56
409.791	89.56
410.014	104.56
410.238	90.56
410.461	79.56
410.685	94.56
410.908	114.56
411.132	95.56
411.355	93.56
411.578	89.56
411.802	74.56
412.025	102.56
412.249	91.56
412.472	97.56
412.695	108.56
412.919	100.56
413.142	84.56
413.365	96.56
413.589	87.56
413.812	91.56
414.035	101.56
414.258	80.56
414.482	88.56
414.705	93.56
414.928	96.56
415.151	89.56
415.374	100.56
415.597	92.56
415.821	87.56
416.044	89.56
416.267	106.56
416.49	83.56
416.713	84.56
416.936	83.56
417.159	88.56
417.382	85.56
417.605	96.56
417.828	105.56
418.051	103.56
418.274	95.56
418.497	82.56
418.72	88.56
418.943	86.56
419.166	89.56
419.389	102.56
419.611	100.56
419.834	70.56
420.057	84.56
420.28	81.56
420.503	95.56
420.726	97.56
420.948	77.56
421.171	93.56
421.394	94.56
421.617	104.56
421.839	101.56
422.062	74.56
422.285	93.56
422.507	108.56
422.73	104.56
422.953	87.56
423.175	95.56
423.398	87.56
423.621	83.56
423.843	80.56
424.066	94.56
424.288	82.56
424.511	99.56
424.733	87.56
424.956	106.56
425.178	88.56
425.401	96.56
425.623	99.56
425.846	89.56
426.068	93.56
426.291	86.56
426.513	92.56
426.735	88.56
426.958	100.56
427.18	98.56
427.402	104.56
427.625	139.56
427.847	133.56
428.069	115.56
428.292	105.56
428.514	96.56
428.736	94.56
428.958	102.56
429.181	96.56
429.403	91.56
429.625	100.56
429.847	97.56
430.069	103.56
430.292	93.56
430.514	89.56
430.736	92.56
430.958	105.56
431.18	104.56
431.402	74.56
431.624	86.56
431.846	86.56
432.068	84.56
432.29	77.56
432.512	94.56
432.734	84.56
432.956	71.56
433.178	86.56
433.4	105.56
433.622	96.56
433.844	98.56
434.066	89.56
434.287	82.56
434.509	86.56
434.731	87.56
434.953	88.56
435.175	97.56
435.397	87.56
435.618	88.56
435.84	104.56
436.062	91.56
436.284	104.56
436.505	93.56
436.727	90.56
436.949	96.56
437.17	89.56
437.392	91.56
437.614	90.56
437.835	105.56
438.057	94.56
438.278	97.56
438.5	96.56
438.721	105.56
438.943	91.56
439.165	97.56
439.386	80.56
439.608	95.56
439.829	82.56
440.05	123.56
440.272	138.56
440.493	107.56
440.715	89.56
440.936	91.56
441.158	105.56
441.379	86.56
441.6	83.56
441.822	78.56
442.043	107.56
442.264	101.56
442.486	91.56
442.707	84.56
442.928	104.56
443.149	117.56
443.371	109.56
443.592	94.56
443.813	103.56
444.034	101.56
444.255	92.56
444.476	100.56
444.698	82.56
444.919	90.56
445.14	139.56
445.361	121.56
445.582	120.56
445.803	112.56
446.024	135.56
446.245	114.56
446.466	95.56
446.687	83.56
446.908	88.56
447.129	92.56
447.35	93.56
447.571	98.56
447.792	96.56
448.013	104.56
448.234	98.56
448.455	114.56
448.675	93.56
448.896	101.56
449.117	93.56
449.338	99.56
449.559	113.56
449.779	104.56
450	96.56
450.221	82.56
450.442	99.56
450.662	77.56
450.883	86.56
451.104	92.56
451.324	106.56
451.545	76.56
451.766	89.56
451.986	91.56
452.207	97.56
452.428	104.56
452.648	99.56
452.869	91.56
453.089	96.56
453.31	102.56
453.53	77.56
453.751	84.56
453.971	104.56
454.192	102.56
454.412	95.56
454.633	89.56
454.853	76.56
455.073	94.56
455.294	89.56
455.514	84.56
455.734	89.56
455.955	85.56
456.175	92.56
456.395	90.56
456.616	85.56
456.836	74.56
457.056	85.56
457.276	97.56
457.497	96.56
457.717	99.56
457.937	101.56
458.157	72.56
458.377	98.56
458.598	105.56
458.818	137.56
459.038	137.56
459.258	97.56
459.478	89.56
459.698	87.56
459.918	76.56
460.138	80.56
460.358	80.56
460.578	65.56
460.798	92.56
461.018	92.56
461.238	86.56
461.458	84.56
461.678	98.56
461.898	92.56
462.118	93.56
462.338	85.56
462.558	77.56
462.777	74.56
462.997	85.56
463.217	92.56
463.437	107.56
463.657	75.56
463.876	93.56
464.096	100.56
464.316	80.56
464.536	88.56
464.755	93.56
464.975	111.56
465.195	135.56
465.414	133.56
465.634	84.56
465.854	98.56
466.073	88.56
466.293	92.56
466.512	74.56
466.732	84.56
466.951	90.56
467.171	90.56
467.391	97.56
467.61	112.56
467.829	90.56
468.049	134.56
468.268	170.56
468.488	93.56
468.707	99.56
468.927	101.56
469.146	81.56
469.365	90.56
469.585	100.56
469.804	100.56
470.023	93.56
470.243	108.56
470.462	102.56
470.681	100.56
470.901	86.56
471.12	88.56
471.339	103.56
471.558	93.56
471.777	96.56
471.997	116.56
472.216	217.56
472.435	388.56
472.654	146.56
472.873	82.56
473.092	91.56
473.311	86.56
473.53	89.56
473.749	102.56
473.968	88.56
474.187	95.56
474.406	90.56
474.625	85.56
474.844	81.56
475.063	104.56
475.282	96.56
475.501	92.56
475.72	103.56
475.939	82.56
476.158	86.56
476.377	91.56
476.596	92.56
476.814	91.56
477.033	96.56
477.252	105.56
477.471	80.56
477.69	90.56
477.908	88.56
478.127	84.56
478.346	104.56
478.564	104.56
478.783	91.56
479.002	86.56
479.22	104.56
479.439	104.56
479.658	95.56
479.876	93.56
480.095	90.56
480.313	101.56
480.532	89.56
480.751	111.56
480.969	219.56
481.188	644.56
481.406	386.56
481.624	122.56
481.843	103.56
482.061	94.56
482.28	90.56
482.498	93.56
482.717	71.56
482.935	87.56
483.153	95.56
483.372	80.56
483.59	88.56
483.808	91.56
484.027	92.56
484.245	98.56
484.463	93.56
484.681	104.56
484.9	78.56
485.118	92.56
485.336	108.56
485.554	93.56
485.772	108.56
485.99	100.56
486.209	94.56
486.427	105.56
486.645	98.56
486.863	95.56
487.081	99.56
487.299	90.56
487.517	95.56
487.735	86.56
487.953	95.56
488.171	92.56
488.389	104.56
488.607	90.56
488.825	90.56
489.043	91.56
489.261	99.56
489.479	100.56
489.696	89.56
489.914	102.56
490.132	73.56
490.35	79.56
490.568	85.56
490.786	90.56
491.003	88.56
491.221	107.56
491.439	91.56
491.657	81.56
491.874	86.56
492.092	101.56
492.31	98.56
492.527	85.56
492.745	98.56
492.963	95.56
493.18	97.56
493.398	97.56
493.615	97.56
493.833	81.56
494.05	89.56
494.268	87.56
494.485	99.56
494.703	84.56
494.92	89.56
495.138	106.56
495.355	93.56
495.573	80.56
495.79	85.56
496.008	85.56
496.225	84.56
496.442	99.56
496.66	99.56
496.877	95.56
497.094	82.56
497.312	94.56
497.529	90.56
497.746	91.56
497.963	102.56
498.181	100.56
498.398	86.56
498.615	83.56
498.832	88.56
499.049	93.56
499.267	81.56
499.484	94.56
499.701	90.56
499.918	101.56
500.135	98.56
500.352	97.56
500.569	84.56
500.786	98.56
501.003	96.56
501.22	99.56
501.437	99.56
501.654	95.56
501.871	102.56
502.088	90.56
502.305	94.56
502.522	101.56
502.739	88.56
502.956	92.56
503.172	90.56
503.389	102.56
503.606	109.56
503.823	101.56
504.04	96.56
504.256	94.56
504.473	91.56
504.69	82.56
504.907	77.56
505.123	84.56
505.34	106.56
505.557	105.56
505.773	100.56
505.99	90.56
506.207	85.56
506.423	85.56
506.64	83.56
506.856	93.56
507.073	88.56
507.289	101.56
507.506	86.56
507.722	103.56
507.939	101.56
508.155	95.56
508.372	92.56
508.588	100.56
508.805	93.56
509.021	97.56
509.238	96.56
509.454	99.56
509.67	97.56
509.887	114.56
510.103	114.56
510.319	158.56
510.536	564.56
510.752	1722.56
510.968	500.56
511.184	146.56
511.401	108.56
511.617	106.56
511.833	88.56
512.049	89.56
512.265	95.56
512.481	98.56
512.698	98.56
512.914	86.56
513.13	104.56
513.346	60.56
513.562	84.56
513.778	88.56
513.994	100.56
514.21	100.56
514.426	113.56
514.642	129.56
514.858	115.56
515.074	148.56
515.29	326.56
515.506	1027.56
