Data from Circ_1983_H10_HRD10591_00039.txt Node
Date: Wed Jan 03 12:26:52 EST 2024
User: Yrep
Spectrometer: HR+D1059
Trigger mode: 1
Integration Time (sec): 1.000000E-1
Scans to average: 1
Electric dark correction enabled: true
Nonlinearity correction enabled: false
Boxcar width: 0
XAxis mode: Wavelengths
Number of Pixels in Spectrum: 2048
>>>>>Begin Spectral Data<<<<<
223.165	-10.94
223.4	-10.94
223.635	-10.94
223.869	2.06
224.104	-16.94
224.338	-4.94
224.573	-22.94
224.808	-17.94
225.042	-17.94
225.277	-2.94
225.511	-3.94
225.746	-4.94
225.98	-1.94
226.215	7.06
226.449	18.06
226.683	16.06
226.918	37.06
227.152	25.06
227.387	24.06
227.621	30.06
227.856	47.06
228.09	53.06
228.324	39.06
228.559	51.06
228.793	64.06
229.027	72.06
229.262	64.06
229.496	62.06
229.73	69.06
229.964	72.06
230.199	69.06
230.433	80.06
230.667	72.06
230.901	73.06
231.136	60.06
231.37	63.06
231.604	88.06
231.838	64.06
232.072	70.06
232.306	69.06
232.541	46.06
232.775	70.06
233.009	82.06
233.243	87.06
233.477	73.06
233.711	54.06
233.945	73.06
234.179	84.06
234.413	77.06
234.647	82.06
234.881	82.06
235.115	75.06
235.349	81.06
235.583	79.06
235.817	72.06
236.051	87.06
236.285	79.06
236.519	70.06
236.753	71.06
236.987	68.06
237.221	75.06
237.455	74.06
237.689	77.06
237.922	81.06
238.156	71.06
238.39	97.06
238.624	81.06
238.858	65.06
239.091	81.06
239.325	81.06
239.559	81.06
239.793	74.06
240.027	74.06
240.26	83.06
240.494	85.06
240.728	79.06
240.961	65.06
241.195	82.06
241.429	70.06
241.662	80.06
241.896	83.06
242.13	95.06
242.363	75.06
242.597	88.06
242.83	91.06
243.064	69.06
243.298	73.06
243.531	77.06
243.765	85.06
243.998	69.06
244.232	80.06
244.465	82.06
244.699	81.06
244.932	74.06
245.166	86.06
245.399	77.06
245.633	62.06
245.866	83.06
246.099	77.06
246.333	64.06
246.566	67.06
246.8	83.06
247.033	97.06
247.266	78.06
247.5	70.06
247.733	72.06
247.966	82.06
248.2	88.06
248.433	69.06
248.666	77.06
248.899	71.06
249.133	83.06
249.366	100.06
249.599	72.06
249.832	87.06
250.066	88.06
250.299	81.06
250.532	66.06
250.765	70.06
250.998	77.06
251.231	63.06
251.465	78.06
251.698	74.06
251.931	74.06
252.164	74.06
252.397	86.06
252.63	75.06
252.863	83.06
253.096	66.06
253.329	78.06
253.562	59.06
253.795	77.06
254.028	81.06
254.261	75.06
254.494	88.06
254.727	86.06
254.96	78.06
255.193	72.06
255.426	69.06
255.659	92.06
255.892	85.06
256.124	85.06
256.357	86.06
256.59	69.06
256.823	82.06
257.056	85.06
257.289	86.06
257.521	79.06
257.754	89.06
257.987	93.06
258.22	84.06
258.452	75.06
258.685	85.06
258.918	85.06
259.151	81.06
259.383	73.06
259.616	86.06
259.849	75.06
260.081	77.06
260.314	81.06
260.547	64.06
260.779	59.06
261.012	79.06
261.244	83.06
261.477	78.06
261.71	83.06
261.942	106.06
262.175	98.06
262.407	85.06
262.64	73.06
262.872	86.06
263.105	66.06
263.337	81.06
263.57	81.06
263.802	82.06
264.035	75.06
264.267	91.06
264.499	96.06
264.732	74.06
264.964	81.06
265.197	79.06
265.429	74.06
265.661	85.06
265.894	79.06
266.126	86.06
266.358	71.06
266.591	85.06
266.823	92.06
267.055	63.06
267.287	79.06
267.52	86.06
267.752	93.06
267.984	74.06
268.216	86.06
268.448	77.06
268.681	87.06
268.913	79.06
269.145	71.06
269.377	74.06
269.609	79.06
269.841	84.06
270.073	79.06
270.306	79.06
270.538	89.06
270.77	73.06
271.002	73.06
271.234	71.06
271.466	74.06
271.698	75.06
271.93	93.06
272.162	81.06
272.394	95.06
272.626	81.06
272.858	82.06
273.09	75.06
273.322	67.06
273.553	77.06
273.785	81.06
274.017	91.06
274.249	86.06
274.481	78.06
274.713	95.06
274.945	95.06
275.176	93.06
275.408	85.06
275.64	89.06
275.872	90.06
276.104	85.06
276.335	74.06
276.567	99.06
276.799	102.06
277.031	95.06
277.262	95.06
277.494	87.06
277.726	71.06
277.957	95.06
278.189	77.06
278.421	89.06
278.652	93.06
278.884	84.06
279.115	85.06
279.347	78.06
279.579	82.06
279.81	87.06
280.042	89.06
280.273	97.06
280.505	86.06
280.736	91.06
280.968	86.06
281.199	90.06
281.431	90.06
281.662	91.06
281.894	83.06
282.125	78.06
282.356	102.06
282.588	113.06
282.819	101.06
283.051	83.06
283.282	75.06
283.513	83.06
283.745	85.06
283.976	77.06
284.207	85.06
284.439	94.06
284.67	87.06
284.901	82.06
285.132	85.06
285.364	89.06
285.595	94.06
285.826	85.06
286.057	66.06
286.288	77.06
286.52	81.06
286.751	73.06
286.982	83.06
287.213	86.06
287.444	81.06
287.675	87.06
287.906	90.06
288.138	79.06
288.369	88.06
288.6	83.06
288.831	81.06
289.062	72.06
289.293	87.06
289.524	77.06
289.755	77.06
289.986	79.06
290.217	80.06
290.448	84.06
290.679	96.06
290.91	106.06
291.141	85.06
291.371	90.06
291.602	84.06
291.833	82.06
292.064	98.06
292.295	92.06
292.526	90.06
292.757	83.06
292.987	82.06
293.218	77.06
293.449	84.06
293.68	80.06
293.91	78.06
294.141	82.06
294.372	90.06
294.603	97.06
294.833	82.06
295.064	86.06
295.295	89.06
295.525	88.06
295.756	88.06
295.987	120.06
296.217	127.06
296.448	105.06
296.679	88.06
296.909	93.06
297.14	93.06
297.37	85.06
297.601	88.06
297.831	93.06
298.062	71.06
298.292	78.06
298.523	78.06
298.753	85.06
298.984	91.06
299.214	86.06
299.445	81.06
299.675	83.06
299.905	92.06
300.136	90.06
300.366	86.06
300.597	82.06
300.827	94.06
301.057	86.06
301.288	99.06
301.518	87.06
301.748	90.06
301.979	101.06
302.209	74.06
302.439	81.06
302.669	94.06
302.9	93.06
303.13	80.06
303.36	104.06
303.59	99.06
303.82	94.06
304.051	91.06
304.281	87.06
304.511	85.06
304.741	95.06
304.971	87.06
305.201	72.06
305.431	91.06
305.661	94.06
305.891	78.06
306.121	95.06
306.352	94.06
306.582	102.06
306.812	96.06
307.042	79.06
307.272	87.06
307.502	97.06
307.731	80.06
307.961	104.06
308.191	90.06
308.421	86.06
308.651	95.06
308.881	81.06
309.111	90.06
309.341	88.06
309.571	83.06
309.8	80.06
310.03	83.06
310.26	87.06
310.49	83.06
310.72	85.06
310.949	88.06
311.179	87.06
311.409	101.06
311.639	99.06
311.868	92.06
312.098	94.06
312.328	89.06
312.557	100.06
312.787	89.06
313.017	95.06
313.246	98.06
313.476	99.06
313.706	94.06
313.935	78.06
314.165	83.06
314.394	102.06
314.624	83.06
314.853	88.06
315.083	89.06
315.312	87.06
315.542	75.06
315.771	81.06
316.001	73.06
316.23	80.06
316.46	85.06
316.689	91.06
316.919	95.06
317.148	97.06
317.377	83.06
317.607	80.06
317.836	97.06
318.065	93.06
318.295	80.06
318.524	80.06
318.753	77.06
318.983	86.06
319.212	93.06
319.441	89.06
319.67	101.06
319.9	101.06
320.129	105.06
320.358	85.06
320.587	104.06
320.816	86.06
321.046	92.06
321.275	101.06
321.504	93.06
321.733	94.06
321.962	101.06
322.191	87.06
322.42	95.06
322.649	97.06
322.878	93.06
323.108	125.06
323.337	100.06
323.566	116.06
323.795	134.06
324.024	181.06
324.253	309.06
324.482	639.06
324.71	1317.06
324.939	1647.06
325.168	639.06
325.397	201.06
325.626	143.06
325.855	111.06
326.084	107.06
326.313	125.06
326.542	139.06
326.77	192.06
326.999	386.06
327.228	727.06
327.457	1313.06
327.686	1057.06
327.914	320.06
328.143	173.06
328.372	157.06
328.6	120.06
328.829	104.06
329.058	127.06
329.287	115.06
329.515	95.06
329.744	107.06
329.972	124.06
330.201	156.06
330.43	178.06
330.658	130.06
330.887	129.06
331.115	111.06
331.344	80.06
331.572	89.06
331.801	86.06
332.03	90.06
332.258	73.06
332.486	93.06
332.715	85.06
332.943	104.06
333.172	92.06
333.4	102.06
333.629	104.06
333.857	99.06
334.085	114.06
334.314	143.06
334.542	209.06
334.771	189.06
334.999	121.06
335.227	100.06
335.455	91.06
335.684	96.06
335.912	97.06
336.14	94.06
336.369	91.06
336.597	109.06
336.825	94.06
337.053	100.06
337.281	87.06
337.51	102.06
337.738	87.06
337.966	94.06
338.194	92.06
338.422	91.06
338.65	91.06
338.878	83.06
339.106	71.06
339.334	88.06
339.562	97.06
339.79	81.06
340.018	99.06
340.246	94.06
340.474	78.06
340.702	79.06
340.93	87.06
341.158	86.06
341.386	95.06
341.614	104.06
341.842	87.06
342.07	93.06
342.298	89.06
342.526	92.06
342.754	93.06
342.981	72.06
343.209	94.06
343.437	91.06
343.665	84.06
343.893	85.06
344.12	88.06
344.348	91.06
344.576	87.06
344.804	106.06
345.031	94.06
345.259	83.06
345.487	92.06
345.714	89.06
345.942	81.06
346.17	96.06
346.397	79.06
346.625	88.06
346.853	93.06
347.08	86.06
347.308	96.06
347.535	78.06
347.763	95.06
347.99	90.06
348.218	93.06
348.445	96.06
348.673	78.06
348.9	92.06
349.128	95.06
349.355	96.06
349.583	96.06
349.81	96.06
350.037	78.06
350.265	83.06
350.492	91.06
350.72	92.06
350.947	100.06
351.174	112.06
351.402	104.06
351.629	90.06
351.856	93.06
352.083	90.06
352.311	91.06
352.538	109.06
352.765	93.06
352.992	112.06
353.22	91.06
353.447	95.06
353.674	102.06
353.901	87.06
354.128	101.06
354.355	96.06
354.583	95.06
354.81	83.06
355.037	88.06
355.264	98.06
355.491	95.06
355.718	90.06
355.945	106.06
356.172	100.06
356.399	97.06
356.626	94.06
356.853	83.06
357.08	87.06
357.307	90.06
357.534	91.06
357.761	93.06
357.988	97.06
358.215	96.06
358.441	88.06
358.668	90.06
358.895	98.06
359.122	89.06
359.349	93.06
359.576	100.06
359.802	88.06
360.029	99.06
360.256	100.06
360.483	84.06
360.709	106.06
360.936	98.06
361.163	74.06
361.39	87.06
361.616	91.06
361.843	91.06
362.07	95.06
362.296	91.06
362.523	87.06
362.749	88.06
362.976	88.06
363.203	91.06
363.429	72.06
363.656	94.06
363.882	94.06
364.109	77.06
364.335	90.06
364.562	85.06
364.788	91.06
365.015	87.06
365.241	95.06
365.468	100.06
365.694	91.06
365.92	93.06
366.147	85.06
366.373	78.06
366.599	88.06
366.826	91.06
367.052	85.06
367.278	94.06
367.505	85.06
367.731	91.06
367.957	85.06
368.184	94.06
368.41	92.06
368.636	94.06
368.862	115.06
369.089	100.06
369.315	93.06
369.541	86.06
369.767	94.06
369.993	82.06
370.219	95.06
370.445	79.06
370.672	93.06
370.898	96.06
371.124	88.06
371.35	92.06
371.576	78.06
371.802	93.06
372.028	89.06
372.254	85.06
372.48	87.06
372.706	98.06
372.932	80.06
373.158	86.06
373.384	91.06
373.61	91.06
373.835	90.06
374.061	85.06
374.287	73.06
374.513	77.06
374.739	95.06
374.965	94.06
375.191	87.06
375.416	81.06
375.642	89.06
375.868	95.06
376.094	89.06
376.319	90.06
376.545	91.06
376.771	79.06
376.997	77.06
377.222	91.06
377.448	90.06
377.674	86.06
377.899	83.06
378.125	92.06
378.35	81.06
378.576	87.06
378.802	71.06
379.027	88.06
379.253	90.06
379.478	103.06
379.704	105.06
379.929	95.06
380.155	102.06
380.38	87.06
380.606	98.06
380.831	97.06
381.057	98.06
381.282	100.06
381.507	101.06
381.733	83.06
381.958	100.06
382.184	83.06
382.409	83.06
382.634	99.06
382.86	89.06
383.085	90.06
383.31	104.06
383.535	93.06
383.761	99.06
383.986	94.06
384.211	90.06
384.436	92.06
384.662	101.06
384.887	113.06
385.112	122.06
385.337	127.06
385.562	119.06
385.787	113.06
386.013	113.06
386.238	109.06
386.463	107.06
386.688	120.06
386.913	102.06
387.138	88.06
387.363	96.06
387.588	85.06
387.813	102.06
388.038	107.06
388.263	105.06
388.488	83.06
388.713	107.06
388.938	98.06
389.163	97.06
389.387	102.06
389.612	99.06
389.837	88.06
390.062	95.06
390.287	96.06
390.512	83.06
390.736	77.06
390.961	95.06
391.186	83.06
391.411	96.06
391.636	106.06
391.86	92.06
392.085	70.06
392.31	74.06
392.534	67.06
392.759	84.06
392.984	98.06
393.208	106.06
393.433	125.06
393.658	114.06
393.882	87.06
394.107	86.06
394.331	95.06
394.556	92.06
394.78	84.06
395.005	97.06
395.229	79.06
395.454	84.06
395.678	89.06
395.903	102.06
396.127	82.06
396.352	81.06
396.576	81.06
396.801	93.06
397.025	94.06
397.249	97.06
397.474	88.06
397.698	98.06
397.922	81.06
398.147	86.06
398.371	66.06
398.595	89.06
398.82	83.06
399.044	90.06
399.268	93.06
399.492	75.06
399.717	94.06
399.941	93.06
400.165	91.06
400.389	79.06
400.613	87.06
400.837	92.06
401.062	86.06
401.286	81.06
401.51	89.06
401.734	90.06
401.958	86.06
402.182	115.06
402.406	134.06
402.63	109.06
402.854	84.06
403.078	103.06
403.302	80.06
403.526	81.06
403.75	67.06
403.974	99.06
404.198	96.06
404.422	87.06
404.645	85.06
404.869	85.06
405.093	106.06
405.317	92.06
405.541	103.06
405.765	92.06
405.988	86.06
406.212	152.06
406.436	195.06
406.66	118.06
406.883	89.06
407.107	79.06
407.331	93.06
407.555	86.06
407.778	85.06
408.002	88.06
408.226	82.06
408.449	80.06
408.673	87.06
408.896	94.06
409.12	89.06
409.344	94.06
409.567	95.06
409.791	92.06
410.014	87.06
410.238	83.06
410.461	81.06
410.685	93.06
410.908	90.06
411.132	93.06
411.355	92.06
411.578	85.06
411.802	96.06
412.025	88.06
412.249	95.06
412.472	98.06
412.695	81.06
412.919	77.06
413.142	81.06
413.365	93.06
413.589	91.06
413.812	84.06
414.035	89.06
414.258	90.06
414.482	99.06
414.705	81.06
414.928	82.06
415.151	98.06
415.374	90.06
415.597	84.06
415.821	89.06
416.044	78.06
416.267	92.06
416.49	79.06
416.713	86.06
416.936	90.06
417.159	99.06
417.382	75.06
417.605	86.06
417.828	88.06
418.051	87.06
418.274	89.06
418.497	74.06
418.72	85.06
418.943	70.06
419.166	98.06
419.389	101.06
419.611	74.06
419.834	72.06
420.057	100.06
420.28	88.06
420.503	81.06
420.726	94.06
420.948	85.06
421.171	90.06
421.394	93.06
421.617	92.06
421.839	86.06
422.062	81.06
422.285	77.06
422.507	103.06
422.73	104.06
422.953	84.06
423.175	88.06
423.398	82.06
423.621	87.06
423.843	91.06
424.066	84.06
424.288	67.06
424.511	101.06
424.733	100.06
424.956	105.06
425.178	95.06
425.401	98.06
425.623	74.06
425.846	90.06
426.068	85.06
426.291	81.06
426.513	79.06
426.735	79.06
426.958	91.06
427.18	104.06
427.402	113.06
427.625	138.06
427.847	110.06
428.069	110.06
428.292	105.06
428.514	90.06
428.736	79.06
428.958	85.06
429.181	86.06
429.403	78.06
429.625	88.06
429.847	83.06
430.069	89.06
430.292	93.06
430.514	80.06
430.736	100.06
430.958	87.06
431.18	93.06
431.402	85.06
431.624	84.06
431.846	101.06
432.068	86.06
432.29	87.06
432.512	80.06
432.734	88.06
432.956	97.06
433.178	84.06
433.4	97.06
433.622	95.06
433.844	91.06
434.066	101.06
434.287	84.06
434.509	87.06
434.731	84.06
434.953	92.06
435.175	90.06
435.397	77.06
435.618	84.06
435.84	93.06
436.062	106.06
436.284	97.06
436.505	96.06
436.727	98.06
436.949	91.06
437.17	77.06
437.392	85.06
437.614	91.06
437.835	92.06
438.057	111.06
438.278	106.06
438.5	92.06
438.721	85.06
438.943	103.06
439.165	98.06
439.386	107.06
439.608	82.06
439.829	83.06
440.05	91.06
440.272	108.06
440.493	95.06
440.715	90.06
440.936	89.06
441.158	80.06
441.379	90.06
441.6	80.06
441.822	83.06
442.043	85.06
442.264	89.06
442.486	83.06
442.707	85.06
442.928	99.06
443.149	121.06
443.371	112.06
443.592	102.06
443.813	110.06
444.034	90.06
444.255	89.06
444.476	93.06
444.698	103.06
444.919	94.06
445.14	115.06
445.361	110.06
445.582	109.06
445.803	97.06
446.024	115.06
446.245	105.06
446.466	90.06
446.687	88.06
446.908	72.06
447.129	89.06
447.35	99.06
447.571	74.06
447.792	99.06
448.013	94.06
448.234	102.06
448.455	98.06
448.675	96.06
448.896	99.06
449.117	98.06
449.338	102.06
449.559	95.06
449.779	100.06
450	104.06
450.221	101.06
450.442	100.06
450.662	73.06
450.883	97.06
451.104	100.06
451.324	75.06
451.545	87.06
451.766	87.06
451.986	64.06
452.207	111.06
452.428	97.06
452.648	79.06
452.869	100.06
453.089	85.06
453.31	106.06
453.53	93.06
453.751	83.06
453.971	95.06
454.192	105.06
454.412	79.06
454.633	73.06
454.853	83.06
455.073	81.06
455.294	87.06
455.514	93.06
455.734	81.06
455.955	76.06
456.175	77.06
456.395	90.06
456.616	87.06
456.836	93.06
457.056	100.06
457.276	91.06
457.497	81.06
457.717	72.06
457.937	83.06
458.157	98.06
458.377	97.06
458.598	86.06
458.818	133.06
459.038	135.06
459.258	106.06
459.478	83.06
459.698	77.06
459.918	93.06
460.138	90.06
460.358	70.06
460.578	85.06
460.798	69.06
461.018	85.06
461.238	80.06
461.458	87.06
461.678	93.06
461.898	78.06
462.118	95.06
462.338	80.06
462.558	79.06
462.777	74.06
462.997	77.06
463.217	83.06
463.437	88.06
463.657	94.06
463.876	86.06
464.096	95.06
464.316	75.06
464.536	90.06
464.755	80.06
464.975	92.06
465.195	131.06
465.414	117.06
465.634	96.06
465.854	88.06
466.073	96.06
466.293	90.06
466.512	86.06
466.732	88.06
466.951	101.06
467.171	78.06
467.391	93.06
467.61	94.06
467.829	85.06
468.049	109.06
468.268	127.06
468.488	88.06
468.707	77.06
468.927	81.06
469.146	84.06
469.365	87.06
469.585	80.06
469.804	91.06
470.023	89.06
470.243	89.06
470.462	87.06
470.681	91.06
470.901	87.06
471.12	84.06
471.339	70.06
471.558	83.06
471.777	94.06
471.997	110.06
472.216	155.06
472.435	244.06
472.654	106.06
472.873	77.06
473.092	87.06
473.311	87.06
473.53	97.06
473.749	92.06
473.968	97.06
474.187	97.06
474.406	84.06
474.625	85.06
474.844	89.06
475.063	88.06
475.282	98.06
475.501	83.06
475.72	86.06
475.939	78.06
476.158	87.06
476.377	83.06
476.596	69.06
476.814	80.06
477.033	83.06
477.252	94.06
477.471	89.06
477.69	86.06
477.908	98.06
478.127	97.06
478.346	78.06
478.564	77.06
478.783	84.06
479.002	89.06
479.22	93.06
479.439	90.06
479.658	120.06
479.876	87.06
480.095	91.06
480.313	87.06
480.532	83.06
480.751	109.06
480.969	169.06
481.188	399.06
481.406	258.06
481.624	96.06
481.843	74.06
482.061	74.06
482.28	86.06
482.498	82.06
482.717	88.06
482.935	94.06
483.153	103.06
483.372	106.06
483.59	98.06
483.808	89.06
484.027	88.06
484.245	91.06
484.463	95.06
484.681	81.06
484.9	100.06
485.118	103.06
485.336	100.06
485.554	101.06
485.772	70.06
485.99	102.06
486.209	104.06
486.427	102.06
486.645	86.06
486.863	106.06
487.081	90.06
487.299	103.06
487.517	99.06
487.735	88.06
487.953	94.06
488.171	85.06
488.389	99.06
488.607	98.06
488.825	74.06
489.043	61.06
489.261	86.06
489.479	93.06
489.696	85.06
489.914	97.06
490.132	91.06
490.35	77.06
490.568	89.06
490.786	98.06
491.003	81.06
491.221	77.06
491.439	93.06
491.657	93.06
491.874	98.06
492.092	93.06
492.31	93.06
492.527	77.06
492.745	81.06
492.963	77.06
493.18	76.06
493.398	91.06
493.615	87.06
493.833	79.06
494.05	85.06
494.268	81.06
494.485	82.06
494.703	80.06
494.92	97.06
495.138	93.06
495.355	86.06
495.573	88.06
495.79	94.06
496.008	102.06
496.225	86.06
496.442	74.06
496.66	92.06
496.877	99.06
497.094	96.06
497.312	108.06
497.529	85.06
497.746	88.06
497.963	106.06
498.181	93.06
498.398	87.06
498.615	107.06
498.832	101.06
499.049	85.06
499.267	83.06
499.484	99.06
499.701	81.06
499.918	87.06
500.135	82.06
500.352	88.06
500.569	97.06
500.786	91.06
501.003	86.06
501.22	84.06
501.437	78.06
501.654	81.06
501.871	106.06
502.088	74.06
502.305	93.06
502.522	80.06
502.739	91.06
502.956	95.06
503.172	78.06
503.389	88.06
503.606	94.06
503.823	85.06
504.04	85.06
504.256	96.06
504.473	86.06
504.69	77.06
504.907	81.06
505.123	86.06
505.34	94.06
505.557	93.06
505.773	83.06
505.99	80.06
506.207	82.06
506.423	91.06
506.64	97.06
506.856	83.06
507.073	80.06
507.289	78.06
507.506	87.06
507.722	97.06
507.939	92.06
508.155	104.06
508.372	101.06
508.588	91.06
508.805	97.06
509.021	90.06
509.238	93.06
509.454	79.06
509.67	95.06
509.887	92.06
510.103	106.06
510.319	183.06
510.536	593.06
510.752	1768.06
510.968	506.06
511.184	131.06
511.401	106.06
511.617	79.06
511.833	93.06
512.049	100.06
512.265	93.06
512.481	93.06
512.698	81.06
512.914	86.06
513.13	93.06
513.346	95.06
513.562	77.06
513.778	84.06
513.994	98.06
514.21	102.06
514.426	101.06
514.642	119.06
514.858	110.06
515.074	148.06
515.29	331.06
515.506	1065.06
515.721	403.06
515.937	151.06
516.153	102.06
516.369	104.06
516.585	98.06
516.801	96.06
517.016	98.06
