Data from Circ_1983_H10_HRD10591_00090.txt Node
Date: Wed Jan 03 12:27:02 EST 2024
User: Yrep
Spectrometer: HR+D1059
Trigger mode: 1
Integration Time (sec): 1.000000E-1
Scans to average: 1
Electric dark correction enabled: true
Nonlinearity correction enabled: false
Boxcar width: 0
XAxis mode: Wavelengths
Number of Pixels in Spectrum: 2048
>>>>>Begin Spectral Data<<<<<
223.165	-12.25
223.4	-12.25
223.635	-12.25
223.869	-15.25
224.104	-17.25
224.338	-20.25
224.573	-17.25
224.808	-4.25
225.042	1.75
225.277	-0.25
225.511	-5.25
225.746	2.75
225.98	16.75
226.215	-2.25
226.449	-0.25
226.683	15.75
226.918	23.75
227.152	33.75
227.387	19.75
227.621	30.75
227.856	43.75
228.09	46.75
228.324	59.75
228.559	56.75
228.793	66.75
229.027	66.75
229.262	61.75
229.496	80.75
229.73	80.75
229.964	72.75
230.199	90.75
230.433	80.75
230.667	80.75
230.901	79.75
231.136	75.75
231.37	71.75
231.604	99.75
231.838	74.75
232.072	83.75
232.306	96.75
232.541	81.75
232.775	85.75
233.009	67.75
233.243	75.75
233.477	82.75
233.711	88.75
233.945	90.75
234.179	84.75
234.413	83.75
234.647	86.75
234.881	83.75
235.115	67.75
235.349	76.75
235.583	67.75
235.817	67.75
236.051	73.75
236.285	64.75
236.519	91.75
236.753	92.75
236.987	92.75
237.221	91.75
237.455	85.75
237.689	93.75
237.922	75.75
238.156	70.75
238.39	72.75
238.624	71.75
238.858	81.75
239.091	70.75
239.325	78.75
239.559	90.75
239.793	65.75
240.027	78.75
240.26	80.75
240.494	69.75
240.728	70.75
240.961	73.75
241.195	73.75
241.429	79.75
241.662	82.75
241.896	82.75
242.13	70.75
242.363	62.75
242.597	78.75
242.83	86.75
243.064	71.75
243.298	90.75
243.531	82.75
243.765	88.75
243.998	63.75
244.232	80.75
244.465	71.75
244.699	83.75
244.932	79.75
245.166	80.75
245.399	68.75
245.633	70.75
245.866	91.75
246.099	84.75
246.333	87.75
246.566	75.75
246.8	82.75
247.033	78.75
247.266	86.75
247.5	73.75
247.733	73.75
247.966	66.75
248.2	95.75
248.433	82.75
248.666	95.75
248.899	63.75
249.133	84.75
249.366	103.75
249.599	95.75
249.832	84.75
250.066	98.75
250.299	66.75
250.532	65.75
250.765	86.75
250.998	84.75
251.231	82.75
251.465	84.75
251.698	71.75
251.931	83.75
252.164	98.75
252.397	80.75
252.63	89.75
252.863	89.75
253.096	87.75
253.329	87.75
253.562	86.75
253.795	86.75
254.028	81.75
254.261	83.75
254.494	71.75
254.727	90.75
254.96	73.75
255.193	89.75
255.426	79.75
255.659	88.75
255.892	83.75
256.124	86.75
256.357	83.75
256.59	92.75
256.823	73.75
257.056	97.75
257.289	79.75
257.521	71.75
257.754	66.75
257.987	94.75
258.22	78.75
258.452	80.75
258.685	94.75
258.918	81.75
259.151	73.75
259.383	82.75
259.616	72.75
259.849	87.75
260.081	99.75
260.314	75.75
260.547	77.75
260.779	86.75
261.012	76.75
261.244	77.75
261.477	86.75
261.71	91.75
261.942	94.75
262.175	112.75
262.407	90.75
262.64	80.75
262.872	102.75
263.105	82.75
263.337	76.75
263.57	89.75
263.802	93.75
264.035	85.75
264.267	80.75
264.499	79.75
264.732	86.75
264.964	94.75
265.197	85.75
265.429	75.75
265.661	75.75
265.894	75.75
266.126	79.75
266.358	82.75
266.591	84.75
266.823	90.75
267.055	92.75
267.287	82.75
267.52	86.75
267.752	84.75
267.984	81.75
268.216	80.75
268.448	90.75
268.681	82.75
268.913	89.75
269.145	76.75
269.377	84.75
269.609	81.75
269.841	84.75
270.073	83.75
270.306	91.75
270.538	70.75
270.77	81.75
271.002	98.75
271.234	85.75
271.466	82.75
271.698	102.75
271.93	86.75
272.162	85.75
272.394	82.75
272.626	86.75
272.858	67.75
273.09	82.75
273.322	81.75
273.553	96.75
273.785	86.75
274.017	88.75
274.249	79.75
274.481	84.75
274.713	86.75
274.945	80.75
275.176	74.75
275.408	85.75
275.64	82.75
275.872	91.75
276.104	94.75
276.335	86.75
276.567	79.75
276.799	119.75
277.031	105.75
277.262	92.75
277.494	97.75
277.726	90.75
277.957	83.75
278.189	90.75
278.421	79.75
278.652	82.75
278.884	73.75
279.115	84.75
279.347	87.75
279.579	97.75
279.81	103.75
280.042	91.75
280.273	95.75
280.505	111.75
280.736	80.75
280.968	73.75
281.199	93.75
281.431	98.75
281.662	87.75
281.894	79.75
282.125	79.75
282.356	103.75
282.588	109.75
282.819	96.75
283.051	82.75
283.282	90.75
283.513	81.75
283.745	94.75
283.976	79.75
284.207	82.75
284.439	83.75
284.67	91.75
284.901	91.75
285.132	74.75
285.364	74.75
285.595	73.75
285.826	81.75
286.057	89.75
286.288	86.75
286.52	86.75
286.751	82.75
286.982	75.75
287.213	96.75
287.444	98.75
287.675	94.75
287.906	95.75
288.138	87.75
288.369	91.75
288.6	94.75
288.831	78.75
289.062	87.75
289.293	95.75
289.524	89.75
289.755	85.75
289.986	92.75
290.217	78.75
290.448	87.75
290.679	90.75
290.91	83.75
291.141	80.75
291.371	82.75
291.602	90.75
291.833	83.75
292.064	79.75
292.295	107.75
292.526	95.75
292.757	85.75
292.987	89.75
293.218	102.75
293.449	93.75
293.68	94.75
293.91	104.75
294.141	110.75
294.372	90.75
294.603	99.75
294.833	93.75
295.064	89.75
295.295	92.75
295.525	82.75
295.756	87.75
295.987	92.75
296.217	116.75
296.448	129.75
296.679	93.75
296.909	81.75
297.14	98.75
297.37	94.75
297.601	98.75
297.831	88.75
298.062	91.75
298.292	94.75
298.523	91.75
298.753	89.75
298.984	86.75
299.214	81.75
299.445	81.75
299.675	79.75
299.905	90.75
300.136	99.75
300.366	97.75
300.597	83.75
300.827	91.75
301.057	105.75
301.288	115.75
301.518	88.75
301.748	88.75
301.979	103.75
302.209	87.75
302.439	87.75
302.669	87.75
302.9	92.75
303.13	96.75
303.36	92.75
303.59	96.75
303.82	110.75
304.051	98.75
304.281	83.75
304.511	96.75
304.741	79.75
304.971	91.75
305.201	98.75
305.431	85.75
305.661	88.75
305.891	97.75
306.121	111.75
306.352	92.75
306.582	97.75
306.812	81.75
307.042	82.75
307.272	99.75
307.502	93.75
307.731	113.75
307.961	103.75
308.191	96.75
308.421	94.75
308.651	92.75
308.881	90.75
309.111	103.75
309.341	87.75
309.571	99.75
309.8	91.75
310.03	103.75
310.26	93.75
310.49	96.75
310.72	107.75
310.949	102.75
311.179	106.75
311.409	102.75
311.639	87.75
311.868	93.75
312.098	101.75
312.328	102.75
312.557	91.75
312.787	107.75
313.017	84.75
313.246	103.75
313.476	93.75
313.706	88.75
313.935	94.75
314.165	102.75
314.394	87.75
314.624	95.75
314.853	92.75
315.083	93.75
315.312	84.75
315.542	84.75
315.771	82.75
316.001	84.75
316.23	93.75
316.46	92.75
316.689	82.75
316.919	68.75
317.148	84.75
317.377	94.75
317.607	84.75
317.836	80.75
318.065	97.75
318.295	90.75
318.524	88.75
318.753	100.75
318.983	98.75
319.212	96.75
319.441	115.75
319.67	104.75
319.9	96.75
320.129	80.75
320.358	99.75
320.587	81.75
320.816	94.75
321.046	89.75
321.275	98.75
321.504	93.75
321.733	101.75
321.962	94.75
322.191	88.75
322.42	103.75
322.649	96.75
322.878	111.75
323.108	110.75
323.337	107.75
323.566	110.75
323.795	120.75
324.024	152.75
324.253	294.75
324.482	596.75
324.71	1189.75
324.939	1540.75
325.168	585.75
325.397	170.75
325.626	128.75
325.855	118.75
326.084	123.75
326.313	119.75
326.542	140.75
326.77	193.75
326.999	342.75
327.228	668.75
327.457	1183.75
327.686	974.75
327.914	297.75
328.143	195.75
328.372	184.75
328.6	128.75
328.829	104.75
329.058	114.75
329.287	118.75
329.515	111.75
329.744	105.75
329.972	131.75
330.201	193.75
330.43	236.75
330.658	157.75
330.887	126.75
331.115	118.75
331.344	98.75
331.572	98.75
331.801	98.75
332.03	88.75
332.258	105.75
332.486	98.75
332.715	82.75
332.943	91.75
333.172	99.75
333.4	99.75
333.629	96.75
333.857	124.75
334.085	143.75
334.314	193.75
334.542	329.75
334.771	281.75
334.999	136.75
335.227	94.75
335.455	79.75
335.684	102.75
335.912	94.75
336.14	90.75
336.369	89.75
336.597	82.75
336.825	107.75
337.053	73.75
337.281	92.75
337.51	86.75
337.738	100.75
337.966	90.75
338.194	100.75
338.422	103.75
338.65	85.75
338.878	90.75
339.106	91.75
339.334	98.75
339.562	108.75
339.79	87.75
340.018	97.75
340.246	82.75
340.474	78.75
340.702	90.75
340.93	87.75
341.158	88.75
341.386	99.75
341.614	84.75
341.842	99.75
342.07	100.75
342.298	87.75
342.526	81.75
342.754	101.75
342.981	98.75
343.209	78.75
343.437	98.75
343.665	96.75
343.893	94.75
344.12	93.75
344.348	94.75
344.576	96.75
344.804	84.75
345.031	88.75
345.259	89.75
345.487	90.75
345.714	98.75
345.942	94.75
346.17	94.75
346.397	106.75
346.625	120.75
346.853	76.75
347.08	85.75
347.308	90.75
347.535	89.75
347.763	111.75
347.99	108.75
348.218	102.75
348.445	106.75
348.673	100.75
348.9	90.75
349.128	98.75
349.355	90.75
349.583	79.75
349.81	105.75
350.037	102.75
350.265	86.75
350.492	86.75
350.72	98.75
350.947	102.75
351.174	96.75
351.402	102.75
351.629	90.75
351.856	95.75
352.083	98.75
352.311	83.75
352.538	98.75
352.765	93.75
352.992	115.75
353.22	114.75
353.447	103.75
353.674	102.75
353.901	91.75
354.128	99.75
354.355	86.75
354.583	108.75
354.81	112.75
355.037	111.75
355.264	111.75
355.491	112.75
355.718	91.75
355.945	95.75
356.172	96.75
356.399	110.75
356.626	103.75
356.853	97.75
357.08	94.75
357.307	93.75
357.534	97.75
357.761	88.75
357.988	94.75
358.215	89.75
358.441	104.75
358.668	91.75
358.895	78.75
359.122	92.75
359.349	84.75
359.576	79.75
359.802	90.75
360.029	122.75
360.256	82.75
360.483	79.75
360.709	90.75
360.936	90.75
361.163	95.75
361.39	104.75
361.616	87.75
361.843	98.75
362.07	96.75
362.296	103.75
362.523	98.75
362.749	90.75
362.976	98.75
363.203	89.75
363.429	86.75
363.656	91.75
363.882	80.75
364.109	99.75
364.335	99.75
364.562	89.75
364.788	98.75
365.015	85.75
365.241	90.75
365.468	90.75
365.694	94.75
365.92	100.75
366.147	88.75
366.373	86.75
366.599	92.75
366.826	81.75
367.052	99.75
367.278	87.75
367.505	75.75
367.731	77.75
367.957	78.75
368.184	89.75
368.41	88.75
368.636	99.75
368.862	104.75
369.089	99.75
369.315	93.75
369.541	87.75
369.767	67.75
369.993	87.75
370.219	82.75
370.445	83.75
370.672	88.75
370.898	76.75
371.124	96.75
371.35	92.75
371.576	102.75
371.802	88.75
372.028	86.75
372.254	103.75
372.48	76.75
372.706	91.75
372.932	85.75
373.158	93.75
373.384	91.75
373.61	75.75
373.835	83.75
374.061	82.75
374.287	81.75
374.513	87.75
374.739	80.75
374.965	89.75
375.191	92.75
375.416	92.75
375.642	88.75
375.868	97.75
376.094	94.75
376.319	91.75
376.545	73.75
376.771	94.75
376.997	72.75
377.222	85.75
377.448	90.75
377.674	80.75
377.899	94.75
378.125	88.75
378.35	90.75
378.576	90.75
378.802	95.75
379.027	96.75
379.253	90.75
379.478	101.75
379.704	82.75
379.929	92.75
380.155	94.75
380.38	95.75
380.606	90.75
380.831	98.75
381.057	96.75
381.282	106.75
381.507	99.75
381.733	90.75
381.958	98.75
382.184	95.75
382.409	94.75
382.634	101.75
382.86	91.75
383.085	91.75
383.31	101.75
383.535	92.75
383.761	91.75
383.986	93.75
384.211	104.75
384.436	103.75
384.662	108.75
384.887	104.75
385.112	94.75
385.337	85.75
385.562	108.75
385.787	95.75
386.013	94.75
386.238	118.75
386.463	92.75
386.688	110.75
386.913	104.75
387.138	103.75
387.363	113.75
387.588	94.75
387.813	92.75
388.038	115.75
388.263	122.75
388.488	102.75
388.713	97.75
388.938	105.75
389.163	91.75
389.387	90.75
389.612	89.75
389.837	94.75
390.062	86.75
390.287	91.75
390.512	75.75
390.736	96.75
390.961	92.75
391.186	87.75
391.411	94.75
391.636	90.75
391.86	84.75
392.085	67.75
392.31	74.75
392.534	83.75
392.759	85.75
392.984	86.75
393.208	99.75
393.433	98.75
393.658	75.75
393.882	82.75
394.107	80.75
394.331	86.75
394.556	81.75
394.78	89.75
395.005	81.75
395.229	86.75
395.454	104.75
395.678	94.75
395.903	79.75
396.127	91.75
396.352	82.75
396.576	91.75
396.801	80.75
397.025	82.75
397.249	89.75
397.474	94.75
397.698	90.75
397.922	93.75
398.147	89.75
398.371	80.75
398.595	80.75
398.82	82.75
399.044	88.75
399.268	86.75
399.492	79.75
399.717	86.75
399.941	82.75
400.165	89.75
400.389	82.75
400.613	87.75
400.837	89.75
401.062	81.75
401.286	92.75
401.51	86.75
401.734	84.75
401.958	86.75
402.182	116.75
402.406	128.75
402.63	108.75
402.854	90.75
403.078	96.75
403.302	87.75
403.526	83.75
403.75	91.75
403.974	87.75
404.198	87.75
404.422	79.75
404.645	91.75
404.869	79.75
405.093	96.75
405.317	112.75
405.541	106.75
405.765	100.75
405.988	108.75
406.212	138.75
406.436	147.75
406.66	105.75
406.883	82.75
407.107	85.75
407.331	79.75
407.555	95.75
407.778	96.75
408.002	95.75
408.226	106.75
408.449	94.75
408.673	78.75
408.896	94.75
409.12	83.75
409.344	89.75
409.567	82.75
409.791	97.75
410.014	98.75
410.238	101.75
410.461	92.75
410.685	102.75
410.908	108.75
411.132	95.75
411.355	90.75
411.578	90.75
411.802	76.75
412.025	95.75
412.249	92.75
412.472	106.75
412.695	89.75
412.919	103.75
413.142	72.75
413.365	80.75
413.589	90.75
413.812	87.75
414.035	94.75
414.258	90.75
414.482	81.75
414.705	94.75
414.928	90.75
415.151	84.75
415.374	91.75
415.597	84.75
415.821	101.75
416.044	106.75
416.267	99.75
416.49	102.75
416.713	88.75
416.936	92.75
417.159	80.75
417.382	72.75
417.605	91.75
417.828	75.75
418.051	74.75
418.274	76.75
418.497	83.75
418.72	66.75
418.943	78.75
419.166	81.75
419.389	93.75
419.611	97.75
419.834	79.75
420.057	95.75
420.28	97.75
420.503	93.75
420.726	85.75
420.948	88.75
421.171	96.75
421.394	75.75
421.617	91.75
421.839	87.75
422.062	89.75
422.285	105.75
422.507	90.75
422.73	91.75
422.953	89.75
423.175	86.75
423.398	99.75
423.621	90.75
423.843	88.75
424.066	77.75
424.288	105.75
424.511	98.75
424.733	105.75
424.956	96.75
425.178	87.75
425.401	92.75
425.623	89.75
425.846	79.75
426.068	89.75
426.291	83.75
426.513	94.75
426.735	98.75
426.958	74.75
427.18	99.75
427.402	103.75
427.625	138.75
427.847	119.75
428.069	108.75
428.292	97.75
428.514	82.75
428.736	85.75
428.958	92.75
429.181	88.75
429.403	91.75
429.625	80.75
429.847	82.75
430.069	76.75
430.292	78.75
430.514	91.75
430.736	90.75
430.958	84.75
431.18	94.75
431.402	88.75
431.624	85.75
431.846	99.75
432.068	81.75
432.29	91.75
432.512	99.75
432.734	83.75
432.956	84.75
433.178	100.75
433.4	86.75
433.622	89.75
433.844	99.75
434.066	97.75
434.287	96.75
434.509	78.75
434.731	85.75
434.953	92.75
435.175	97.75
435.397	90.75
435.618	95.75
435.84	85.75
436.062	101.75
436.284	105.75
436.505	95.75
436.727	98.75
436.949	100.75
437.17	79.75
437.392	92.75
437.614	103.75
437.835	114.75
438.057	94.75
438.278	99.75
438.5	93.75
438.721	109.75
438.943	98.75
439.165	75.75
439.386	86.75
439.608	73.75
439.829	74.75
440.05	105.75
440.272	122.75
440.493	89.75
440.715	94.75
440.936	94.75
441.158	101.75
441.379	91.75
441.6	79.75
441.822	84.75
442.043	99.75
442.264	96.75
442.486	95.75
442.707	78.75
442.928	97.75
443.149	117.75
443.371	108.75
443.592	89.75
443.813	91.75
444.034	95.75
444.255	97.75
444.476	90.75
444.698	71.75
444.919	78.75
445.14	135.75
445.361	122.75
445.582	95.75
445.803	106.75
446.024	118.75
446.245	113.75
446.466	108.75
446.687	80.75
446.908	85.75
447.129	90.75
447.35	91.75
447.571	88.75
447.792	83.75
448.013	89.75
448.234	97.75
448.455	87.75
448.675	86.75
448.896	103.75
449.117	116.75
449.338	111.75
449.559	102.75
449.779	107.75
450	104.75
450.221	96.75
450.442	87.75
450.662	79.75
450.883	87.75
451.104	119.75
451.324	106.75
451.545	94.75
451.766	68.75
451.986	88.75
452.207	67.75
452.428	98.75
452.648	87.75
452.869	94.75
453.089	89.75
453.31	85.75
453.53	81.75
453.751	100.75
453.971	96.75
454.192	86.75
454.412	89.75
454.633	86.75
454.853	83.75
455.073	83.75
455.294	80.75
455.514	98.75
455.734	90.75
455.955	89.75
456.175	85.75
456.395	84.75
456.616	81.75
456.836	87.75
457.056	78.75
457.276	95.75
457.497	76.75
457.717	89.75
457.937	80.75
458.157	74.75
458.377	84.75
458.598	85.75
458.818	107.75
459.038	144.75
459.258	104.75
459.478	84.75
459.698	98.75
459.918	82.75
460.138	69.75
460.358	72.75
460.578	84.75
460.798	98.75
461.018	88.75
461.238	90.75
461.458	89.75
461.678	82.75
461.898	81.75
462.118	75.75
462.338	83.75
462.558	87.75
462.777	75.75
462.997	75.75
463.217	87.75
463.437	83.75
463.657	84.75
463.876	76.75
464.096	66.75
464.316	90.75
464.536	94.75
464.755	87.75
464.975	87.75
465.195	136.75
465.414	122.75
465.634	81.75
465.854	81.75
466.073	93.75
466.293	88.75
466.512	93.75
466.732	86.75
466.951	87.75
467.171	97.75
467.391	87.75
467.61	96.75
467.829	97.75
468.049	140.75
468.268	165.75
468.488	93.75
468.707	86.75
468.927	92.75
469.146	73.75
469.365	98.75
469.585	71.75
469.804	104.75
470.023	77.75
470.243	82.75
470.462	91.75
470.681	106.75
470.901	83.75
471.12	86.75
471.339	87.75
471.558	83.75
471.777	94.75
471.997	114.75
472.216	225.75
472.435	387.75
472.654	160.75
472.873	100.75
473.092	87.75
473.311	88.75
473.53	80.75
473.749	99.75
473.968	83.75
474.187	80.75
474.406	90.75
474.625	70.75
474.844	83.75
475.063	90.75
475.282	86.75
475.501	89.75
475.72	93.75
475.939	77.75
476.158	93.75
476.377	94.75
476.596	95.75
476.814	97.75
477.033	94.75
477.252	78.75
477.471	78.75
477.69	100.75
477.908	89.75
478.127	96.75
478.346	89.75
478.564	90.75
478.783	91.75
479.002	72.75
479.22	87.75
479.439	88.75
479.658	103.75
479.876	82.75
480.095	86.75
480.313	98.75
480.532	103.75
480.751	121.75
480.969	223.75
481.188	663.75
481.406	390.75
481.624	123.75
481.843	92.75
482.061	84.75
482.28	74.75
482.498	94.75
482.717	79.75
482.935	91.75
483.153	106.75
483.372	92.75
483.59	82.75
483.808	98.75
484.027	92.75
484.245	98.75
484.463	103.75
484.681	100.75
484.9	89.75
485.118	88.75
485.336	88.75
485.554	91.75
485.772	91.75
485.99	96.75
486.209	100.75
486.427	100.75
486.645	91.75
486.863	123.75
487.081	96.75
487.299	89.75
487.517	86.75
487.735	87.75
487.953	98.75
488.171	102.75
488.389	98.75
488.607	88.75
488.825	90.75
489.043	88.75
489.261	80.75
489.479	83.75
489.696	105.75
489.914	96.75
490.132	94.75
490.35	103.75
490.568	86.75
490.786	71.75
491.003	100.75
491.221	84.75
491.439	76.75
491.657	87.75
491.874	86.75
492.092	77.75
492.31	90.75
492.527	79.75
492.745	79.75
492.963	78.75
493.18	80.75
493.398	94.75
493.615	98.75
493.833	92.75
494.05	76.75
494.268	88.75
494.485	80.75
494.703	92.75
494.92	89.75
495.138	85.75
495.355	70.75
495.573	96.75
495.79	94.75
496.008	91.75
496.225	90.75
496.442	90.75
496.66	83.75
496.877	91.75
497.094	78.75
497.312	88.75
497.529	87.75
497.746	98.75
497.963	91.75
498.181	75.75
498.398	107.75
498.615	112.75
498.832	111.75
499.049	78.75
499.267	85.75
499.484	87.75
499.701	97.75
499.918	94.75
500.135	93.75
500.352	94.75
500.569	76.75
500.786	86.75
501.003	91.75
501.22	72.75
501.437	86.75
501.654	95.75
501.871	103.75
502.088	95.75
502.305	93.75
502.522	84.75
502.739	88.75
502.956	83.75
503.172	72.75
503.389	101.75
503.606	98.75
503.823	91.75
504.04	92.75
504.256	78.75
504.473	74.75
504.69	86.75
504.907	89.75
505.123	84.75
505.34	101.75
505.557	84.75
505.773	89.75
505.99	108.75
506.207	82.75
506.423	78.75
506.64	69.75
506.856	78.75
507.073	82.75
507.289	96.75
507.506	99.75
507.722	106.75
507.939	96.75
508.155	103.75
508.372	90.75
508.588	90.75
508.805	105.75
509.021	98.75
509.238	108.75
509.454	84.75
509.67	94.75
509.887	105.75
510.103	107.75
510.319	162.75
510.536	533.75
510.752	1580.75
510.968	442.75
511.184	125.75
511.401	96.75
511.617	100.75
511.833	93.75
512.049	85.75
512.265	88.75
512.481	100.75
512.698	92.75
512.914	84.75
513.13	95.75
513.346	94.75
513.562	97.75
513.778	98.75
513.994	94.75
514.21	87.75
514.426	102.75
514.642	123.75
514.858	101.75
515.074	138.75
515.29	321.75
515.506	931.75
515.721	370.75
515.937	137.75
516.153	105.75
516.369	91.75
516.585	91.75
