Data from Circ_1983_H10_HRD10591_00078.txt Node
Date: Wed Jan 03 12:27:00 EST 2024
User: Yrep
Spectrometer: HR+D1059
Trigger mode: 1
Integration Time (sec): 1.000000E-1
Scans to average: 1
Electric dark correction enabled: true
Nonlinearity correction enabled: false
Boxcar width: 0
XAxis mode: Wavelengths
Number of Pixels in Spectrum: 2048
>>>>>Begin Spectral Data<<<<<
223.165	-21.12
223.4	-21.12
223.635	-21.12
223.869	-11.12
224.104	-23.12
224.338	-16.12
224.573	-11.12
224.808	-19.12
225.042	-2.12
225.277	-13.12
225.511	7.88
225.746	11.88
225.98	-0.12
226.215	10.88
226.449	21.88
226.683	19.88
226.918	19.88
227.152	24.88
227.387	35.88
227.621	35.88
227.856	37.88
228.09	42.88
228.324	53.88
228.559	57.88
228.793	71.88
229.027	79.88
229.262	69.88
229.496	58.88
229.73	72.88
229.964	71.88
230.199	73.88
230.433	76.88
230.667	65.88
230.901	77.88
231.136	63.88
231.37	81.88
231.604	79.88
231.838	70.88
232.072	66.88
232.306	86.88
232.541	76.88
232.775	72.88
233.009	73.88
233.243	88.88
233.477	84.88
233.711	79.88
233.945	86.88
234.179	92.88
234.413	91.88
234.647	69.88
234.881	84.88
235.115	71.88
235.349	82.88
235.583	83.88
235.817	70.88
236.051	81.88
236.285	85.88
236.519	86.88
236.753	85.88
236.987	70.88
237.221	84.88
237.455	77.88
237.689	61.88
237.922	81.88
238.156	66.88
238.39	73.88
238.624	77.88
238.858	64.88
239.091	65.88
239.325	82.88
239.559	88.88
239.793	66.88
240.027	76.88
240.26	63.88
240.494	76.88
240.728	75.88
240.961	69.88
241.195	59.88
241.429	66.88
241.662	83.88
241.896	67.88
242.13	69.88
242.363	75.88
242.597	75.88
242.83	82.88
243.064	87.88
243.298	80.88
243.531	82.88
243.765	72.88
243.998	75.88
244.232	79.88
244.465	87.88
244.699	85.88
244.932	71.88
245.166	90.88
245.399	77.88
245.633	62.88
245.866	72.88
246.099	86.88
246.333	75.88
246.566	75.88
246.8	77.88
247.033	77.88
247.266	76.88
247.5	72.88
247.733	80.88
247.966	72.88
248.2	84.88
248.433	84.88
248.666	81.88
248.899	89.88
249.133	84.88
249.366	92.88
249.599	69.88
249.832	99.88
250.066	87.88
250.299	79.88
250.532	81.88
250.765	88.88
250.998	73.88
251.231	89.88
251.465	90.88
251.698	72.88
251.931	64.88
252.164	71.88
252.397	76.88
252.63	86.88
252.863	91.88
253.096	84.88
253.329	72.88
253.562	83.88
253.795	82.88
254.028	72.88
254.261	86.88
254.494	86.88
254.727	90.88
254.96	84.88
255.193	69.88
255.426	73.88
255.659	85.88
255.892	85.88
256.124	67.88
256.357	72.88
256.59	69.88
256.823	84.88
257.056	74.88
257.289	77.88
257.521	87.88
257.754	75.88
257.987	75.88
258.22	79.88
258.452	75.88
258.685	79.88
258.918	84.88
259.151	90.88
259.383	80.88
259.616	81.88
259.849	95.88
260.081	92.88
260.314	89.88
260.547	79.88
260.779	86.88
261.012	80.88
261.244	83.88
261.477	89.88
261.71	89.88
261.942	93.88
262.175	120.88
262.407	75.88
262.64	89.88
262.872	92.88
263.105	86.88
263.337	106.88
263.57	87.88
263.802	78.88
264.035	86.88
264.267	112.88
264.499	74.88
264.732	69.88
264.964	63.88
265.197	83.88
265.429	73.88
265.661	79.88
265.894	87.88
266.126	75.88
266.358	79.88
266.591	81.88
266.823	106.88
267.055	90.88
267.287	81.88
267.52	88.88
267.752	80.88
267.984	77.88
268.216	89.88
268.448	95.88
268.681	77.88
268.913	87.88
269.145	79.88
269.377	72.88
269.609	89.88
269.841	85.88
270.073	86.88
270.306	81.88
270.538	90.88
270.77	84.88
271.002	91.88
271.234	95.88
271.466	83.88
271.698	90.88
271.93	90.88
272.162	79.88
272.394	83.88
272.626	81.88
272.858	97.88
273.09	93.88
273.322	88.88
273.553	77.88
273.785	70.88
274.017	87.88
274.249	91.88
274.481	81.88
274.713	87.88
274.945	90.88
275.176	87.88
275.408	81.88
275.64	84.88
275.872	90.88
276.104	96.88
276.335	92.88
276.567	98.88
276.799	107.88
277.031	102.88
277.262	98.88
277.494	104.88
277.726	93.88
277.957	77.88
278.189	78.88
278.421	75.88
278.652	79.88
278.884	95.88
279.115	104.88
279.347	87.88
279.579	86.88
279.81	91.88
280.042	95.88
280.273	98.88
280.505	97.88
280.736	76.88
280.968	93.88
281.199	92.88
281.431	72.88
281.662	97.88
281.894	90.88
282.125	106.88
282.356	108.88
282.588	103.88
282.819	113.88
283.051	97.88
283.282	92.88
283.513	78.88
283.745	75.88
283.976	77.88
284.207	91.88
284.439	71.88
284.67	86.88
284.901	91.88
285.132	81.88
285.364	107.88
285.595	93.88
285.826	93.88
286.057	81.88
286.288	76.88
286.52	76.88
286.751	97.88
286.982	81.88
287.213	87.88
287.444	96.88
287.675	83.88
287.906	97.88
288.138	91.88
288.369	92.88
288.6	76.88
288.831	81.88
289.062	90.88
289.293	96.88
289.524	98.88
289.755	91.88
289.986	84.88
290.217	91.88
290.448	86.88
290.679	97.88
290.91	95.88
291.141	98.88
291.371	88.88
291.602	95.88
291.833	80.88
292.064	93.88
292.295	88.88
292.526	80.88
292.757	76.88
292.987	83.88
293.218	78.88
293.449	96.88
293.68	79.88
293.91	90.88
294.141	99.88
294.372	83.88
294.603	86.88
294.833	83.88
295.064	83.88
295.295	86.88
295.525	82.88
295.756	106.88
295.987	101.88
296.217	141.88
296.448	110.88
296.679	93.88
296.909	76.88
297.14	92.88
297.37	98.88
297.601	92.88
297.831	76.88
298.062	81.88
298.292	87.88
298.523	95.88
298.753	84.88
298.984	79.88
299.214	73.88
299.445	93.88
299.675	89.88
299.905	95.88
300.136	84.88
300.366	81.88
300.597	90.88
300.827	94.88
301.057	109.88
301.288	89.88
301.518	88.88
301.748	97.88
301.979	91.88
302.209	90.88
302.439	92.88
302.669	92.88
302.9	99.88
303.13	87.88
303.36	95.88
303.59	93.88
303.82	105.88
304.051	84.88
304.281	92.88
304.511	91.88
304.741	81.88
304.971	93.88
305.201	85.88
305.431	100.88
305.661	85.88
305.891	76.88
306.121	91.88
306.352	82.88
306.582	98.88
306.812	91.88
307.042	96.88
307.272	93.88
307.502	101.88
307.731	91.88
307.961	91.88
308.191	85.88
308.421	97.88
308.651	84.88
308.881	81.88
309.111	80.88
309.341	92.88
309.571	102.88
309.8	99.88
310.03	99.88
310.26	92.88
310.49	90.88
310.72	104.88
310.949	117.88
311.179	109.88
311.409	95.88
311.639	101.88
311.868	91.88
312.098	89.88
312.328	103.88
312.557	98.88
312.787	86.88
313.017	104.88
313.246	82.88
313.476	85.88
313.706	97.88
313.935	100.88
314.165	97.88
314.394	113.88
314.624	105.88
314.853	96.88
315.083	91.88
315.312	105.88
315.542	91.88
315.771	87.88
316.001	105.88
316.23	87.88
316.46	103.88
316.689	89.88
316.919	73.88
317.148	89.88
317.377	91.88
317.607	108.88
317.836	87.88
318.065	99.88
318.295	85.88
318.524	91.88
318.753	72.88
318.983	89.88
319.212	106.88
319.441	100.88
319.67	107.88
319.9	91.88
320.129	90.88
320.358	105.88
320.587	110.88
320.816	104.88
321.046	92.88
321.275	92.88
321.504	98.88
321.733	100.88
321.962	102.88
322.191	100.88
322.42	114.88
322.649	108.88
322.878	109.88
323.108	109.88
323.337	111.88
323.566	118.88
323.795	138.88
324.024	174.88
324.253	324.88
324.482	631.88
324.71	1289.88
324.939	1709.88
325.168	629.88
325.397	205.88
325.626	147.88
325.855	115.88
326.084	116.88
326.313	121.88
326.542	138.88
326.77	204.88
326.999	363.88
327.228	739.88
327.457	1325.88
327.686	1092.88
327.914	327.88
328.143	189.88
328.372	175.88
328.6	132.88
328.829	121.88
329.058	121.88
329.287	108.88
329.515	99.88
329.744	121.88
329.972	137.88
330.201	201.88
330.43	262.88
330.658	174.88
330.887	148.88
331.115	108.88
331.344	100.88
331.572	93.88
331.801	103.88
332.03	89.88
332.258	91.88
332.486	105.88
332.715	105.88
332.943	83.88
333.172	100.88
333.4	87.88
333.629	111.88
333.857	113.88
334.085	145.88
334.314	206.88
334.542	308.88
334.771	266.88
334.999	121.88
335.227	116.88
335.455	79.88
335.684	109.88
335.912	95.88
336.14	92.88
336.369	102.88
336.597	107.88
336.825	98.88
337.053	91.88
337.281	86.88
337.51	105.88
337.738	103.88
337.966	95.88
338.194	101.88
338.422	101.88
338.65	88.88
338.878	90.88
339.106	80.88
339.334	93.88
339.562	100.88
339.79	89.88
340.018	102.88
340.246	88.88
340.474	91.88
340.702	101.88
340.93	92.88
341.158	102.88
341.386	81.88
341.614	91.88
341.842	72.88
342.07	91.88
342.298	95.88
342.526	95.88
342.754	85.88
342.981	85.88
343.209	80.88
343.437	89.88
343.665	92.88
343.893	94.88
344.12	114.88
344.348	106.88
344.576	91.88
344.804	94.88
345.031	81.88
345.259	83.88
345.487	82.88
345.714	103.88
345.942	95.88
346.17	90.88
346.397	98.88
346.625	103.88
346.853	87.88
347.08	93.88
347.308	99.88
347.535	87.88
347.763	86.88
347.99	93.88
348.218	90.88
348.445	107.88
348.673	90.88
348.9	85.88
349.128	101.88
349.355	92.88
349.583	93.88
349.81	88.88
350.037	103.88
350.265	97.88
350.492	77.88
350.72	100.88
350.947	89.88
351.174	103.88
351.402	109.88
351.629	118.88
351.856	116.88
352.083	106.88
352.311	91.88
352.538	96.88
352.765	106.88
352.992	100.88
353.22	111.88
353.447	95.88
353.674	104.88
353.901	115.88
354.128	92.88
354.355	109.88
354.583	93.88
354.81	85.88
355.037	91.88
355.264	88.88
355.491	100.88
355.718	97.88
355.945	95.88
356.172	97.88
356.399	94.88
356.626	101.88
356.853	96.88
357.08	89.88
357.307	90.88
357.534	98.88
357.761	106.88
357.988	80.88
358.215	101.88
358.441	102.88
358.668	95.88
358.895	90.88
359.122	89.88
359.349	90.88
359.576	84.88
359.802	87.88
360.029	100.88
360.256	109.88
360.483	88.88
360.709	83.88
360.936	98.88
361.163	79.88
361.39	109.88
361.616	89.88
361.843	97.88
362.07	86.88
362.296	90.88
362.523	90.88
362.749	95.88
362.976	83.88
363.203	86.88
363.429	100.88
363.656	92.88
363.882	94.88
364.109	91.88
364.335	94.88
364.562	81.88
364.788	87.88
365.015	109.88
365.241	95.88
365.468	98.88
365.694	105.88
365.92	91.88
366.147	84.88
366.373	95.88
366.599	97.88
366.826	96.88
367.052	95.88
367.278	83.88
367.505	87.88
367.731	92.88
367.957	105.88
368.184	92.88
368.41	101.88
368.636	96.88
368.862	106.88
369.089	104.88
369.315	92.88
369.541	91.88
369.767	92.88
369.993	97.88
370.219	91.88
370.445	89.88
370.672	104.88
370.898	95.88
371.124	92.88
371.35	90.88
371.576	84.88
371.802	90.88
372.028	88.88
372.254	86.88
372.48	93.88
372.706	96.88
372.932	84.88
373.158	91.88
373.384	90.88
373.61	100.88
373.835	90.88
374.061	91.88
374.287	95.88
374.513	80.88
374.739	89.88
374.965	107.88
375.191	88.88
375.416	104.88
375.642	85.88
375.868	93.88
376.094	110.88
376.319	79.88
376.545	87.88
376.771	95.88
376.997	84.88
377.222	99.88
377.448	91.88
377.674	90.88
377.899	104.88
378.125	85.88
378.35	93.88
378.576	90.88
378.802	95.88
379.027	77.88
379.253	88.88
379.478	89.88
379.704	86.88
379.929	92.88
380.155	92.88
380.38	103.88
380.606	105.88
380.831	106.88
381.057	106.88
381.282	100.88
381.507	84.88
381.733	93.88
381.958	99.88
382.184	93.88
382.409	99.88
382.634	99.88
382.86	85.88
383.085	87.88
383.31	94.88
383.535	89.88
383.761	103.88
383.986	107.88
384.211	95.88
384.436	109.88
384.662	93.88
384.887	89.88
385.112	93.88
385.337	116.88
385.562	97.88
385.787	100.88
386.013	96.88
386.238	95.88
386.463	99.88
386.688	114.88
386.913	110.88
387.138	102.88
387.363	97.88
387.588	113.88
387.813	100.88
388.038	106.88
388.263	111.88
388.488	76.88
388.713	95.88
388.938	83.88
389.163	95.88
389.387	89.88
389.612	82.88
389.837	91.88
390.062	92.88
390.287	92.88
390.512	82.88
390.736	95.88
390.961	95.88
391.186	77.88
391.411	72.88
391.636	96.88
391.86	102.88
392.085	88.88
392.31	85.88
392.534	82.88
392.759	101.88
392.984	87.88
393.208	94.88
393.433	101.88
393.658	95.88
393.882	84.88
394.107	81.88
394.331	85.88
394.556	97.88
394.78	91.88
395.005	92.88
395.229	98.88
395.454	89.88
395.678	88.88
395.903	87.88
396.127	96.88
396.352	94.88
396.576	92.88
396.801	87.88
397.025	106.88
397.249	83.88
397.474	88.88
397.698	89.88
397.922	73.88
398.147	90.88
398.371	81.88
398.595	83.88
398.82	82.88
399.044	90.88
399.268	79.88
399.492	93.88
399.717	94.88
399.941	91.88
400.165	98.88
400.389	91.88
400.613	73.88
400.837	84.88
401.062	81.88
401.286	96.88
401.51	93.88
401.734	99.88
401.958	99.88
402.182	108.88
402.406	139.88
402.63	111.88
402.854	85.88
403.078	93.88
403.302	88.88
403.526	88.88
403.75	80.88
403.974	100.88
404.198	90.88
404.422	73.88
404.645	83.88
404.869	91.88
405.093	93.88
405.317	93.88
405.541	101.88
405.765	100.88
405.988	106.88
406.212	153.88
406.436	189.88
406.66	128.88
406.883	95.88
407.107	91.88
407.331	86.88
407.555	75.88
407.778	86.88
408.002	95.88
408.226	93.88
408.449	92.88
408.673	87.88
408.896	89.88
409.12	76.88
409.344	99.88
409.567	95.88
409.791	89.88
410.014	85.88
410.238	90.88
410.461	96.88
410.685	82.88
410.908	97.88
411.132	99.88
411.355	97.88
411.578	86.88
411.802	87.88
412.025	89.88
412.249	101.88
412.472	99.88
412.695	88.88
412.919	100.88
413.142	78.88
413.365	87.88
413.589	88.88
413.812	89.88
414.035	102.88
414.258	84.88
414.482	85.88
414.705	89.88
414.928	82.88
415.151	101.88
415.374	90.88
415.597	75.88
415.821	109.88
416.044	81.88
416.267	98.88
416.49	88.88
416.713	85.88
416.936	93.88
417.159	89.88
417.382	93.88
417.605	79.88
417.828	92.88
418.051	91.88
418.274	90.88
418.497	91.88
418.72	91.88
418.943	80.88
419.166	87.88
419.389	87.88
419.611	87.88
419.834	84.88
420.057	82.88
420.28	85.88
420.503	77.88
420.726	89.88
420.948	97.88
421.171	92.88
421.394	107.88
421.617	82.88
421.839	94.88
422.062	97.88
422.285	86.88
422.507	91.88
422.73	101.88
422.953	92.88
423.175	81.88
423.398	83.88
423.621	93.88
423.843	80.88
424.066	84.88
424.288	79.88
424.511	88.88
424.733	95.88
424.956	111.88
425.178	91.88
425.401	101.88
425.623	97.88
425.846	101.88
426.068	91.88
426.291	92.88
426.513	89.88
426.735	101.88
426.958	76.88
427.18	93.88
427.402	105.88
427.625	152.88
427.847	120.88
428.069	122.88
428.292	100.88
428.514	84.88
428.736	86.88
428.958	83.88
429.181	85.88
429.403	88.88
429.625	97.88
429.847	83.88
430.069	97.88
430.292	65.88
430.514	78.88
430.736	87.88
430.958	95.88
431.18	91.88
431.402	92.88
431.624	97.88
431.846	85.88
432.068	87.88
432.29	89.88
432.512	95.88
432.734	90.88
432.956	84.88
433.178	101.88
433.4	87.88
433.622	99.88
433.844	95.88
434.066	91.88
434.287	108.88
434.509	81.88
434.731	81.88
434.953	79.88
435.175	84.88
435.397	86.88
435.618	91.88
435.84	87.88
436.062	97.88
436.284	98.88
436.505	88.88
436.727	92.88
436.949	87.88
437.17	93.88
437.392	79.88
437.614	87.88
437.835	100.88
438.057	105.88
438.278	97.88
438.5	92.88
438.721	107.88
438.943	99.88
439.165	88.88
439.386	95.88
439.608	76.88
439.829	92.88
440.05	113.88
440.272	115.88
440.493	91.88
440.715	84.88
440.936	92.88
441.158	82.88
441.379	91.88
441.6	95.88
441.822	97.88
442.043	100.88
442.264	94.88
442.486	89.88
442.707	82.88
442.928	109.88
443.149	119.88
443.371	124.88
443.592	98.88
443.813	93.88
444.034	104.88
444.255	81.88
444.476	84.88
444.698	76.88
444.919	84.88
445.14	134.88
445.361	115.88
445.582	101.88
445.803	123.88
446.024	128.88
446.245	115.88
446.466	91.88
446.687	83.88
446.908	90.88
447.129	85.88
447.35	87.88
447.571	101.88
447.792	89.88
448.013	80.88
448.234	96.88
448.455	98.88
448.675	84.88
448.896	108.88
449.117	93.88
449.338	101.88
449.559	99.88
449.779	100.88
450	93.88
450.221	89.88
450.442	89.88
450.662	88.88
450.883	92.88
451.104	108.88
451.324	91.88
451.545	79.88
451.766	87.88
451.986	80.88
452.207	87.88
452.428	89.88
452.648	93.88
452.869	91.88
453.089	114.88
453.31	109.88
453.53	95.88
453.751	91.88
453.971	88.88
454.192	95.88
454.412	98.88
454.633	96.88
454.853	93.88
455.073	76.88
455.294	71.88
455.514	96.88
455.734	96.88
455.955	83.88
456.175	89.88
456.395	86.88
456.616	86.88
456.836	101.88
457.056	90.88
457.276	94.88
457.497	87.88
457.717	93.88
457.937	74.88
458.157	79.88
458.377	96.88
458.598	105.88
458.818	124.88
459.038	153.88
459.258	97.88
459.478	97.88
459.698	95.88
459.918	106.88
460.138	76.88
460.358	85.88
460.578	99.88
460.798	86.88
461.018	99.88
461.238	80.88
461.458	76.88
461.678	89.88
461.898	87.88
462.118	82.88
462.338	83.88
462.558	81.88
462.777	81.88
462.997	84.88
463.217	90.88
463.437	76.88
463.657	73.88
463.876	79.88
464.096	88.88
464.316	80.88
464.536	87.88
464.755	99.88
464.975	96.88
465.195	144.88
465.414	139.88
465.634	79.88
465.854	82.88
466.073	88.88
466.293	86.88
466.512	90.88
466.732	85.88
466.951	85.88
467.171	87.88
467.391	88.88
467.61	96.88
467.829	99.88
468.049	143.88
468.268	173.88
468.488	97.88
468.707	75.88
468.927	79.88
469.146	94.88
469.365	81.88
469.585	91.88
469.804	101.88
470.023	93.88
470.243	89.88
470.462	113.88
470.681	106.88
470.901	98.88
471.12	97.88
471.339	85.88
471.558	89.88
471.777	79.88
471.997	112.88
472.216	233.88
472.435	419.88
472.654	133.88
472.873	96.88
473.092	84.88
473.311	95.88
473.53	72.88
473.749	87.88
473.968	87.88
474.187	95.88
474.406	86.88
474.625	92.88
474.844	82.88
475.063	80.88
475.282	83.88
475.501	80.88
475.72	103.88
475.939	97.88
476.158	80.88
476.377	95.88
476.596	83.88
476.814	96.88
477.033	95.88
477.252	95.88
477.471	83.88
477.69	72.88
477.908	87.88
478.127	85.88
478.346	103.88
478.564	85.88
478.783	87.88
479.002	87.88
479.22	92.88
479.439	97.88
479.658	103.88
479.876	96.88
480.095	95.88
480.313	99.88
480.532	108.88
480.751	114.88
480.969	226.88
481.188	655.88
481.406	393.88
481.624	124.88
481.843	102.88
482.061	90.88
482.28	71.88
482.498	79.88
482.717	92.88
482.935	90.88
483.153	84.88
483.372	102.88
483.59	105.88
483.808	80.88
484.027	79.88
484.245	74.88
484.463	92.88
484.681	88.88
484.9	93.88
485.118	91.88
485.336	105.88
485.554	105.88
485.772	94.88
485.99	89.88
486.209	100.88
486.427	87.88
486.645	108.88
486.863	105.88
487.081	99.88
487.299	82.88
487.517	104.88
487.735	102.88
487.953	82.88
488.171	98.88
488.389	99.88
488.607	96.88
488.825	101.88
489.043	99.88
489.261	81.88
489.479	82.88
489.696	95.88
489.914	92.88
490.132	97.88
490.35	91.88
490.568	63.88
490.786	81.88
491.003	95.88
491.221	89.88
491.439	95.88
491.657	95.88
491.874	79.88
492.092	83.88
492.31	90.88
492.527	84.88
492.745	81.88
492.963	85.88
493.18	84.88
493.398	89.88
493.615	101.88
493.833	100.88
494.05	83.88
494.268	91.88
494.485	93.88
494.703	91.88
494.92	72.88
495.138	89.88
495.355	93.88
495.573	90.88
495.79	90.88
496.008	100.88
496.225	98.88
496.442	88.88
496.66	97.88
496.877	87.88
497.094	98.88
497.312	97.88
497.529	88.88
497.746	77.88
497.963	91.88
498.181	75.88
498.398	96.88
498.615	102.88
498.832	96.88
499.049	100.88
499.267	101.88
499.484	98.88
499.701	84.88
499.918	88.88
500.135	92.88
500.352	92.88
500.569	90.88
500.786	88.88
501.003	87.88
501.22	75.88
501.437	81.88
501.654	87.88
501.871	89.88
502.088	93.88
502.305	88.88
502.522	79.88
502.739	99.88
502.956	86.88
503.172	87.88
503.389	84.88
503.606	81.88
503.823	98.88
504.04	107.88
504.256	88.88
504.473	89.88
504.69	100.88
504.907	96.88
505.123	95.88
505.34	77.88
505.557	85.88
505.773	80.88
505.99	92.88
506.207	90.88
506.423	77.88
506.64	87.88
506.856	97.88
507.073	93.88
507.289	95.88
507.506	100.88
507.722	100.88
507.939	106.88
508.155	92.88
508.372	94.88
508.588	93.88
508.805	92.88
509.021	100.88
509.238	95.88
509.454	89.88
509.67	91.88
509.887	104.88
510.103	107.88
510.319	167.88
510.536	602.88
510.752	1887.88
510.968	531.88
511.184	143.88
511.401	110.88
511.617	99.88
511.833	84.88
512.049	73.88
512.265	92.88
512.481	84.88
512.698	92.88
512.914	84.88
513.13	95.88
513.346	83.88
513.562	92.88
513.778	96.88
513.994	88.88
514.21	82.88
514.426	105.88
514.642	129.88
514.858	106.88
515.074	141.88
515.29	362.88
515.506	1118.88
515.721	425.88
515.937	132.88
