Data from Circ_1983_H10_HRD10591_00048.txt Node
Date: Wed Jan 03 12:26:54 EST 2024
User: Yrep
Spectrometer: HR+D1059
Trigger mode: 1
Integration Time (sec): 1.000000E-1
Scans to average: 1
Electric dark correction enabled: true
Nonlinearity correction enabled: false
Boxcar width: 0
XAxis mode: Wavelengths
Number of Pixels in Spectrum: 2048
>>>>>Begin Spectral Data<<<<<
223.165	-19.25
223.4	-19.25
223.635	-19.25
223.869	-15.25
224.104	-14.25
224.338	-29.25
224.573	-5.25
224.808	-13.25
225.042	-14.25
225.277	-5.25
225.511	10.75
225.746	-13.25
225.98	19.75
226.215	0.75
226.449	22.75
226.683	26.75
226.918	23.75
227.152	24.75
227.387	39.75
227.621	36.75
227.856	41.75
228.09	46.75
228.324	40.75
228.559	44.75
228.793	54.75
229.027	50.75
229.262	60.75
229.496	55.75
229.73	75.75
229.964	62.75
230.199	70.75
230.433	78.75
230.667	78.75
230.901	74.75
231.136	82.75
231.37	68.75
231.604	78.75
231.838	63.75
232.072	74.75
232.306	89.75
232.541	80.75
232.775	60.75
233.009	71.75
233.243	74.75
233.477	82.75
233.711	66.75
233.945	86.75
234.179	64.75
234.413	83.75
234.647	69.75
234.881	64.75
235.115	80.75
235.349	86.75
235.583	78.75
235.817	82.75
236.051	72.75
236.285	78.75
236.519	86.75
236.753	82.75
236.987	78.75
237.221	70.75
237.455	71.75
237.689	66.75
237.922	79.75
238.156	81.75
238.39	77.75
238.624	60.75
238.858	68.75
239.091	68.75
239.325	74.75
239.559	75.75
239.793	78.75
240.027	69.75
240.26	76.75
240.494	50.75
240.728	72.75
240.961	76.75
241.195	61.75
241.429	62.75
241.662	63.75
241.896	66.75
242.13	78.75
242.363	81.75
242.597	87.75
242.83	87.75
243.064	72.75
243.298	74.75
243.531	80.75
243.765	60.75
243.998	78.75
244.232	70.75
244.465	74.75
244.699	78.75
244.932	62.75
245.166	79.75
245.399	76.75
245.633	59.75
245.866	77.75
246.099	76.75
246.333	63.75
246.566	76.75
246.8	62.75
247.033	81.75
247.266	74.75
247.5	70.75
247.733	80.75
247.966	85.75
248.2	64.75
248.433	86.75
248.666	80.75
248.899	88.75
249.133	66.75
249.366	86.75
249.599	78.75
249.832	65.75
250.066	80.75
250.299	77.75
250.532	76.75
250.765	68.75
250.998	65.75
251.231	65.75
251.465	70.75
251.698	86.75
251.931	79.75
252.164	64.75
252.397	67.75
252.63	67.75
252.863	72.75
253.096	84.75
253.329	65.75
253.562	78.75
253.795	69.75
254.028	62.75
254.261	71.75
254.494	77.75
254.727	72.75
254.96	69.75
255.193	80.75
255.426	64.75
255.659	79.75
255.892	99.75
256.124	63.75
256.357	78.75
256.59	86.75
256.823	71.75
257.056	75.75
257.289	81.75
257.521	81.75
257.754	78.75
257.987	87.75
258.22	78.75
258.452	64.75
258.685	62.75
258.918	85.75
259.151	70.75
259.383	78.75
259.616	61.75
259.849	78.75
260.081	85.75
260.314	81.75
260.547	79.75
260.779	90.75
261.012	64.75
261.244	90.75
261.477	74.75
261.71	77.75
261.942	75.75
262.175	95.75
262.407	79.75
262.64	77.75
262.872	83.75
263.105	78.75
263.337	79.75
263.57	68.75
263.802	78.75
264.035	68.75
264.267	62.75
264.499	79.75
264.732	72.75
264.964	75.75
265.197	81.75
265.429	78.75
265.661	95.75
265.894	78.75
266.126	83.75
266.358	84.75
266.591	74.75
266.823	76.75
267.055	69.75
267.287	66.75
267.52	87.75
267.752	84.75
267.984	76.75
268.216	79.75
268.448	72.75
268.681	65.75
268.913	89.75
269.145	74.75
269.377	67.75
269.609	90.75
269.841	85.75
270.073	90.75
270.306	80.75
270.538	66.75
270.77	81.75
271.002	66.75
271.234	78.75
271.466	88.75
271.698	73.75
271.93	77.75
272.162	86.75
272.394	81.75
272.626	81.75
272.858	80.75
273.09	80.75
273.322	72.75
273.553	82.75
273.785	69.75
274.017	79.75
274.249	75.75
274.481	76.75
274.713	82.75
274.945	89.75
275.176	69.75
275.408	67.75
275.64	86.75
275.872	70.75
276.104	64.75
276.335	89.75
276.567	79.75
276.799	87.75
277.031	82.75
277.262	80.75
277.494	62.75
277.726	85.75
277.957	61.75
278.189	62.75
278.421	74.75
278.652	77.75
278.884	69.75
279.115	72.75
279.347	79.75
279.579	93.75
279.81	85.75
280.042	81.75
280.273	78.75
280.505	84.75
280.736	74.75
280.968	74.75
281.199	80.75
281.431	93.75
281.662	81.75
281.894	91.75
282.125	75.75
282.356	87.75
282.588	88.75
282.819	93.75
283.051	76.75
283.282	84.75
283.513	87.75
283.745	82.75
283.976	68.75
284.207	72.75
284.439	69.75
284.67	78.75
284.901	88.75
285.132	90.75
285.364	76.75
285.595	86.75
285.826	67.75
286.057	77.75
286.288	80.75
286.52	69.75
286.751	69.75
286.982	83.75
287.213	87.75
287.444	80.75
287.675	83.75
287.906	84.75
288.138	84.75
288.369	91.75
288.6	87.75
288.831	86.75
289.062	88.75
289.293	84.75
289.524	78.75
289.755	70.75
289.986	80.75
290.217	77.75
290.448	64.75
290.679	63.75
290.91	77.75
291.141	86.75
291.371	77.75
291.602	82.75
291.833	74.75
292.064	87.75
292.295	62.75
292.526	90.75
292.757	79.75
292.987	76.75
293.218	85.75
293.449	90.75
293.68	76.75
293.91	93.75
294.141	91.75
294.372	78.75
294.603	85.75
294.833	76.75
295.064	99.75
295.295	84.75
295.525	89.75
295.756	96.75
295.987	96.75
296.217	108.75
296.448	95.75
296.679	83.75
296.909	92.75
297.14	79.75
297.37	82.75
297.601	79.75
297.831	79.75
298.062	84.75
298.292	82.75
298.523	91.75
298.753	86.75
298.984	82.75
299.214	72.75
299.445	82.75
299.675	85.75
299.905	88.75
300.136	77.75
300.366	52.75
300.597	86.75
300.827	95.75
301.057	97.75
301.288	90.75
301.518	78.75
301.748	72.75
301.979	74.75
302.209	100.75
302.439	85.75
302.669	85.75
302.9	78.75
303.13	77.75
303.36	75.75
303.59	81.75
303.82	83.75
304.051	76.75
304.281	82.75
304.511	86.75
304.741	85.75
304.971	83.75
305.201	75.75
305.431	76.75
305.661	75.75
305.891	70.75
306.121	74.75
306.352	79.75
306.582	82.75
306.812	88.75
307.042	86.75
307.272	69.75
307.502	76.75
307.731	87.75
307.961	83.75
308.191	74.75
308.421	76.75
308.651	75.75
308.881	86.75
309.111	93.75
309.341	97.75
309.571	93.75
309.8	84.75
310.03	81.75
310.26	77.75
310.49	69.75
310.72	86.75
310.949	84.75
311.179	84.75
311.409	80.75
311.639	81.75
311.868	91.75
312.098	91.75
312.328	75.75
312.557	81.75
312.787	90.75
313.017	89.75
313.246	88.75
313.476	82.75
313.706	86.75
313.935	83.75
314.165	79.75
314.394	83.75
314.624	70.75
314.853	86.75
315.083	80.75
315.312	82.75
315.542	63.75
315.771	87.75
316.001	70.75
316.23	88.75
316.46	76.75
316.689	88.75
316.919	86.75
317.148	87.75
317.377	91.75
317.607	82.75
317.836	76.75
318.065	79.75
318.295	60.75
318.524	68.75
318.753	87.75
318.983	82.75
319.212	95.75
319.441	75.75
319.67	97.75
319.9	88.75
320.129	87.75
320.358	81.75
320.587	69.75
320.816	85.75
321.046	92.75
321.275	88.75
321.504	94.75
321.733	91.75
321.962	76.75
322.191	81.75
322.42	84.75
322.649	82.75
322.878	100.75
323.108	91.75
323.337	90.75
323.566	94.75
323.795	82.75
324.024	125.75
324.253	182.75
324.482	290.75
324.71	538.75
324.939	723.75
325.168	332.75
325.397	140.75
325.626	97.75
325.855	91.75
326.084	107.75
326.313	102.75
326.542	91.75
326.77	126.75
326.999	192.75
327.228	323.75
327.457	548.75
327.686	452.75
327.914	166.75
328.143	106.75
328.372	118.75
328.6	105.75
328.829	100.75
329.058	92.75
329.287	90.75
329.515	88.75
329.744	82.75
329.972	104.75
330.201	102.75
330.43	113.75
330.658	90.75
330.887	92.75
331.115	84.75
331.344	84.75
331.572	84.75
331.801	74.75
332.03	87.75
332.258	85.75
332.486	89.75
332.715	83.75
332.943	79.75
333.172	87.75
333.4	99.75
333.629	92.75
333.857	96.75
334.085	93.75
334.314	108.75
334.542	132.75
334.771	128.75
334.999	92.75
335.227	88.75
335.455	90.75
335.684	78.75
335.912	82.75
336.14	84.75
336.369	88.75
336.597	87.75
336.825	76.75
337.053	69.75
337.281	80.75
337.51	91.75
337.738	82.75
337.966	80.75
338.194	75.75
338.422	80.75
338.65	84.75
338.878	64.75
339.106	73.75
339.334	92.75
339.562	93.75
339.79	79.75
340.018	81.75
340.246	83.75
340.474	105.75
340.702	78.75
340.93	77.75
341.158	80.75
341.386	82.75
341.614	59.75
341.842	61.75
342.07	84.75
342.298	90.75
342.526	92.75
342.754	76.75
342.981	95.75
343.209	76.75
343.437	91.75
343.665	84.75
343.893	86.75
344.12	71.75
344.348	83.75
344.576	100.75
344.804	68.75
345.031	78.75
345.259	73.75
345.487	96.75
345.714	74.75
345.942	93.75
346.17	87.75
346.397	78.75
346.625	71.75
346.853	73.75
347.08	78.75
347.308	78.75
347.535	70.75
347.763	91.75
347.99	80.75
348.218	80.75
348.445	78.75
348.673	91.75
348.9	67.75
349.128	80.75
349.355	85.75
349.583	91.75
349.81	90.75
350.037	87.75
350.265	80.75
350.492	70.75
350.72	71.75
350.947	64.75
351.174	86.75
351.402	80.75
351.629	92.75
351.856	71.75
352.083	75.75
352.311	76.75
352.538	94.75
352.765	90.75
352.992	95.75
353.22	82.75
353.447	75.75
353.674	90.75
353.901	73.75
354.128	84.75
354.355	76.75
354.583	86.75
354.81	72.75
355.037	78.75
355.264	62.75
355.491	87.75
355.718	77.75
355.945	60.75
356.172	82.75
356.399	67.75
356.626	82.75
356.853	87.75
357.08	82.75
357.307	77.75
357.534	78.75
357.761	71.75
357.988	71.75
358.215	91.75
358.441	80.75
358.668	69.75
358.895	70.75
359.122	77.75
359.349	78.75
359.576	90.75
359.802	85.75
360.029	83.75
360.256	84.75
360.483	86.75
360.709	70.75
360.936	98.75
361.163	77.75
361.39	79.75
361.616	94.75
361.843	94.75
362.07	88.75
362.296	81.75
362.523	79.75
362.749	71.75
362.976	88.75
363.203	91.75
363.429	89.75
363.656	82.75
363.882	80.75
364.109	78.75
364.335	89.75
364.562	87.75
364.788	67.75
365.015	83.75
365.241	81.75
365.468	75.75
365.694	85.75
365.92	86.75
366.147	78.75
366.373	70.75
366.599	86.75
366.826	65.75
367.052	68.75
367.278	79.75
367.505	61.75
367.731	80.75
367.957	86.75
368.184	82.75
368.41	78.75
368.636	82.75
368.862	77.75
369.089	84.75
369.315	93.75
369.541	72.75
369.767	69.75
369.993	87.75
370.219	79.75
370.445	78.75
370.672	84.75
370.898	83.75
371.124	71.75
371.35	82.75
371.576	73.75
371.802	72.75
372.028	78.75
372.254	68.75
372.48	72.75
372.706	63.75
372.932	79.75
373.158	95.75
373.384	83.75
373.61	82.75
373.835	74.75
374.061	87.75
374.287	81.75
374.513	69.75
374.739	70.75
374.965	59.75
375.191	65.75
375.416	77.75
375.642	84.75
375.868	79.75
376.094	80.75
376.319	79.75
376.545	68.75
376.771	84.75
376.997	91.75
377.222	84.75
377.448	81.75
377.674	69.75
377.899	74.75
378.125	68.75
378.35	94.75
378.576	82.75
378.802	77.75
379.027	85.75
379.253	68.75
379.478	76.75
379.704	80.75
379.929	70.75
380.155	67.75
380.38	69.75
380.606	89.75
380.831	88.75
381.057	67.75
381.282	75.75
381.507	80.75
381.733	86.75
381.958	68.75
382.184	92.75
382.409	60.75
382.634	91.75
382.86	83.75
383.085	82.75
383.31	84.75
383.535	85.75
383.761	82.75
383.986	92.75
384.211	70.75
384.436	73.75
384.662	86.75
384.887	90.75
385.112	65.75
385.337	67.75
385.562	71.75
385.787	79.75
386.013	76.75
386.238	100.75
386.463	95.75
386.688	91.75
386.913	75.75
387.138	79.75
387.363	75.75
387.588	95.75
387.813	77.75
388.038	81.75
388.263	93.75
388.488	75.75
388.713	59.75
388.938	76.75
389.163	79.75
389.387	60.75
389.612	87.75
389.837	76.75
390.062	75.75
390.287	94.75
390.512	94.75
390.736	84.75
390.961	82.75
391.186	71.75
391.411	82.75
391.636	80.75
391.86	84.75
392.085	70.75
392.31	82.75
392.534	66.75
392.759	84.75
392.984	90.75
393.208	78.75
393.433	115.75
393.658	96.75
393.882	78.75
394.107	78.75
394.331	68.75
394.556	74.75
394.78	71.75
395.005	71.75
395.229	77.75
395.454	87.75
395.678	71.75
395.903	78.75
396.127	71.75
396.352	81.75
396.576	92.75
396.801	79.75
397.025	87.75
397.249	75.75
397.474	88.75
397.698	71.75
397.922	78.75
398.147	65.75
398.371	72.75
398.595	93.75
398.82	76.75
399.044	79.75
399.268	86.75
399.492	73.75
399.717	72.75
399.941	88.75
400.165	71.75
400.389	79.75
400.613	75.75
400.837	64.75
401.062	76.75
401.286	71.75
401.51	88.75
401.734	82.75
401.958	89.75
402.182	82.75
402.406	96.75
402.63	91.75
402.854	79.75
403.078	83.75
403.302	74.75
403.526	86.75
403.75	74.75
403.974	74.75
404.198	82.75
404.422	89.75
404.645	75.75
404.869	77.75
405.093	68.75
405.317	82.75
405.541	76.75
405.765	76.75
405.988	103.75
406.212	113.75
406.436	127.75
406.66	104.75
406.883	101.75
407.107	76.75
407.331	68.75
407.555	86.75
407.778	87.75
408.002	93.75
408.226	81.75
408.449	78.75
408.673	78.75
408.896	77.75
409.12	80.75
409.344	78.75
409.567	90.75
409.791	78.75
410.014	81.75
410.238	68.75
410.461	62.75
410.685	74.75
410.908	80.75
411.132	78.75
411.355	71.75
411.578	74.75
411.802	70.75
412.025	71.75
412.249	72.75
412.472	90.75
412.695	79.75
412.919	70.75
413.142	78.75
413.365	74.75
413.589	80.75
413.812	70.75
414.035	76.75
414.258	69.75
414.482	68.75
414.705	60.75
414.928	75.75
415.151	86.75
415.374	76.75
415.597	84.75
415.821	66.75
416.044	69.75
416.267	85.75
416.49	68.75
416.713	84.75
416.936	82.75
417.159	72.75
417.382	74.75
417.605	85.75
417.828	84.75
418.051	96.75
418.274	87.75
418.497	86.75
418.72	83.75
418.943	74.75
419.166	72.75
419.389	83.75
419.611	76.75
419.834	84.75
420.057	71.75
420.28	80.75
420.503	67.75
420.726	66.75
420.948	78.75
421.171	74.75
421.394	87.75
421.617	93.75
421.839	76.75
422.062	78.75
422.285	87.75
422.507	94.75
422.73	100.75
422.953	96.75
423.175	84.75
423.398	93.75
423.621	86.75
423.843	88.75
424.066	75.75
424.288	69.75
424.511	92.75
424.733	96.75
424.956	71.75
425.178	71.75
425.401	75.75
425.623	81.75
425.846	75.75
426.068	78.75
426.291	71.75
426.513	69.75
426.735	74.75
426.958	97.75
427.18	80.75
427.402	90.75
427.625	107.75
427.847	87.75
428.069	96.75
428.292	84.75
428.514	74.75
428.736	79.75
428.958	82.75
429.181	82.75
429.403	66.75
429.625	74.75
429.847	61.75
430.069	80.75
430.292	71.75
430.514	99.75
430.736	85.75
430.958	75.75
431.18	80.75
431.402	78.75
431.624	75.75
431.846	64.75
432.068	74.75
432.29	72.75
432.512	78.75
432.734	86.75
432.956	92.75
433.178	82.75
433.4	81.75
433.622	82.75
433.844	77.75
434.066	75.75
434.287	83.75
434.509	76.75
434.731	72.75
434.953	82.75
435.175	86.75
435.397	81.75
435.618	79.75
435.84	76.75
436.062	82.75
436.284	73.75
436.505	85.75
436.727	82.75
436.949	87.75
437.17	70.75
437.392	79.75
437.614	74.75
437.835	86.75
438.057	90.75
438.278	78.75
438.5	81.75
438.721	85.75
438.943	74.75
439.165	71.75
439.386	62.75
439.608	84.75
439.829	79.75
440.05	71.75
440.272	92.75
440.493	80.75
440.715	76.75
440.936	70.75
441.158	74.75
441.379	76.75
441.6	73.75
441.822	83.75
442.043	78.75
442.264	78.75
442.486	88.75
442.707	91.75
442.928	77.75
443.149	76.75
443.371	92.75
443.592	82.75
443.813	84.75
444.034	79.75
444.255	82.75
444.476	80.75
444.698	72.75
444.919	68.75
445.14	123.75
445.361	89.75
445.582	86.75
445.803	79.75
446.024	85.75
446.245	80.75
446.466	99.75
446.687	69.75
446.908	66.75
447.129	82.75
447.35	76.75
447.571	75.75
447.792	86.75
448.013	83.75
448.234	87.75
448.455	91.75
448.675	102.75
448.896	93.75
449.117	81.75
449.338	71.75
449.559	82.75
449.779	66.75
450	78.75
450.221	74.75
450.442	71.75
450.662	87.75
450.883	82.75
451.104	86.75
451.324	69.75
451.545	66.75
451.766	79.75
451.986	82.75
452.207	74.75
452.428	74.75
452.648	82.75
452.869	85.75
453.089	86.75
453.31	92.75
453.53	68.75
453.751	66.75
453.971	75.75
454.192	90.75
454.412	83.75
454.633	83.75
454.853	74.75
455.073	67.75
455.294	74.75
455.514	70.75
455.734	75.75
455.955	71.75
456.175	76.75
456.395	77.75
456.616	94.75
456.836	76.75
457.056	72.75
457.276	80.75
457.497	84.75
457.717	78.75
457.937	80.75
458.157	77.75
458.377	93.75
458.598	85.75
458.818	92.75
459.038	97.75
459.258	83.75
459.478	91.75
459.698	84.75
459.918	68.75
460.138	81.75
460.358	81.75
460.578	79.75
460.798	76.75
461.018	70.75
461.238	76.75
461.458	90.75
461.678	65.75
461.898	75.75
462.118	74.75
462.338	79.75
462.558	72.75
462.777	80.75
462.997	78.75
463.217	87.75
463.437	57.75
463.657	74.75
463.876	71.75
464.096	80.75
464.316	102.75
464.536	70.75
464.755	85.75
464.975	87.75
465.195	83.75
465.414	97.75
465.634	80.75
465.854	78.75
466.073	76.75
466.293	56.75
466.512	71.75
466.732	75.75
466.951	74.75
467.171	80.75
467.391	67.75
467.61	80.75
467.829	84.75
468.049	92.75
468.268	85.75
468.488	82.75
468.707	87.75
468.927	83.75
469.146	78.75
469.365	74.75
469.585	86.75
469.804	82.75
470.023	69.75
470.243	87.75
470.462	93.75
470.681	91.75
470.901	77.75
471.12	84.75
471.339	79.75
471.558	71.75
471.777	70.75
471.997	83.75
472.216	114.75
472.435	152.75
472.654	99.75
472.873	95.75
473.092	80.75
473.311	70.75
473.53	69.75
473.749	84.75
473.968	83.75
474.187	92.75
474.406	85.75
474.625	72.75
474.844	54.75
475.063	80.75
475.282	70.75
475.501	79.75
475.72	76.75
475.939	85.75
476.158	80.75
476.377	67.75
476.596	84.75
476.814	79.75
477.033	72.75
477.252	79.75
477.471	70.75
477.69	96.75
477.908	79.75
478.127	81.75
478.346	78.75
478.564	80.75
478.783	94.75
479.002	94.75
479.22	82.75
479.439	94.75
479.658	82.75
479.876	79.75
480.095	66.75
480.313	79.75
480.532	68.75
480.751	85.75
480.969	114.75
481.188	214.75
481.406	151.75
481.624	92.75
481.843	74.75
482.061	77.75
482.28	69.75
482.498	75.75
482.717	66.75
482.935	85.75
483.153	73.75
483.372	67.75
483.59	93.75
483.808	68.75
484.027	81.75
484.245	72.75
484.463	76.75
484.681	85.75
484.9	82.75
485.118	82.75
485.336	80.75
485.554	76.75
485.772	78.75
485.99	77.75
486.209	85.75
486.427	80.75
486.645	70.75
486.863	74.75
487.081	84.75
487.299	85.75
487.517	72.75
487.735	79.75
487.953	76.75
488.171	86.75
488.389	90.75
488.607	92.75
488.825	72.75
489.043	79.75
489.261	86.75
489.479	83.75
489.696	82.75
489.914	84.75
490.132	77.75
490.35	95.75
490.568	81.75
490.786	85.75
491.003	91.75
491.221	90.75
491.439	83.75
491.657	88.75
491.874	80.75
492.092	81.75
492.31	66.75
492.527	67.75
492.745	88.75
492.963	95.75
493.18	92.75
493.398	84.75
493.615	82.75
493.833	76.75
494.05	80.75
494.268	81.75
494.485	79.75
494.703	84.75
494.92	85.75
495.138	92.75
495.355	80.75
495.573	94.75
495.79	84.75
496.008	86.75
496.225	95.75
496.442	90.75
496.66	90.75
496.877	86.75
497.094	86.75
497.312	92.75
497.529	79.75
497.746	76.75
497.963	72.75
498.181	63.75
498.398	76.75
498.615	96.75
498.832	86.75
499.049	76.75
499.267	80.75
499.484	96.75
499.701	71.75
499.918	81.75
500.135	80.75
500.352	84.75
500.569	77.75
500.786	80.75
501.003	81.75
501.22	79.75
501.437	81.75
501.654	62.75
501.871	81.75
502.088	85.75
502.305	96.75
502.522	80.75
502.739	90.75
502.956	91.75
503.172	91.75
503.389	82.75
503.606	82.75
503.823	73.75
504.04	70.75
504.256	80.75
504.473	80.75
504.69	66.75
504.907	87.75
505.123	80.75
505.34	82.75
505.557	76.75
505.773	90.75
505.99	87.75
506.207	70.75
506.423	77.75
506.64	88.75
506.856	93.75
507.073	74.75
507.289	85.75
507.506	82.75
507.722	76.75
507.939	82.75
508.155	87.75
508.372	76.75
508.588	78.75
508.805	71.75
509.021	82.75
509.238	74.75
509.454	68.75
509.67	83.75
509.887	92.75
510.103	96.75
510.319	133.75
510.536	366.75
510.752	1059.75
510.968	317.75
511.184	115.75
511.401	102.75
511.617	88.75
511.833	83.75
512.049	86.75
512.265	74.75
512.481	75.75
512.698	76.75
512.914	79.75
513.13	74.75
513.346	90.75
513.562	70.75
513.778	92.75
513.994	85.75
514.21	88.75
514.426	88.75
514.642	96.75
514.858	91.75
515.074	97.75
515.29	219.75
515.506	591.75
515.721	244.75
515.937	120.75
516.153	93.75
516.369	83.75
516.585	86.75
516.801	74.75
517.016	87.75
517.232	77.75
517.448	84.75
517.664	87.75
517.879	89.75
518.095	95.75
518.311	82.75
518.527	84.75
518.742	81.75
518.958	82.75
519.173	87.75
519.389	93.75
