Data from Circ_1983_H10_HRD10591_00045.txt Node
Date: Wed Jan 03 12:26:53 EST 2024
User: Yrep
Spectrometer: HR+D1059
Trigger mode: 1
Integration Time (sec): 1.000000E-1
Scans to average: 1
Electric dark correction enabled: true
Nonlinearity correction enabled: false
Boxcar width: 0
XAxis mode: Wavelengths
Number of Pixels in Spectrum: 2048
>>>>>Begin Spectral Data<<<<<
223.165	-20.19
223.4	-20.19
223.635	-20.19
223.869	-34.19
224.104	-20.19
224.338	-17.19
224.573	-10.19
224.808	-24.19
225.042	-12.19
225.277	-12.19
225.511	-5.19
225.746	-7.19
225.98	7.81
226.215	20.81
226.449	23.81
226.683	30.81
226.918	25.81
227.152	53.81
227.387	40.81
227.621	40.81
227.856	48.81
228.09	37.81
228.324	49.81
228.559	49.81
228.793	171.81
229.027	421.81
229.262	490.81
229.496	566.81
229.73	729.81
229.964	743.81
230.199	513.81
230.433	480.81
230.667	463.81
230.901	457.81
231.136	425.81
231.37	457.81
231.604	438.81
231.838	457.81
232.072	460.81
232.306	480.81
232.541	482.81
232.775	470.81
233.009	466.81
233.243	477.81
233.477	469.81
233.711	482.81
233.945	507.81
234.179	500.81
234.413	485.81
234.647	485.81
234.881	505.81
235.115	520.81
235.349	538.81
235.583	572.81
235.817	597.81
236.051	639.81
236.285	595.81
236.519	617.81
236.753	707.81
236.987	829.81
237.221	1286.81
237.455	1349.81
237.689	865.81
237.922	721.81
238.156	720.81
238.39	662.81
238.624	649.81
238.858	669.81
239.091	669.81
239.325	651.81
239.559	661.81
239.793	700.81
240.027	749.81
240.26	845.81
240.494	947.81
240.728	927.81
240.961	857.81
241.195	801.81
241.429	792.81
241.662	768.81
241.896	781.81
242.13	821.81
242.363	827.81
242.597	854.81
242.83	845.81
243.064	846.81
243.298	840.81
243.531	860.81
243.765	861.81
243.998	863.81
244.232	886.81
244.465	893.81
244.699	939.81
244.932	912.81
245.166	919.81
245.399	938.81
245.633	938.81
245.866	976.81
246.099	975.81
246.333	1000.81
246.566	994.81
246.8	992.81
247.033	1033.81
247.266	1071.81
247.5	1097.81
247.733	1184.81
247.966	1117.81
248.2	1180.81
248.433	1191.81
248.666	1204.81
248.899	1365.81
249.133	1435.81
249.366	1444.81
249.599	1359.81
249.832	1320.81
250.066	1361.81
250.299	1534.81
250.532	1800.81
250.765	1908.81
250.998	1902.81
251.231	1737.81
251.465	1558.81
251.698	1442.81
251.931	1450.81
252.164	1441.81
252.397	1441.81
252.63	1515.81
252.863	1589.81
253.096	1679.81
253.329	1764.81
253.562	1656.81
253.795	1562.81
254.028	1576.81
254.261	1643.81
254.494	1823.81
254.727	2089.81
254.96	2167.81
255.193	1953.81
255.426	1877.81
255.659	1940.81
255.892	2282.81
256.124	2778.81
256.357	2532.81
256.59	2105.81
256.823	1853.81
257.056	1721.81
257.289	1704.81
257.521	1686.81
257.754	1663.81
257.987	1622.81
258.22	1571.81
258.452	1614.81
258.685	1603.81
258.918	1591.81
259.151	1639.81
259.383	1737.81
259.616	1713.81
259.849	1772.81
260.081	1930.81
260.314	2042.81
260.547	1963.81
260.779	1843.81
261.012	1751.81
261.244	1760.81
261.477	1719.81
261.71	1739.81
261.942	1734.81
262.175	1777.81
262.407	1710.81
262.64	1657.81
262.872	1630.81
263.105	1668.81
263.337	1649.81
263.57	1673.81
263.802	1661.81
264.035	1688.81
264.267	1708.81
264.499	1699.81
264.732	1700.81
264.964	1730.81
265.197	1717.81
265.429	1732.81
265.661	1740.81
265.894	1753.81
266.126	1777.81
266.358	1782.81
266.591	1815.81
266.823	1896.81
267.055	1877.81
267.287	1889.81
267.52	1861.81
267.752	1863.81
267.984	1847.81
268.216	1913.81
268.448	1954.81
268.681	1994.81
268.913	2147.81
269.145	2249.81
269.377	2330.81
269.609	2244.81
269.841	2247.81
270.073	2345.81
270.306	2514.81
270.538	2703.81
270.77	2606.81
271.002	2437.81
271.234	2409.81
271.466	2523.81
271.698	2653.81
271.93	2639.81
272.162	2638.81
272.394	2537.81
272.626	2463.81
272.858	2355.81
273.09	2283.81
273.322	2257.81
273.553	2207.81
273.785	2232.81
274.017	2246.81
274.249	2275.81
274.481	2292.81
274.713	2304.81
274.945	2323.81
275.176	2276.81
275.408	2269.81
275.64	2286.81
275.872	2290.81
276.104	2321.81
276.335	2336.81
276.567	2471.81
276.799	2537.81
277.031	2808.81
277.262	2879.81
277.494	2757.81
277.726	2627.81
277.957	2497.81
278.189	2479.81
278.421	2439.81
278.652	2417.81
278.884	2408.81
279.115	2406.81
279.347	2436.81
279.579	2427.81
279.81	2452.81
280.042	2463.81
280.273	2534.81
280.505	2523.81
280.736	2534.81
280.968	2458.81
281.199	2539.81
281.431	2519.81
281.662	2525.81
281.894	2544.81
282.125	2569.81
282.356	2685.81
282.588	2807.81
282.819	2673.81
283.051	2592.81
283.282	2567.81
283.513	2599.81
283.745	2671.81
283.976	2664.81
284.207	2635.81
284.439	2647.81
284.67	2610.81
284.901	2653.81
285.132	2666.81
285.364	2682.81
285.595	2705.81
285.826	2659.81
286.057	2740.81
286.288	2699.81
286.52	2778.81
286.751	2771.81
286.982	2756.81
287.213	2785.81
287.444	2801.81
287.675	2857.81
287.906	2909.81
288.138	2938.81
288.369	2917.81
288.6	2946.81
288.831	2983.81
289.062	2831.81
289.293	2833.81
289.524	2893.81
289.755	2846.81
289.986	2835.81
290.217	2822.81
290.448	2847.81
290.679	2872.81
290.91	2879.81
291.141	2879.81
291.371	2874.81
291.602	2850.81
291.833	2831.81
292.064	2870.81
292.295	2866.81
292.526	2893.81
292.757	2861.81
292.987	2827.81
293.218	2840.81
293.449	2915.81
293.68	2865.81
293.91	2889.81
294.141	2841.81
294.372	2857.81
294.603	2906.81
294.833	2918.81
295.064	2894.81
295.295	2903.81
295.525	2914.81
295.756	2949.81
295.987	3066.81
296.217	3163.81
296.448	3116.81
296.679	3028.81
296.909	2975.81
297.14	3022.81
297.37	3047.81
297.601	3075.81
297.831	3088.81
298.062	3103.81
298.292	3096.81
298.523	3157.81
298.753	3146.81
298.984	3146.81
299.214	3063.81
299.445	3137.81
299.675	3141.81
299.905	3174.81
300.136	3178.81
300.366	3242.81
300.597	3214.81
300.827	3329.81
301.057	3383.81
301.288	3443.81
301.518	3414.81
301.748	3427.81
301.979	3499.81
302.209	3397.81
302.439	3418.81
302.669	3334.81
302.9	3361.81
303.13	3313.81
303.36	3391.81
303.59	3420.81
303.82	3444.81
304.051	3446.81
304.281	3365.81
304.511	3294.81
304.741	3351.81
304.971	3314.81
305.201	3281.81
305.431	3325.81
305.661	3339.81
305.891	3262.81
306.121	3337.81
306.352	3389.81
306.582	3309.81
306.812	3248.81
307.042	3302.81
307.272	3343.81
307.502	3349.81
307.731	3350.81
307.961	3342.81
308.191	3329.81
308.421	3313.81
308.651	3351.81
308.881	3297.81
309.111	3370.81
309.341	3333.81
309.571	3464.81
309.8	3480.81
310.03	3576.81
310.26	3569.81
310.49	3607.81
310.72	3653.81
310.949	3763.81
311.179	3710.81
311.409	3640.81
311.639	3631.81
311.868	3686.81
312.098	3657.81
312.328	3772.81
312.557	3924.81
312.787	3909.81
313.017	3874.81
313.246	3796.81
313.476	3693.81
313.706	3810.81
313.935	3861.81
314.165	3891.81
314.394	3883.81
314.624	3881.81
314.853	3835.81
315.083	3759.81
315.312	3739.81
315.542	3721.81
315.771	3688.81
316.001	3653.81
316.23	3641.81
316.46	3722.81
316.689	3760.81
316.919	3773.81
317.148	3827.81
317.377	3782.81
317.607	3693.81
317.836	3663.81
318.065	3680.81
318.295	3708.81
318.524	3700.81
318.753	3672.81
318.983	3678.81
319.212	3696.81
319.441	3785.81
319.67	3788.81
319.9	3745.81
320.129	3705.81
320.358	3728.81
320.587	3757.81
320.816	3780.81
321.046	3857.81
321.275	3836.81
321.504	3848.81
321.733	3933.81
321.962	3897.81
322.191	3943.81
322.42	4082.81
322.649	4137.81
322.878	4218.81
323.108	4280.81
323.337	4527.81
323.566	4544.81
323.795	4786.81
324.024	5194.81
324.253	6630.81
324.482	9718.81
324.71	14153.81
324.939	15627.81
325.168	10621.81
325.397	6083.81
325.626	5003.81
325.855	4744.81
326.084	4731.81
326.313	4729.81
326.542	4887.81
326.77	5358.81
326.999	6619.81
327.228	9271.81
327.457	13375.81
327.686	12369.81
327.914	7039.81
328.143	5985.81
328.372	5900.81
328.6	5509.81
328.829	5329.81
329.058	5374.81
329.287	5393.81
329.515	5289.81
329.744	5306.81
329.972	5734.81
330.201	6456.81
330.43	6890.81
330.658	6278.81
330.887	6026.81
331.115	5464.81
331.344	5156.81
331.572	5043.81
331.801	5130.81
332.03	5185.81
332.258	5146.81
332.486	5173.81
332.715	5355.81
332.943	5459.81
333.172	5703.81
333.4	5914.81
333.629	6113.81
333.857	6469.81
334.085	6823.81
334.314	7542.81
334.542	8420.81
334.771	7978.81
334.999	6376.81
335.227	5859.81
335.455	5717.81
335.684	5330.81
335.912	5246.81
336.14	5152.81
336.369	5077.81
336.597	5173.81
336.825	5083.81
337.053	4966.81
337.281	4884.81
337.51	4866.81
337.738	4779.81
337.966	4793.81
338.194	4791.81
338.422	4750.81
338.65	4621.81
338.878	4608.81
339.106	4593.81
339.334	4530.81
339.562	4506.81
339.79	4435.81
340.018	4384.81
340.246	4430.81
340.474	4467.81
340.702	4420.81
340.93	4488.81
341.158	4466.81
341.386	4439.81
341.614	4458.81
341.842	4449.81
342.07	4333.81
342.298	4378.81
342.526	4261.81
342.754	4314.81
342.981	4406.81
343.209	4469.81
343.437	4688.81
343.665	4977.81
343.893	5193.81
344.12	5255.81
344.348	4997.81
344.576	4777.81
344.804	4728.81
345.031	4643.81
345.259	4563.81
345.487	4462.81
345.714	4359.81
345.942	4267.81
346.17	4267.81
346.397	4201.81
346.625	4217.81
346.853	4226.81
347.08	4231.81
347.308	4239.81
347.535	4327.81
347.763	4390.81
347.99	4303.81
348.218	4278.81
348.445	4251.81
348.673	4213.81
348.9	4226.81
349.128	4111.81
349.355	4042.81
349.583	4077.81
349.81	4065.81
350.037	4036.81
350.265	4041.81
350.492	4103.81
350.72	4132.81
350.947	4160.81
351.174	4226.81
351.402	4206.81
351.629	4126.81
351.856	4155.81
352.083	4203.81
352.311	4210.81
352.538	4196.81
352.765	4190.81
352.992	4159.81
353.22	4082.81
353.447	4066.81
353.674	4068.81
353.901	4049.81
354.128	3966.81
354.355	3989.81
354.583	4063.81
354.81	4025.81
355.037	4015.81
355.264	3966.81
355.491	4035.81
355.718	3980.81
355.945	3999.81
356.172	4011.81
356.399	4015.81
356.626	4007.81
356.853	4023.81
357.08	3984.81
357.307	3989.81
357.534	4013.81
357.761	3958.81
357.988	4041.81
358.215	3965.81
358.441	4036.81
358.668	4083.81
358.895	4113.81
359.122	4095.81
359.349	4111.81
359.576	4253.81
359.802	4376.81
360.029	4564.81
360.256	4454.81
360.483	4333.81
360.709	4200.81
360.936	4167.81
361.163	4191.81
361.39	4237.81
361.616	4231.81
361.843	4210.81
362.07	4152.81
362.296	4244.81
362.523	4154.81
362.749	4189.81
362.976	4161.81
363.203	4121.81
363.429	4078.81
363.656	4041.81
363.882	4067.81
364.109	4056.81
364.335	4070.81
364.562	4027.81
364.788	4019.81
365.015	4054.81
365.241	4081.81
365.468	4117.81
365.694	4097.81
365.92	4127.81
366.147	4119.81
366.373	4089.81
366.599	4041.81
366.826	4073.81
367.052	4085.81
367.278	4100.81
367.505	4122.81
367.731	4144.81
367.957	4120.81
368.184	4142.81
368.41	4215.81
368.636	4215.81
368.862	4326.81
369.089	4240.81
369.315	4225.81
369.541	4173.81
369.767	4218.81
369.993	4196.81
370.219	4220.81
370.445	4264.81
370.672	4180.81
370.898	4257.81
371.124	4293.81
371.35	4334.81
371.576	4409.81
371.802	4359.81
372.028	4390.81
372.254	4321.81
372.48	4417.81
372.706	4539.81
372.932	4541.81
373.158	4474.81
373.384	4415.81
373.61	4384.81
373.835	4426.81
374.061	4365.81
374.287	4501.81
374.513	4561.81
374.739	4688.81
374.965	4800.81
375.191	4797.81
375.416	4720.81
375.642	4553.81
375.868	4537.81
376.094	4532.81
376.319	4452.81
376.545	4430.81
376.771	4401.81
376.997	4393.81
377.222	4350.81
377.448	4332.81
377.674	4367.81
377.899	4247.81
378.125	4341.81
378.35	4303.81
378.576	4272.81
378.802	4306.81
379.027	4366.81
379.253	4377.81
379.478	4309.81
379.704	4303.81
379.929	4391.81
380.155	4274.81
380.38	4415.81
380.606	4433.81
380.831	4385.81
381.057	4401.81
381.282	4365.81
381.507	4432.81
381.733	4490.81
381.958	4406.81
382.184	4555.81
382.409	4570.81
382.634	4594.81
382.86	4594.81
383.085	4682.81
383.31	4723.81
383.535	4792.81
383.761	4833.81
383.986	4969.81
384.211	4973.81
384.436	5072.81
384.662	5140.81
384.887	5178.81
385.112	5226.81
385.337	5249.81
385.562	5287.81
385.787	5375.81
386.013	5317.81
386.238	5390.81
386.463	5389.81
386.688	5289.81
386.913	5248.81
387.138	5234.81
387.363	5235.81
387.588	5144.81
387.813	5233.81
388.038	5105.81
388.263	5198.81
388.488	5193.81
388.713	5192.81
388.938	5218.81
389.163	5181.81
389.387	5147.81
389.612	5063.81
389.837	5062.81
390.062	5077.81
390.287	5133.81
390.512	5126.81
390.736	5187.81
390.961	5290.81
391.186	5371.81
391.411	5561.81
391.636	5715.81
391.86	5873.81
392.085	5826.81
392.31	5707.81
392.534	5694.81
392.759	5635.81
392.984	5430.81
393.208	5416.81
393.433	5508.81
393.658	5483.81
393.882	5461.81
394.107	5435.81
394.331	5527.81
394.556	5457.81
394.78	5531.81
395.005	5589.81
395.229	5608.81
395.454	5734.81
395.678	5985.81
395.903	5904.81
396.127	5890.81
396.352	5631.81
396.576	5574.81
396.801	5599.81
397.025	5637.81
397.249	5814.81
397.474	5887.81
397.698	5871.81
397.922	6006.81
398.147	6094.81
398.371	6182.81
398.595	6372.81
398.82	6725.81
399.044	7249.81
399.268	7985.81
399.492	9031.81
399.717	9713.81
399.941	9449.81
400.165	8826.81
400.389	8175.81
400.613	7324.81
400.837	6878.81
401.062	6723.81
401.286	6659.81
401.51	6598.81
401.734	6568.81
401.958	6753.81
402.182	6757.81
402.406	6898.81
402.63	6961.81
402.854	7059.81
403.078	7185.81
403.302	7333.81
403.526	7434.81
403.75	7521.81
403.974	7583.81
404.198	7554.81
404.422	7728.81
404.645	7736.81
404.869	7828.81
405.093	8318.81
405.317	8716.81
405.541	8483.81
405.765	7803.81
405.988	7473.81
406.212	7528.81
406.436	7685.81
406.66	7812.81
406.883	7822.81
407.107	8337.81
407.331	8903.81
407.555	9397.81
407.778	9001.81
408.002	8398.81
408.226	7964.81
408.449	7890.81
408.673	7721.81
408.896	7849.81
409.12	8000.81
409.344	7554.81
409.567	7305.81
409.791	7298.81
410.014	7134.81
410.238	7152.81
410.461	7175.81
410.685	7014.81
410.908	7215.81
411.132	7451.81
411.355	7467.81
411.578	7111.81
411.802	6976.81
412.025	7167.81
412.249	7454.81
412.472	7726.81
412.695	8173.81
412.919	7533.81
413.142	7262.81
413.365	7028.81
413.589	6865.81
413.812	6708.81
414.035	6505.81
414.258	6577.81
414.482	6675.81
414.705	6623.81
414.928	6643.81
415.151	6547.81
415.374	6490.81
415.597	6426.81
415.821	6407.81
416.044	6427.81
416.267	6434.81
416.49	6369.81
416.713	6332.81
416.936	6462.81
417.159	6433.81
417.382	6532.81
417.605	6593.81
417.828	6709.81
418.051	6706.81
418.274	6656.81
418.497	6503.81
418.72	6673.81
418.943	6589.81
419.166	7075.81
419.389	7502.81
419.611	7466.81
419.834	7249.81
420.057	7198.81
420.28	7323.81
420.503	7113.81
420.726	6992.81
420.948	6934.81
421.171	7344.81
421.394	7147.81
421.617	6713.81
421.839	6606.81
422.062	6789.81
422.285	6853.81
422.507	7466.81
422.73	7850.81
422.953	7419.81
423.175	7039.81
423.398	7040.81
423.621	7115.81
423.843	7283.81
424.066	7323.81
424.288	7105.81
424.511	7379.81
424.733	7825.81
424.956	8151.81
425.178	7675.81
425.401	7935.81
425.623	7787.81
425.846	6858.81
426.068	6654.81
426.291	6562.81
426.513	6521.81
426.735	6634.81
426.958	7119.81
427.18	7778.81
427.402	8801.81
427.625	9062.81
427.847	7945.81
428.069	7552.81
428.292	6717.81
428.514	6193.81
428.736	6022.81
428.958	6075.81
429.181	5818.81
429.403	5861.81
429.625	6011.81
429.847	6311.81
430.069	6794.81
430.292	6368.81
430.514	5832.81
430.736	5809.81
430.958	5768.81
431.18	5706.81
431.402	5713.81
431.624	5646.81
431.846	5770.81
432.068	5829.81
432.29	5961.81
432.512	5737.81
432.734	5817.81
432.956	5809.81
433.178	5795.81
433.4	5813.81
433.622	5809.81
433.844	5867.81
434.066	5876.81
434.287	5987.81
434.509	6142.81
434.731	6392.81
434.953	6480.81
435.175	6658.81
435.397	6666.81
435.618	6557.81
435.84	6959.81
436.062	7723.81
436.284	7609.81
436.505	6460.81
436.727	6221.81
436.949	5994.81
437.17	5841.81
437.392	5763.81
437.614	5962.81
437.835	6218.81
438.057	7213.81
438.278	7784.81
438.5	7745.81
438.721	8487.81
438.943	7477.81
439.165	6352.81
439.386	6217.81
439.608	6175.81
439.829	6325.81
440.05	6654.81
440.272	6862.81
440.493	6351.81
440.715	6131.81
440.936	6031.81
441.158	6247.81
441.379	6255.81
441.6	6671.81
441.822	6827.81
442.043	7104.81
442.264	7919.81
442.486	7654.81
442.707	6788.81
442.928	6749.81
443.149	6902.81
443.371	7105.81
443.592	7650.81
443.813	8474.81
444.034	8458.81
444.255	7492.81
444.476	7346.81
444.698	7583.81
444.919	7638.81
445.14	7501.81
445.361	7251.81
445.582	7271.81
445.803	7865.81
446.024	8423.81
446.245	8071.81
446.466	7216.81
446.687	6366.81
446.908	6105.81
447.129	5814.81
447.35	5683.81
447.571	5685.81
447.792	5453.81
448.013	5572.81
448.234	5858.81
448.455	6418.81
448.675	7524.81
448.896	7919.81
449.117	6544.81
449.338	6850.81
449.559	8060.81
449.779	8148.81
450	6323.81
450.221	5725.81
450.442	5498.81
450.662	5437.81
450.883	5492.81
451.104	5640.81
451.324	5434.81
451.545	5361.81
451.766	5179.81
451.986	5040.81
452.207	5064.81
452.428	5051.81
452.648	5109.81
452.869	5131.81
453.089	5172.81
453.31	5280.81
453.53	5098.81
453.751	5054.81
453.971	5111.81
454.192	5146.81
454.412	4897.81
454.633	4905.81
454.853	4859.81
455.073	4969.81
455.294	5246.81
455.514	5781.81
455.734	5294.81
455.955	4797.81
456.175	4739.81
456.395	4618.81
456.616	4702.81
456.836	4726.81
457.056	4701.81
457.276	4630.81
457.497	4736.81
457.717	4771.81
457.937	4822.81
458.157	4869.81
458.377	4951.81
458.598	5272.81
458.818	5888.81
459.038	6610.81
459.258	6575.81
459.478	5937.81
459.698	5866.81
459.918	5925.81
460.138	6182.81
460.358	6335.81
460.578	6366.81
460.798	6419.81
461.018	6370.81
461.238	6344.81
461.458	6330.81
461.678	6272.81
461.898	6364.81
462.118	6394.81
462.338	6789.81
462.558	7009.81
462.777	7227.81
462.997	7871.81
463.217	8280.81
463.437	7977.81
463.657	7457.81
463.876	7253.81
464.096	7267.81
464.316	7345.81
464.536	7313.81
464.755	6977.81
464.975	6959.81
465.195	6921.81
465.414	6893.81
465.634	6218.81
465.854	5949.81
466.073	5722.81
466.293	5489.81
466.512	5399.81
466.732	5277.81
466.951	5279.81
467.171	5322.81
467.391	5369.81
467.61	5351.81
467.829	5456.81
468.049	5457.81
468.268	5533.81
468.488	5248.81
468.707	5092.81
468.927	5065.81
469.146	5111.81
469.365	5173.81
469.585	5187.81
469.804	5432.81
470.023	5553.81
470.243	5464.81
470.462	5545.81
470.681	5740.81
470.901	5605.81
471.12	5508.81
471.339	5481.81
471.558	5393.81
471.777	5314.81
471.997	5425.81
472.216	5768.81
472.435	6757.81
472.654	6009.81
472.873	5507.81
473.092	5344.81
473.311	5233.81
473.53	5203.81
473.749	5332.81
473.968	5740.81
474.187	6664.81
474.406	6128.81
474.625	5359.81
474.844	5215.81
475.063	5118.81
475.282	5161.81
475.501	5185.81
475.72	5193.81
475.939	5297.81
476.158	5262.81
476.377	5322.81
476.596	5311.81
476.814	5459.81
477.033	5512.81
477.252	5537.81
477.471	5664.81
477.69	5810.81
477.908	5953.81
478.127	6062.81
478.346	6150.81
478.564	6263.81
478.783	6275.81
479.002	6457.81
479.22	6422.81
479.439	6506.81
479.658	6573.81
479.876	6774.81
480.095	6937.81
480.313	7345.81
480.532	7269.81
480.751	7261.81
480.969	7777.81
481.188	9528.81
481.406	9273.81
481.624	7566.81
481.843	6947.81
482.061	6674.81
482.28	6390.81
482.498	6285.81
482.717	6215.81
482.935	6134.81
483.153	6093.81
483.372	6045.81
483.59	6045.81
483.808	6097.81
484.027	6119.81
484.245	6145.81
484.463	6148.81
484.681	6232.81
484.9	6309.81
485.118	6313.81
485.336	6402.81
485.554	6437.81
485.772	6430.81
485.99	6491.81
486.209	6578.81
486.427	6563.81
486.645	6504.81
486.863	6622.81
487.081	6631.81
487.299	6582.81
487.517	6548.81
487.735	6546.81
