Data from Circ_1983_H10_HRD10591_00043.txt Node
Date: Wed Jan 03 12:26:53 EST 2024
User: Yrep
Spectrometer: HR+D1059
Trigger mode: 1
Integration Time (sec): 1.000000E-1
Scans to average: 1
Electric dark correction enabled: true
Nonlinearity correction enabled: false
Boxcar width: 0
XAxis mode: Wavelengths
Number of Pixels in Spectrum: 2048
>>>>>Begin Spectral Data<<<<<
223.165	-19.56
223.4	-19.56
223.635	-19.56
223.869	-20.56
224.104	-6.56
224.338	-29.56
224.573	-8.56
224.808	-9.56
225.042	-11.56
225.277	2.44
225.511	-2.56
225.746	-1.56
225.98	5.44
226.215	18.44
226.449	10.44
226.683	26.44
226.918	19.44
227.152	27.44
227.387	38.44
227.621	32.44
227.856	44.44
228.09	54.44
228.324	45.44
228.559	54.44
228.793	57.44
229.027	68.44
229.262	74.44
229.496	75.44
229.73	87.44
229.964	63.44
230.199	66.44
230.433	67.44
230.667	77.44
230.901	78.44
231.136	85.44
231.37	91.44
231.604	66.44
231.838	84.44
232.072	82.44
232.306	69.44
232.541	79.44
232.775	83.44
233.009	75.44
233.243	75.44
233.477	88.44
233.711	77.44
233.945	72.44
234.179	74.44
234.413	78.44
234.647	87.44
234.881	82.44
235.115	80.44
235.349	61.44
235.583	83.44
235.817	93.44
236.051	85.44
236.285	76.44
236.519	75.44
236.753	73.44
236.987	70.44
237.221	77.44
237.455	78.44
237.689	83.44
237.922	84.44
238.156	62.44
238.39	81.44
238.624	70.44
238.858	76.44
239.091	71.44
239.325	78.44
239.559	86.44
239.793	82.44
240.027	82.44
240.26	75.44
240.494	81.44
240.728	76.44
240.961	78.44
241.195	80.44
241.429	74.44
241.662	74.44
241.896	90.44
242.13	84.44
242.363	86.44
242.597	69.44
242.83	75.44
243.064	80.44
243.298	78.44
243.531	93.44
243.765	81.44
243.998	75.44
244.232	75.44
244.465	72.44
244.699	81.44
244.932	78.44
245.166	76.44
245.399	78.44
245.633	89.44
245.866	78.44
246.099	82.44
246.333	70.44
246.566	71.44
246.8	70.44
247.033	58.44
247.266	88.44
247.5	77.44
247.733	68.44
247.966	84.44
248.2	80.44
248.433	87.44
248.666	70.44
248.899	83.44
249.133	80.44
249.366	75.44
249.599	75.44
249.832	99.44
250.066	80.44
250.299	63.44
250.532	78.44
250.765	79.44
250.998	58.44
251.231	72.44
251.465	73.44
251.698	85.44
251.931	87.44
252.164	65.44
252.397	79.44
252.63	73.44
252.863	74.44
253.096	93.44
253.329	76.44
253.562	82.44
253.795	74.44
254.028	75.44
254.261	85.44
254.494	84.44
254.727	91.44
254.96	74.44
255.193	80.44
255.426	78.44
255.659	73.44
255.892	74.44
256.124	97.44
256.357	74.44
256.59	79.44
256.823	74.44
257.056	80.44
257.289	75.44
257.521	68.44
257.754	76.44
257.987	85.44
258.22	84.44
258.452	68.44
258.685	79.44
258.918	86.44
259.151	76.44
259.383	83.44
259.616	73.44
259.849	90.44
260.081	75.44
260.314	68.44
260.547	83.44
260.779	74.44
261.012	82.44
261.244	86.44
261.477	87.44
261.71	83.44
261.942	99.44
262.175	106.44
262.407	92.44
262.64	86.44
262.872	91.44
263.105	81.44
263.337	75.44
263.57	82.44
263.802	96.44
264.035	79.44
264.267	74.44
264.499	80.44
264.732	79.44
264.964	85.44
265.197	81.44
265.429	84.44
265.661	89.44
265.894	82.44
266.126	93.44
266.358	79.44
266.591	81.44
266.823	86.44
267.055	75.44
267.287	82.44
267.52	90.44
267.752	78.44
267.984	82.44
268.216	82.44
268.448	89.44
268.681	88.44
268.913	74.44
269.145	87.44
269.377	80.44
269.609	78.44
269.841	87.44
270.073	85.44
270.306	70.44
270.538	89.44
270.77	71.44
271.002	72.44
271.234	75.44
271.466	82.44
271.698	73.44
271.93	75.44
272.162	80.44
272.394	97.44
272.626	83.44
272.858	82.44
273.09	71.44
273.322	65.44
273.553	89.44
273.785	74.44
274.017	87.44
274.249	83.44
274.481	68.44
274.713	81.44
274.945	92.44
275.176	73.44
275.408	71.44
275.64	80.44
275.872	73.44
276.104	104.44
276.335	89.44
276.567	90.44
276.799	99.44
277.031	104.44
277.262	106.44
277.494	92.44
277.726	85.44
277.957	99.44
278.189	95.44
278.421	87.44
278.652	82.44
278.884	85.44
279.115	81.44
279.347	94.44
279.579	86.44
279.81	89.44
280.042	95.44
280.273	92.44
280.505	84.44
280.736	96.44
280.968	81.44
281.199	92.44
281.431	112.44
281.662	93.44
281.894	83.44
282.125	83.44
282.356	110.44
282.588	119.44
282.819	101.44
283.051	98.44
283.282	66.44
283.513	84.44
283.745	91.44
283.976	100.44
284.207	92.44
284.439	75.44
284.67	93.44
284.901	71.44
285.132	91.44
285.364	85.44
285.595	90.44
285.826	75.44
286.057	78.44
286.288	86.44
286.52	78.44
286.751	88.44
286.982	91.44
287.213	90.44
287.444	73.44
287.675	70.44
287.906	88.44
288.138	96.44
288.369	87.44
288.6	91.44
288.831	86.44
289.062	89.44
289.293	81.44
289.524	85.44
289.755	94.44
289.986	81.44
290.217	79.44
290.448	86.44
290.679	103.44
290.91	85.44
291.141	83.44
291.371	81.44
291.602	74.44
291.833	74.44
292.064	80.44
292.295	80.44
292.526	89.44
292.757	84.44
292.987	98.44
293.218	84.44
293.449	103.44
293.68	73.44
293.91	86.44
294.141	95.44
294.372	80.44
294.603	82.44
294.833	79.44
295.064	78.44
295.295	92.44
295.525	84.44
295.756	83.44
295.987	107.44
296.217	116.44
296.448	116.44
296.679	86.44
296.909	100.44
297.14	80.44
297.37	80.44
297.601	89.44
297.831	90.44
298.062	87.44
298.292	72.44
298.523	74.44
298.753	78.44
298.984	78.44
299.214	83.44
299.445	86.44
299.675	78.44
299.905	84.44
300.136	97.44
300.366	110.44
300.597	88.44
300.827	90.44
301.057	96.44
301.288	93.44
301.518	96.44
301.748	82.44
301.979	103.44
302.209	76.44
302.439	83.44
302.669	74.44
302.9	83.44
303.13	99.44
303.36	99.44
303.59	103.44
303.82	86.44
304.051	75.44
304.281	98.44
304.511	102.44
304.741	82.44
304.971	99.44
305.201	97.44
305.431	89.44
305.661	86.44
305.891	87.44
306.121	78.44
306.352	104.44
306.582	95.44
306.812	97.44
307.042	84.44
307.272	100.44
307.502	91.44
307.731	92.44
307.961	89.44
308.191	92.44
308.421	89.44
308.651	104.44
308.881	95.44
309.111	100.44
309.341	104.44
309.571	94.44
309.8	97.44
310.03	88.44
310.26	82.44
310.49	75.44
310.72	84.44
310.949	114.44
311.179	97.44
311.409	82.44
311.639	104.44
311.868	103.44
312.098	110.44
312.328	90.44
312.557	98.44
312.787	84.44
313.017	95.44
313.246	90.44
313.476	100.44
313.706	104.44
313.935	97.44
314.165	110.44
314.394	99.44
314.624	82.44
314.853	93.44
315.083	84.44
315.312	83.44
315.542	87.44
315.771	100.44
316.001	100.44
316.23	91.44
316.46	96.44
316.689	75.44
316.919	82.44
317.148	99.44
317.377	106.44
317.607	86.44
317.836	92.44
318.065	76.44
318.295	91.44
318.524	88.44
318.753	89.44
318.983	93.44
319.212	81.44
319.441	84.44
319.67	104.44
319.9	86.44
320.129	99.44
320.358	99.44
320.587	85.44
320.816	103.44
321.046	97.44
321.275	102.44
321.504	90.44
321.733	99.44
321.962	92.44
322.191	87.44
322.42	94.44
322.649	104.44
322.878	103.44
323.108	94.44
323.337	114.44
323.566	121.44
323.795	143.44
324.024	170.44
324.253	313.44
324.482	633.44
324.71	1249.44
324.939	1645.44
325.168	641.44
325.397	222.44
325.626	131.44
325.855	114.44
326.084	105.44
326.313	132.44
326.542	131.44
326.77	182.44
326.999	331.44
327.228	732.44
327.457	1282.44
327.686	1059.44
327.914	304.44
328.143	182.44
328.372	162.44
328.6	129.44
328.829	110.44
329.058	100.44
329.287	110.44
329.515	102.44
329.744	118.44
329.972	130.44
330.201	150.44
330.43	182.44
330.658	148.44
330.887	130.44
331.115	110.44
331.344	103.44
331.572	101.44
331.801	100.44
332.03	104.44
332.258	96.44
332.486	98.44
332.715	91.44
332.943	101.44
333.172	100.44
333.4	104.44
333.629	111.44
333.857	107.44
334.085	131.44
334.314	170.44
334.542	223.44
334.771	228.44
334.999	114.44
335.227	108.44
335.455	100.44
335.684	102.44
335.912	97.44
336.14	78.44
336.369	94.44
336.597	100.44
336.825	80.44
337.053	102.44
337.281	100.44
337.51	86.44
337.738	96.44
337.966	84.44
338.194	84.44
338.422	84.44
338.65	94.44
338.878	88.44
339.106	83.44
339.334	74.44
339.562	91.44
339.79	100.44
340.018	88.44
340.246	82.44
340.474	82.44
340.702	96.44
340.93	106.44
341.158	84.44
341.386	96.44
341.614	94.44
341.842	89.44
342.07	106.44
342.298	93.44
342.526	90.44
342.754	99.44
342.981	91.44
343.209	102.44
343.437	95.44
343.665	95.44
343.893	88.44
344.12	96.44
344.348	95.44
344.576	96.44
344.804	84.44
345.031	86.44
345.259	102.44
345.487	88.44
345.714	102.44
345.942	90.44
346.17	105.44
346.397	95.44
346.625	102.44
346.853	83.44
347.08	71.44
347.308	92.44
347.535	91.44
347.763	88.44
347.99	97.44
348.218	105.44
348.445	95.44
348.673	103.44
348.9	84.44
349.128	98.44
349.355	94.44
349.583	88.44
349.81	85.44
350.037	98.44
350.265	93.44
350.492	98.44
350.72	90.44
350.947	90.44
351.174	104.44
351.402	102.44
351.629	101.44
351.856	95.44
352.083	106.44
352.311	104.44
352.538	94.44
352.765	97.44
352.992	108.44
353.22	114.44
353.447	97.44
353.674	108.44
353.901	95.44
354.128	99.44
354.355	103.44
354.583	106.44
354.81	100.44
355.037	82.44
355.264	103.44
355.491	94.44
355.718	96.44
355.945	92.44
356.172	95.44
356.399	84.44
356.626	96.44
356.853	88.44
357.08	94.44
357.307	99.44
357.534	86.44
357.761	96.44
357.988	94.44
358.215	114.44
358.441	89.44
358.668	94.44
358.895	85.44
359.122	96.44
359.349	87.44
359.576	88.44
359.802	101.44
360.029	91.44
360.256	95.44
360.483	98.44
360.709	75.44
360.936	102.44
361.163	88.44
361.39	90.44
361.616	89.44
361.843	89.44
362.07	81.44
362.296	75.44
362.523	97.44
362.749	96.44
362.976	84.44
363.203	97.44
363.429	92.44
363.656	99.44
363.882	80.44
364.109	95.44
364.335	88.44
364.562	81.44
364.788	94.44
365.015	96.44
365.241	95.44
365.468	99.44
365.694	93.44
365.92	94.44
366.147	85.44
366.373	83.44
366.599	80.44
366.826	91.44
367.052	103.44
367.278	91.44
367.505	87.44
367.731	92.44
367.957	90.44
368.184	84.44
368.41	103.44
368.636	100.44
368.862	115.44
369.089	101.44
369.315	103.44
369.541	87.44
369.767	91.44
369.993	92.44
370.219	88.44
370.445	89.44
370.672	103.44
370.898	80.44
371.124	74.44
371.35	91.44
371.576	88.44
371.802	93.44
372.028	78.44
372.254	84.44
372.48	84.44
372.706	87.44
372.932	86.44
373.158	93.44
373.384	102.44
373.61	79.44
373.835	88.44
374.061	87.44
374.287	90.44
374.513	87.44
374.739	86.44
374.965	87.44
375.191	85.44
375.416	79.44
375.642	91.44
375.868	100.44
376.094	86.44
376.319	95.44
376.545	96.44
376.771	80.44
376.997	76.44
377.222	92.44
377.448	86.44
377.674	88.44
377.899	87.44
378.125	92.44
378.35	104.44
378.576	97.44
378.802	94.44
379.027	93.44
379.253	78.44
379.478	93.44
379.704	91.44
379.929	101.44
380.155	87.44
380.38	90.44
380.606	92.44
380.831	96.44
381.057	97.44
381.282	95.44
381.507	93.44
381.733	106.44
381.958	105.44
382.184	103.44
382.409	85.44
382.634	102.44
382.86	102.44
383.085	106.44
383.31	104.44
383.535	94.44
383.761	110.44
383.986	95.44
384.211	86.44
384.436	115.44
384.662	95.44
384.887	96.44
385.112	111.44
385.337	97.44
385.562	106.44
385.787	102.44
386.013	114.44
386.238	102.44
386.463	104.44
386.688	92.44
386.913	109.44
387.138	102.44
387.363	104.44
387.588	108.44
387.813	98.44
388.038	103.44
388.263	101.44
388.488	115.44
388.713	102.44
388.938	100.44
389.163	92.44
389.387	93.44
389.612	89.44
389.837	88.44
390.062	82.44
390.287	90.44
390.512	92.44
390.736	83.44
390.961	82.44
391.186	85.44
391.411	98.44
391.636	81.44
391.86	80.44
392.085	87.44
392.31	78.44
392.534	89.44
392.759	91.44
392.984	103.44
393.208	101.44
393.433	123.44
393.658	99.44
393.882	86.44
394.107	94.44
394.331	80.44
394.556	89.44
394.78	87.44
395.005	95.44
395.229	75.44
395.454	86.44
395.678	92.44
395.903	93.44
396.127	98.44
396.352	87.44
396.576	82.44
396.801	94.44
397.025	87.44
397.249	95.44
397.474	87.44
397.698	83.44
397.922	96.44
398.147	87.44
398.371	76.44
398.595	90.44
398.82	89.44
399.044	94.44
399.268	95.44
399.492	88.44
399.717	98.44
399.941	85.44
400.165	88.44
400.389	91.44
400.613	83.44
400.837	90.44
401.062	81.44
401.286	80.44
401.51	87.44
401.734	90.44
401.958	91.44
402.182	101.44
402.406	122.44
402.63	113.44
402.854	104.44
403.078	86.44
403.302	81.44
403.526	83.44
403.75	89.44
403.974	81.44
404.198	90.44
404.422	82.44
404.645	87.44
404.869	78.44
405.093	96.44
405.317	105.44
405.541	101.44
405.765	81.44
405.988	99.44
406.212	143.44
406.436	190.44
406.66	123.44
406.883	90.44
407.107	79.44
407.331	95.44
407.555	78.44
407.778	85.44
408.002	68.44
408.226	88.44
408.449	78.44
408.673	81.44
408.896	82.44
409.12	91.44
409.344	75.44
409.567	82.44
409.791	87.44
410.014	102.44
410.238	90.44
410.461	83.44
410.685	103.44
410.908	96.44
411.132	97.44
411.355	82.44
411.578	98.44
411.802	79.44
412.025	85.44
412.249	79.44
412.472	100.44
412.695	105.44
412.919	98.44
413.142	98.44
413.365	92.44
413.589	76.44
413.812	83.44
414.035	92.44
414.258	80.44
414.482	90.44
414.705	88.44
414.928	95.44
415.151	81.44
415.374	84.44
415.597	96.44
415.821	95.44
416.044	72.44
416.267	87.44
416.49	90.44
416.713	92.44
416.936	94.44
417.159	78.44
417.382	71.44
417.605	82.44
417.828	87.44
418.051	84.44
418.274	85.44
418.497	70.44
418.72	80.44
418.943	82.44
419.166	103.44
419.389	94.44
419.611	88.44
419.834	87.44
420.057	90.44
420.28	82.44
420.503	83.44
420.726	97.44
420.948	88.44
421.171	96.44
421.394	89.44
421.617	91.44
421.839	95.44
422.062	82.44
422.285	88.44
422.507	101.44
422.73	94.44
422.953	96.44
423.175	91.44
423.398	80.44
423.621	74.44
423.843	66.44
424.066	82.44
424.288	101.44
424.511	94.44
424.733	92.44
424.956	90.44
425.178	82.44
425.401	84.44
425.623	90.44
425.846	87.44
426.068	92.44
426.291	84.44
426.513	94.44
426.735	84.44
426.958	80.44
427.18	107.44
427.402	118.44
427.625	144.44
427.847	122.44
428.069	118.44
428.292	86.44
428.514	80.44
428.736	85.44
428.958	73.44
429.181	104.44
429.403	76.44
429.625	94.44
429.847	86.44
430.069	89.44
430.292	86.44
430.514	87.44
430.736	77.44
430.958	85.44
431.18	93.44
431.402	92.44
431.624	75.44
431.846	87.44
432.068	95.44
432.29	89.44
432.512	92.44
432.734	69.44
432.956	84.44
433.178	92.44
433.4	90.44
433.622	86.44
433.844	91.44
434.066	95.44
434.287	75.44
434.509	90.44
434.731	87.44
434.953	80.44
435.175	91.44
435.397	83.44
435.618	89.44
435.84	90.44
436.062	120.44
436.284	113.44
436.505	110.44
436.727	90.44
436.949	94.44
437.17	90.44
437.392	85.44
437.614	92.44
437.835	90.44
438.057	111.44
438.278	98.44
438.5	98.44
438.721	106.44
438.943	83.44
439.165	82.44
439.386	78.44
439.608	90.44
439.829	97.44
440.05	111.44
440.272	111.44
440.493	95.44
440.715	88.44
440.936	94.44
441.158	84.44
441.379	84.44
441.6	82.44
441.822	84.44
442.043	94.44
442.264	84.44
442.486	112.44
442.707	87.44
442.928	102.44
443.149	96.44
443.371	113.44
443.592	90.44
443.813	86.44
444.034	90.44
444.255	84.44
444.476	87.44
444.698	90.44
444.919	86.44
445.14	128.44
445.361	115.44
445.582	99.44
445.803	120.44
446.024	127.44
446.245	121.44
446.466	93.44
446.687	81.44
446.908	98.44
447.129	90.44
447.35	87.44
447.571	87.44
447.792	81.44
448.013	95.44
448.234	112.44
448.455	109.44
448.675	100.44
448.896	106.44
449.117	71.44
449.338	87.44
449.559	123.44
449.779	123.44
450	107.44
450.221	70.44
450.442	70.44
450.662	86.44
450.883	95.44
451.104	109.44
451.324	87.44
451.545	96.44
451.766	68.44
451.986	95.44
452.207	91.44
452.428	89.44
452.648	104.44
452.869	99.44
453.089	102.44
453.31	108.44
453.53	96.44
453.751	88.44
453.971	92.44
454.192	89.44
454.412	79.44
454.633	86.44
454.853	88.44
455.073	84.44
455.294	84.44
455.514	100.44
455.734	88.44
455.955	69.44
456.175	77.44
456.395	86.44
456.616	89.44
456.836	78.44
457.056	82.44
457.276	79.44
457.497	78.44
457.717	82.44
457.937	90.44
458.157	94.44
458.377	87.44
458.598	114.44
458.818	134.44
459.038	127.44
459.258	97.44
459.478	75.44
459.698	82.44
459.918	73.44
460.138	79.44
460.358	82.44
460.578	75.44
460.798	100.44
461.018	94.44
461.238	85.44
461.458	88.44
461.678	95.44
461.898	83.44
462.118	92.44
462.338	91.44
462.558	81.44
462.777	88.44
462.997	91.44
463.217	64.44
463.437	81.44
463.657	82.44
463.876	87.44
464.096	101.44
464.316	79.44
464.536	82.44
464.755	84.44
464.975	98.44
465.195	156.44
465.414	144.44
465.634	89.44
465.854	90.44
466.073	85.44
466.293	75.44
466.512	66.44
466.732	84.44
466.951	92.44
467.171	76.44
467.391	102.44
467.61	94.44
467.829	97.44
468.049	126.44
468.268	143.44
468.488	89.44
468.707	83.44
468.927	97.44
469.146	78.44
469.365	89.44
469.585	91.44
469.804	92.44
470.023	84.44
470.243	87.44
470.462	84.44
470.681	90.44
470.901	79.44
471.12	83.44
471.339	93.44
471.558	98.44
471.777	90.44
471.997	112.44
472.216	155.44
472.435	277.44
472.654	114.44
472.873	100.44
473.092	95.44
473.311	94.44
473.53	98.44
473.749	103.44
473.968	81.44
474.187	102.44
474.406	95.44
474.625	88.44
474.844	95.44
475.063	98.44
475.282	90.44
475.501	91.44
475.72	79.44
475.939	89.44
476.158	91.44
476.377	93.44
476.596	89.44
476.814	90.44
477.033	90.44
477.252	88.44
477.471	75.44
477.69	87.44
477.908	74.44
478.127	92.44
478.346	89.44
478.564	85.44
478.783	92.44
479.002	103.44
479.22	96.44
479.439	85.44
479.658	96.44
479.876	93.44
480.095	86.44
480.313	90.44
480.532	86.44
480.751	100.44
480.969	177.44
481.188	462.44
481.406	295.44
481.624	116.44
481.843	93.44
482.061	92.44
482.28	73.44
482.498	85.44
482.717	78.44
482.935	90.44
483.153	84.44
483.372	92.44
483.59	86.44
483.808	78.44
484.027	81.44
484.245	96.44
484.463	102.44
484.681	91.44
484.9	90.44
485.118	106.44
485.336	95.44
485.554	98.44
485.772	92.44
485.99	103.44
486.209	92.44
486.427	103.44
486.645	115.44
486.863	102.44
487.081	102.44
487.299	109.44
487.517	95.44
487.735	72.44
487.953	99.44
488.171	107.44
488.389	83.44
488.607	89.44
488.825	92.44
489.043	90.44
489.261	78.44
489.479	90.44
489.696	92.44
489.914	93.44
490.132	90.44
490.35	88.44
490.568	87.44
490.786	90.44
491.003	94.44
491.221	94.44
491.439	80.44
491.657	89.44
491.874	91.44
492.092	87.44
492.31	90.44
492.527	96.44
492.745	78.44
492.963	86.44
493.18	104.44
493.398	94.44
493.615	78.44
493.833	103.44
494.05	84.44
494.268	92.44
494.485	84.44
494.703	86.44
494.92	71.44
495.138	96.44
495.355	90.44
495.573	68.44
495.79	89.44
496.008	73.44
496.225	82.44
496.442	92.44
496.66	91.44
496.877	100.44
497.094	100.44
497.312	109.44
497.529	87.44
497.746	81.44
497.963	88.44
498.181	86.44
498.398	86.44
498.615	119.44
498.832	99.44
499.049	95.44
499.267	86.44
499.484	92.44
499.701	80.44
499.918	89.44
500.135	88.44
500.352	83.44
500.569	83.44
500.786	81.44
501.003	95.44
501.22	89.44
501.437	89.44
501.654	89.44
501.871	91.44
502.088	100.44
502.305	84.44
502.522	90.44
502.739	80.44
502.956	79.44
503.172	90.44
503.389	86.44
503.606	115.44
503.823	94.44
504.04	84.44
504.256	81.44
504.473	103.44
504.69	88.44
504.907	88.44
505.123	92.44
505.34	87.44
505.557	92.44
505.773	96.44
505.99	86.44
506.207	91.44
506.423	95.44
506.64	87.44
506.856	84.44
507.073	94.44
507.289	93.44
507.506	97.44
507.722	103.44
507.939	113.44
508.155	87.44
508.372	90.44
508.588	97.44
508.805	75.44
509.021	90.44
509.238	97.44
509.454	106.44
509.67	94.44
509.887	116.44
510.103	123.44
510.319	174.44
510.536	562.44
510.752	1800.44
510.968	530.44
511.184	146.44
511.401	91.44
511.617	110.44
511.833	88.44
512.049	97.44
512.265	100.44
512.481	83.44
512.698	82.44
512.914	96.44
513.13	77.44
513.346	80.44
513.562	95.44
513.778	95.44
513.994	99.44
514.21	106.44
514.426	106.44
514.642	111.44
514.858	115.44
515.074	148.44
515.29	356.44
515.506	1072.44
515.721	407.44
515.937	135.44
516.153	92.44
516.369	90.44
