Data from Circ_1983_H10_HRD10591_00006.txt Node
Date: Wed Jan 03 12:26:46 EST 2024
User: Yrep
Spectrometer: HR+D1059
Trigger mode: 1
Integration Time (sec): 1.000000E-1
Scans to average: 1
Electric dark correction enabled: true
Nonlinearity correction enabled: false
Boxcar width: 0
XAxis mode: Wavelengths
Number of Pixels in Spectrum: 2048
>>>>>Begin Spectral Data<<<<<
223.165	-31.44
223.4	-31.44
223.635	-31.44
223.869	-9.44
224.104	-11.44
224.338	-17.44
224.573	-24.44
224.808	-11.44
225.042	-12.44
225.277	5.56
225.511	-5.44
225.746	-9.44
225.98	16.56
226.215	4.56
226.449	17.56
226.683	19.56
226.918	24.56
227.152	44.56
227.387	32.56
227.621	40.56
227.856	48.56
228.09	36.56
228.324	44.56
228.559	58.56
228.793	58.56
229.027	56.56
229.262	73.56
229.496	70.56
229.73	84.56
229.964	80.56
230.199	69.56
230.433	76.56
230.667	83.56
230.901	82.56
231.136	81.56
231.37	65.56
231.604	73.56
231.838	85.56
232.072	84.56
232.306	71.56
232.541	71.56
232.775	69.56
233.009	82.56
233.243	82.56
233.477	76.56
233.711	72.56
233.945	77.56
234.179	76.56
234.413	88.56
234.647	91.56
234.881	76.56
235.115	78.56
235.349	73.56
235.583	66.56
235.817	86.56
236.051	70.56
236.285	66.56
236.519	76.56
236.753	62.56
236.987	80.56
237.221	80.56
237.455	87.56
237.689	69.56
237.922	69.56
238.156	76.56
238.39	83.56
238.624	77.56
238.858	72.56
239.091	72.56
239.325	70.56
239.559	73.56
239.793	84.56
240.027	76.56
240.26	79.56
240.494	79.56
240.728	72.56
240.961	71.56
241.195	70.56
241.429	69.56
241.662	77.56
241.896	63.56
242.13	79.56
242.363	52.56
242.597	73.56
242.83	73.56
243.064	69.56
243.298	81.56
243.531	73.56
243.765	81.56
243.998	79.56
244.232	70.56
244.465	89.56
244.699	76.56
244.932	81.56
245.166	93.56
245.399	69.56
245.633	79.56
245.866	68.56
246.099	65.56
246.333	72.56
246.566	82.56
246.8	60.56
247.033	80.56
247.266	73.56
247.5	67.56
247.733	61.56
247.966	68.56
248.2	74.56
248.433	71.56
248.666	77.56
248.899	64.56
249.133	74.56
249.366	86.56
249.599	78.56
249.832	81.56
250.066	86.56
250.299	76.56
250.532	76.56
250.765	74.56
250.998	71.56
251.231	80.56
251.465	88.56
251.698	84.56
251.931	68.56
252.164	90.56
252.397	80.56
252.63	83.56
252.863	69.56
253.096	82.56
253.329	86.56
253.562	72.56
253.795	76.56
254.028	67.56
254.261	86.56
254.494	80.56
254.727	71.56
254.96	73.56
255.193	85.56
255.426	80.56
255.659	76.56
255.892	79.56
256.124	82.56
256.357	85.56
256.59	80.56
256.823	66.56
257.056	73.56
257.289	62.56
257.521	79.56
257.754	76.56
257.987	89.56
258.22	80.56
258.452	79.56
258.685	79.56
258.918	70.56
259.151	76.56
259.383	76.56
259.616	87.56
259.849	56.56
260.081	90.56
260.314	72.56
260.547	76.56
260.779	74.56
261.012	66.56
261.244	87.56
261.477	101.56
261.71	91.56
261.942	93.56
262.175	110.56
262.407	89.56
262.64	75.56
262.872	87.56
263.105	87.56
263.337	72.56
263.57	73.56
263.802	74.56
264.035	76.56
264.267	91.56
264.499	73.56
264.732	79.56
264.964	84.56
265.197	91.56
265.429	80.56
265.661	88.56
265.894	89.56
266.126	86.56
266.358	86.56
266.591	72.56
266.823	97.56
267.055	82.56
267.287	73.56
267.52	70.56
267.752	82.56
267.984	78.56
268.216	69.56
268.448	70.56
268.681	76.56
268.913	75.56
269.145	82.56
269.377	73.56
269.609	71.56
269.841	97.56
270.073	77.56
270.306	80.56
270.538	89.56
270.77	84.56
271.002	75.56
271.234	95.56
271.466	78.56
271.698	76.56
271.93	83.56
272.162	82.56
272.394	78.56
272.626	89.56
272.858	92.56
273.09	70.56
273.322	84.56
273.553	78.56
273.785	93.56
274.017	78.56
274.249	78.56
274.481	83.56
274.713	85.56
274.945	85.56
275.176	77.56
275.408	80.56
275.64	84.56
275.872	81.56
276.104	78.56
276.335	77.56
276.567	88.56
276.799	86.56
277.031	79.56
277.262	72.56
277.494	81.56
277.726	87.56
277.957	77.56
278.189	89.56
278.421	84.56
278.652	87.56
278.884	85.56
279.115	72.56
279.347	80.56
279.579	95.56
279.81	93.56
280.042	86.56
280.273	85.56
280.505	88.56
280.736	81.56
280.968	69.56
281.199	88.56
281.431	86.56
281.662	80.56
281.894	75.56
282.125	100.56
282.356	98.56
282.588	114.56
282.819	105.56
283.051	76.56
283.282	81.56
283.513	99.56
283.745	86.56
283.976	95.56
284.207	73.56
284.439	78.56
284.67	76.56
284.901	77.56
285.132	81.56
285.364	79.56
285.595	87.56
285.826	80.56
286.057	81.56
286.288	92.56
286.52	87.56
286.751	84.56
286.982	96.56
287.213	65.56
287.444	81.56
287.675	77.56
287.906	83.56
288.138	91.56
288.369	89.56
288.6	69.56
288.831	95.56
289.062	96.56
289.293	75.56
289.524	85.56
289.755	81.56
289.986	84.56
290.217	73.56
290.448	89.56
290.679	77.56
290.91	92.56
291.141	82.56
291.371	83.56
291.602	93.56
291.833	81.56
292.064	82.56
292.295	80.56
292.526	93.56
292.757	92.56
292.987	98.56
293.218	83.56
293.449	84.56
293.68	82.56
293.91	73.56
294.141	86.56
294.372	88.56
294.603	84.56
294.833	77.56
295.064	89.56
295.295	84.56
295.525	73.56
295.756	71.56
295.987	96.56
296.217	111.56
296.448	98.56
296.679	101.56
296.909	80.56
297.14	81.56
297.37	95.56
297.601	88.56
297.831	78.56
298.062	92.56
298.292	73.56
298.523	80.56
298.753	80.56
298.984	87.56
299.214	84.56
299.445	98.56
299.675	90.56
299.905	83.56
300.136	61.56
300.366	88.56
300.597	87.56
300.827	89.56
301.057	91.56
301.288	90.56
301.518	98.56
301.748	79.56
301.979	102.56
302.209	96.56
302.439	90.56
302.669	88.56
302.9	65.56
303.13	91.56
303.36	100.56
303.59	85.56
303.82	98.56
304.051	81.56
304.281	86.56
304.511	94.56
304.741	87.56
304.971	82.56
305.201	79.56
305.431	93.56
305.661	89.56
305.891	77.56
306.121	87.56
306.352	94.56
306.582	86.56
306.812	87.56
307.042	92.56
307.272	92.56
307.502	84.56
307.731	80.56
307.961	71.56
308.191	78.56
308.421	88.56
308.651	89.56
308.881	85.56
309.111	84.56
309.341	80.56
309.571	89.56
309.8	91.56
310.03	84.56
310.26	93.56
310.49	93.56
310.72	78.56
310.949	93.56
311.179	86.56
311.409	84.56
311.639	84.56
311.868	93.56
312.098	73.56
312.328	84.56
312.557	95.56
312.787	100.56
313.017	89.56
313.246	89.56
313.476	72.56
313.706	86.56
313.935	89.56
314.165	85.56
314.394	100.56
314.624	91.56
314.853	94.56
315.083	74.56
315.312	82.56
315.542	92.56
315.771	87.56
316.001	93.56
316.23	82.56
316.46	82.56
316.689	82.56
316.919	90.56
317.148	88.56
317.377	84.56
317.607	100.56
317.836	86.56
318.065	95.56
318.295	88.56
318.524	88.56
318.753	89.56
318.983	89.56
319.212	91.56
319.441	105.56
319.67	104.56
319.9	75.56
320.129	90.56
320.358	76.56
320.587	94.56
320.816	79.56
321.046	85.56
321.275	93.56
321.504	81.56
321.733	96.56
321.962	85.56
322.191	76.56
322.42	97.56
322.649	89.56
322.878	105.56
323.108	96.56
323.337	101.56
323.566	104.56
323.795	126.56
324.024	171.56
324.253	278.56
324.482	577.56
324.71	1142.56
324.939	1466.56
325.168	556.56
325.397	188.56
325.626	124.56
325.855	105.56
326.084	117.56
326.313	103.56
326.542	115.56
326.77	168.56
326.999	314.56
327.228	681.56
327.457	1157.56
327.686	914.56
327.914	274.56
328.143	144.56
328.372	128.56
328.6	102.56
328.829	108.56
329.058	115.56
329.287	120.56
329.515	95.56
329.744	109.56
329.972	99.56
330.201	110.56
330.43	124.56
330.658	106.56
330.887	114.56
331.115	105.56
331.344	106.56
331.572	85.56
331.801	84.56
332.03	87.56
332.258	91.56
332.486	94.56
332.715	102.56
332.943	94.56
333.172	95.56
333.4	93.56
333.629	88.56
333.857	100.56
334.085	113.56
334.314	100.56
334.542	127.56
334.771	123.56
334.999	118.56
335.227	88.56
335.455	105.56
335.684	89.56
335.912	102.56
336.14	90.56
336.369	91.56
336.597	92.56
336.825	96.56
337.053	88.56
337.281	93.56
337.51	88.56
337.738	90.56
337.966	84.56
338.194	81.56
338.422	103.56
338.65	93.56
338.878	90.56
339.106	84.56
339.334	96.56
339.562	85.56
339.79	82.56
340.018	84.56
340.246	89.56
340.474	85.56
340.702	90.56
340.93	97.56
341.158	92.56
341.386	103.56
341.614	102.56
341.842	96.56
342.07	86.56
342.298	92.56
342.526	78.56
342.754	87.56
342.981	90.56
343.209	90.56
343.437	89.56
343.665	77.56
343.893	85.56
344.12	93.56
344.348	85.56
344.576	92.56
344.804	86.56
345.031	85.56
345.259	90.56
345.487	93.56
345.714	87.56
345.942	95.56
346.17	76.56
346.397	78.56
346.625	86.56
346.853	90.56
347.08	82.56
347.308	82.56
347.535	98.56
347.763	80.56
347.99	108.56
348.218	95.56
348.445	92.56
348.673	94.56
348.9	89.56
349.128	100.56
349.355	108.56
349.583	101.56
349.81	87.56
350.037	83.56
350.265	98.56
350.492	82.56
350.72	85.56
350.947	86.56
351.174	97.56
351.402	111.56
351.629	87.56
351.856	94.56
352.083	92.56
352.311	94.56
352.538	85.56
352.765	110.56
352.992	108.56
353.22	106.56
353.447	100.56
353.674	80.56
353.901	105.56
354.128	103.56
354.355	106.56
354.583	101.56
354.81	93.56
355.037	87.56
355.264	88.56
355.491	97.56
355.718	86.56
355.945	93.56
356.172	92.56
356.399	87.56
356.626	90.56
356.853	93.56
357.08	95.56
357.307	86.56
357.534	94.56
357.761	87.56
357.988	70.56
358.215	108.56
358.441	101.56
358.668	96.56
358.895	87.56
359.122	99.56
359.349	87.56
359.576	99.56
359.802	86.56
360.029	90.56
360.256	100.56
360.483	90.56
360.709	93.56
360.936	78.56
361.163	92.56
361.39	88.56
361.616	91.56
361.843	78.56
362.07	82.56
362.296	98.56
362.523	92.56
362.749	92.56
362.976	94.56
363.203	85.56
363.429	85.56
363.656	90.56
363.882	74.56
364.109	94.56
364.335	84.56
364.562	90.56
364.788	82.56
365.015	92.56
365.241	87.56
365.468	90.56
365.694	88.56
365.92	81.56
366.147	60.56
366.373	87.56
366.599	86.56
366.826	93.56
367.052	77.56
367.278	81.56
367.505	73.56
367.731	102.56
367.957	97.56
368.184	91.56
368.41	84.56
368.636	95.56
368.862	103.56
369.089	96.56
369.315	100.56
369.541	92.56
369.767	72.56
369.993	76.56
370.219	80.56
370.445	85.56
370.672	76.56
370.898	95.56
371.124	76.56
371.35	89.56
371.576	73.56
371.802	94.56
372.028	88.56
372.254	76.56
372.48	92.56
372.706	78.56
372.932	92.56
373.158	85.56
373.384	85.56
373.61	67.56
373.835	85.56
374.061	93.56
374.287	76.56
374.513	86.56
374.739	86.56
374.965	89.56
375.191	86.56
375.416	95.56
375.642	73.56
375.868	87.56
376.094	98.56
376.319	101.56
376.545	81.56
376.771	92.56
376.997	92.56
377.222	95.56
377.448	84.56
377.674	101.56
377.899	91.56
378.125	96.56
378.35	83.56
378.576	90.56
378.802	82.56
379.027	106.56
379.253	97.56
379.478	102.56
379.704	96.56
379.929	92.56
380.155	92.56
380.38	84.56
380.606	95.56
380.831	103.56
381.057	123.56
381.282	88.56
381.507	92.56
381.733	86.56
381.958	86.56
382.184	109.56
382.409	99.56
382.634	101.56
382.86	108.56
383.085	135.56
383.31	96.56
383.535	96.56
383.761	102.56
383.986	104.56
384.211	105.56
384.436	114.56
384.662	106.56
384.887	135.56
385.112	117.56
385.337	119.56
385.562	121.56
385.787	109.56
386.013	115.56
386.238	117.56
386.463	94.56
386.688	113.56
386.913	124.56
387.138	144.56
387.363	110.56
387.588	101.56
387.813	107.56
388.038	125.56
388.263	152.56
388.488	110.56
388.713	97.56
388.938	86.56
389.163	94.56
389.387	103.56
389.612	88.56
389.837	87.56
390.062	101.56
390.287	106.56
390.512	85.56
390.736	82.56
390.961	73.56
391.186	94.56
391.411	90.56
391.636	101.56
391.86	89.56
392.085	78.56
392.31	88.56
392.534	98.56
392.759	95.56
392.984	83.56
393.208	121.56
393.433	144.56
393.658	125.56
393.882	92.56
394.107	82.56
394.331	92.56
394.556	89.56
394.78	79.56
395.005	88.56
395.229	87.56
395.454	82.56
395.678	83.56
395.903	84.56
396.127	78.56
396.352	77.56
396.576	100.56
396.801	114.56
397.025	109.56
397.249	103.56
397.474	93.56
397.698	78.56
397.922	93.56
398.147	87.56
398.371	80.56
398.595	76.56
398.82	82.56
399.044	66.56
399.268	96.56
399.492	77.56
399.717	94.56
399.941	80.56
400.165	82.56
400.389	83.56
400.613	103.56
400.837	79.56
401.062	80.56
401.286	75.56
401.51	97.56
401.734	88.56
401.958	82.56
402.182	106.56
402.406	129.56
402.63	96.56
402.854	88.56
403.078	90.56
403.302	96.56
403.526	83.56
403.75	91.56
403.974	82.56
404.198	90.56
404.422	91.56
404.645	85.56
404.869	70.56
405.093	88.56
405.317	100.56
405.541	89.56
405.765	79.56
405.988	102.56
406.212	131.56
406.436	160.56
406.66	108.56
406.883	91.56
407.107	83.56
407.331	83.56
407.555	104.56
407.778	90.56
408.002	76.56
408.226	95.56
408.449	82.56
408.673	84.56
408.896	85.56
409.12	90.56
409.344	78.56
409.567	96.56
409.791	84.56
410.014	71.56
410.238	84.56
410.461	89.56
410.685	92.56
410.908	99.56
411.132	90.56
411.355	98.56
411.578	83.56
411.802	94.56
412.025	94.56
412.249	93.56
412.472	82.56
412.695	88.56
412.919	87.56
413.142	82.56
413.365	77.56
413.589	77.56
413.812	79.56
414.035	84.56
414.258	78.56
414.482	90.56
414.705	83.56
414.928	78.56
415.151	82.56
415.374	97.56
415.597	89.56
415.821	82.56
416.044	88.56
416.267	93.56
416.49	89.56
416.713	72.56
416.936	87.56
417.159	81.56
417.382	82.56
417.605	79.56
417.828	88.56
418.051	85.56
418.274	92.56
418.497	85.56
418.72	95.56
418.943	84.56
419.166	93.56
419.389	66.56
419.611	97.56
419.834	89.56
420.057	80.56
420.28	79.56
420.503	85.56
420.726	76.56
420.948	91.56
421.171	97.56
421.394	72.56
421.617	78.56
421.839	78.56
422.062	83.56
422.285	86.56
422.507	90.56
422.73	101.56
422.953	97.56
423.175	96.56
423.398	72.56
423.621	76.56
423.843	74.56
424.066	81.56
424.288	99.56
424.511	84.56
424.733	86.56
424.956	87.56
425.178	71.56
425.401	86.56
425.623	89.56
425.846	88.56
426.068	97.56
426.291	86.56
426.513	81.56
426.735	88.56
426.958	91.56
427.18	94.56
427.402	104.56
427.625	130.56
427.847	109.56
428.069	107.56
428.292	92.56
428.514	87.56
428.736	79.56
428.958	92.56
429.181	74.56
429.403	73.56
429.625	80.56
429.847	82.56
430.069	83.56
430.292	88.56
430.514	80.56
430.736	77.56
430.958	66.56
431.18	77.56
431.402	86.56
431.624	93.56
431.846	77.56
432.068	78.56
432.29	87.56
432.512	95.56
432.734	79.56
432.956	89.56
433.178	88.56
433.4	88.56
433.622	71.56
433.844	94.56
434.066	79.56
434.287	80.56
434.509	75.56
434.731	87.56
434.953	83.56
435.175	92.56
435.397	88.56
435.618	89.56
435.84	88.56
436.062	96.56
436.284	97.56
436.505	90.56
436.727	87.56
436.949	85.56
437.17	84.56
437.392	94.56
437.614	80.56
437.835	95.56
438.057	96.56
438.278	89.56
438.5	104.56
438.721	97.56
438.943	90.56
439.165	90.56
439.386	81.56
439.608	86.56
439.829	74.56
440.05	96.56
440.272	109.56
440.493	101.56
440.715	90.56
440.936	76.56
441.158	74.56
441.379	85.56
441.6	92.56
441.822	90.56
442.043	85.56
442.264	76.56
442.486	79.56
442.707	80.56
442.928	93.56
443.149	107.56
443.371	110.56
443.592	97.56
443.813	98.56
444.034	81.56
444.255	80.56
444.476	80.56
444.698	88.56
444.919	80.56
445.14	127.56
445.361	103.56
445.582	109.56
445.803	87.56
446.024	100.56
446.245	104.56
446.466	106.56
446.687	98.56
446.908	93.56
447.129	89.56
447.35	78.56
447.571	84.56
447.792	81.56
448.013	85.56
448.234	84.56
448.455	97.56
448.675	98.56
448.896	95.56
449.117	107.56
449.338	93.56
449.559	108.56
449.779	113.56
450	76.56
450.221	82.56
450.442	90.56
450.662	88.56
450.883	90.56
451.104	109.56
451.324	88.56
451.545	87.56
451.766	84.56
451.986	80.56
452.207	77.56
452.428	92.56
452.648	72.56
452.869	85.56
453.089	102.56
453.31	104.56
453.53	82.56
453.751	87.56
453.971	94.56
454.192	93.56
454.412	94.56
454.633	88.56
454.853	72.56
455.073	69.56
455.294	87.56
455.514	70.56
455.734	64.56
455.955	95.56
456.175	95.56
456.395	87.56
456.616	74.56
456.836	80.56
457.056	84.56
457.276	81.56
457.497	85.56
457.717	89.56
457.937	89.56
458.157	85.56
458.377	73.56
458.598	96.56
458.818	118.56
459.038	130.56
459.258	98.56
459.478	85.56
459.698	91.56
459.918	76.56
460.138	80.56
460.358	85.56
460.578	82.56
460.798	78.56
461.018	75.56
461.238	78.56
461.458	82.56
461.678	79.56
461.898	84.56
462.118	55.56
462.338	90.56
462.558	86.56
462.777	82.56
462.997	72.56
463.217	92.56
463.437	92.56
463.657	83.56
463.876	94.56
464.096	80.56
464.316	85.56
464.536	81.56
464.755	100.56
464.975	98.56
465.195	117.56
465.414	117.56
465.634	90.56
465.854	88.56
466.073	81.56
466.293	79.56
466.512	84.56
466.732	92.56
466.951	88.56
467.171	77.56
467.391	102.56
467.61	74.56
467.829	82.56
468.049	93.56
468.268	92.56
468.488	92.56
468.707	91.56
468.927	93.56
469.146	69.56
469.365	78.56
469.585	76.56
469.804	82.56
470.023	100.56
470.243	93.56
470.462	90.56
470.681	94.56
470.901	88.56
471.12	80.56
471.339	85.56
471.558	88.56
471.777	81.56
471.997	97.56
472.216	100.56
472.435	130.56
472.654	73.56
472.873	84.56
473.092	73.56
473.311	77.56
473.53	89.56
473.749	87.56
473.968	93.56
474.187	82.56
474.406	92.56
474.625	80.56
474.844	84.56
475.063	74.56
475.282	83.56
475.501	74.56
475.72	101.56
475.939	76.56
476.158	89.56
476.377	76.56
476.596	62.56
476.814	74.56
477.033	72.56
477.252	92.56
477.471	85.56
477.69	88.56
477.908	102.56
478.127	85.56
478.346	79.56
478.564	93.56
478.783	96.56
479.002	98.56
479.22	76.56
479.439	101.56
479.658	103.56
479.876	90.56
480.095	87.56
480.313	81.56
480.532	84.56
480.751	92.56
480.969	107.56
481.188	192.56
481.406	130.56
481.624	87.56
481.843	89.56
482.061	77.56
482.28	84.56
482.498	73.56
482.717	90.56
482.935	82.56
483.153	91.56
483.372	101.56
483.59	76.56
483.808	94.56
484.027	83.56
484.245	98.56
484.463	89.56
484.681	88.56
484.9	99.56
485.118	93.56
485.336	90.56
485.554	99.56
485.772	96.56
485.99	114.56
486.209	115.56
486.427	102.56
486.645	101.56
486.863	101.56
487.081	92.56
487.299	80.56
487.517	71.56
487.735	84.56
487.953	78.56
488.171	86.56
488.389	85.56
488.607	102.56
488.825	92.56
489.043	80.56
489.261	90.56
489.479	89.56
489.696	95.56
489.914	82.56
490.132	79.56
490.35	95.56
490.568	99.56
490.786	87.56
491.003	74.56
491.221	80.56
491.439	78.56
491.657	79.56
491.874	85.56
492.092	79.56
492.31	76.56
492.527	90.56
492.745	86.56
492.963	87.56
493.18	89.56
493.398	83.56
493.615	101.56
493.833	98.56
494.05	78.56
494.268	81.56
494.485	89.56
494.703	90.56
494.92	81.56
495.138	84.56
495.355	76.56
495.573	78.56
495.79	67.56
496.008	103.56
496.225	78.56
496.442	91.56
496.66	78.56
496.877	72.56
497.094	79.56
497.312	81.56
497.529	84.56
497.746	90.56
497.963	90.56
498.181	95.56
498.398	85.56
498.615	98.56
498.832	100.56
499.049	73.56
499.267	71.56
499.484	81.56
499.701	104.56
499.918	96.56
500.135	88.56
500.352	102.56
500.569	89.56
500.786	89.56
501.003	81.56
501.22	90.56
501.437	96.56
501.654	73.56
501.871	100.56
502.088	97.56
502.305	81.56
502.522	90.56
502.739	92.56
502.956	85.56
503.172	88.56
503.389	90.56
503.606	105.56
503.823	112.56
504.04	89.56
504.256	88.56
504.473	82.56
504.69	91.56
504.907	82.56
505.123	78.56
505.34	89.56
505.557	91.56
505.773	92.56
505.99	76.56
506.207	72.56
506.423	78.56
506.64	82.56
506.856	90.56
507.073	80.56
507.289	101.56
507.506	85.56
507.722	82.56
507.939	105.56
508.155	82.56
508.372	86.56
508.588	78.56
508.805	82.56
509.021	76.56
509.238	96.56
509.454	88.56
509.67	88.56
509.887	94.56
510.103	116.56
510.319	152.56
510.536	506.56
510.752	1492.56
510.968	419.56
511.184	116.56
511.401	98.56
511.617	103.56
511.833	100.56
512.049	85.56
512.265	82.56
512.481	91.56
512.698	92.56
512.914	84.56
513.13	81.56
513.346	95.56
513.562	89.56
513.778	70.56
513.994	94.56
514.21	101.56
514.426	109.56
514.642	106.56
514.858	106.56
515.074	132.56
515.29	294.56
515.506	866.56
515.721	321.56
515.937	116.56
516.153	88.56
516.369	93.56
516.585	92.56
516.801	79.56
517.016	95.56
517.232	84.56
