Data from Circ_1983_H10_HRD10591_00022.txt Node
Date: Wed Jan 03 12:26:49 EST 2024
User: Yrep
Spectrometer: HR+D1059
Trigger mode: 1
Integration Time (sec): 1.000000E-1
Scans to average: 1
Electric dark correction enabled: true
Nonlinearity correction enabled: false
Boxcar width: 0
XAxis mode: Wavelengths
Number of Pixels in Spectrum: 2048
>>>>>Begin Spectral Data<<<<<
223.165	-21.38
223.4	-21.38
223.635	-21.38
223.869	-24.38
224.104	-27.38
224.338	-17.38
224.573	-13.38
224.808	-4.38
225.042	-11.38
225.277	-3.38
225.511	7.62
225.746	-0.38
225.98	9.62
226.215	21.62
226.449	20.62
226.683	18.62
226.918	14.62
227.152	30.62
227.387	21.62
227.621	37.62
227.856	38.62
228.09	34.62
228.324	50.62
228.559	57.62
228.793	57.62
229.027	55.62
229.262	65.62
229.496	72.62
229.73	77.62
229.964	85.62
230.199	72.62
230.433	58.62
230.667	74.62
230.901	76.62
231.136	74.62
231.37	74.62
231.604	75.62
231.838	77.62
232.072	69.62
232.306	68.62
232.541	77.62
232.775	88.62
233.009	77.62
233.243	88.62
233.477	71.62
233.711	88.62
233.945	78.62
234.179	78.62
234.413	67.62
234.647	87.62
234.881	84.62
235.115	82.62
235.349	76.62
235.583	82.62
235.817	68.62
236.051	80.62
236.285	73.62
236.519	78.62
236.753	58.62
236.987	71.62
237.221	86.62
237.455	76.62
237.689	76.62
237.922	69.62
238.156	63.62
238.39	72.62
238.624	59.62
238.858	91.62
239.091	82.62
239.325	72.62
239.559	72.62
239.793	79.62
240.027	70.62
240.26	85.62
240.494	64.62
240.728	62.62
240.961	91.62
241.195	77.62
241.429	70.62
241.662	76.62
241.896	76.62
242.13	78.62
242.363	65.62
242.597	65.62
242.83	82.62
243.064	62.62
243.298	74.62
243.531	71.62
243.765	68.62
243.998	81.62
244.232	73.62
244.465	80.62
244.699	85.62
244.932	72.62
245.166	76.62
245.399	84.62
245.633	77.62
245.866	78.62
246.099	90.62
246.333	78.62
246.566	76.62
246.8	79.62
247.033	71.62
247.266	84.62
247.5	68.62
247.733	76.62
247.966	71.62
248.2	73.62
248.433	84.62
248.666	70.62
248.899	65.62
249.133	86.62
249.366	91.62
249.599	84.62
249.832	90.62
250.066	91.62
250.299	97.62
250.532	73.62
250.765	82.62
250.998	84.62
251.231	80.62
251.465	81.62
251.698	87.62
251.931	69.62
252.164	71.62
252.397	80.62
252.63	77.62
252.863	84.62
253.096	80.62
253.329	85.62
253.562	66.62
253.795	70.62
254.028	74.62
254.261	84.62
254.494	69.62
254.727	95.62
254.96	76.62
255.193	91.62
255.426	84.62
255.659	73.62
255.892	90.62
256.124	74.62
256.357	76.62
256.59	77.62
256.823	91.62
257.056	79.62
257.289	72.62
257.521	81.62
257.754	80.62
257.987	72.62
258.22	79.62
258.452	72.62
258.685	90.62
258.918	74.62
259.151	79.62
259.383	85.62
259.616	78.62
259.849	80.62
260.081	81.62
260.314	84.62
260.547	60.62
260.779	73.62
261.012	85.62
261.244	84.62
261.477	85.62
261.71	91.62
261.942	101.62
262.175	103.62
262.407	92.62
262.64	67.62
262.872	88.62
263.105	82.62
263.337	87.62
263.57	92.62
263.802	80.62
264.035	78.62
264.267	87.62
264.499	71.62
264.732	81.62
264.964	73.62
265.197	74.62
265.429	85.62
265.661	76.62
265.894	96.62
266.126	75.62
266.358	86.62
266.591	80.62
266.823	69.62
267.055	87.62
267.287	72.62
267.52	72.62
267.752	68.62
267.984	81.62
268.216	78.62
268.448	82.62
268.681	82.62
268.913	87.62
269.145	86.62
269.377	89.62
269.609	69.62
269.841	98.62
270.073	92.62
270.306	73.62
270.538	84.62
270.77	69.62
271.002	77.62
271.234	89.62
271.466	82.62
271.698	79.62
271.93	72.62
272.162	83.62
272.394	83.62
272.626	85.62
272.858	87.62
273.09	82.62
273.322	89.62
273.553	68.62
273.785	84.62
274.017	81.62
274.249	90.62
274.481	64.62
274.713	93.62
274.945	86.62
275.176	74.62
275.408	76.62
275.64	91.62
275.872	90.62
276.104	88.62
276.335	90.62
276.567	77.62
276.799	101.62
277.031	85.62
277.262	74.62
277.494	85.62
277.726	86.62
277.957	89.62
278.189	87.62
278.421	74.62
278.652	85.62
278.884	76.62
279.115	97.62
279.347	85.62
279.579	78.62
279.81	80.62
280.042	85.62
280.273	72.62
280.505	76.62
280.736	92.62
280.968	86.62
281.199	81.62
281.431	88.62
281.662	74.62
281.894	108.62
282.125	104.62
282.356	114.62
282.588	127.62
282.819	105.62
283.051	88.62
283.282	88.62
283.513	91.62
283.745	74.62
283.976	85.62
284.207	81.62
284.439	88.62
284.67	80.62
284.901	85.62
285.132	70.62
285.364	97.62
285.595	80.62
285.826	74.62
286.057	86.62
286.288	86.62
286.52	81.62
286.751	91.62
286.982	67.62
287.213	62.62
287.444	79.62
287.675	94.62
287.906	94.62
288.138	87.62
288.369	98.62
288.6	80.62
288.831	87.62
289.062	93.62
289.293	86.62
289.524	83.62
289.755	89.62
289.986	89.62
290.217	74.62
290.448	63.62
290.679	77.62
290.91	84.62
291.141	84.62
291.371	73.62
291.602	90.62
291.833	82.62
292.064	78.62
292.295	79.62
292.526	79.62
292.757	68.62
292.987	82.62
293.218	90.62
293.449	89.62
293.68	101.62
293.91	90.62
294.141	84.62
294.372	74.62
294.603	80.62
294.833	94.62
295.064	76.62
295.295	84.62
295.525	95.62
295.756	82.62
295.987	89.62
296.217	123.62
296.448	96.62
296.679	75.62
296.909	81.62
297.14	80.62
297.37	92.62
297.601	79.62
297.831	82.62
298.062	96.62
298.292	78.62
298.523	93.62
298.753	90.62
298.984	77.62
299.214	80.62
299.445	86.62
299.675	88.62
299.905	92.62
300.136	90.62
300.366	86.62
300.597	84.62
300.827	94.62
301.057	93.62
301.288	116.62
301.518	102.62
301.748	82.62
301.979	101.62
302.209	82.62
302.439	84.62
302.669	85.62
302.9	79.62
303.13	85.62
303.36	90.62
303.59	107.62
303.82	90.62
304.051	95.62
304.281	101.62
304.511	93.62
304.741	84.62
304.971	71.62
305.201	83.62
305.431	93.62
305.661	82.62
305.891	92.62
306.121	81.62
306.352	102.62
306.582	104.62
306.812	80.62
307.042	94.62
307.272	93.62
307.502	87.62
307.731	90.62
307.961	91.62
308.191	86.62
308.421	99.62
308.651	100.62
308.881	86.62
309.111	78.62
309.341	87.62
309.571	89.62
309.8	90.62
310.03	106.62
310.26	95.62
310.49	89.62
310.72	94.62
310.949	112.62
311.179	91.62
311.409	100.62
311.639	87.62
311.868	102.62
312.098	98.62
312.328	91.62
312.557	90.62
312.787	88.62
313.017	98.62
313.246	83.62
313.476	99.62
313.706	99.62
313.935	89.62
314.165	94.62
314.394	81.62
314.624	82.62
314.853	101.62
315.083	96.62
315.312	96.62
315.542	79.62
315.771	85.62
316.001	84.62
316.23	86.62
316.46	99.62
316.689	89.62
316.919	85.62
317.148	80.62
317.377	96.62
317.607	78.62
317.836	88.62
318.065	83.62
318.295	85.62
318.524	85.62
318.753	95.62
318.983	74.62
319.212	85.62
319.441	106.62
319.67	97.62
319.9	92.62
320.129	80.62
320.358	101.62
320.587	89.62
320.816	85.62
321.046	102.62
321.275	84.62
321.504	93.62
321.733	81.62
321.962	98.62
322.191	94.62
322.42	99.62
322.649	112.62
322.878	96.62
323.108	111.62
323.337	117.62
323.566	101.62
323.795	133.62
324.024	158.62
324.253	319.62
324.482	642.62
324.71	1336.62
324.939	1709.62
325.168	653.62
325.397	204.62
325.626	147.62
325.855	121.62
326.084	114.62
326.313	125.62
326.542	154.62
326.77	185.62
326.999	375.62
327.228	753.62
327.457	1360.62
327.686	1064.62
327.914	302.62
328.143	183.62
328.372	138.62
328.6	113.62
328.829	111.62
329.058	100.62
329.287	121.62
329.515	103.62
329.744	112.62
329.972	106.62
330.201	144.62
330.43	158.62
330.658	128.62
330.887	123.62
331.115	114.62
331.344	92.62
331.572	104.62
331.801	90.62
332.03	98.62
332.258	94.62
332.486	103.62
332.715	89.62
332.943	103.62
333.172	102.62
333.4	94.62
333.629	105.62
333.857	95.62
334.085	110.62
334.314	129.62
334.542	155.62
334.771	154.62
334.999	96.62
335.227	97.62
335.455	85.62
335.684	99.62
335.912	106.62
336.14	103.62
336.369	95.62
336.597	91.62
336.825	91.62
337.053	95.62
337.281	81.62
337.51	89.62
337.738	102.62
337.966	92.62
338.194	98.62
338.422	93.62
338.65	83.62
338.878	80.62
339.106	92.62
339.334	73.62
339.562	93.62
339.79	86.62
340.018	84.62
340.246	88.62
340.474	98.62
340.702	84.62
340.93	85.62
341.158	95.62
341.386	106.62
341.614	101.62
341.842	81.62
342.07	94.62
342.298	82.62
342.526	97.62
342.754	83.62
342.981	101.62
343.209	88.62
343.437	90.62
343.665	81.62
343.893	88.62
344.12	81.62
344.348	84.62
344.576	96.62
344.804	85.62
345.031	94.62
345.259	93.62
345.487	84.62
345.714	84.62
345.942	77.62
346.17	92.62
346.397	82.62
346.625	93.62
346.853	87.62
347.08	89.62
347.308	79.62
347.535	100.62
347.763	89.62
347.99	110.62
348.218	102.62
348.445	92.62
348.673	90.62
348.9	101.62
349.128	95.62
349.355	105.62
349.583	96.62
349.81	80.62
350.037	87.62
350.265	97.62
350.492	94.62
350.72	85.62
350.947	96.62
351.174	100.62
351.402	105.62
351.629	90.62
351.856	80.62
352.083	106.62
352.311	99.62
352.538	101.62
352.765	95.62
352.992	113.62
353.22	93.62
353.447	97.62
353.674	101.62
353.901	71.62
354.128	95.62
354.355	97.62
354.583	86.62
354.81	76.62
355.037	95.62
355.264	88.62
355.491	89.62
355.718	97.62
355.945	94.62
356.172	90.62
356.399	78.62
356.626	105.62
356.853	106.62
357.08	104.62
357.307	85.62
357.534	92.62
357.761	82.62
357.988	87.62
358.215	91.62
358.441	105.62
358.668	97.62
358.895	90.62
359.122	99.62
359.349	101.62
359.576	89.62
359.802	103.62
360.029	103.62
360.256	90.62
360.483	100.62
360.709	77.62
360.936	87.62
361.163	87.62
361.39	84.62
361.616	86.62
361.843	81.62
362.07	89.62
362.296	96.62
362.523	76.62
362.749	81.62
362.976	92.62
363.203	97.62
363.429	89.62
363.656	79.62
363.882	68.62
364.109	80.62
364.335	100.62
364.562	83.62
364.788	91.62
365.015	88.62
365.241	85.62
365.468	90.62
365.694	105.62
365.92	95.62
366.147	92.62
366.373	84.62
366.599	90.62
366.826	86.62
367.052	86.62
367.278	73.62
367.505	93.62
367.731	82.62
367.957	98.62
368.184	96.62
368.41	73.62
368.636	89.62
368.862	96.62
369.089	107.62
369.315	86.62
369.541	94.62
369.767	90.62
369.993	96.62
370.219	92.62
370.445	86.62
370.672	92.62
370.898	98.62
371.124	96.62
371.35	87.62
371.576	74.62
371.802	70.62
372.028	85.62
372.254	85.62
372.48	84.62
372.706	90.62
372.932	89.62
373.158	83.62
373.384	88.62
373.61	80.62
373.835	89.62
374.061	83.62
374.287	80.62
374.513	82.62
374.739	100.62
374.965	95.62
375.191	85.62
375.416	90.62
375.642	84.62
375.868	96.62
376.094	80.62
376.319	82.62
376.545	100.62
376.771	70.62
376.997	73.62
377.222	88.62
377.448	94.62
377.674	96.62
377.899	88.62
378.125	85.62
378.35	92.62
378.576	94.62
378.802	95.62
379.027	88.62
379.253	69.62
379.478	88.62
379.704	84.62
379.929	85.62
380.155	82.62
380.38	90.62
380.606	88.62
380.831	105.62
381.057	94.62
381.282	94.62
381.507	102.62
381.733	92.62
381.958	93.62
382.184	92.62
382.409	95.62
382.634	120.62
382.86	99.62
383.085	102.62
383.31	98.62
383.535	110.62
383.761	109.62
383.986	104.62
384.211	101.62
384.436	94.62
384.662	110.62
384.887	119.62
385.112	110.62
385.337	102.62
385.562	115.62
385.787	113.62
386.013	118.62
386.238	126.62
386.463	110.62
386.688	106.62
386.913	124.62
387.138	110.62
387.363	104.62
387.588	101.62
387.813	109.62
388.038	114.62
388.263	125.62
388.488	123.62
388.713	100.62
388.938	90.62
389.163	103.62
389.387	86.62
389.612	98.62
389.837	95.62
390.062	90.62
390.287	84.62
390.512	101.62
390.736	92.62
390.961	74.62
391.186	102.62
391.411	90.62
391.636	98.62
391.86	88.62
392.085	86.62
392.31	88.62
392.534	79.62
392.759	90.62
392.984	89.62
393.208	102.62
393.433	146.62
393.658	107.62
393.882	86.62
394.107	77.62
394.331	98.62
394.556	99.62
394.78	87.62
395.005	97.62
395.229	85.62
395.454	86.62
395.678	88.62
395.903	85.62
396.127	78.62
396.352	83.62
396.576	90.62
396.801	94.62
397.025	118.62
397.249	106.62
397.474	97.62
397.698	70.62
397.922	75.62
398.147	89.62
398.371	84.62
398.595	80.62
398.82	93.62
399.044	86.62
399.268	89.62
399.492	93.62
399.717	93.62
399.941	103.62
400.165	87.62
400.389	81.62
400.613	68.62
400.837	92.62
401.062	91.62
401.286	84.62
401.51	86.62
401.734	96.62
401.958	88.62
402.182	106.62
402.406	128.62
402.63	116.62
402.854	94.62
403.078	89.62
403.302	84.62
403.526	81.62
403.75	93.62
403.974	89.62
404.198	96.62
404.422	66.62
404.645	84.62
404.869	80.62
405.093	98.62
405.317	96.62
405.541	89.62
405.765	86.62
405.988	109.62
406.212	134.62
406.436	186.62
406.66	118.62
406.883	99.62
407.107	85.62
407.331	96.62
407.555	99.62
407.778	84.62
408.002	96.62
408.226	80.62
408.449	90.62
408.673	81.62
408.896	95.62
409.12	95.62
409.344	99.62
409.567	86.62
409.791	89.62
410.014	104.62
410.238	78.62
410.461	90.62
410.685	91.62
410.908	89.62
411.132	86.62
411.355	83.62
411.578	81.62
411.802	80.62
412.025	96.62
412.249	81.62
412.472	87.62
412.695	92.62
412.919	108.62
413.142	79.62
413.365	92.62
413.589	82.62
413.812	71.62
414.035	82.62
414.258	97.62
414.482	91.62
414.705	109.62
414.928	96.62
415.151	92.62
415.374	89.62
415.597	96.62
415.821	71.62
416.044	86.62
416.267	84.62
416.49	76.62
416.713	79.62
416.936	86.62
417.159	81.62
417.382	82.62
417.605	82.62
417.828	96.62
418.051	85.62
418.274	92.62
418.497	92.62
418.72	90.62
418.943	76.62
419.166	76.62
419.389	81.62
419.611	87.62
419.834	81.62
420.057	70.62
420.28	96.62
420.503	89.62
420.726	82.62
420.948	80.62
421.171	88.62
421.394	90.62
421.617	90.62
421.839	91.62
422.062	92.62
422.285	88.62
422.507	87.62
422.73	113.62
422.953	86.62
423.175	83.62
423.398	85.62
423.621	85.62
423.843	98.62
424.066	96.62
424.288	92.62
424.511	80.62
424.733	87.62
424.956	93.62
425.178	95.62
425.401	91.62
425.623	90.62
425.846	93.62
426.068	64.62
426.291	88.62
426.513	82.62
426.735	84.62
426.958	85.62
427.18	93.62
427.402	125.62
427.625	120.62
427.847	126.62
428.069	116.62
428.292	84.62
428.514	90.62
428.736	92.62
428.958	88.62
429.181	87.62
429.403	81.62
429.625	86.62
429.847	100.62
430.069	90.62
430.292	83.62
430.514	85.62
430.736	92.62
430.958	91.62
431.18	86.62
431.402	96.62
431.624	78.62
431.846	88.62
432.068	87.62
432.29	89.62
432.512	93.62
432.734	83.62
432.956	84.62
433.178	98.62
433.4	75.62
433.622	80.62
433.844	86.62
434.066	84.62
434.287	80.62
434.509	86.62
434.731	77.62
434.953	88.62
435.175	84.62
435.397	87.62
435.618	76.62
435.84	81.62
436.062	100.62
436.284	93.62
436.505	88.62
436.727	96.62
436.949	91.62
437.17	79.62
437.392	88.62
437.614	90.62
437.835	109.62
438.057	113.62
438.278	97.62
438.5	95.62
438.721	94.62
438.943	90.62
439.165	92.62
439.386	94.62
439.608	82.62
439.829	100.62
440.05	108.62
440.272	106.62
440.493	93.62
440.715	70.62
440.936	65.62
441.158	88.62
441.379	86.62
441.6	96.62
441.822	88.62
442.043	84.62
442.264	95.62
442.486	84.62
442.707	80.62
442.928	99.62
443.149	107.62
443.371	114.62
443.592	102.62
443.813	101.62
444.034	104.62
444.255	87.62
444.476	66.62
444.698	84.62
444.919	78.62
445.14	128.62
445.361	115.62
445.582	110.62
445.803	114.62
446.024	106.62
446.245	97.62
446.466	74.62
446.687	83.62
446.908	88.62
447.129	85.62
447.35	70.62
447.571	86.62
447.792	85.62
448.013	97.62
448.234	115.62
448.455	101.62
448.675	97.62
448.896	104.62
449.117	92.62
449.338	80.62
449.559	110.62
449.779	108.62
450	84.62
450.221	87.62
450.442	97.62
450.662	101.62
450.883	69.62
451.104	85.62
451.324	76.62
451.545	87.62
451.766	78.62
451.986	85.62
452.207	84.62
452.428	85.62
452.648	99.62
452.869	116.62
453.089	86.62
453.31	91.62
453.53	97.62
453.751	83.62
453.971	99.62
454.192	83.62
454.412	83.62
454.633	82.62
454.853	84.62
455.073	78.62
455.294	86.62
455.514	88.62
455.734	80.62
455.955	108.62
456.175	80.62
456.395	74.62
456.616	80.62
456.836	87.62
457.056	86.62
457.276	73.62
457.497	73.62
457.717	65.62
457.937	82.62
458.157	80.62
458.377	86.62
458.598	90.62
458.818	120.62
459.038	121.62
459.258	96.62
459.478	99.62
459.698	84.62
459.918	81.62
460.138	86.62
460.358	83.62
460.578	78.62
460.798	93.62
461.018	78.62
461.238	94.62
461.458	87.62
461.678	89.62
461.898	91.62
462.118	83.62
462.338	83.62
462.558	87.62
462.777	75.62
462.997	85.62
463.217	88.62
463.437	77.62
463.657	85.62
463.876	97.62
464.096	81.62
464.316	97.62
464.536	94.62
464.755	93.62
464.975	97.62
465.195	120.62
465.414	126.62
465.634	93.62
465.854	86.62
466.073	79.62
466.293	91.62
466.512	79.62
466.732	76.62
466.951	89.62
467.171	79.62
467.391	94.62
467.61	74.62
467.829	86.62
468.049	98.62
468.268	98.62
468.488	97.62
468.707	97.62
468.927	95.62
469.146	70.62
469.365	90.62
469.585	100.62
469.804	85.62
470.023	92.62
470.243	85.62
470.462	99.62
470.681	92.62
470.901	97.62
471.12	86.62
471.339	91.62
471.558	81.62
471.777	80.62
471.997	89.62
472.216	136.62
472.435	189.62
472.654	109.62
472.873	81.62
473.092	80.62
473.311	78.62
473.53	90.62
473.749	96.62
473.968	91.62
474.187	85.62
474.406	94.62
474.625	78.62
474.844	80.62
475.063	76.62
475.282	83.62
475.501	87.62
475.72	91.62
475.939	86.62
476.158	76.62
476.377	85.62
476.596	69.62
476.814	83.62
477.033	89.62
477.252	85.62
477.471	86.62
477.69	84.62
477.908	79.62
478.127	92.62
478.346	82.62
478.564	85.62
478.783	91.62
479.002	81.62
479.22	90.62
479.439	95.62
479.658	93.62
479.876	79.62
480.095	78.62
480.313	101.62
480.532	93.62
480.751	96.62
480.969	131.62
481.188	272.62
481.406	194.62
481.624	85.62
481.843	90.62
482.061	88.62
482.28	87.62
482.498	82.62
482.717	84.62
482.935	87.62
483.153	74.62
483.372	85.62
483.59	87.62
483.808	90.62
484.027	79.62
484.245	86.62
484.463	81.62
484.681	83.62
484.9	98.62
485.118	85.62
485.336	108.62
485.554	95.62
485.772	90.62
485.99	111.62
486.209	104.62
486.427	95.62
486.645	109.62
486.863	115.62
487.081	97.62
487.299	84.62
487.517	88.62
487.735	100.62
487.953	86.62
488.171	90.62
488.389	96.62
488.607	84.62
488.825	81.62
489.043	91.62
489.261	97.62
489.479	84.62
489.696	68.62
489.914	86.62
490.132	80.62
490.35	96.62
490.568	88.62
490.786	78.62
491.003	90.62
491.221	94.62
491.439	97.62
491.657	93.62
491.874	82.62
492.092	94.62
492.31	85.62
492.527	99.62
492.745	86.62
492.963	84.62
493.18	100.62
493.398	90.62
493.615	93.62
493.833	83.62
494.05	97.62
494.268	86.62
494.485	99.62
494.703	85.62
494.92	84.62
495.138	94.62
495.355	70.62
495.573	83.62
495.79	93.62
496.008	92.62
496.225	84.62
496.442	91.62
496.66	106.62
496.877	106.62
497.094	89.62
497.312	104.62
497.529	83.62
497.746	98.62
497.963	84.62
498.181	87.62
498.398	80.62
498.615	94.62
498.832	97.62
499.049	99.62
499.267	92.62
499.484	78.62
499.701	92.62
499.918	89.62
500.135	102.62
500.352	93.62
500.569	82.62
500.786	91.62
501.003	90.62
501.22	85.62
501.437	81.62
501.654	74.62
501.871	95.62
502.088	84.62
502.305	82.62
502.522	65.62
502.739	77.62
502.956	83.62
503.172	100.62
503.389	79.62
503.606	96.62
503.823	98.62
504.04	85.62
504.256	98.62
504.473	83.62
504.69	82.62
504.907	80.62
505.123	81.62
505.34	77.62
505.557	90.62
505.773	88.62
505.99	73.62
506.207	83.62
506.423	95.62
506.64	93.62
506.856	94.62
507.073	85.62
507.289	93.62
507.506	84.62
507.722	98.62
507.939	118.62
508.155	92.62
508.372	90.62
508.588	88.62
508.805	93.62
509.021	82.62
509.238	88.62
509.454	86.62
509.67	108.62
509.887	101.62
510.103	113.62
510.319	176.62
510.536	560.62
510.752	1833.62
510.968	514.62
511.184	131.62
511.401	105.62
511.617	106.62
511.833	92.62
512.049	90.62
512.265	92.62
512.481	78.62
512.698	85.62
512.914	102.62
513.13	98.62
513.346	87.62
513.562	92.62
513.778	72.62
513.994	95.62
514.21	94.62
514.426	102.62
514.642	116.62
514.858	124.62
515.074	148.62
515.29	340.62
515.506	1093.62
515.721	405.62
515.937	118.62
516.153	103.62
516.369	83.62
516.585	85.62
516.801	93.62
517.016	85.62
