Data from Circ_1983_H10_HRD10591_00054.txt Node
Date: Wed Jan 03 12:26:55 EST 2024
User: Yrep
Spectrometer: HR+D1059
Trigger mode: 1
Integration Time (sec): 1.000000E-1
Scans to average: 1
Electric dark correction enabled: true
Nonlinearity correction enabled: false
Boxcar width: 0
XAxis mode: Wavelengths
Number of Pixels in Spectrum: 2048
>>>>>Begin Spectral Data<<<<<
223.165	-7.62
223.4	-7.62
223.635	-7.62
223.869	-19.62
224.104	-30.62
224.338	-10.62
224.573	-23.62
224.808	-17.62
225.042	-12.62
225.277	-3.62
225.511	-2.62
225.746	9.38
225.98	17.38
226.215	8.38
226.449	17.38
226.683	23.38
226.918	24.38
227.152	28.38
227.387	25.38
227.621	33.38
227.856	37.38
228.09	49.38
228.324	49.38
228.559	64.38
228.793	64.38
229.027	51.38
229.262	66.38
229.496	71.38
229.73	81.38
229.964	62.38
230.199	63.38
230.433	62.38
230.667	76.38
230.901	70.38
231.136	75.38
231.37	84.38
231.604	83.38
231.838	85.38
232.072	87.38
232.306	67.38
232.541	65.38
232.775	94.38
233.009	75.38
233.243	79.38
233.477	85.38
233.711	95.38
233.945	77.38
234.179	57.38
234.413	96.38
234.647	85.38
234.881	75.38
235.115	64.38
235.349	72.38
235.583	72.38
235.817	83.38
236.051	69.38
236.285	75.38
236.519	69.38
236.753	75.38
236.987	88.38
237.221	66.38
237.455	75.38
237.689	71.38
237.922	68.38
238.156	75.38
238.39	79.38
238.624	84.38
238.858	66.38
239.091	70.38
239.325	83.38
239.559	71.38
239.793	88.38
240.027	80.38
240.26	75.38
240.494	63.38
240.728	76.38
240.961	65.38
241.195	72.38
241.429	80.38
241.662	66.38
241.896	76.38
242.13	69.38
242.363	68.38
242.597	86.38
242.83	75.38
243.064	81.38
243.298	76.38
243.531	69.38
243.765	73.38
243.998	70.38
244.232	91.38
244.465	73.38
244.699	67.38
244.932	87.38
245.166	73.38
245.399	60.38
245.633	75.38
245.866	65.38
246.099	66.38
246.333	78.38
246.566	68.38
246.8	61.38
247.033	84.38
247.266	63.38
247.5	75.38
247.733	80.38
247.966	78.38
248.2	62.38
248.433	66.38
248.666	80.38
248.899	72.38
249.133	65.38
249.366	88.38
249.599	108.38
249.832	81.38
250.066	77.38
250.299	68.38
250.532	74.38
250.765	70.38
250.998	89.38
251.231	81.38
251.465	80.38
251.698	79.38
251.931	78.38
252.164	67.38
252.397	71.38
252.63	78.38
252.863	70.38
253.096	75.38
253.329	79.38
253.562	83.38
253.795	83.38
254.028	83.38
254.261	75.38
254.494	81.38
254.727	92.38
254.96	77.38
255.193	93.38
255.426	76.38
255.659	77.38
255.892	61.38
256.124	98.38
256.357	99.38
256.59	77.38
256.823	82.38
257.056	79.38
257.289	71.38
257.521	71.38
257.754	70.38
257.987	80.38
258.22	83.38
258.452	78.38
258.685	79.38
258.918	83.38
259.151	82.38
259.383	86.38
259.616	77.38
259.849	81.38
260.081	71.38
260.314	76.38
260.547	82.38
260.779	85.38
261.012	90.38
261.244	99.38
261.477	77.38
261.71	71.38
261.942	89.38
262.175	102.38
262.407	87.38
262.64	88.38
262.872	80.38
263.105	83.38
263.337	76.38
263.57	75.38
263.802	75.38
264.035	79.38
264.267	64.38
264.499	77.38
264.732	76.38
264.964	83.38
265.197	79.38
265.429	87.38
265.661	89.38
265.894	83.38
266.126	102.38
266.358	75.38
266.591	75.38
266.823	86.38
267.055	89.38
267.287	83.38
267.52	85.38
267.752	71.38
267.984	89.38
268.216	65.38
268.448	73.38
268.681	84.38
268.913	93.38
269.145	87.38
269.377	90.38
269.609	78.38
269.841	83.38
270.073	70.38
270.306	84.38
270.538	86.38
270.77	85.38
271.002	58.38
271.234	77.38
271.466	76.38
271.698	72.38
271.93	85.38
272.162	80.38
272.394	91.38
272.626	75.38
272.858	77.38
273.09	75.38
273.322	78.38
273.553	94.38
273.785	88.38
274.017	83.38
274.249	72.38
274.481	80.38
274.713	81.38
274.945	85.38
275.176	81.38
275.408	96.38
275.64	79.38
275.872	83.38
276.104	90.38
276.335	93.38
276.567	87.38
276.799	104.38
277.031	89.38
277.262	92.38
277.494	90.38
277.726	83.38
277.957	85.38
278.189	95.38
278.421	93.38
278.652	79.38
278.884	77.38
279.115	78.38
279.347	79.38
279.579	89.38
279.81	98.38
280.042	81.38
280.273	90.38
280.505	79.38
280.736	97.38
280.968	86.38
281.199	83.38
281.431	82.38
281.662	105.38
281.894	103.38
282.125	82.38
282.356	107.38
282.588	98.38
282.819	89.38
283.051	95.38
283.282	87.38
283.513	91.38
283.745	88.38
283.976	98.38
284.207	94.38
284.439	79.38
284.67	75.38
284.901	87.38
285.132	89.38
285.364	81.38
285.595	86.38
285.826	86.38
286.057	89.38
286.288	86.38
286.52	87.38
286.751	83.38
286.982	79.38
287.213	81.38
287.444	85.38
287.675	83.38
287.906	82.38
288.138	77.38
288.369	79.38
288.6	89.38
288.831	73.38
289.062	92.38
289.293	75.38
289.524	87.38
289.755	89.38
289.986	92.38
290.217	81.38
290.448	91.38
290.679	78.38
290.91	76.38
291.141	83.38
291.371	76.38
291.602	79.38
291.833	89.38
292.064	70.38
292.295	78.38
292.526	78.38
292.757	88.38
292.987	91.38
293.218	91.38
293.449	85.38
293.68	80.38
293.91	92.38
294.141	101.38
294.372	81.38
294.603	92.38
294.833	87.38
295.064	86.38
295.295	67.38
295.525	71.38
295.756	92.38
295.987	106.38
296.217	127.38
296.448	97.38
296.679	82.38
296.909	87.38
297.14	81.38
297.37	73.38
297.601	88.38
297.831	78.38
298.062	87.38
298.292	70.38
298.523	79.38
298.753	65.38
298.984	85.38
299.214	70.38
299.445	94.38
299.675	105.38
299.905	89.38
300.136	77.38
300.366	69.38
300.597	87.38
300.827	91.38
301.057	79.38
301.288	91.38
301.518	75.38
301.748	88.38
301.979	99.38
302.209	80.38
302.439	78.38
302.669	72.38
302.9	85.38
303.13	83.38
303.36	80.38
303.59	97.38
303.82	88.38
304.051	86.38
304.281	89.38
304.511	90.38
304.741	81.38
304.971	58.38
305.201	87.38
305.431	83.38
305.661	75.38
305.891	82.38
306.121	91.38
306.352	94.38
306.582	94.38
306.812	79.38
307.042	86.38
307.272	96.38
307.502	102.38
307.731	101.38
307.961	89.38
308.191	94.38
308.421	83.38
308.651	83.38
308.881	93.38
309.111	70.38
309.341	90.38
309.571	91.38
309.8	88.38
310.03	99.38
310.26	95.38
310.49	84.38
310.72	83.38
310.949	72.38
311.179	99.38
311.409	93.38
311.639	90.38
311.868	83.38
312.098	100.38
312.328	97.38
312.557	95.38
312.787	99.38
313.017	103.38
313.246	91.38
313.476	87.38
313.706	98.38
313.935	84.38
314.165	78.38
314.394	96.38
314.624	92.38
314.853	93.38
315.083	91.38
315.312	83.38
315.542	82.38
315.771	91.38
316.001	71.38
316.23	86.38
316.46	89.38
316.689	95.38
316.919	105.38
317.148	83.38
317.377	98.38
317.607	88.38
317.836	78.38
318.065	90.38
318.295	89.38
318.524	66.38
318.753	85.38
318.983	80.38
319.212	90.38
319.441	96.38
319.67	100.38
319.9	85.38
320.129	86.38
320.358	81.38
320.587	99.38
320.816	91.38
321.046	77.38
321.275	78.38
321.504	89.38
321.733	80.38
321.962	90.38
322.191	91.38
322.42	97.38
322.649	96.38
322.878	111.38
323.108	102.38
323.337	104.38
323.566	113.38
323.795	132.38
324.024	164.38
324.253	283.38
324.482	590.38
324.71	1186.38
324.939	1550.38
325.168	587.38
325.397	193.38
325.626	119.38
325.855	119.38
326.084	127.38
326.313	108.38
326.542	144.38
326.77	191.38
326.999	348.38
327.228	660.38
327.457	1246.38
327.686	992.38
327.914	286.38
328.143	175.38
328.372	149.38
328.6	122.38
328.829	101.38
329.058	97.38
329.287	94.38
329.515	107.38
329.744	112.38
329.972	124.38
330.201	152.38
330.43	188.38
330.658	140.38
330.887	132.38
331.115	102.38
331.344	77.38
331.572	98.38
331.801	102.38
332.03	87.38
332.258	101.38
332.486	81.38
332.715	96.38
332.943	86.38
333.172	104.38
333.4	104.38
333.629	97.38
333.857	92.38
334.085	123.38
334.314	167.38
334.542	243.38
334.771	204.38
334.999	131.38
335.227	102.38
335.455	72.38
335.684	73.38
335.912	89.38
336.14	98.38
336.369	99.38
336.597	89.38
336.825	99.38
337.053	100.38
337.281	95.38
337.51	77.38
337.738	84.38
337.966	85.38
338.194	97.38
338.422	89.38
338.65	92.38
338.878	87.38
339.106	87.38
339.334	76.38
339.562	97.38
339.79	89.38
340.018	93.38
340.246	81.38
340.474	97.38
340.702	84.38
340.93	88.38
341.158	100.38
341.386	86.38
341.614	93.38
341.842	93.38
342.07	75.38
342.298	77.38
342.526	85.38
342.754	88.38
342.981	75.38
343.209	91.38
343.437	92.38
343.665	91.38
343.893	86.38
344.12	81.38
344.348	83.38
344.576	91.38
344.804	89.38
345.031	92.38
345.259	74.38
345.487	78.38
345.714	75.38
345.942	101.38
346.17	96.38
346.397	89.38
346.625	82.38
346.853	92.38
347.08	94.38
347.308	84.38
347.535	95.38
347.763	96.38
347.99	91.38
348.218	111.38
348.445	95.38
348.673	92.38
348.9	97.38
349.128	97.38
349.355	76.38
349.583	101.38
349.81	89.38
350.037	88.38
350.265	87.38
350.492	86.38
350.72	94.38
350.947	89.38
351.174	100.38
351.402	100.38
351.629	93.38
351.856	89.38
352.083	88.38
352.311	100.38
352.538	109.38
352.765	99.38
352.992	105.38
353.22	86.38
353.447	88.38
353.674	88.38
353.901	87.38
354.128	96.38
354.355	86.38
354.583	87.38
354.81	86.38
355.037	97.38
355.264	99.38
355.491	89.38
355.718	93.38
355.945	95.38
356.172	91.38
356.399	99.38
356.626	101.38
356.853	86.38
357.08	84.38
357.307	86.38
357.534	96.38
357.761	84.38
357.988	108.38
358.215	87.38
358.441	101.38
358.668	99.38
358.895	92.38
359.122	94.38
359.349	84.38
359.576	96.38
359.802	83.38
360.029	96.38
360.256	93.38
360.483	88.38
360.709	98.38
360.936	91.38
361.163	98.38
361.39	103.38
361.616	87.38
361.843	92.38
362.07	88.38
362.296	90.38
362.523	89.38
362.749	86.38
362.976	75.38
363.203	83.38
363.429	87.38
363.656	78.38
363.882	79.38
364.109	71.38
364.335	81.38
364.562	69.38
364.788	80.38
365.015	84.38
365.241	95.38
365.468	100.38
365.694	82.38
365.92	80.38
366.147	85.38
366.373	71.38
366.599	83.38
366.826	88.38
367.052	81.38
367.278	81.38
367.505	80.38
367.731	89.38
367.957	76.38
368.184	86.38
368.41	91.38
368.636	84.38
368.862	97.38
369.089	98.38
369.315	73.38
369.541	94.38
369.767	79.38
369.993	88.38
370.219	91.38
370.445	95.38
370.672	89.38
370.898	88.38
371.124	92.38
371.35	81.38
371.576	68.38
371.802	73.38
372.028	84.38
372.254	87.38
372.48	69.38
372.706	90.38
372.932	75.38
373.158	76.38
373.384	102.38
373.61	100.38
373.835	85.38
374.061	77.38
374.287	98.38
374.513	86.38
374.739	81.38
374.965	94.38
375.191	85.38
375.416	75.38
375.642	82.38
375.868	77.38
376.094	88.38
376.319	91.38
376.545	85.38
376.771	88.38
376.997	86.38
377.222	85.38
377.448	72.38
377.674	80.38
377.899	94.38
378.125	81.38
378.35	87.38
378.576	78.38
378.802	78.38
379.027	91.38
379.253	101.38
379.478	72.38
379.704	82.38
379.929	81.38
380.155	89.38
380.38	87.38
380.606	85.38
380.831	98.38
381.057	99.38
381.282	83.38
381.507	86.38
381.733	94.38
381.958	112.38
382.184	95.38
382.409	89.38
382.634	93.38
382.86	94.38
383.085	103.38
383.31	96.38
383.535	101.38
383.761	87.38
383.986	89.38
384.211	99.38
384.436	83.38
384.662	97.38
384.887	98.38
385.112	98.38
385.337	91.38
385.562	111.38
385.787	109.38
386.013	102.38
386.238	113.38
386.463	108.38
386.688	105.38
386.913	101.38
387.138	93.38
387.363	118.38
387.588	97.38
387.813	91.38
388.038	92.38
388.263	109.38
388.488	97.38
388.713	77.38
388.938	91.38
389.163	94.38
389.387	93.38
389.612	87.38
389.837	89.38
390.062	77.38
390.287	79.38
390.512	102.38
390.736	85.38
390.961	78.38
391.186	85.38
391.411	89.38
391.636	95.38
391.86	79.38
392.085	90.38
392.31	91.38
392.534	78.38
392.759	89.38
392.984	88.38
393.208	94.38
393.433	109.38
393.658	108.38
393.882	84.38
394.107	82.38
394.331	67.38
394.556	87.38
394.78	83.38
395.005	99.38
395.229	89.38
395.454	92.38
395.678	84.38
395.903	72.38
396.127	64.38
396.352	73.38
396.576	85.38
396.801	81.38
397.025	78.38
397.249	70.38
397.474	84.38
397.698	77.38
397.922	80.38
398.147	83.38
398.371	78.38
398.595	76.38
398.82	82.38
399.044	86.38
399.268	97.38
399.492	82.38
399.717	77.38
399.941	79.38
400.165	91.38
400.389	82.38
400.613	75.38
400.837	66.38
401.062	83.38
401.286	69.38
401.51	91.38
401.734	88.38
401.958	94.38
402.182	118.38
402.406	111.38
402.63	92.38
402.854	81.38
403.078	83.38
403.302	94.38
403.526	87.38
403.75	79.38
403.974	84.38
404.198	79.38
404.422	88.38
404.645	83.38
404.869	90.38
405.093	89.38
405.317	89.38
405.541	92.38
405.765	102.38
405.988	104.38
406.212	142.38
406.436	185.38
406.66	116.38
406.883	80.38
407.107	91.38
407.331	79.38
407.555	85.38
407.778	97.38
408.002	96.38
408.226	91.38
408.449	85.38
408.673	83.38
408.896	88.38
409.12	95.38
409.344	88.38
409.567	71.38
409.791	79.38
410.014	86.38
410.238	97.38
410.461	91.38
410.685	95.38
410.908	92.38
411.132	94.38
411.355	88.38
411.578	68.38
411.802	68.38
412.025	78.38
412.249	90.38
412.472	96.38
412.695	89.38
412.919	91.38
413.142	93.38
413.365	88.38
413.589	72.38
413.812	103.38
414.035	94.38
414.258	81.38
414.482	86.38
414.705	83.38
414.928	80.38
415.151	83.38
415.374	81.38
415.597	84.38
415.821	79.38
416.044	83.38
416.267	90.38
416.49	82.38
416.713	80.38
416.936	74.38
417.159	83.38
417.382	72.38
417.605	86.38
417.828	86.38
418.051	90.38
418.274	83.38
418.497	86.38
418.72	75.38
418.943	70.38
419.166	80.38
419.389	75.38
419.611	109.38
419.834	75.38
420.057	76.38
420.28	82.38
420.503	76.38
420.726	75.38
420.948	74.38
421.171	85.38
421.394	86.38
421.617	84.38
421.839	80.38
422.062	92.38
422.285	85.38
422.507	97.38
422.73	100.38
422.953	93.38
423.175	89.38
423.398	78.38
423.621	85.38
423.843	88.38
424.066	96.38
424.288	76.38
424.511	88.38
424.733	84.38
424.956	83.38
425.178	90.38
425.401	78.38
425.623	75.38
425.846	77.38
426.068	100.38
426.291	99.38
426.513	73.38
426.735	80.38
426.958	80.38
427.18	85.38
427.402	115.38
427.625	129.38
427.847	118.38
428.069	106.38
428.292	68.38
428.514	75.38
428.736	78.38
428.958	87.38
429.181	78.38
429.403	84.38
429.625	77.38
429.847	88.38
430.069	81.38
430.292	86.38
430.514	83.38
430.736	81.38
430.958	79.38
431.18	75.38
431.402	83.38
431.624	86.38
431.846	89.38
432.068	92.38
432.29	86.38
432.512	80.38
432.734	81.38
432.956	78.38
433.178	98.38
433.4	85.38
433.622	80.38
433.844	93.38
434.066	84.38
434.287	84.38
434.509	81.38
434.731	81.38
434.953	88.38
435.175	71.38
435.397	98.38
435.618	89.38
435.84	109.38
436.062	101.38
436.284	106.38
436.505	83.38
436.727	79.38
436.949	81.38
437.17	76.38
437.392	80.38
437.614	83.38
437.835	90.38
438.057	98.38
438.278	89.38
438.5	85.38
438.721	98.38
438.943	89.38
439.165	78.38
439.386	91.38
439.608	85.38
439.829	80.38
440.05	97.38
440.272	106.38
440.493	70.38
440.715	85.38
440.936	91.38
441.158	85.38
441.379	101.38
441.6	88.38
441.822	71.38
442.043	75.38
442.264	109.38
442.486	102.38
442.707	92.38
442.928	90.38
443.149	92.38
443.371	104.38
443.592	91.38
443.813	100.38
444.034	100.38
444.255	100.38
444.476	78.38
444.698	81.38
444.919	85.38
445.14	117.38
445.361	119.38
445.582	93.38
445.803	92.38
446.024	102.38
446.245	104.38
446.466	84.38
446.687	80.38
446.908	77.38
447.129	73.38
447.35	86.38
447.571	80.38
447.792	94.38
448.013	75.38
448.234	103.38
448.455	94.38
448.675	103.38
448.896	91.38
449.117	93.38
449.338	95.38
449.559	98.38
449.779	106.38
450	89.38
450.221	89.38
450.442	60.38
450.662	77.38
450.883	83.38
451.104	89.38
451.324	74.38
451.545	73.38
451.766	87.38
451.986	70.38
452.207	87.38
452.428	88.38
452.648	91.38
452.869	97.38
453.089	101.38
453.31	101.38
453.53	90.38
453.751	77.38
453.971	77.38
454.192	97.38
454.412	95.38
454.633	74.38
454.853	86.38
455.073	69.38
455.294	91.38
455.514	87.38
455.734	83.38
455.955	82.38
456.175	71.38
456.395	80.38
456.616	78.38
456.836	70.38
457.056	70.38
457.276	70.38
457.497	95.38
457.717	85.38
457.937	67.38
458.157	78.38
458.377	85.38
458.598	93.38
458.818	128.38
459.038	136.38
459.258	94.38
459.478	83.38
459.698	80.38
459.918	85.38
460.138	82.38
460.358	88.38
460.578	91.38
460.798	91.38
461.018	85.38
461.238	69.38
461.458	87.38
461.678	82.38
461.898	87.38
462.118	81.38
462.338	76.38
462.558	82.38
462.777	81.38
462.997	82.38
463.217	78.38
463.437	85.38
463.657	89.38
463.876	96.38
464.096	87.38
464.316	78.38
464.536	92.38
464.755	87.38
464.975	85.38
465.195	131.38
465.414	126.38
465.634	79.38
465.854	72.38
466.073	85.38
466.293	76.38
466.512	71.38
466.732	70.38
466.951	78.38
467.171	94.38
467.391	88.38
467.61	96.38
467.829	95.38
468.049	109.38
468.268	139.38
468.488	79.38
468.707	87.38
468.927	87.38
469.146	65.38
469.365	77.38
469.585	73.38
469.804	83.38
470.023	93.38
470.243	79.38
470.462	91.38
470.681	103.38
470.901	83.38
471.12	99.38
471.339	90.38
471.558	76.38
471.777	76.38
471.997	105.38
472.216	173.38
472.435	293.38
472.654	104.38
472.873	85.38
473.092	91.38
473.311	76.38
473.53	83.38
473.749	80.38
473.968	70.38
474.187	94.38
474.406	86.38
474.625	80.38
474.844	86.38
475.063	76.38
475.282	101.38
475.501	83.38
475.72	75.38
475.939	97.38
476.158	77.38
476.377	91.38
476.596	78.38
476.814	72.38
477.033	88.38
477.252	76.38
477.471	76.38
477.69	64.38
477.908	72.38
478.127	90.38
478.346	79.38
478.564	88.38
478.783	82.38
479.002	78.38
479.22	88.38
479.439	71.38
479.658	76.38
479.876	85.38
480.095	78.38
480.313	78.38
480.532	91.38
480.751	103.38
480.969	174.38
481.188	476.38
481.406	282.38
481.624	109.38
481.843	81.38
482.061	86.38
482.28	78.38
482.498	85.38
482.717	79.38
482.935	83.38
483.153	80.38
483.372	85.38
483.59	86.38
483.808	85.38
484.027	80.38
484.245	93.38
484.463	75.38
484.681	88.38
484.9	81.38
485.118	89.38
485.336	89.38
485.554	96.38
485.772	93.38
485.99	97.38
486.209	111.38
486.427	102.38
486.645	106.38
486.863	103.38
487.081	85.38
487.299	79.38
487.517	80.38
487.735	78.38
487.953	79.38
488.171	97.38
488.389	91.38
488.607	96.38
488.825	91.38
489.043	72.38
489.261	75.38
489.479	88.38
489.696	88.38
489.914	74.38
490.132	88.38
490.35	90.38
490.568	84.38
490.786	84.38
491.003	74.38
491.221	71.38
491.439	86.38
491.657	85.38
491.874	98.38
492.092	114.38
492.31	82.38
492.527	84.38
492.745	73.38
492.963	99.38
493.18	92.38
493.398	89.38
493.615	93.38
493.833	91.38
494.05	82.38
494.268	79.38
494.485	91.38
494.703	81.38
494.92	70.38
495.138	77.38
495.355	77.38
495.573	79.38
495.79	75.38
496.008	92.38
496.225	99.38
496.442	83.38
496.66	89.38
496.877	97.38
497.094	91.38
497.312	88.38
497.529	68.38
497.746	94.38
497.963	86.38
498.181	88.38
498.398	92.38
498.615	108.38
498.832	100.38
499.049	79.38
499.267	84.38
499.484	83.38
499.701	80.38
499.918	97.38
500.135	83.38
500.352	82.38
500.569	90.38
500.786	84.38
501.003	76.38
501.22	99.38
501.437	96.38
501.654	83.38
501.871	84.38
502.088	79.38
502.305	78.38
502.522	89.38
502.739	85.38
502.956	80.38
503.172	101.38
503.389	88.38
503.606	99.38
503.823	93.38
504.04	92.38
504.256	91.38
504.473	93.38
504.69	72.38
504.907	88.38
505.123	88.38
505.34	96.38
505.557	79.38
505.773	99.38
505.99	77.38
506.207	79.38
506.423	104.38
506.64	85.38
506.856	86.38
507.073	91.38
507.289	77.38
507.506	87.38
507.722	106.38
507.939	100.38
508.155	69.38
508.372	92.38
508.588	84.38
508.805	103.38
509.021	88.38
509.238	84.38
509.454	89.38
509.67	83.38
509.887	96.38
510.103	115.38
510.319	177.38
510.536	578.38
510.752	1741.38
510.968	479.38
511.184	119.38
511.401	91.38
511.617	81.38
511.833	79.38
512.049	95.38
512.265	90.38
512.481	75.38
512.698	93.38
512.914	88.38
513.13	111.38
513.346	83.38
513.562	95.38
513.778	82.38
513.994	93.38
514.21	91.38
514.426	114.38
514.642	120.38
514.858	118.38
515.074	129.38
515.29	337.38
515.506	1040.38
515.721	389.38
515.937	136.38
516.153	86.38
516.369	83.38
516.585	97.38
516.801	94.38
517.016	88.38
517.232	78.38
517.448	88.38
517.664	94.38
