Data from Circ_1983_H10_HRD10591_00033.txt Node
Date: Wed Jan 03 12:26:51 EST 2024
User: Yrep
Spectrometer: HR+D1059
Trigger mode: 1
Integration Time (sec): 1.000000E-1
Scans to average: 1
Electric dark correction enabled: true
Nonlinearity correction enabled: false
Boxcar width: 0
XAxis mode: Wavelengths
Number of Pixels in Spectrum: 2048
>>>>>Begin Spectral Data<<<<<
223.165	-26.88
223.4	-26.88
223.635	-26.88
223.869	-15.88
224.104	-15.88
224.338	-18.88
224.573	-6.88
224.808	-7.88
225.042	-15.88
225.277	-10.88
225.511	6.12
225.746	7.12
225.98	4.12
226.215	17.12
226.449	18.12
226.683	12.12
226.918	27.12
227.152	27.12
227.387	42.12
227.621	28.12
227.856	59.12
228.09	55.12
228.324	58.12
228.559	57.12
228.793	47.12
229.027	69.12
229.262	65.12
229.496	73.12
229.73	71.12
229.964	66.12
230.199	72.12
230.433	82.12
230.667	89.12
230.901	67.12
231.136	67.12
231.37	85.12
231.604	69.12
231.838	87.12
232.072	85.12
232.306	72.12
232.541	97.12
232.775	86.12
233.009	79.12
233.243	83.12
233.477	87.12
233.711	90.12
233.945	99.12
234.179	94.12
234.413	86.12
234.647	90.12
234.881	78.12
235.115	92.12
235.349	75.12
235.583	81.12
235.817	81.12
236.051	76.12
236.285	84.12
236.519	77.12
236.753	81.12
236.987	83.12
237.221	82.12
237.455	89.12
237.689	74.12
237.922	75.12
238.156	72.12
238.39	70.12
238.624	73.12
238.858	83.12
239.091	78.12
239.325	78.12
239.559	86.12
239.793	83.12
240.027	80.12
240.26	82.12
240.494	76.12
240.728	73.12
240.961	78.12
241.195	86.12
241.429	74.12
241.662	70.12
241.896	75.12
242.13	81.12
242.363	83.12
242.597	71.12
242.83	81.12
243.064	81.12
243.298	89.12
243.531	74.12
243.765	87.12
243.998	78.12
244.232	85.12
244.465	74.12
244.699	72.12
244.932	75.12
245.166	86.12
245.399	79.12
245.633	83.12
245.866	74.12
246.099	77.12
246.333	69.12
246.566	85.12
246.8	68.12
247.033	78.12
247.266	62.12
247.5	82.12
247.733	83.12
247.966	83.12
248.2	93.12
248.433	72.12
248.666	85.12
248.899	89.12
249.133	86.12
249.366	98.12
249.599	87.12
249.832	71.12
250.066	79.12
250.299	89.12
250.532	87.12
250.765	78.12
250.998	83.12
251.231	73.12
251.465	87.12
251.698	85.12
251.931	81.12
252.164	83.12
252.397	73.12
252.63	87.12
252.863	77.12
253.096	92.12
253.329	87.12
253.562	87.12
253.795	82.12
254.028	87.12
254.261	53.12
254.494	83.12
254.727	77.12
254.96	77.12
255.193	79.12
255.426	69.12
255.659	73.12
255.892	89.12
256.124	86.12
256.357	87.12
256.59	92.12
256.823	85.12
257.056	79.12
257.289	76.12
257.521	90.12
257.754	80.12
257.987	65.12
258.22	86.12
258.452	90.12
258.685	103.12
258.918	95.12
259.151	94.12
259.383	79.12
259.616	87.12
259.849	83.12
260.081	87.12
260.314	84.12
260.547	78.12
260.779	93.12
261.012	92.12
261.244	72.12
261.477	81.12
261.71	71.12
261.942	89.12
262.175	94.12
262.407	97.12
262.64	99.12
262.872	79.12
263.105	86.12
263.337	79.12
263.57	85.12
263.802	99.12
264.035	88.12
264.267	77.12
264.499	85.12
264.732	85.12
264.964	80.12
265.197	83.12
265.429	92.12
265.661	89.12
265.894	96.12
266.126	90.12
266.358	86.12
266.591	83.12
266.823	91.12
267.055	74.12
267.287	92.12
267.52	80.12
267.752	85.12
267.984	85.12
268.216	86.12
268.448	93.12
268.681	87.12
268.913	99.12
269.145	93.12
269.377	99.12
269.609	99.12
269.841	71.12
270.073	77.12
270.306	94.12
270.538	84.12
270.77	87.12
271.002	86.12
271.234	84.12
271.466	91.12
271.698	74.12
271.93	88.12
272.162	89.12
272.394	78.12
272.626	97.12
272.858	90.12
273.09	89.12
273.322	79.12
273.553	89.12
273.785	101.12
274.017	92.12
274.249	78.12
274.481	69.12
274.713	77.12
274.945	94.12
275.176	83.12
275.408	90.12
275.64	86.12
275.872	97.12
276.104	87.12
276.335	92.12
276.567	87.12
276.799	83.12
277.031	90.12
277.262	110.12
277.494	85.12
277.726	85.12
277.957	102.12
278.189	99.12
278.421	85.12
278.652	90.12
278.884	93.12
279.115	79.12
279.347	93.12
279.579	98.12
279.81	88.12
280.042	91.12
280.273	109.12
280.505	94.12
280.736	85.12
280.968	93.12
281.199	94.12
281.431	86.12
281.662	75.12
281.894	77.12
282.125	97.12
282.356	117.12
282.588	119.12
282.819	117.12
283.051	79.12
283.282	87.12
283.513	81.12
283.745	84.12
283.976	100.12
284.207	85.12
284.439	93.12
284.67	81.12
284.901	80.12
285.132	90.12
285.364	83.12
285.595	93.12
285.826	94.12
286.057	82.12
286.288	93.12
286.52	87.12
286.751	94.12
286.982	82.12
287.213	95.12
287.444	84.12
287.675	78.12
287.906	83.12
288.138	95.12
288.369	93.12
288.6	99.12
288.831	89.12
289.062	86.12
289.293	78.12
289.524	81.12
289.755	83.12
289.986	89.12
290.217	99.12
290.448	77.12
290.679	92.12
290.91	73.12
291.141	84.12
291.371	84.12
291.602	82.12
291.833	96.12
292.064	95.12
292.295	97.12
292.526	92.12
292.757	95.12
292.987	87.12
293.218	84.12
293.449	87.12
293.68	93.12
293.91	101.12
294.141	90.12
294.372	93.12
294.603	92.12
294.833	98.12
295.064	92.12
295.295	76.12
295.525	90.12
295.756	91.12
295.987	108.12
296.217	127.12
296.448	111.12
296.679	101.12
296.909	97.12
297.14	87.12
297.37	86.12
297.601	104.12
297.831	91.12
298.062	101.12
298.292	104.12
298.523	85.12
298.753	85.12
298.984	92.12
299.214	98.12
299.445	100.12
299.675	85.12
299.905	101.12
300.136	104.12
300.366	93.12
300.597	97.12
300.827	100.12
301.057	97.12
301.288	93.12
301.518	83.12
301.748	84.12
301.979	100.12
302.209	79.12
302.439	84.12
302.669	98.12
302.9	106.12
303.13	101.12
303.36	83.12
303.59	104.12
303.82	105.12
304.051	81.12
304.281	93.12
304.511	104.12
304.741	93.12
304.971	88.12
305.201	98.12
305.431	81.12
305.661	81.12
305.891	99.12
306.121	96.12
306.352	102.12
306.582	98.12
306.812	101.12
307.042	94.12
307.272	95.12
307.502	91.12
307.731	119.12
307.961	91.12
308.191	82.12
308.421	85.12
308.651	90.12
308.881	92.12
309.111	83.12
309.341	92.12
309.571	104.12
309.8	99.12
310.03	95.12
310.26	84.12
310.49	102.12
310.72	110.12
310.949	107.12
311.179	89.12
311.409	85.12
311.639	104.12
311.868	95.12
312.098	95.12
312.328	89.12
312.557	108.12
312.787	95.12
313.017	107.12
313.246	107.12
313.476	87.12
313.706	88.12
313.935	109.12
314.165	100.12
314.394	100.12
314.624	89.12
314.853	94.12
315.083	109.12
315.312	86.12
315.542	90.12
315.771	88.12
316.001	79.12
316.23	90.12
316.46	100.12
316.689	101.12
316.919	103.12
317.148	99.12
317.377	87.12
317.607	92.12
317.836	95.12
318.065	101.12
318.295	85.12
318.524	93.12
318.753	97.12
318.983	98.12
319.212	101.12
319.441	97.12
319.67	94.12
319.9	84.12
320.129	88.12
320.358	90.12
320.587	91.12
320.816	78.12
321.046	93.12
321.275	101.12
321.504	93.12
321.733	102.12
321.962	97.12
322.191	101.12
322.42	99.12
322.649	111.12
322.878	95.12
323.108	118.12
323.337	104.12
323.566	121.12
323.795	139.12
324.024	179.12
324.253	323.12
324.482	611.12
324.71	1304.12
324.939	1623.12
325.168	624.12
325.397	199.12
325.626	124.12
325.855	116.12
326.084	117.12
326.313	118.12
326.542	141.12
326.77	211.12
326.999	353.12
327.228	689.12
327.457	1277.12
327.686	1019.12
327.914	295.12
328.143	166.12
328.372	157.12
328.6	123.12
328.829	124.12
329.058	115.12
329.287	131.12
329.515	107.12
329.744	121.12
329.972	116.12
330.201	146.12
330.43	180.12
330.658	137.12
330.887	137.12
331.115	110.12
331.344	106.12
331.572	111.12
331.801	105.12
332.03	96.12
332.258	96.12
332.486	116.12
332.715	99.12
332.943	99.12
333.172	103.12
333.4	85.12
333.629	93.12
333.857	104.12
334.085	109.12
334.314	127.12
334.542	201.12
334.771	180.12
334.999	117.12
335.227	90.12
335.455	97.12
335.684	93.12
335.912	94.12
336.14	97.12
336.369	100.12
336.597	95.12
336.825	102.12
337.053	85.12
337.281	99.12
337.51	85.12
337.738	86.12
337.966	97.12
338.194	91.12
338.422	102.12
338.65	96.12
338.878	84.12
339.106	85.12
339.334	92.12
339.562	84.12
339.79	97.12
340.018	89.12
340.246	102.12
340.474	91.12
340.702	98.12
340.93	89.12
341.158	87.12
341.386	90.12
341.614	78.12
341.842	87.12
342.07	93.12
342.298	92.12
342.526	107.12
342.754	93.12
342.981	76.12
343.209	99.12
343.437	111.12
343.665	75.12
343.893	97.12
344.12	86.12
344.348	97.12
344.576	97.12
344.804	85.12
345.031	87.12
345.259	100.12
345.487	81.12
345.714	89.12
345.942	86.12
346.17	110.12
346.397	92.12
346.625	88.12
346.853	87.12
347.08	96.12
347.308	88.12
347.535	88.12
347.763	85.12
347.99	95.12
348.218	98.12
348.445	111.12
348.673	98.12
348.9	105.12
349.128	92.12
349.355	90.12
349.583	101.12
349.81	84.12
350.037	87.12
350.265	84.12
350.492	112.12
350.72	107.12
350.947	98.12
351.174	102.12
351.402	97.12
351.629	100.12
351.856	96.12
352.083	109.12
352.311	106.12
352.538	106.12
352.765	116.12
352.992	115.12
353.22	111.12
353.447	98.12
353.674	107.12
353.901	89.12
354.128	107.12
354.355	106.12
354.583	86.12
354.81	91.12
355.037	109.12
355.264	87.12
355.491	92.12
355.718	108.12
355.945	98.12
356.172	103.12
356.399	94.12
356.626	98.12
356.853	97.12
357.08	115.12
357.307	102.12
357.534	94.12
357.761	105.12
357.988	81.12
358.215	96.12
358.441	92.12
358.668	93.12
358.895	94.12
359.122	85.12
359.349	91.12
359.576	91.12
359.802	107.12
360.029	95.12
360.256	98.12
360.483	90.12
360.709	96.12
360.936	95.12
361.163	89.12
361.39	83.12
361.616	86.12
361.843	107.12
362.07	94.12
362.296	101.12
362.523	89.12
362.749	93.12
362.976	94.12
363.203	100.12
363.429	84.12
363.656	102.12
363.882	98.12
364.109	92.12
364.335	110.12
364.562	104.12
364.788	76.12
365.015	90.12
365.241	96.12
365.468	91.12
365.694	95.12
365.92	87.12
366.147	89.12
366.373	111.12
366.599	86.12
366.826	85.12
367.052	87.12
367.278	79.12
367.505	106.12
367.731	95.12
367.957	89.12
368.184	85.12
368.41	92.12
368.636	105.12
368.862	105.12
369.089	102.12
369.315	91.12
369.541	88.12
369.767	80.12
369.993	94.12
370.219	80.12
370.445	89.12
370.672	85.12
370.898	102.12
371.124	77.12
371.35	82.12
371.576	78.12
371.802	96.12
372.028	87.12
372.254	95.12
372.48	91.12
372.706	82.12
372.932	95.12
373.158	91.12
373.384	86.12
373.61	100.12
373.835	105.12
374.061	88.12
374.287	76.12
374.513	88.12
374.739	86.12
374.965	92.12
375.191	96.12
375.416	99.12
375.642	99.12
375.868	78.12
376.094	91.12
376.319	84.12
376.545	90.12
376.771	89.12
376.997	96.12
377.222	90.12
377.448	92.12
377.674	86.12
377.899	93.12
378.125	97.12
378.35	94.12
378.576	100.12
378.802	102.12
379.027	92.12
379.253	105.12
379.478	78.12
379.704	111.12
379.929	98.12
380.155	104.12
380.38	98.12
380.606	92.12
380.831	83.12
381.057	102.12
381.282	106.12
381.507	83.12
381.733	99.12
381.958	104.12
382.184	81.12
382.409	93.12
382.634	111.12
382.86	101.12
383.085	106.12
383.31	95.12
383.535	102.12
383.761	101.12
383.986	96.12
384.211	111.12
384.436	97.12
384.662	101.12
384.887	111.12
385.112	108.12
385.337	111.12
385.562	113.12
385.787	97.12
386.013	95.12
386.238	118.12
386.463	102.12
386.688	117.12
386.913	111.12
387.138	113.12
387.363	99.12
387.588	89.12
387.813	99.12
388.038	117.12
388.263	125.12
388.488	121.12
388.713	103.12
388.938	107.12
389.163	98.12
389.387	98.12
389.612	84.12
389.837	79.12
390.062	107.12
390.287	92.12
390.512	94.12
390.736	88.12
390.961	104.12
391.186	92.12
391.411	98.12
391.636	94.12
391.86	97.12
392.085	87.12
392.31	89.12
392.534	95.12
392.759	98.12
392.984	94.12
393.208	100.12
393.433	125.12
393.658	109.12
393.882	93.12
394.107	85.12
394.331	77.12
394.556	82.12
394.78	98.12
395.005	87.12
395.229	76.12
395.454	87.12
395.678	89.12
395.903	107.12
396.127	101.12
396.352	84.12
396.576	91.12
396.801	101.12
397.025	113.12
397.249	83.12
397.474	98.12
397.698	81.12
397.922	84.12
398.147	100.12
398.371	84.12
398.595	86.12
398.82	95.12
399.044	81.12
399.268	78.12
399.492	85.12
399.717	97.12
399.941	92.12
400.165	107.12
400.389	84.12
400.613	93.12
400.837	87.12
401.062	101.12
401.286	95.12
401.51	99.12
401.734	98.12
401.958	101.12
402.182	104.12
402.406	125.12
402.63	111.12
402.854	84.12
403.078	85.12
403.302	102.12
403.526	84.12
403.75	85.12
403.974	65.12
404.198	81.12
404.422	87.12
404.645	99.12
404.869	89.12
405.093	101.12
405.317	85.12
405.541	113.12
405.765	102.12
405.988	110.12
406.212	154.12
406.436	177.12
406.66	122.12
406.883	95.12
407.107	97.12
407.331	89.12
407.555	91.12
407.778	99.12
408.002	98.12
408.226	96.12
408.449	86.12
408.673	86.12
408.896	96.12
409.12	98.12
409.344	76.12
409.567	92.12
409.791	92.12
410.014	97.12
410.238	94.12
410.461	89.12
410.685	91.12
410.908	98.12
411.132	93.12
411.355	103.12
411.578	103.12
411.802	94.12
412.025	81.12
412.249	92.12
412.472	101.12
412.695	94.12
412.919	89.12
413.142	75.12
413.365	84.12
413.589	97.12
413.812	94.12
414.035	98.12
414.258	103.12
414.482	92.12
414.705	92.12
414.928	78.12
415.151	93.12
415.374	95.12
415.597	91.12
415.821	91.12
416.044	87.12
416.267	91.12
416.49	86.12
416.713	105.12
416.936	98.12
417.159	89.12
417.382	92.12
417.605	96.12
417.828	98.12
418.051	85.12
418.274	89.12
418.497	93.12
418.72	84.12
418.943	87.12
419.166	91.12
419.389	97.12
419.611	110.12
419.834	85.12
420.057	94.12
420.28	111.12
420.503	88.12
420.726	87.12
420.948	89.12
421.171	90.12
421.394	85.12
421.617	101.12
421.839	95.12
422.062	93.12
422.285	92.12
422.507	112.12
422.73	106.12
422.953	96.12
423.175	81.12
423.398	95.12
423.621	91.12
423.843	91.12
424.066	84.12
424.288	83.12
424.511	93.12
424.733	86.12
424.956	94.12
425.178	96.12
425.401	88.12
425.623	98.12
425.846	85.12
426.068	79.12
426.291	74.12
426.513	95.12
426.735	89.12
426.958	100.12
427.18	93.12
427.402	116.12
427.625	120.12
427.847	111.12
428.069	114.12
428.292	105.12
428.514	91.12
428.736	85.12
428.958	79.12
429.181	89.12
429.403	84.12
429.625	74.12
429.847	115.12
430.069	86.12
430.292	78.12
430.514	88.12
430.736	83.12
430.958	87.12
431.18	74.12
431.402	94.12
431.624	81.12
431.846	81.12
432.068	81.12
432.29	89.12
432.512	96.12
432.734	88.12
432.956	97.12
433.178	98.12
433.4	94.12
433.622	87.12
433.844	99.12
434.066	107.12
434.287	100.12
434.509	91.12
434.731	78.12
434.953	76.12
435.175	87.12
435.397	91.12
435.618	103.12
435.84	110.12
436.062	109.12
436.284	102.12
436.505	109.12
436.727	97.12
436.949	97.12
437.17	82.12
437.392	97.12
437.614	78.12
437.835	104.12
438.057	102.12
438.278	102.12
438.5	90.12
438.721	103.12
438.943	87.12
439.165	88.12
439.386	92.12
439.608	90.12
439.829	91.12
440.05	109.12
440.272	112.12
440.493	109.12
440.715	94.12
440.936	74.12
441.158	95.12
441.379	77.12
441.6	85.12
441.822	101.12
442.043	100.12
442.264	100.12
442.486	94.12
442.707	74.12
442.928	101.12
443.149	105.12
443.371	109.12
443.592	97.12
443.813	108.12
444.034	97.12
444.255	94.12
444.476	76.12
444.698	83.12
444.919	92.12
445.14	141.12
445.361	122.12
445.582	103.12
445.803	110.12
446.024	104.12
446.245	107.12
446.466	94.12
446.687	98.12
446.908	77.12
447.129	105.12
447.35	106.12
447.571	101.12
447.792	93.12
448.013	102.12
448.234	94.12
448.455	81.12
448.675	107.12
448.896	102.12
449.117	93.12
449.338	93.12
449.559	103.12
449.779	93.12
450	88.12
450.221	88.12
450.442	91.12
450.662	96.12
450.883	93.12
451.104	94.12
451.324	93.12
451.545	90.12
451.766	94.12
451.986	92.12
452.207	73.12
452.428	81.12
452.648	107.12
452.869	104.12
453.089	114.12
453.31	105.12
453.53	78.12
453.751	90.12
453.971	103.12
454.192	103.12
454.412	91.12
454.633	81.12
454.853	87.12
455.073	84.12
455.294	83.12
455.514	96.12
455.734	98.12
455.955	85.12
456.175	82.12
456.395	71.12
456.616	88.12
456.836	94.12
457.056	79.12
457.276	85.12
457.497	94.12
457.717	83.12
457.937	92.12
458.157	86.12
458.377	89.12
458.598	105.12
458.818	122.12
459.038	131.12
459.258	99.12
459.478	110.12
459.698	83.12
459.918	101.12
460.138	82.12
460.358	81.12
460.578	91.12
460.798	67.12
461.018	91.12
461.238	81.12
461.458	91.12
461.678	82.12
461.898	84.12
462.118	99.12
462.338	97.12
462.558	96.12
462.777	87.12
462.997	100.12
463.217	81.12
463.437	70.12
463.657	88.12
463.876	85.12
464.096	82.12
464.316	101.12
464.536	110.12
464.755	97.12
464.975	98.12
465.195	131.12
465.414	127.12
465.634	99.12
465.854	86.12
466.073	96.12
466.293	85.12
466.512	83.12
466.732	74.12
466.951	95.12
467.171	89.12
467.391	94.12
467.61	100.12
467.829	93.12
468.049	122.12
468.268	131.12
468.488	85.12
468.707	81.12
468.927	86.12
469.146	97.12
469.365	86.12
469.585	89.12
469.804	93.12
470.023	79.12
470.243	81.12
470.462	94.12
470.681	96.12
470.901	76.12
471.12	92.12
471.339	95.12
471.558	77.12
471.777	95.12
471.997	100.12
472.216	139.12
472.435	231.12
472.654	117.12
472.873	106.12
473.092	97.12
473.311	71.12
473.53	77.12
473.749	87.12
473.968	95.12
474.187	97.12
474.406	97.12
474.625	93.12
474.844	92.12
475.063	86.12
475.282	96.12
475.501	79.12
475.72	78.12
475.939	77.12
476.158	70.12
476.377	77.12
476.596	94.12
476.814	77.12
477.033	98.12
477.252	104.12
477.471	108.12
477.69	94.12
477.908	93.12
478.127	87.12
478.346	99.12
478.564	102.12
478.783	106.12
479.002	79.12
479.22	89.12
479.439	77.12
479.658	103.12
479.876	98.12
480.095	87.12
480.313	94.12
480.532	111.12
480.751	115.12
480.969	169.12
481.188	351.12
481.406	244.12
481.624	97.12
481.843	93.12
482.061	93.12
482.28	86.12
482.498	93.12
482.717	73.12
482.935	99.12
483.153	99.12
483.372	97.12
483.59	93.12
483.808	83.12
484.027	89.12
484.245	99.12
484.463	84.12
484.681	104.12
484.9	96.12
485.118	108.12
485.336	101.12
485.554	88.12
485.772	98.12
485.99	112.12
486.209	102.12
486.427	102.12
486.645	99.12
486.863	107.12
487.081	110.12
487.299	94.12
487.517	91.12
487.735	85.12
487.953	95.12
488.171	96.12
488.389	85.12
488.607	75.12
488.825	89.12
489.043	91.12
489.261	85.12
489.479	98.12
489.696	91.12
489.914	86.12
490.132	92.12
490.35	95.12
490.568	97.12
490.786	69.12
491.003	86.12
491.221	82.12
491.439	87.12
491.657	91.12
491.874	91.12
492.092	91.12
492.31	95.12
492.527	99.12
492.745	86.12
492.963	100.12
493.18	87.12
493.398	78.12
493.615	93.12
493.833	97.12
494.05	89.12
494.268	74.12
494.485	95.12
494.703	93.12
494.92	88.12
495.138	94.12
495.355	89.12
495.573	90.12
495.79	82.12
496.008	105.12
496.225	93.12
496.442	85.12
496.66	91.12
496.877	97.12
497.094	91.12
497.312	97.12
497.529	88.12
497.746	91.12
497.963	93.12
498.181	111.12
498.398	107.12
498.615	120.12
498.832	103.12
499.049	85.12
499.267	97.12
499.484	100.12
499.701	89.12
499.918	87.12
500.135	75.12
500.352	83.12
500.569	95.12
500.786	91.12
501.003	81.12
501.22	102.12
501.437	98.12
501.654	103.12
501.871	87.12
502.088	82.12
502.305	101.12
502.522	88.12
502.739	93.12
502.956	100.12
503.172	94.12
503.389	99.12
503.606	92.12
503.823	99.12
504.04	93.12
504.256	81.12
504.473	85.12
504.69	77.12
504.907	100.12
505.123	87.12
505.34	104.12
505.557	85.12
505.773	93.12
505.99	90.12
506.207	88.12
506.423	109.12
506.64	95.12
506.856	92.12
507.073	89.12
507.289	77.12
507.506	106.12
507.722	112.12
507.939	99.12
508.155	99.12
508.372	110.12
508.588	102.12
508.805	101.12
509.021	104.12
509.238	89.12
509.454	113.12
509.67	99.12
509.887	106.12
510.103	123.12
510.319	185.12
510.536	571.12
510.752	1721.12
510.968	488.12
511.184	127.12
511.401	102.12
511.617	95.12
511.833	76.12
512.049	93.12
512.265	97.12
512.481	107.12
512.698	94.12
512.914	85.12
513.13	99.12
513.346	92.12
513.562	87.12
513.778	75.12
513.994	104.12
514.21	78.12
514.426	102.12
514.642	113.12
514.858	111.12
515.074	135.12
515.29	340.12
515.506	1015.12
