Data from Circ_1983_H10_HRD10591_00015.txt Node
Date: Wed Jan 03 12:26:47 EST 2024
User: Yrep
Spectrometer: HR+D1059
Trigger mode: 1
Integration Time (sec): 1.000000E-1
Scans to average: 1
Electric dark correction enabled: true
Nonlinearity correction enabled: false
Boxcar width: 0
XAxis mode: Wavelengths
Number of Pixels in Spectrum: 2048
>>>>>Begin Spectral Data<<<<<
223.165	-30.5
223.4	-30.5
223.635	-30.5
223.869	-8.5
224.104	-23.5
224.338	-33.5
224.573	-4.5
224.808	-8.5
225.042	3.5
225.277	-2.5
225.511	-11.5
225.746	4.5
225.98	16.5
226.215	11.5
226.449	1.5
226.683	22.5
226.918	32.5
227.152	30.5
227.387	36.5
227.621	44.5
227.856	39.5
228.09	47.5
228.324	44.5
228.559	43.5
228.793	46.5
229.027	72.5
229.262	54.5
229.496	67.5
229.73	74.5
229.964	71.5
230.199	59.5
230.433	71.5
230.667	64.5
230.901	58.5
231.136	75.5
231.37	84.5
231.604	82.5
231.838	85.5
232.072	56.5
232.306	81.5
232.541	66.5
232.775	64.5
233.009	92.5
233.243	71.5
233.477	76.5
233.711	72.5
233.945	87.5
234.179	78.5
234.413	87.5
234.647	68.5
234.881	78.5
235.115	62.5
235.349	84.5
235.583	74.5
235.817	68.5
236.051	65.5
236.285	70.5
236.519	87.5
236.753	74.5
236.987	68.5
237.221	79.5
237.455	85.5
237.689	79.5
237.922	71.5
238.156	64.5
238.39	69.5
238.624	74.5
238.858	58.5
239.091	76.5
239.325	59.5
239.559	78.5
239.793	65.5
240.027	72.5
240.26	68.5
240.494	66.5
240.728	74.5
240.961	91.5
241.195	76.5
241.429	81.5
241.662	68.5
241.896	65.5
242.13	68.5
242.363	61.5
242.597	72.5
242.83	71.5
243.064	65.5
243.298	80.5
243.531	85.5
243.765	78.5
243.998	77.5
244.232	77.5
244.465	72.5
244.699	89.5
244.932	82.5
245.166	85.5
245.399	69.5
245.633	73.5
245.866	55.5
246.099	71.5
246.333	77.5
246.566	80.5
246.8	75.5
247.033	71.5
247.266	70.5
247.5	62.5
247.733	64.5
247.966	69.5
248.2	75.5
248.433	64.5
248.666	75.5
248.899	83.5
249.133	66.5
249.366	87.5
249.599	91.5
249.832	78.5
250.066	87.5
250.299	77.5
250.532	70.5
250.765	72.5
250.998	72.5
251.231	68.5
251.465	81.5
251.698	67.5
251.931	82.5
252.164	70.5
252.397	81.5
252.63	71.5
252.863	66.5
253.096	78.5
253.329	67.5
253.562	68.5
253.795	78.5
254.028	74.5
254.261	76.5
254.494	83.5
254.727	75.5
254.96	68.5
255.193	64.5
255.426	85.5
255.659	84.5
255.892	74.5
256.124	75.5
256.357	72.5
256.59	76.5
256.823	77.5
257.056	71.5
257.289	72.5
257.521	76.5
257.754	69.5
257.987	83.5
258.22	69.5
258.452	72.5
258.685	77.5
258.918	90.5
259.151	76.5
259.383	84.5
259.616	84.5
259.849	64.5
260.081	68.5
260.314	71.5
260.547	79.5
260.779	83.5
261.012	80.5
261.244	75.5
261.477	82.5
261.71	84.5
261.942	102.5
262.175	88.5
262.407	76.5
262.64	68.5
262.872	68.5
263.105	86.5
263.337	78.5
263.57	78.5
263.802	89.5
264.035	86.5
264.267	80.5
264.499	79.5
264.732	64.5
264.964	98.5
265.197	73.5
265.429	77.5
265.661	70.5
265.894	87.5
266.126	80.5
266.358	72.5
266.591	82.5
266.823	82.5
267.055	77.5
267.287	87.5
267.52	51.5
267.752	86.5
267.984	74.5
268.216	74.5
268.448	70.5
268.681	84.5
268.913	86.5
269.145	78.5
269.377	63.5
269.609	81.5
269.841	82.5
270.073	89.5
270.306	78.5
270.538	67.5
270.77	78.5
271.002	70.5
271.234	76.5
271.466	90.5
271.698	84.5
271.93	97.5
272.162	83.5
272.394	74.5
272.626	83.5
272.858	81.5
273.09	79.5
273.322	84.5
273.553	74.5
273.785	75.5
274.017	77.5
274.249	74.5
274.481	84.5
274.713	74.5
274.945	83.5
275.176	80.5
275.408	80.5
275.64	79.5
275.872	107.5
276.104	68.5
276.335	72.5
276.567	92.5
276.799	99.5
277.031	86.5
277.262	83.5
277.494	78.5
277.726	76.5
277.957	71.5
278.189	70.5
278.421	69.5
278.652	82.5
278.884	87.5
279.115	91.5
279.347	72.5
279.579	88.5
279.81	80.5
280.042	68.5
280.273	81.5
280.505	96.5
280.736	92.5
280.968	79.5
281.199	74.5
281.431	67.5
281.662	70.5
281.894	86.5
282.125	98.5
282.356	109.5
282.588	118.5
282.819	100.5
283.051	87.5
283.282	86.5
283.513	83.5
283.745	94.5
283.976	86.5
284.207	78.5
284.439	71.5
284.67	83.5
284.901	96.5
285.132	75.5
285.364	75.5
285.595	85.5
285.826	94.5
286.057	94.5
286.288	87.5
286.52	88.5
286.751	92.5
286.982	78.5
287.213	80.5
287.444	96.5
287.675	76.5
287.906	78.5
288.138	88.5
288.369	82.5
288.6	69.5
288.831	85.5
289.062	89.5
289.293	81.5
289.524	68.5
289.755	87.5
289.986	83.5
290.217	76.5
290.448	74.5
290.679	85.5
290.91	85.5
291.141	82.5
291.371	71.5
291.602	93.5
291.833	88.5
292.064	80.5
292.295	77.5
292.526	91.5
292.757	71.5
292.987	83.5
293.218	95.5
293.449	74.5
293.68	85.5
293.91	86.5
294.141	79.5
294.372	78.5
294.603	91.5
294.833	87.5
295.064	100.5
295.295	81.5
295.525	67.5
295.756	88.5
295.987	109.5
296.217	127.5
296.448	112.5
296.679	85.5
296.909	83.5
297.14	84.5
297.37	82.5
297.601	66.5
297.831	82.5
298.062	83.5
298.292	84.5
298.523	90.5
298.753	83.5
298.984	80.5
299.214	60.5
299.445	95.5
299.675	82.5
299.905	100.5
300.136	86.5
300.366	85.5
300.597	78.5
300.827	83.5
301.057	76.5
301.288	87.5
301.518	79.5
301.748	89.5
301.979	93.5
302.209	90.5
302.439	78.5
302.669	85.5
302.9	85.5
303.13	86.5
303.36	84.5
303.59	99.5
303.82	97.5
304.051	93.5
304.281	78.5
304.511	83.5
304.741	95.5
304.971	87.5
305.201	81.5
305.431	78.5
305.661	86.5
305.891	87.5
306.121	84.5
306.352	82.5
306.582	79.5
306.812	80.5
307.042	94.5
307.272	82.5
307.502	80.5
307.731	103.5
307.961	79.5
308.191	85.5
308.421	84.5
308.651	90.5
308.881	93.5
309.111	91.5
309.341	100.5
309.571	98.5
309.8	80.5
310.03	87.5
310.26	89.5
310.49	99.5
310.72	104.5
310.949	106.5
311.179	97.5
311.409	96.5
311.639	94.5
311.868	96.5
312.098	89.5
312.328	79.5
312.557	87.5
312.787	101.5
313.017	100.5
313.246	89.5
313.476	81.5
313.706	79.5
313.935	74.5
314.165	100.5
314.394	98.5
314.624	80.5
314.853	91.5
315.083	84.5
315.312	94.5
315.542	71.5
315.771	79.5
316.001	81.5
316.23	84.5
316.46	86.5
316.689	85.5
316.919	78.5
317.148	88.5
317.377	90.5
317.607	82.5
317.836	84.5
318.065	86.5
318.295	84.5
318.524	93.5
318.753	96.5
318.983	108.5
319.212	85.5
319.441	102.5
319.67	83.5
319.9	84.5
320.129	75.5
320.358	72.5
320.587	69.5
320.816	99.5
321.046	104.5
321.275	114.5
321.504	84.5
321.733	96.5
321.962	74.5
322.191	83.5
322.42	98.5
322.649	109.5
322.878	104.5
323.108	112.5
323.337	108.5
323.566	135.5
323.795	121.5
324.024	176.5
324.253	319.5
324.482	666.5
324.71	1320.5
324.939	1700.5
325.168	619.5
325.397	194.5
325.626	131.5
325.855	106.5
326.084	103.5
326.313	112.5
326.542	116.5
326.77	187.5
326.999	380.5
327.228	742.5
327.457	1314.5
327.686	1063.5
327.914	308.5
328.143	184.5
328.372	127.5
328.6	115.5
328.829	100.5
329.058	95.5
329.287	111.5
329.515	99.5
329.744	104.5
329.972	116.5
330.201	115.5
330.43	133.5
330.658	103.5
330.887	117.5
331.115	105.5
331.344	85.5
331.572	99.5
331.801	98.5
332.03	96.5
332.258	96.5
332.486	91.5
332.715	81.5
332.943	77.5
333.172	77.5
333.4	87.5
333.629	94.5
333.857	103.5
334.085	114.5
334.314	111.5
334.542	143.5
334.771	147.5
334.999	100.5
335.227	87.5
335.455	109.5
335.684	94.5
335.912	91.5
336.14	99.5
336.369	83.5
336.597	96.5
336.825	91.5
337.053	85.5
337.281	78.5
337.51	85.5
337.738	76.5
337.966	91.5
338.194	84.5
338.422	94.5
338.65	90.5
338.878	91.5
339.106	94.5
339.334	85.5
339.562	92.5
339.79	83.5
340.018	76.5
340.246	87.5
340.474	88.5
340.702	87.5
340.93	104.5
341.158	68.5
341.386	88.5
341.614	67.5
341.842	78.5
342.07	77.5
342.298	80.5
342.526	93.5
342.754	75.5
342.981	101.5
343.209	88.5
343.437	91.5
343.665	105.5
343.893	91.5
344.12	79.5
344.348	79.5
344.576	85.5
344.804	87.5
345.031	96.5
345.259	103.5
345.487	88.5
345.714	82.5
345.942	98.5
346.17	94.5
346.397	76.5
346.625	95.5
346.853	88.5
347.08	78.5
347.308	94.5
347.535	74.5
347.763	96.5
347.99	75.5
348.218	93.5
348.445	94.5
348.673	91.5
348.9	90.5
349.128	78.5
349.355	77.5
349.583	95.5
349.81	73.5
350.037	82.5
350.265	87.5
350.492	110.5
350.72	94.5
350.947	83.5
351.174	91.5
351.402	95.5
351.629	103.5
351.856	100.5
352.083	96.5
352.311	91.5
352.538	94.5
352.765	100.5
352.992	113.5
353.22	102.5
353.447	96.5
353.674	89.5
353.901	86.5
354.128	95.5
354.355	85.5
354.583	91.5
354.81	92.5
355.037	105.5
355.264	99.5
355.491	85.5
355.718	85.5
355.945	100.5
356.172	96.5
356.399	101.5
356.626	88.5
356.853	90.5
357.08	90.5
357.307	82.5
357.534	93.5
357.761	86.5
357.988	103.5
358.215	101.5
358.441	87.5
358.668	93.5
358.895	95.5
359.122	85.5
359.349	77.5
359.576	87.5
359.802	102.5
360.029	91.5
360.256	90.5
360.483	78.5
360.709	78.5
360.936	94.5
361.163	99.5
361.39	76.5
361.616	91.5
361.843	88.5
362.07	84.5
362.296	66.5
362.523	80.5
362.749	97.5
362.976	86.5
363.203	80.5
363.429	87.5
363.656	93.5
363.882	84.5
364.109	98.5
364.335	72.5
364.562	80.5
364.788	97.5
365.015	77.5
365.241	82.5
365.468	110.5
365.694	105.5
365.92	90.5
366.147	93.5
366.373	91.5
366.599	94.5
366.826	75.5
367.052	101.5
367.278	80.5
367.505	79.5
367.731	99.5
367.957	84.5
368.184	88.5
368.41	99.5
368.636	98.5
368.862	92.5
369.089	97.5
369.315	89.5
369.541	75.5
369.767	87.5
369.993	85.5
370.219	75.5
370.445	79.5
370.672	80.5
370.898	82.5
371.124	84.5
371.35	90.5
371.576	98.5
371.802	92.5
372.028	84.5
372.254	82.5
372.48	94.5
372.706	85.5
372.932	89.5
373.158	75.5
373.384	88.5
373.61	88.5
373.835	84.5
374.061	85.5
374.287	92.5
374.513	87.5
374.739	83.5
374.965	79.5
375.191	89.5
375.416	90.5
375.642	91.5
375.868	78.5
376.094	81.5
376.319	82.5
376.545	83.5
376.771	81.5
376.997	86.5
377.222	79.5
377.448	97.5
377.674	87.5
377.899	77.5
378.125	86.5
378.35	83.5
378.576	81.5
378.802	70.5
379.027	88.5
379.253	92.5
379.478	93.5
379.704	86.5
379.929	79.5
380.155	94.5
380.38	99.5
380.606	101.5
380.831	98.5
381.057	93.5
381.282	101.5
381.507	106.5
381.733	98.5
381.958	91.5
382.184	109.5
382.409	95.5
382.634	100.5
382.86	102.5
383.085	113.5
383.31	113.5
383.535	103.5
383.761	110.5
383.986	101.5
384.211	105.5
384.436	108.5
384.662	116.5
384.887	114.5
385.112	111.5
385.337	120.5
385.562	127.5
385.787	110.5
386.013	108.5
386.238	122.5
386.463	124.5
386.688	107.5
386.913	112.5
387.138	132.5
387.363	99.5
387.588	125.5
387.813	120.5
388.038	101.5
388.263	127.5
388.488	143.5
388.713	93.5
388.938	85.5
389.163	95.5
389.387	76.5
389.612	92.5
389.837	85.5
390.062	87.5
390.287	82.5
390.512	86.5
390.736	90.5
390.961	87.5
391.186	88.5
391.411	91.5
391.636	100.5
391.86	95.5
392.085	92.5
392.31	78.5
392.534	71.5
392.759	94.5
392.984	95.5
393.208	105.5
393.433	160.5
393.658	131.5
393.882	92.5
394.107	84.5
394.331	87.5
394.556	86.5
394.78	87.5
395.005	74.5
395.229	94.5
395.454	92.5
395.678	91.5
395.903	83.5
396.127	85.5
396.352	80.5
396.576	66.5
396.801	96.5
397.025	125.5
397.249	103.5
397.474	80.5
397.698	75.5
397.922	91.5
398.147	76.5
398.371	75.5
398.595	84.5
398.82	69.5
399.044	87.5
399.268	84.5
399.492	80.5
399.717	78.5
399.941	67.5
400.165	87.5
400.389	84.5
400.613	88.5
400.837	78.5
401.062	74.5
401.286	83.5
401.51	90.5
401.734	85.5
401.958	91.5
402.182	111.5
402.406	112.5
402.63	104.5
402.854	79.5
403.078	89.5
403.302	82.5
403.526	75.5
403.75	78.5
403.974	95.5
404.198	70.5
404.422	74.5
404.645	85.5
404.869	93.5
405.093	92.5
405.317	95.5
405.541	98.5
405.765	90.5
405.988	109.5
406.212	146.5
406.436	186.5
406.66	117.5
406.883	79.5
407.107	88.5
407.331	92.5
407.555	77.5
407.778	93.5
408.002	74.5
408.226	82.5
408.449	91.5
408.673	72.5
408.896	97.5
409.12	87.5
409.344	88.5
409.567	85.5
409.791	64.5
410.014	82.5
410.238	91.5
410.461	87.5
410.685	86.5
410.908	103.5
411.132	107.5
411.355	107.5
411.578	90.5
411.802	95.5
412.025	79.5
412.249	84.5
412.472	85.5
412.695	86.5
412.919	89.5
413.142	92.5
413.365	71.5
413.589	96.5
413.812	82.5
414.035	86.5
414.258	86.5
414.482	84.5
414.705	77.5
414.928	90.5
415.151	72.5
415.374	80.5
415.597	84.5
415.821	72.5
416.044	86.5
416.267	70.5
416.49	94.5
416.713	86.5
416.936	88.5
417.159	84.5
417.382	84.5
417.605	101.5
417.828	92.5
418.051	83.5
418.274	94.5
418.497	84.5
418.72	75.5
418.943	87.5
419.166	78.5
419.389	90.5
419.611	83.5
419.834	93.5
420.057	91.5
420.28	90.5
420.503	92.5
420.726	78.5
420.948	84.5
421.171	87.5
421.394	86.5
421.617	91.5
421.839	86.5
422.062	79.5
422.285	87.5
422.507	109.5
422.73	111.5
422.953	87.5
423.175	83.5
423.398	91.5
423.621	90.5
423.843	73.5
424.066	75.5
424.288	91.5
424.511	74.5
424.733	88.5
424.956	79.5
425.178	96.5
425.401	75.5
425.623	80.5
425.846	82.5
426.068	92.5
426.291	91.5
426.513	83.5
426.735	99.5
426.958	86.5
427.18	92.5
427.402	102.5
427.625	126.5
427.847	124.5
428.069	106.5
428.292	90.5
428.514	97.5
428.736	76.5
428.958	74.5
429.181	76.5
429.403	71.5
429.625	74.5
429.847	76.5
430.069	90.5
430.292	99.5
430.514	76.5
430.736	76.5
430.958	75.5
431.18	79.5
431.402	63.5
431.624	72.5
431.846	78.5
432.068	79.5
432.29	85.5
432.512	88.5
432.734	85.5
432.956	101.5
433.178	88.5
433.4	91.5
433.622	102.5
433.844	87.5
434.066	71.5
434.287	82.5
434.509	96.5
434.731	84.5
434.953	76.5
435.175	81.5
435.397	77.5
435.618	80.5
435.84	95.5
436.062	99.5
436.284	87.5
436.505	94.5
436.727	93.5
436.949	94.5
437.17	66.5
437.392	78.5
437.614	91.5
437.835	94.5
438.057	89.5
438.278	95.5
438.5	86.5
438.721	99.5
438.943	87.5
439.165	81.5
439.386	76.5
439.608	87.5
439.829	87.5
440.05	126.5
440.272	104.5
440.493	91.5
440.715	84.5
440.936	74.5
441.158	82.5
441.379	80.5
441.6	90.5
441.822	89.5
442.043	88.5
442.264	99.5
442.486	95.5
442.707	94.5
442.928	82.5
443.149	103.5
443.371	103.5
443.592	92.5
443.813	82.5
444.034	96.5
444.255	81.5
444.476	84.5
444.698	88.5
444.919	74.5
445.14	136.5
445.361	110.5
445.582	115.5
445.803	114.5
446.024	126.5
446.245	106.5
446.466	91.5
446.687	89.5
446.908	87.5
447.129	77.5
447.35	85.5
447.571	92.5
447.792	96.5
448.013	83.5
448.234	90.5
448.455	93.5
448.675	90.5
448.896	129.5
449.117	90.5
449.338	76.5
449.559	103.5
449.779	102.5
450	93.5
450.221	79.5
450.442	78.5
450.662	95.5
450.883	90.5
451.104	93.5
451.324	87.5
451.545	85.5
451.766	92.5
451.986	92.5
452.207	89.5
452.428	85.5
452.648	91.5
452.869	103.5
453.089	106.5
453.31	104.5
453.53	86.5
453.751	76.5
453.971	86.5
454.192	84.5
454.412	81.5
454.633	85.5
454.853	94.5
455.073	87.5
455.294	81.5
455.514	88.5
455.734	84.5
455.955	78.5
456.175	62.5
456.395	88.5
456.616	82.5
456.836	70.5
457.056	79.5
457.276	71.5
457.497	79.5
457.717	69.5
457.937	87.5
458.157	90.5
458.377	75.5
458.598	83.5
458.818	110.5
459.038	129.5
459.258	107.5
459.478	80.5
459.698	84.5
459.918	81.5
460.138	84.5
460.358	87.5
460.578	78.5
460.798	75.5
461.018	87.5
461.238	87.5
461.458	78.5
461.678	83.5
461.898	90.5
462.118	66.5
462.338	77.5
462.558	89.5
462.777	82.5
462.997	68.5
463.217	76.5
463.437	84.5
463.657	97.5
463.876	90.5
464.096	80.5
464.316	102.5
464.536	99.5
464.755	91.5
464.975	101.5
465.195	117.5
465.414	122.5
465.634	82.5
465.854	95.5
466.073	67.5
466.293	77.5
466.512	77.5
466.732	80.5
466.951	78.5
467.171	85.5
467.391	93.5
467.61	86.5
467.829	94.5
468.049	100.5
468.268	100.5
468.488	77.5
468.707	86.5
468.927	80.5
469.146	81.5
469.365	83.5
469.585	98.5
469.804	80.5
470.023	82.5
470.243	83.5
470.462	98.5
470.681	92.5
470.901	76.5
471.12	97.5
471.339	85.5
471.558	80.5
471.777	79.5
471.997	95.5
472.216	128.5
472.435	175.5
472.654	106.5
472.873	90.5
473.092	70.5
473.311	93.5
473.53	68.5
473.749	80.5
473.968	82.5
474.187	93.5
474.406	88.5
474.625	81.5
474.844	90.5
475.063	90.5
475.282	82.5
475.501	82.5
475.72	96.5
475.939	94.5
476.158	78.5
476.377	75.5
476.596	71.5
476.814	77.5
477.033	86.5
477.252	62.5
477.471	80.5
477.69	90.5
477.908	87.5
478.127	84.5
478.346	69.5
478.564	66.5
478.783	96.5
479.002	80.5
479.22	79.5
479.439	99.5
479.658	84.5
479.876	99.5
480.095	63.5
480.313	86.5
480.532	78.5
480.751	88.5
480.969	124.5
481.188	252.5
481.406	186.5
481.624	86.5
481.843	74.5
482.061	79.5
482.28	83.5
482.498	79.5
482.717	83.5
482.935	68.5
483.153	71.5
483.372	85.5
483.59	94.5
483.808	84.5
484.027	75.5
484.245	82.5
484.463	91.5
484.681	100.5
484.9	91.5
485.118	96.5
485.336	90.5
485.554	94.5
485.772	99.5
485.99	99.5
486.209	97.5
486.427	105.5
486.645	92.5
486.863	109.5
487.081	101.5
487.299	95.5
487.517	98.5
487.735	82.5
487.953	71.5
488.171	92.5
488.389	86.5
488.607	85.5
488.825	81.5
489.043	86.5
489.261	82.5
489.479	72.5
489.696	82.5
489.914	93.5
490.132	90.5
490.35	90.5
490.568	89.5
490.786	91.5
491.003	103.5
491.221	83.5
491.439	82.5
491.657	85.5
491.874	81.5
492.092	97.5
492.31	96.5
492.527	96.5
492.745	94.5
492.963	81.5
493.18	93.5
493.398	73.5
493.615	84.5
493.833	101.5
494.05	95.5
494.268	88.5
494.485	94.5
494.703	72.5
494.92	92.5
495.138	91.5
495.355	87.5
495.573	71.5
495.79	78.5
496.008	90.5
496.225	91.5
496.442	90.5
496.66	80.5
496.877	96.5
497.094	98.5
497.312	91.5
497.529	87.5
497.746	72.5
497.963	86.5
498.181	83.5
498.398	81.5
498.615	100.5
498.832	85.5
499.049	95.5
499.267	78.5
499.484	90.5
499.701	79.5
499.918	90.5
500.135	102.5
500.352	78.5
500.569	92.5
500.786	86.5
501.003	77.5
501.22	82.5
501.437	86.5
501.654	82.5
501.871	94.5
502.088	84.5
502.305	94.5
502.522	85.5
502.739	88.5
502.956	86.5
503.172	86.5
503.389	79.5
503.606	96.5
503.823	91.5
504.04	94.5
504.256	81.5
504.473	70.5
504.69	79.5
504.907	94.5
505.123	95.5
505.34	66.5
505.557	88.5
505.773	92.5
505.99	88.5
506.207	84.5
506.423	87.5
506.64	98.5
506.856	85.5
507.073	82.5
507.289	96.5
507.506	88.5
507.722	86.5
507.939	106.5
508.155	101.5
508.372	92.5
508.588	95.5
508.805	91.5
509.021	93.5
509.238	99.5
509.454	90.5
509.67	75.5
509.887	91.5
510.103	120.5
510.319	158.5
510.536	591.5
510.752	1805.5
510.968	512.5
511.184	130.5
511.401	95.5
511.617	87.5
511.833	94.5
512.049	87.5
512.265	87.5
512.481	96.5
512.698	87.5
512.914	90.5
513.13	76.5
513.346	83.5
513.562	94.5
513.778	76.5
513.994	86.5
514.21	97.5
514.426	92.5
514.642	110.5
514.858	93.5
515.074	143.5
515.29	352.5
515.506	1077.5
515.721	387.5
515.937	126.5
516.153	94.5
516.369	97.5
516.585	84.5
516.801	81.5
517.016	80.5
517.232	87.5
517.448	91.5
517.664	66.5
517.879	85.5
518.095	101.5
518.311	69.5
518.527	82.5
518.742	84.5
518.958	105.5
519.173	101.5
519.389	94.5
519.605	88.5
519.82	88.5
520.036	92.5
520.251	90.5
520.467	82.5
520.682	95.5
520.898	85.5
521.113	97.5
521.329	120.5
521.544	163.5
521.76	425.5
521.975	1733.5
522.19	1036.5
522.406	226.5
522.621	106.5
522.836	88.5
523.052	102.5
523.267	75.5
523.482	100.5
523.698	106.5
523.913	101.5
524.128	104.5
524.343	78.5
524.559	94.5
524.774	93.5
524.989	85.5
525.204	92.5
525.419	96.5
525.634	100.5
525.849	94.5
526.064	69.5
526.28	84.5
526.495	72.5
526.71	84.5
526.925	94.5
527.14	80.5
527.355	94.5
527.57	83.5
527.785	100.5
527.999	85.5
528.214	70.5
528.429	93.5
528.644	93.5
528.859	101.5
529.074	90.5
529.289	95.5
529.503	145.5
529.718	97.5
529.933	80.5
530.148	81.5
530.363	90.5
530.577	85.5
530.792	85.5
531.007	85.5
531.221	84.5
531.436	81.5
531.651	93.5
531.865	93.5
532.08	83.5
532.295	91.5
532.509	87.5
532.724	84.5
532.938	88.5
533.153	87.5
533.367	81.5
533.582	99.5
533.796	98.5
534.011	89.5
534.225	83.5
534.44	96.5
534.654	91.5
534.868	78.5
535.083	86.5
535.297	85.5
535.511	85.5
535.726	85.5
535.94	86.5
536.154	95.5
536.369	90.5
536.583	87.5
536.797	97.5
537.011	80.5
537.225	77.5
