Data from Circ_1983_H10_HRD10591_00095.txt Node
Date: Wed Jan 03 12:27:03 EST 2024
User: Yrep
Spectrometer: HR+D1059
Trigger mode: 1
Integration Time (sec): 1.000000E-1
Scans to average: 1
Electric dark correction enabled: true
Nonlinearity correction enabled: false
Boxcar width: 0
XAxis mode: Wavelengths
Number of Pixels in Spectrum: 2048
>>>>>Begin Spectral Data<<<<<
223.165	-12.81
223.4	-12.81
223.635	-12.81
223.869	-25.81
224.104	-13.81
224.338	-15.81
224.573	-19.81
224.808	-11.81
225.042	0.19
225.277	-5.81
225.511	-6.81
225.746	3.19
225.98	-4.81
226.215	19.19
226.449	18.19
226.683	10.19
226.918	33.19
227.152	33.19
227.387	31.19
227.621	48.19
227.856	52.19
228.09	43.19
228.324	42.19
228.559	68.19
228.793	58.19
229.027	78.19
229.262	60.19
229.496	83.19
229.73	84.19
229.964	87.19
230.199	71.19
230.433	73.19
230.667	71.19
230.901	69.19
231.136	70.19
231.37	86.19
231.604	72.19
231.838	68.19
232.072	69.19
232.306	71.19
232.541	85.19
232.775	77.19
233.009	75.19
233.243	88.19
233.477	76.19
233.711	77.19
233.945	78.19
234.179	68.19
234.413	85.19
234.647	80.19
234.881	73.19
235.115	88.19
235.349	92.19
235.583	76.19
235.817	91.19
236.051	86.19
236.285	80.19
236.519	71.19
236.753	80.19
236.987	75.19
237.221	82.19
237.455	87.19
237.689	75.19
237.922	80.19
238.156	67.19
238.39	83.19
238.624	71.19
238.858	74.19
239.091	74.19
239.325	83.19
239.559	77.19
239.793	76.19
240.027	70.19
240.26	69.19
240.494	67.19
240.728	63.19
240.961	81.19
241.195	82.19
241.429	68.19
241.662	79.19
241.896	70.19
242.13	64.19
242.363	74.19
242.597	70.19
242.83	85.19
243.064	75.19
243.298	75.19
243.531	81.19
243.765	88.19
243.998	76.19
244.232	74.19
244.465	84.19
244.699	83.19
244.932	88.19
245.166	83.19
245.399	85.19
245.633	63.19
245.866	67.19
246.099	76.19
246.333	87.19
246.566	85.19
246.8	83.19
247.033	84.19
247.266	85.19
247.5	94.19
247.733	87.19
247.966	86.19
248.2	89.19
248.433	73.19
248.666	72.19
248.899	76.19
249.133	86.19
249.366	111.19
249.599	84.19
249.832	89.19
250.066	70.19
250.299	87.19
250.532	63.19
250.765	90.19
250.998	82.19
251.231	79.19
251.465	73.19
251.698	95.19
251.931	74.19
252.164	77.19
252.397	69.19
252.63	81.19
252.863	71.19
253.096	92.19
253.329	78.19
253.562	81.19
253.795	68.19
254.028	79.19
254.261	79.19
254.494	85.19
254.727	86.19
254.96	84.19
255.193	70.19
255.426	87.19
255.659	86.19
255.892	80.19
256.124	72.19
256.357	73.19
256.59	70.19
256.823	81.19
257.056	62.19
257.289	90.19
257.521	83.19
257.754	72.19
257.987	84.19
258.22	85.19
258.452	83.19
258.685	86.19
258.918	87.19
259.151	82.19
259.383	83.19
259.616	87.19
259.849	81.19
260.081	73.19
260.314	95.19
260.547	85.19
260.779	90.19
261.012	97.19
261.244	93.19
261.477	83.19
261.71	91.19
261.942	108.19
262.175	93.19
262.407	91.19
262.64	72.19
262.872	79.19
263.105	73.19
263.337	91.19
263.57	86.19
263.802	85.19
264.035	89.19
264.267	81.19
264.499	94.19
264.732	104.19
264.964	83.19
265.197	66.19
265.429	79.19
265.661	76.19
265.894	87.19
266.126	79.19
266.358	91.19
266.591	83.19
266.823	77.19
267.055	78.19
267.287	85.19
267.52	92.19
267.752	100.19
267.984	91.19
268.216	89.19
268.448	79.19
268.681	87.19
268.913	93.19
269.145	76.19
269.377	71.19
269.609	78.19
269.841	74.19
270.073	85.19
270.306	91.19
270.538	104.19
270.77	89.19
271.002	92.19
271.234	86.19
271.466	83.19
271.698	81.19
271.93	75.19
272.162	85.19
272.394	88.19
272.626	97.19
272.858	94.19
273.09	82.19
273.322	89.19
273.553	73.19
273.785	75.19
274.017	81.19
274.249	87.19
274.481	83.19
274.713	86.19
274.945	91.19
275.176	87.19
275.408	83.19
275.64	85.19
275.872	96.19
276.104	95.19
276.335	83.19
276.567	92.19
276.799	98.19
277.031	98.19
277.262	108.19
277.494	86.19
277.726	85.19
277.957	100.19
278.189	101.19
278.421	77.19
278.652	79.19
278.884	85.19
279.115	79.19
279.347	82.19
279.579	74.19
279.81	92.19
280.042	101.19
280.273	100.19
280.505	97.19
280.736	84.19
280.968	80.19
281.199	90.19
281.431	93.19
281.662	91.19
281.894	99.19
282.125	91.19
282.356	111.19
282.588	136.19
282.819	80.19
283.051	88.19
283.282	82.19
283.513	88.19
283.745	87.19
283.976	98.19
284.207	98.19
284.439	82.19
284.67	96.19
284.901	86.19
285.132	81.19
285.364	91.19
285.595	80.19
285.826	87.19
286.057	81.19
286.288	82.19
286.52	77.19
286.751	85.19
286.982	91.19
287.213	96.19
287.444	95.19
287.675	96.19
287.906	91.19
288.138	79.19
288.369	96.19
288.6	88.19
288.831	91.19
289.062	89.19
289.293	92.19
289.524	93.19
289.755	90.19
289.986	85.19
290.217	86.19
290.448	70.19
290.679	92.19
290.91	89.19
291.141	93.19
291.371	88.19
291.602	81.19
291.833	82.19
292.064	90.19
292.295	79.19
292.526	84.19
292.757	73.19
292.987	95.19
293.218	86.19
293.449	80.19
293.68	86.19
293.91	89.19
294.141	99.19
294.372	97.19
294.603	92.19
294.833	83.19
295.064	100.19
295.295	92.19
295.525	94.19
295.756	90.19
295.987	92.19
296.217	123.19
296.448	120.19
296.679	93.19
296.909	90.19
297.14	95.19
297.37	97.19
297.601	79.19
297.831	88.19
298.062	67.19
298.292	100.19
298.523	81.19
298.753	90.19
298.984	90.19
299.214	83.19
299.445	82.19
299.675	93.19
299.905	87.19
300.136	90.19
300.366	102.19
300.597	88.19
300.827	99.19
301.057	89.19
301.288	89.19
301.518	96.19
301.748	82.19
301.979	90.19
302.209	99.19
302.439	88.19
302.669	90.19
302.9	95.19
303.13	92.19
303.36	81.19
303.59	102.19
303.82	97.19
304.051	99.19
304.281	88.19
304.511	85.19
304.741	79.19
304.971	77.19
305.201	92.19
305.431	81.19
305.661	89.19
305.891	112.19
306.121	87.19
306.352	100.19
306.582	107.19
306.812	99.19
307.042	91.19
307.272	104.19
307.502	108.19
307.731	107.19
307.961	103.19
308.191	80.19
308.421	91.19
308.651	77.19
308.881	85.19
309.111	95.19
309.341	86.19
309.571	100.19
309.8	113.19
310.03	104.19
310.26	97.19
310.49	88.19
310.72	90.19
310.949	91.19
311.179	107.19
311.409	99.19
311.639	105.19
311.868	89.19
312.098	85.19
312.328	88.19
312.557	110.19
312.787	94.19
313.017	106.19
313.246	83.19
313.476	84.19
313.706	76.19
313.935	89.19
314.165	84.19
314.394	91.19
314.624	92.19
314.853	89.19
315.083	91.19
315.312	90.19
315.542	82.19
315.771	80.19
316.001	93.19
316.23	84.19
316.46	89.19
316.689	91.19
316.919	86.19
317.148	88.19
317.377	92.19
317.607	89.19
317.836	85.19
318.065	81.19
318.295	85.19
318.524	85.19
318.753	95.19
318.983	93.19
319.212	96.19
319.441	104.19
319.67	104.19
319.9	82.19
320.129	90.19
320.358	90.19
320.587	87.19
320.816	83.19
321.046	111.19
321.275	97.19
321.504	74.19
321.733	96.19
321.962	102.19
322.191	106.19
322.42	96.19
322.649	114.19
322.878	112.19
323.108	99.19
323.337	119.19
323.566	127.19
323.795	140.19
324.024	162.19
324.253	289.19
324.482	593.19
324.71	1181.19
324.939	1523.19
325.168	593.19
325.397	199.19
325.626	143.19
325.855	130.19
326.084	119.19
326.313	124.19
326.542	133.19
326.77	177.19
326.999	324.19
327.228	679.19
327.457	1163.19
327.686	958.19
327.914	281.19
328.143	196.19
328.372	191.19
328.6	126.19
328.829	114.19
329.058	118.19
329.287	108.19
329.515	120.19
329.744	127.19
329.972	157.19
330.201	212.19
330.43	281.19
330.658	177.19
330.887	123.19
331.115	111.19
331.344	106.19
331.572	99.19
331.801	102.19
332.03	90.19
332.258	101.19
332.486	95.19
332.715	86.19
332.943	92.19
333.172	103.19
333.4	101.19
333.629	104.19
333.857	121.19
334.085	144.19
334.314	225.19
334.542	351.19
334.771	311.19
334.999	121.19
335.227	101.19
335.455	97.19
335.684	103.19
335.912	98.19
336.14	96.19
336.369	105.19
336.597	100.19
336.825	71.19
337.053	94.19
337.281	84.19
337.51	90.19
337.738	82.19
337.966	97.19
338.194	81.19
338.422	105.19
338.65	92.19
338.878	90.19
339.106	99.19
339.334	84.19
339.562	92.19
339.79	87.19
340.018	85.19
340.246	79.19
340.474	100.19
340.702	96.19
340.93	96.19
341.158	86.19
341.386	100.19
341.614	97.19
341.842	96.19
342.07	80.19
342.298	95.19
342.526	97.19
342.754	88.19
342.981	87.19
343.209	86.19
343.437	99.19
343.665	96.19
343.893	96.19
344.12	99.19
344.348	87.19
344.576	87.19
344.804	93.19
345.031	87.19
345.259	90.19
345.487	92.19
345.714	83.19
345.942	95.19
346.17	83.19
346.397	87.19
346.625	91.19
346.853	91.19
347.08	94.19
347.308	74.19
347.535	89.19
347.763	87.19
347.99	83.19
348.218	105.19
348.445	91.19
348.673	99.19
348.9	119.19
349.128	81.19
349.355	89.19
349.583	88.19
349.81	89.19
350.037	88.19
350.265	108.19
350.492	75.19
350.72	99.19
350.947	99.19
351.174	103.19
351.402	104.19
351.629	99.19
351.856	97.19
352.083	101.19
352.311	105.19
352.538	117.19
352.765	97.19
352.992	105.19
353.22	116.19
353.447	108.19
353.674	103.19
353.901	105.19
354.128	95.19
354.355	114.19
354.583	100.19
354.81	100.19
355.037	97.19
355.264	76.19
355.491	89.19
355.718	91.19
355.945	105.19
356.172	89.19
356.399	98.19
356.626	85.19
356.853	79.19
357.08	99.19
357.307	93.19
357.534	81.19
357.761	96.19
357.988	92.19
358.215	89.19
358.441	84.19
358.668	85.19
358.895	83.19
359.122	82.19
359.349	91.19
359.576	104.19
359.802	90.19
360.029	105.19
360.256	93.19
360.483	82.19
360.709	85.19
360.936	100.19
361.163	83.19
361.39	107.19
361.616	86.19
361.843	96.19
362.07	89.19
362.296	86.19
362.523	96.19
362.749	67.19
362.976	108.19
363.203	100.19
363.429	77.19
363.656	100.19
363.882	102.19
364.109	75.19
364.335	89.19
364.562	89.19
364.788	100.19
365.015	100.19
365.241	93.19
365.468	84.19
365.694	95.19
365.92	85.19
366.147	92.19
366.373	83.19
366.599	98.19
366.826	93.19
367.052	89.19
367.278	95.19
367.505	89.19
367.731	107.19
367.957	92.19
368.184	86.19
368.41	86.19
368.636	94.19
368.862	111.19
369.089	93.19
369.315	83.19
369.541	99.19
369.767	92.19
369.993	96.19
370.219	86.19
370.445	88.19
370.672	69.19
370.898	84.19
371.124	88.19
371.35	82.19
371.576	94.19
371.802	79.19
372.028	83.19
372.254	76.19
372.48	82.19
372.706	91.19
372.932	77.19
373.158	79.19
373.384	90.19
373.61	92.19
373.835	85.19
374.061	98.19
374.287	86.19
374.513	92.19
374.739	77.19
374.965	84.19
375.191	77.19
375.416	95.19
375.642	87.19
375.868	77.19
376.094	82.19
376.319	89.19
376.545	78.19
376.771	75.19
376.997	93.19
377.222	83.19
377.448	97.19
377.674	99.19
377.899	89.19
378.125	92.19
378.35	103.19
378.576	98.19
378.802	95.19
379.027	79.19
379.253	92.19
379.478	100.19
379.704	85.19
379.929	83.19
380.155	80.19
380.38	99.19
380.606	97.19
380.831	92.19
381.057	84.19
381.282	95.19
381.507	95.19
381.733	97.19
381.958	99.19
382.184	97.19
382.409	110.19
382.634	114.19
382.86	98.19
383.085	107.19
383.31	94.19
383.535	97.19
383.761	106.19
383.986	96.19
384.211	92.19
384.436	99.19
384.662	98.19
384.887	96.19
385.112	98.19
385.337	112.19
385.562	110.19
385.787	110.19
386.013	124.19
386.238	105.19
386.463	100.19
386.688	98.19
386.913	105.19
387.138	113.19
387.363	99.19
387.588	103.19
387.813	102.19
388.038	106.19
388.263	107.19
388.488	93.19
388.713	78.19
388.938	85.19
389.163	92.19
389.387	94.19
389.612	101.19
389.837	89.19
390.062	85.19
390.287	76.19
390.512	78.19
390.736	68.19
390.961	92.19
391.186	87.19
391.411	92.19
391.636	104.19
391.86	91.19
392.085	93.19
392.31	87.19
392.534	92.19
392.759	83.19
392.984	93.19
393.208	96.19
393.433	93.19
393.658	97.19
393.882	101.19
394.107	91.19
394.331	76.19
394.556	83.19
394.78	79.19
395.005	85.19
395.229	89.19
395.454	87.19
395.678	75.19
395.903	81.19
396.127	80.19
396.352	74.19
396.576	95.19
396.801	95.19
397.025	87.19
397.249	105.19
397.474	81.19
397.698	91.19
397.922	109.19
398.147	85.19
398.371	92.19
398.595	80.19
398.82	96.19
399.044	87.19
399.268	81.19
399.492	81.19
399.717	84.19
399.941	84.19
400.165	92.19
400.389	87.19
400.613	87.19
400.837	82.19
401.062	103.19
401.286	73.19
401.51	92.19
401.734	83.19
401.958	89.19
402.182	117.19
402.406	131.19
402.63	118.19
402.854	84.19
403.078	76.19
403.302	78.19
403.526	95.19
403.75	94.19
403.974	85.19
404.198	87.19
404.422	92.19
404.645	100.19
404.869	90.19
405.093	96.19
405.317	100.19
405.541	112.19
405.765	75.19
405.988	107.19
406.212	146.19
406.436	192.19
406.66	115.19
406.883	99.19
407.107	102.19
407.331	97.19
407.555	99.19
407.778	76.19
408.002	95.19
408.226	83.19
408.449	80.19
408.673	94.19
408.896	109.19
409.12	96.19
409.344	105.19
409.567	98.19
409.791	100.19
410.014	102.19
410.238	92.19
410.461	90.19
410.685	93.19
410.908	107.19
411.132	105.19
411.355	95.19
411.578	86.19
411.802	90.19
412.025	68.19
412.249	87.19
412.472	85.19
412.695	108.19
412.919	84.19
413.142	100.19
413.365	85.19
413.589	76.19
413.812	82.19
414.035	89.19
414.258	90.19
414.482	83.19
414.705	99.19
414.928	99.19
415.151	73.19
415.374	96.19
415.597	96.19
415.821	80.19
416.044	89.19
416.267	72.19
416.49	78.19
416.713	107.19
416.936	96.19
417.159	97.19
417.382	79.19
417.605	83.19
417.828	85.19
418.051	108.19
418.274	89.19
418.497	88.19
418.72	77.19
418.943	91.19
419.166	95.19
419.389	75.19
419.611	85.19
419.834	89.19
420.057	93.19
420.28	73.19
420.503	73.19
420.726	82.19
420.948	96.19
421.171	90.19
421.394	107.19
421.617	84.19
421.839	92.19
422.062	85.19
422.285	96.19
422.507	101.19
422.73	94.19
422.953	96.19
423.175	95.19
423.398	87.19
423.621	95.19
423.843	89.19
424.066	85.19
424.288	91.19
424.511	101.19
424.733	97.19
424.956	109.19
425.178	83.19
425.401	96.19
425.623	91.19
425.846	113.19
426.068	103.19
426.291	89.19
426.513	86.19
426.735	89.19
426.958	91.19
427.18	107.19
427.402	123.19
427.625	143.19
427.847	118.19
428.069	123.19
428.292	103.19
428.514	84.19
428.736	82.19
428.958	77.19
429.181	91.19
429.403	88.19
429.625	79.19
429.847	100.19
430.069	109.19
430.292	88.19
430.514	83.19
430.736	71.19
430.958	95.19
431.18	74.19
431.402	89.19
431.624	87.19
431.846	80.19
432.068	87.19
432.29	83.19
432.512	76.19
432.734	74.19
432.956	91.19
433.178	97.19
433.4	90.19
433.622	85.19
433.844	97.19
434.066	89.19
434.287	94.19
434.509	90.19
434.731	80.19
434.953	85.19
435.175	85.19
435.397	93.19
435.618	86.19
435.84	88.19
436.062	107.19
436.284	104.19
436.505	91.19
436.727	104.19
436.949	101.19
437.17	79.19
437.392	92.19
437.614	81.19
437.835	85.19
438.057	106.19
438.278	104.19
438.5	97.19
438.721	103.19
438.943	89.19
439.165	87.19
439.386	86.19
439.608	95.19
439.829	97.19
440.05	109.19
440.272	127.19
440.493	103.19
440.715	90.19
440.936	83.19
441.158	88.19
441.379	77.19
441.6	93.19
441.822	91.19
442.043	83.19
442.264	96.19
442.486	104.19
442.707	94.19
442.928	105.19
443.149	118.19
443.371	104.19
443.592	96.19
443.813	85.19
444.034	99.19
444.255	91.19
444.476	80.19
444.698	73.19
444.919	96.19
445.14	134.19
445.361	120.19
445.582	100.19
445.803	120.19
446.024	123.19
446.245	118.19
446.466	91.19
446.687	69.19
446.908	84.19
447.129	71.19
447.35	81.19
447.571	87.19
447.792	86.19
448.013	88.19
448.234	92.19
448.455	89.19
448.675	91.19
448.896	88.19
449.117	86.19
449.338	92.19
449.559	112.19
449.779	105.19
450	102.19
450.221	84.19
450.442	95.19
450.662	102.19
450.883	101.19
451.104	97.19
451.324	80.19
451.545	90.19
451.766	70.19
451.986	76.19
452.207	89.19
452.428	87.19
452.648	98.19
452.869	95.19
453.089	104.19
453.31	99.19
453.53	96.19
453.751	75.19
453.971	104.19
454.192	95.19
454.412	85.19
454.633	87.19
454.853	85.19
455.073	76.19
455.294	77.19
455.514	87.19
455.734	105.19
455.955	75.19
456.175	90.19
456.395	67.19
456.616	63.19
456.836	77.19
457.056	76.19
457.276	92.19
457.497	85.19
457.717	86.19
457.937	85.19
458.157	85.19
458.377	97.19
458.598	93.19
458.818	127.19
459.038	120.19
459.258	107.19
459.478	80.19
459.698	94.19
459.918	91.19
460.138	60.19
460.358	96.19
460.578	90.19
460.798	95.19
461.018	81.19
461.238	75.19
461.458	90.19
461.678	84.19
461.898	88.19
462.118	87.19
462.338	84.19
462.558	100.19
462.777	85.19
462.997	92.19
463.217	91.19
463.437	99.19
463.657	92.19
463.876	87.19
464.096	100.19
464.316	74.19
464.536	83.19
464.755	100.19
464.975	98.19
465.195	132.19
465.414	137.19
465.634	101.19
465.854	82.19
466.073	88.19
466.293	83.19
466.512	85.19
466.732	84.19
466.951	99.19
467.171	100.19
467.391	104.19
467.61	104.19
467.829	105.19
468.049	148.19
468.268	187.19
468.488	86.19
468.707	89.19
468.927	89.19
469.146	100.19
469.365	95.19
469.585	83.19
469.804	89.19
470.023	90.19
470.243	94.19
470.462	85.19
470.681	100.19
470.901	92.19
471.12	88.19
471.339	99.19
471.558	82.19
471.777	94.19
471.997	113.19
472.216	248.19
472.435	457.19
472.654	158.19
472.873	105.19
473.092	97.19
473.311	76.19
473.53	88.19
473.749	71.19
473.968	115.19
474.187	101.19
474.406	96.19
474.625	87.19
474.844	85.19
475.063	86.19
475.282	68.19
475.501	73.19
475.72	93.19
475.939	88.19
476.158	73.19
476.377	72.19
476.596	85.19
476.814	88.19
477.033	95.19
477.252	95.19
477.471	86.19
477.69	93.19
477.908	91.19
478.127	83.19
478.346	72.19
478.564	101.19
478.783	83.19
479.002	85.19
479.22	96.19
479.439	99.19
479.658	102.19
479.876	97.19
480.095	84.19
480.313	77.19
480.532	119.19
480.751	123.19
480.969	254.19
481.188	758.19
481.406	467.19
481.624	130.19
481.843	89.19
482.061	97.19
482.28	96.19
482.498	93.19
482.717	90.19
482.935	84.19
483.153	88.19
483.372	88.19
483.59	91.19
483.808	90.19
484.027	100.19
484.245	96.19
484.463	96.19
484.681	94.19
484.9	92.19
485.118	93.19
485.336	105.19
485.554	100.19
485.772	111.19
485.99	114.19
486.209	104.19
486.427	99.19
486.645	104.19
486.863	121.19
487.081	102.19
487.299	90.19
487.517	82.19
487.735	100.19
487.953	91.19
488.171	111.19
488.389	97.19
488.607	97.19
488.825	93.19
489.043	87.19
489.261	99.19
489.479	73.19
489.696	101.19
489.914	88.19
490.132	91.19
490.35	79.19
490.568	83.19
490.786	92.19
491.003	68.19
491.221	88.19
491.439	91.19
491.657	98.19
491.874	97.19
492.092	90.19
492.31	85.19
492.527	81.19
492.745	93.19
492.963	104.19
493.18	99.19
493.398	88.19
493.615	99.19
493.833	100.19
494.05	88.19
494.268	83.19
494.485	85.19
494.703	74.19
494.92	102.19
495.138	107.19
495.355	81.19
495.573	94.19
495.79	98.19
496.008	103.19
496.225	88.19
496.442	84.19
496.66	102.19
496.877	95.19
497.094	113.19
497.312	89.19
497.529	87.19
497.746	102.19
497.963	87.19
498.181	94.19
498.398	85.19
498.615	102.19
498.832	91.19
499.049	83.19
499.267	98.19
499.484	92.19
499.701	98.19
499.918	99.19
500.135	81.19
500.352	84.19
500.569	90.19
500.786	85.19
501.003	88.19
501.22	89.19
501.437	73.19
501.654	99.19
501.871	90.19
502.088	87.19
502.305	92.19
502.522	74.19
502.739	86.19
502.956	86.19
503.172	93.19
503.389	81.19
503.606	106.19
503.823	87.19
504.04	105.19
504.256	84.19
504.473	95.19
504.69	104.19
504.907	87.19
505.123	86.19
505.34	95.19
505.557	83.19
505.773	85.19
505.99	73.19
506.207	99.19
506.423	84.19
506.64	80.19
506.856	95.19
507.073	80.19
507.289	84.19
507.506	91.19
507.722	108.19
507.939	112.19
508.155	97.19
508.372	86.19
508.588	99.19
508.805	83.19
509.021	104.19
509.238	95.19
509.454	92.19
509.67	78.19
509.887	107.19
510.103	128.19
510.319	186.19
510.536	557.19
510.752	1707.19
510.968	475.19
511.184	133.19
511.401	91.19
511.617	80.19
511.833	83.19
512.049	76.19
512.265	89.19
512.481	91.19
512.698	97.19
512.914	102.19
513.13	93.19
513.346	87.19
513.562	109.19
513.778	107.19
513.994	101.19
514.21	116.19
514.426	110.19
514.642	112.19
514.858	117.19
515.074	138.19
515.29	339.19
515.506	1068.19
515.721	391.19
515.937	126.19
