Data from Mixnoheat2_HRD10591_00014.txt Node
Date: Fri Dec 27 14:59:53 EST 2024
User: Yrep
Spectrometer: HR+D1059
Trigger mode: 1
Integration Time (sec): 1.000000E-1
Scans to average: 1
Electric dark correction enabled: true
Nonlinearity correction enabled: false
Boxcar width: 0
XAxis mode: Wavelengths
Number of Pixels in Spectrum: 2048
>>>>>Begin Spectral Data<<<<<
223.165	-19.19
223.4	-19.19
223.635	-19.19
223.869	-24.19
224.104	-25.19
224.338	-19.19
224.573	-17.19
224.808	-7.19
225.042	-5.19
225.277	-16.19
225.511	11.81
225.746	-0.19
225.98	-3.19
226.215	15.81
226.449	23.81
226.683	26.81
226.918	23.81
227.152	34.81
227.387	50.81
227.621	27.81
227.856	41.81
228.09	47.81
228.324	38.81
228.559	57.81
228.793	50.81
229.027	60.81
229.262	69.81
229.496	77.81
229.73	66.81
229.964	67.81
230.199	80.81
230.433	79.81
230.667	87.81
230.901	72.81
231.136	76.81
231.37	80.81
231.604	78.81
231.838	79.81
232.072	94.81
232.306	69.81
232.541	76.81
232.775	81.81
233.009	77.81
233.243	77.81
233.477	91.81
233.711	90.81
233.945	73.81
234.179	61.81
234.413	83.81
234.647	82.81
234.881	76.81
235.115	83.81
235.349	72.81
235.583	74.81
235.817	73.81
236.051	87.81
236.285	65.81
236.519	70.81
236.753	83.81
236.987	76.81
237.221	81.81
237.455	83.81
237.689	71.81
237.922	81.81
238.156	77.81
238.39	72.81
238.624	82.81
238.858	77.81
239.091	80.81
239.325	56.81
239.559	71.81
239.793	69.81
240.027	77.81
240.26	78.81
240.494	77.81
240.728	75.81
240.961	78.81
241.195	65.81
241.429	83.81
241.662	82.81
241.896	76.81
242.13	84.81
242.363	79.81
242.597	85.81
242.83	85.81
243.064	79.81
243.298	73.81
243.531	73.81
243.765	91.81
243.998	73.81
244.232	68.81
244.465	68.81
244.699	77.81
244.932	67.81
245.166	90.81
245.399	77.81
245.633	72.81
245.866	77.81
246.099	68.81
246.333	69.81
246.566	83.81
246.8	83.81
247.033	71.81
247.266	65.81
247.5	85.81
247.733	76.81
247.966	85.81
248.2	71.81
248.433	74.81
248.666	77.81
248.899	79.81
249.133	93.81
249.366	78.81
249.599	75.81
249.832	70.81
250.066	87.81
250.299	74.81
250.532	87.81
250.765	68.81
250.998	86.81
251.231	79.81
251.465	77.81
251.698	98.81
251.931	90.81
252.164	73.81
252.397	73.81
252.63	78.81
252.863	85.81
253.096	83.81
253.329	82.81
253.562	81.81
253.795	71.81
254.028	78.81
254.261	80.81
254.494	63.81
254.727	87.81
254.96	82.81
255.193	77.81
255.426	73.81
255.659	74.81
255.892	84.81
256.124	82.81
256.357	72.81
256.59	88.81
256.823	86.81
257.056	76.81
257.289	94.81
257.521	79.81
257.754	75.81
257.987	93.81
258.22	85.81
258.452	77.81
258.685	84.81
258.918	85.81
259.151	71.81
259.383	74.81
259.616	80.81
259.849	71.81
260.081	75.81
260.314	66.81
260.547	69.81
260.779	74.81
261.012	85.81
261.244	87.81
261.477	91.81
261.71	68.81
261.942	87.81
262.175	98.81
262.407	80.81
262.64	72.81
262.872	83.81
263.105	76.81
263.337	87.81
263.57	76.81
263.802	88.81
264.035	84.81
264.267	91.81
264.499	87.81
264.732	93.81
264.964	74.81
265.197	85.81
265.429	88.81
265.661	89.81
265.894	72.81
266.126	90.81
266.358	63.81
266.591	86.81
266.823	73.81
267.055	87.81
267.287	96.81
267.52	71.81
267.752	82.81
267.984	82.81
268.216	73.81
268.448	85.81
268.681	86.81
268.913	85.81
269.145	81.81
269.377	96.81
269.609	78.81
269.841	74.81
270.073	87.81
270.306	100.81
270.538	78.81
270.77	87.81
271.002	87.81
271.234	81.81
271.466	90.81
271.698	85.81
271.93	84.81
272.162	79.81
272.394	85.81
272.626	76.81
272.858	73.81
273.09	82.81
273.322	80.81
273.553	71.81
273.785	83.81
274.017	90.81
274.249	84.81
274.481	87.81
274.713	73.81
274.945	82.81
275.176	88.81
275.408	87.81
275.64	91.81
275.872	87.81
276.104	99.81
276.335	76.81
276.567	77.81
276.799	77.81
277.031	71.81
277.262	94.81
277.494	89.81
277.726	75.81
277.957	87.81
278.189	79.81
278.421	71.81
278.652	64.81
278.884	78.81
279.115	74.81
279.347	79.81
279.579	89.81
279.81	93.81
280.042	89.81
280.273	83.81
280.505	94.81
280.736	85.81
280.968	72.81
281.199	84.81
281.431	74.81
281.662	87.81
281.894	96.81
282.125	92.81
282.356	93.81
282.588	86.81
282.819	84.81
283.051	76.81
283.282	77.81
283.513	86.81
283.745	77.81
283.976	78.81
284.207	82.81
284.439	92.81
284.67	92.81
284.901	93.81
285.132	73.81
285.364	84.81
285.595	85.81
285.826	77.81
286.057	95.81
286.288	71.81
286.52	74.81
286.751	81.81
286.982	75.81
287.213	84.81
287.444	81.81
287.675	84.81
287.906	75.81
288.138	78.81
288.369	87.81
288.6	81.81
288.831	83.81
289.062	91.81
289.293	78.81
289.524	78.81
289.755	74.81
289.986	90.81
290.217	75.81
290.448	93.81
290.679	88.81
290.91	95.81
291.141	84.81
291.371	75.81
291.602	90.81
291.833	66.81
292.064	76.81
292.295	82.81
292.526	85.81
292.757	84.81
292.987	84.81
293.218	77.81
293.449	71.81
293.68	78.81
293.91	86.81
294.141	96.81
294.372	81.81
294.603	89.81
294.833	98.81
295.064	88.81
295.295	88.81
295.525	84.81
295.756	86.81
295.987	79.81
296.217	71.81
296.448	86.81
296.679	89.81
296.909	78.81
297.14	86.81
297.37	78.81
297.601	76.81
297.831	84.81
298.062	101.81
298.292	90.81
298.523	88.81
298.753	82.81
298.984	79.81
299.214	83.81
299.445	95.81
299.675	85.81
299.905	79.81
300.136	76.81
300.366	87.81
300.597	79.81
300.827	75.81
301.057	91.81
301.288	79.81
301.518	91.81
301.748	94.81
301.979	90.81
302.209	94.81
302.439	89.81
302.669	85.81
302.9	99.81
303.13	82.81
303.36	90.81
303.59	79.81
303.82	87.81
304.051	84.81
304.281	78.81
304.511	91.81
304.741	104.81
304.971	100.81
305.201	94.81
305.431	80.81
305.661	103.81
305.891	74.81
306.121	96.81
306.352	85.81
306.582	82.81
306.812	92.81
307.042	96.81
307.272	77.81
307.502	91.81
307.731	78.81
307.961	83.81
308.191	84.81
308.421	89.81
308.651	107.81
308.881	77.81
309.111	86.81
309.341	84.81
309.571	86.81
309.8	73.81
310.03	90.81
310.26	101.81
310.49	82.81
310.72	72.81
310.949	84.81
311.179	69.81
311.409	86.81
311.639	87.81
311.868	91.81
312.098	90.81
312.328	83.81
312.557	93.81
312.787	82.81
313.017	81.81
313.246	69.81
313.476	78.81
313.706	83.81
313.935	77.81
314.165	91.81
314.394	86.81
314.624	85.81
314.853	91.81
315.083	80.81
315.312	76.81
315.542	75.81
315.771	78.81
316.001	84.81
316.23	84.81
316.46	82.81
316.689	94.81
316.919	102.81
317.148	83.81
317.377	85.81
317.607	76.81
317.836	75.81
318.065	79.81
318.295	84.81
318.524	85.81
318.753	79.81
318.983	83.81
319.212	77.81
319.441	93.81
319.67	90.81
319.9	77.81
320.129	77.81
320.358	79.81
320.587	78.81
320.816	93.81
321.046	82.81
321.275	83.81
321.504	85.81
321.733	77.81
321.962	80.81
322.191	87.81
322.42	92.81
322.649	72.81
322.878	86.81
323.108	85.81
323.337	83.81
323.566	78.81
323.795	74.81
324.024	92.81
324.253	85.81
324.482	92.81
324.71	72.81
324.939	106.81
325.168	89.81
325.397	81.81
325.626	89.81
325.855	88.81
326.084	88.81
326.313	103.81
326.542	79.81
326.77	96.81
326.999	74.81
327.228	83.81
327.457	75.81
327.686	83.81
327.914	88.81
328.143	89.81
328.372	103.81
328.6	85.81
328.829	70.81
329.058	89.81
329.287	70.81
329.515	74.81
329.744	84.81
329.972	77.81
330.201	78.81
330.43	101.81
330.658	95.81
330.887	83.81
331.115	82.81
331.344	94.81
331.572	86.81
331.801	76.81
332.03	84.81
332.258	92.81
332.486	93.81
332.715	81.81
332.943	78.81
333.172	76.81
333.4	84.81
333.629	86.81
333.857	77.81
334.085	74.81
334.314	88.81
334.542	84.81
334.771	82.81
334.999	83.81
335.227	77.81
335.455	82.81
335.684	74.81
335.912	85.81
336.14	79.81
336.369	103.81
336.597	90.81
336.825	80.81
337.053	85.81
337.281	85.81
337.51	97.81
337.738	87.81
337.966	77.81
338.194	82.81
338.422	95.81
338.65	82.81
338.878	96.81
339.106	86.81
339.334	84.81
339.562	83.81
339.79	86.81
340.018	79.81
340.246	90.81
340.474	83.81
340.702	91.81
340.93	87.81
341.158	80.81
341.386	85.81
341.614	82.81
341.842	93.81
342.07	84.81
342.298	83.81
342.526	91.81
342.754	85.81
342.981	92.81
343.209	87.81
343.437	99.81
343.665	73.81
343.893	88.81
344.12	89.81
344.348	81.81
344.576	86.81
344.804	79.81
345.031	89.81
345.259	86.81
345.487	78.81
345.714	85.81
345.942	75.81
346.17	78.81
346.397	89.81
346.625	79.81
346.853	87.81
347.08	93.81
347.308	92.81
347.535	98.81
347.763	87.81
347.99	73.81
348.218	99.81
348.445	77.81
348.673	93.81
348.9	88.81
349.128	85.81
349.355	76.81
349.583	80.81
349.81	91.81
350.037	82.81
350.265	86.81
350.492	84.81
350.72	76.81
350.947	77.81
351.174	94.81
351.402	86.81
351.629	81.81
351.856	85.81
352.083	78.81
352.311	82.81
352.538	76.81
352.765	74.81
352.992	81.81
353.22	90.81
353.447	70.81
353.674	85.81
353.901	68.81
354.128	86.81
354.355	93.81
354.583	82.81
354.81	84.81
355.037	90.81
355.264	84.81
355.491	78.81
355.718	77.81
355.945	71.81
356.172	82.81
356.399	90.81
356.626	75.81
356.853	84.81
357.08	78.81
357.307	73.81
357.534	85.81
357.761	85.81
357.988	94.81
358.215	87.81
358.441	75.81
358.668	91.81
358.895	98.81
359.122	86.81
359.349	81.81
359.576	93.81
359.802	88.81
360.029	85.81
360.256	85.81
360.483	82.81
360.709	69.81
360.936	95.81
361.163	81.81
361.39	90.81
361.616	80.81
361.843	78.81
362.07	90.81
362.296	76.81
362.523	73.81
362.749	91.81
362.976	98.81
363.203	90.81
363.429	81.81
363.656	87.81
363.882	85.81
364.109	94.81
364.335	98.81
364.562	92.81
364.788	83.81
365.015	93.81
365.241	77.81
365.468	90.81
365.694	97.81
365.92	93.81
366.147	76.81
366.373	90.81
366.599	84.81
366.826	86.81
367.052	89.81
367.278	86.81
367.505	86.81
367.731	92.81
367.957	87.81
368.184	90.81
368.41	87.81
368.636	88.81
368.862	84.81
369.089	73.81
369.315	80.81
369.541	75.81
369.767	95.81
369.993	82.81
370.219	89.81
370.445	91.81
370.672	86.81
370.898	93.81
371.124	89.81
371.35	84.81
371.576	87.81
371.802	87.81
372.028	73.81
372.254	88.81
372.48	99.81
372.706	100.81
372.932	75.81
373.158	91.81
373.384	80.81
373.61	74.81
373.835	91.81
374.061	83.81
374.287	87.81
374.513	76.81
374.739	76.81
374.965	88.81
375.191	72.81
375.416	81.81
375.642	82.81
375.868	82.81
376.094	76.81
376.319	65.81
376.545	95.81
376.771	96.81
376.997	72.81
377.222	88.81
377.448	77.81
377.674	68.81
377.899	86.81
378.125	82.81
378.35	80.81
378.576	77.81
378.802	75.81
379.027	62.81
379.253	87.81
379.478	86.81
379.704	90.81
379.929	92.81
380.155	83.81
380.38	83.81
380.606	87.81
380.831	77.81
381.057	78.81
381.282	74.81
381.507	80.81
381.733	78.81
381.958	81.81
382.184	86.81
382.409	76.81
382.634	98.81
382.86	81.81
383.085	79.81
383.31	88.81
383.535	86.81
383.761	85.81
383.986	97.81
384.211	79.81
384.436	73.81
384.662	70.81
384.887	97.81
385.112	68.81
385.337	93.81
385.562	70.81
385.787	87.81
386.013	76.81
386.238	77.81
386.463	86.81
386.688	106.81
386.913	70.81
387.138	76.81
387.363	89.81
387.588	91.81
387.813	79.81
388.038	93.81
388.263	88.81
388.488	86.81
388.713	95.81
388.938	79.81
389.163	92.81
389.387	75.81
389.612	90.81
389.837	89.81
390.062	89.81
390.287	65.81
390.512	97.81
390.736	105.81
390.961	76.81
391.186	85.81
391.411	69.81
391.636	78.81
391.86	82.81
392.085	77.81
392.31	72.81
392.534	91.81
392.759	94.81
392.984	87.81
393.208	92.81
393.433	115.81
393.658	89.81
393.882	92.81
394.107	87.81
394.331	85.81
394.556	89.81
394.78	78.81
395.005	83.81
395.229	90.81
395.454	76.81
395.678	77.81
395.903	92.81
396.127	101.81
396.352	92.81
396.576	88.81
396.801	102.81
397.025	107.81
397.249	91.81
397.474	78.81
397.698	72.81
397.922	86.81
398.147	72.81
398.371	87.81
398.595	74.81
398.82	83.81
399.044	92.81
399.268	83.81
399.492	77.81
399.717	87.81
399.941	73.81
400.165	72.81
400.389	76.81
400.613	68.81
400.837	81.81
401.062	93.81
401.286	79.81
401.51	89.81
401.734	93.81
401.958	87.81
402.182	80.81
402.406	96.81
402.63	71.81
402.854	82.81
403.078	96.81
403.302	86.81
403.526	87.81
403.75	77.81
403.974	96.81
404.198	87.81
404.422	98.81
404.645	106.81
404.869	92.81
405.093	91.81
405.317	82.81
405.541	91.81
405.765	67.81
405.988	76.81
406.212	86.81
406.436	70.81
406.66	84.81
406.883	82.81
407.107	79.81
407.331	80.81
407.555	89.81
407.778	89.81
408.002	101.81
408.226	68.81
408.449	74.81
408.673	81.81
408.896	95.81
409.12	83.81
409.344	87.81
409.567	86.81
409.791	84.81
410.014	76.81
410.238	86.81
410.461	92.81
410.685	79.81
410.908	89.81
411.132	87.81
411.355	83.81
411.578	98.81
411.802	95.81
412.025	78.81
412.249	70.81
412.472	73.81
412.695	89.81
412.919	84.81
413.142	93.81
413.365	90.81
413.589	94.81
413.812	95.81
414.035	93.81
414.258	82.81
414.482	82.81
414.705	76.81
414.928	83.81
415.151	70.81
415.374	78.81
415.597	78.81
415.821	77.81
416.044	72.81
416.267	88.81
416.49	81.81
416.713	82.81
416.936	89.81
417.159	82.81
417.382	68.81
417.605	71.81
417.828	78.81
418.051	81.81
418.274	79.81
418.497	94.81
418.72	95.81
418.943	86.81
419.166	94.81
419.389	80.81
419.611	80.81
419.834	86.81
420.057	87.81
420.28	87.81
420.503	68.81
420.726	81.81
420.948	82.81
421.171	91.81
421.394	74.81
421.617	73.81
421.839	89.81
422.062	92.81
422.285	99.81
422.507	114.81
422.73	126.81
422.953	112.81
423.175	101.81
423.398	90.81
423.621	93.81
423.843	87.81
424.066	85.81
424.288	84.81
424.511	92.81
424.733	87.81
424.956	75.81
425.178	84.81
425.401	84.81
425.623	84.81
425.846	63.81
426.068	77.81
426.291	81.81
426.513	86.81
426.735	87.81
426.958	83.81
427.18	86.81
427.402	93.81
427.625	69.81
427.847	77.81
428.069	79.81
428.292	86.81
428.514	81.81
428.736	86.81
428.958	73.81
429.181	89.81
429.403	80.81
429.625	81.81
429.847	76.81
430.069	90.81
430.292	85.81
430.514	77.81
430.736	87.81
430.958	90.81
431.18	87.81
431.402	74.81
431.624	99.81
431.846	96.81
432.068	91.81
432.29	89.81
432.512	86.81
432.734	80.81
432.956	84.81
433.178	89.81
433.4	88.81
433.622	82.81
433.844	84.81
434.066	88.81
434.287	82.81
434.509	78.81
434.731	77.81
434.953	85.81
435.175	84.81
435.397	74.81
435.618	80.81
435.84	96.81
436.062	85.81
436.284	78.81
436.505	82.81
436.727	87.81
436.949	88.81
437.17	83.81
437.392	82.81
437.614	86.81
437.835	80.81
438.057	75.81
438.278	89.81
438.5	64.81
438.721	88.81
438.943	83.81
439.165	75.81
439.386	73.81
439.608	103.81
439.829	72.81
440.05	70.81
440.272	86.81
440.493	91.81
440.715	87.81
440.936	85.81
441.158	79.81
441.379	84.81
441.6	97.81
441.822	85.81
442.043	91.81
442.264	71.81
442.486	95.81
442.707	98.81
442.928	93.81
443.149	93.81
443.371	94.81
443.592	103.81
443.813	87.81
444.034	74.81
444.255	88.81
444.476	84.81
444.698	92.81
444.919	83.81
445.14	151.81
445.361	126.81
445.582	108.81
445.803	103.81
446.024	86.81
446.245	84.81
446.466	79.81
446.687	74.81
446.908	84.81
447.129	74.81
447.35	77.81
447.571	72.81
447.792	90.81
448.013	71.81
448.234	94.81
448.455	84.81
448.675	90.81
448.896	73.81
449.117	85.81
449.338	67.81
449.559	91.81
449.779	86.81
450	88.81
450.221	74.81
450.442	82.81
450.662	75.81
450.883	89.81
451.104	81.81
451.324	91.81
451.545	87.81
451.766	84.81
451.986	77.81
452.207	86.81
452.428	95.81
452.648	79.81
452.869	84.81
453.089	81.81
453.31	75.81
453.53	78.81
453.751	98.81
453.971	99.81
454.192	92.81
454.412	81.81
454.633	83.81
454.853	79.81
455.073	89.81
455.294	75.81
455.514	98.81
455.734	83.81
455.955	90.81
456.175	76.81
456.395	82.81
456.616	89.81
456.836	86.81
457.056	75.81
457.276	92.81
457.497	77.81
457.717	86.81
457.937	77.81
458.157	89.81
458.377	88.81
458.598	100.81
458.818	95.81
459.038	81.81
459.258	76.81
459.478	71.81
459.698	100.81
459.918	82.81
460.138	90.81
460.358	83.81
460.578	80.81
460.798	83.81
461.018	94.81
461.238	74.81
461.458	91.81
461.678	84.81
461.898	72.81
462.118	93.81
462.338	84.81
462.558	81.81
462.777	84.81
462.997	68.81
463.217	84.81
463.437	80.81
463.657	79.81
463.876	91.81
464.096	72.81
464.316	77.81
464.536	94.81
464.755	87.81
464.975	81.81
465.195	91.81
465.414	84.81
465.634	79.81
465.854	79.81
466.073	75.81
466.293	84.81
466.512	90.81
466.732	76.81
466.951	72.81
467.171	72.81
467.391	83.81
467.61	78.81
467.829	79.81
468.049	75.81
468.268	91.81
468.488	84.81
468.707	85.81
468.927	71.81
469.146	76.81
469.365	88.81
469.585	91.81
469.804	89.81
470.023	80.81
470.243	87.81
470.462	88.81
470.681	75.81
470.901	83.81
471.12	81.81
471.339	81.81
471.558	58.81
471.777	80.81
471.997	74.81
472.216	81.81
472.435	80.81
472.654	91.81
472.873	80.81
473.092	79.81
473.311	83.81
473.53	70.81
473.749	72.81
473.968	80.81
474.187	87.81
474.406	78.81
474.625	70.81
474.844	91.81
475.063	89.81
475.282	89.81
475.501	87.81
475.72	86.81
475.939	69.81
476.158	94.81
476.377	88.81
476.596	86.81
476.814	81.81
477.033	75.81
477.252	102.81
477.471	81.81
477.69	85.81
477.908	80.81
478.127	80.81
478.346	79.81
478.564	93.81
478.783	74.81
479.002	79.81
479.22	89.81
479.439	95.81
479.658	80.81
479.876	95.81
480.095	100.81
480.313	85.81
480.532	74.81
480.751	78.81
480.969	94.81
481.188	105.81
481.406	87.81
481.624	82.81
481.843	86.81
482.061	84.81
482.28	77.81
482.498	91.81
482.717	69.81
482.935	75.81
483.153	103.81
483.372	80.81
483.59	80.81
483.808	90.81
484.027	88.81
484.245	72.81
484.463	61.81
484.681	73.81
484.9	84.81
485.118	90.81
485.336	98.81
485.554	80.81
485.772	92.81
485.99	78.81
486.209	86.81
486.427	100.81
486.645	80.81
486.863	93.81
487.081	80.81
487.299	80.81
487.517	92.81
487.735	102.81
487.953	104.81
488.171	102.81
488.389	78.81
488.607	63.81
488.825	94.81
489.043	91.81
489.261	78.81
489.479	84.81
489.696	93.81
489.914	77.81
490.132	82.81
490.35	98.81
490.568	80.81
490.786	83.81
491.003	87.81
491.221	85.81
491.439	87.81
491.657	88.81
491.874	98.81
492.092	92.81
492.31	104.81
492.527	94.81
492.745	75.81
492.963	81.81
493.18	87.81
493.398	89.81
493.615	82.81
493.833	72.81
494.05	80.81
494.268	85.81
494.485	93.81
494.703	88.81
494.92	87.81
495.138	77.81
495.355	84.81
495.573	85.81
495.79	75.81
496.008	102.81
496.225	91.81
496.442	89.81
496.66	102.81
496.877	79.81
497.094	84.81
497.312	82.81
497.529	77.81
497.746	88.81
497.963	78.81
498.181	98.81
498.398	85.81
498.615	74.81
498.832	94.81
499.049	69.81
499.267	80.81
499.484	81.81
499.701	88.81
499.918	95.81
500.135	98.81
500.352	92.81
500.569	88.81
500.786	85.81
501.003	88.81
501.22	80.81
501.437	87.81
501.654	87.81
501.871	91.81
502.088	80.81
502.305	74.81
502.522	82.81
502.739	95.81
502.956	83.81
503.172	81.81
503.389	86.81
503.606	70.81
503.823	79.81
504.04	98.81
504.256	91.81
504.473	88.81
504.69	74.81
504.907	85.81
505.123	74.81
505.34	84.81
505.557	83.81
505.773	67.81
505.99	94.81
506.207	93.81
506.423	80.81
506.64	93.81
506.856	82.81
507.073	83.81
507.289	85.81
507.506	87.81
507.722	90.81
507.939	62.81
508.155	79.81
508.372	79.81
508.588	85.81
508.805	83.81
509.021	85.81
509.238	79.81
509.454	89.81
509.67	88.81
509.887	84.81
510.103	74.81
510.319	76.81
510.536	85.81
510.752	70.81
510.968	98.81
511.184	92.81
511.401	98.81
511.617	88.81
511.833	88.81
512.049	79.81
512.265	94.81
512.481	87.81
512.698	72.81
512.914	95.81
513.13	94.81
513.346	98.81
513.562	88.81
513.778	69.81
513.994	87.81
514.21	92.81
514.426	77.81
514.642	81.81
514.858	85.81
515.074	83.81
515.29	90.81
515.506	79.81
515.721	77.81
515.937	97.81
516.153	85.81
516.369	100.81
516.585	91.81
516.801	82.81
517.016	84.81
517.232	91.81
517.448	76.81
517.664	75.81
517.879	76.81
518.095	79.81
518.311	81.81
518.527	87.81
518.742	85.81
518.958	91.81
519.173	92.81
519.389	83.81
519.605	77.81
