Data from Mixnoheat2_HRD10591_00003.txt Node
Date: Fri Dec 27 14:59:42 EST 2024
User: Yrep
Spectrometer: HR+D1059
Trigger mode: 1
Integration Time (sec): 1.000000E-1
Scans to average: 1
Electric dark correction enabled: true
Nonlinearity correction enabled: false
Boxcar width: 0
XAxis mode: Wavelengths
Number of Pixels in Spectrum: 2048
>>>>>Begin Spectral Data<<<<<
223.165	-7.94
223.4	-7.94
223.635	-7.94
223.869	-5.94
224.104	-9.94
224.338	-19.94
224.573	-10.94
224.808	-13.94
225.042	-16.94
225.277	-6.94
225.511	9.06
225.746	5.06
225.98	6.06
226.215	13.06
226.449	6.06
226.683	11.06
226.918	26.06
227.152	16.06
227.387	41.06
227.621	38.06
227.856	37.06
228.09	39.06
228.324	55.06
228.559	50.06
228.793	54.06
229.027	63.06
229.262	69.06
229.496	63.06
229.73	63.06
229.964	85.06
230.199	84.06
230.433	74.06
230.667	76.06
230.901	79.06
231.136	84.06
231.37	96.06
231.604	71.06
231.838	80.06
232.072	81.06
232.306	89.06
232.541	81.06
232.775	80.06
233.009	82.06
233.243	82.06
233.477	94.06
233.711	89.06
233.945	75.06
234.179	90.06
234.413	105.06
234.647	85.06
234.881	78.06
235.115	82.06
235.349	74.06
235.583	101.06
235.817	84.06
236.051	79.06
236.285	87.06
236.519	93.06
236.753	66.06
236.987	81.06
237.221	70.06
237.455	84.06
237.689	91.06
237.922	77.06
238.156	66.06
238.39	63.06
238.624	57.06
238.858	69.06
239.091	72.06
239.325	90.06
239.559	65.06
239.793	75.06
240.027	78.06
240.26	63.06
240.494	79.06
240.728	73.06
240.961	66.06
241.195	90.06
241.429	65.06
241.662	73.06
241.896	70.06
242.13	81.06
242.363	74.06
242.597	82.06
242.83	81.06
243.064	72.06
243.298	70.06
243.531	85.06
243.765	86.06
243.998	83.06
244.232	73.06
244.465	83.06
244.699	76.06
244.932	78.06
245.166	81.06
245.399	72.06
245.633	85.06
245.866	74.06
246.099	79.06
246.333	71.06
246.566	72.06
246.8	75.06
247.033	92.06
247.266	86.06
247.5	80.06
247.733	83.06
247.966	74.06
248.2	66.06
248.433	65.06
248.666	71.06
248.899	81.06
249.133	84.06
249.366	96.06
249.599	79.06
249.832	79.06
250.066	72.06
250.299	85.06
250.532	84.06
250.765	77.06
250.998	77.06
251.231	93.06
251.465	85.06
251.698	76.06
251.931	78.06
252.164	78.06
252.397	69.06
252.63	81.06
252.863	79.06
253.096	63.06
253.329	77.06
253.562	82.06
253.795	91.06
254.028	85.06
254.261	83.06
254.494	67.06
254.727	89.06
254.96	72.06
255.193	69.06
255.426	80.06
255.659	70.06
255.892	88.06
256.124	82.06
256.357	80.06
256.59	83.06
256.823	81.06
257.056	87.06
257.289	85.06
257.521	92.06
257.754	95.06
257.987	87.06
258.22	92.06
258.452	77.06
258.685	92.06
258.918	96.06
259.151	82.06
259.383	82.06
259.616	82.06
259.849	75.06
260.081	85.06
260.314	97.06
260.547	70.06
260.779	80.06
261.012	88.06
261.244	78.06
261.477	91.06
261.71	86.06
261.942	84.06
262.175	75.06
262.407	84.06
262.64	80.06
262.872	87.06
263.105	93.06
263.337	74.06
263.57	81.06
263.802	72.06
264.035	72.06
264.267	85.06
264.499	85.06
264.732	76.06
264.964	82.06
265.197	90.06
265.429	79.06
265.661	88.06
265.894	100.06
266.126	81.06
266.358	94.06
266.591	90.06
266.823	80.06
267.055	81.06
267.287	88.06
267.52	80.06
267.752	85.06
267.984	72.06
268.216	81.06
268.448	85.06
268.681	92.06
268.913	96.06
269.145	94.06
269.377	81.06
269.609	85.06
269.841	96.06
270.073	89.06
270.306	78.06
270.538	93.06
270.77	91.06
271.002	74.06
271.234	90.06
271.466	92.06
271.698	82.06
271.93	89.06
272.162	83.06
272.394	92.06
272.626	89.06
272.858	74.06
273.09	79.06
273.322	92.06
273.553	80.06
273.785	89.06
274.017	98.06
274.249	87.06
274.481	86.06
274.713	77.06
274.945	92.06
275.176	76.06
275.408	78.06
275.64	94.06
275.872	93.06
276.104	71.06
276.335	78.06
276.567	85.06
276.799	85.06
277.031	85.06
277.262	92.06
277.494	90.06
277.726	84.06
277.957	84.06
278.189	85.06
278.421	91.06
278.652	81.06
278.884	76.06
279.115	90.06
279.347	86.06
279.579	84.06
279.81	97.06
280.042	91.06
280.273	100.06
280.505	80.06
280.736	86.06
280.968	86.06
281.199	82.06
281.431	79.06
281.662	80.06
281.894	92.06
282.125	94.06
282.356	81.06
282.588	80.06
282.819	71.06
283.051	85.06
283.282	89.06
283.513	72.06
283.745	86.06
283.976	91.06
284.207	93.06
284.439	92.06
284.67	95.06
284.901	78.06
285.132	79.06
285.364	78.06
285.595	86.06
285.826	89.06
286.057	75.06
286.288	87.06
286.52	95.06
286.751	81.06
286.982	94.06
287.213	79.06
287.444	101.06
287.675	91.06
287.906	91.06
288.138	85.06
288.369	88.06
288.6	79.06
288.831	88.06
289.062	100.06
289.293	85.06
289.524	79.06
289.755	78.06
289.986	80.06
290.217	76.06
290.448	82.06
290.679	76.06
290.91	78.06
291.141	95.06
291.371	83.06
291.602	93.06
291.833	85.06
292.064	78.06
292.295	84.06
292.526	68.06
292.757	85.06
292.987	79.06
293.218	85.06
293.449	77.06
293.68	85.06
293.91	83.06
294.141	90.06
294.372	79.06
294.603	78.06
294.833	87.06
295.064	84.06
295.295	80.06
295.525	90.06
295.756	85.06
295.987	69.06
296.217	86.06
296.448	83.06
296.679	79.06
296.909	98.06
297.14	101.06
297.37	90.06
297.601	81.06
297.831	90.06
298.062	98.06
298.292	81.06
298.523	70.06
298.753	94.06
298.984	89.06
299.214	79.06
299.445	86.06
299.675	72.06
299.905	91.06
300.136	79.06
300.366	79.06
300.597	81.06
300.827	87.06
301.057	85.06
301.288	92.06
301.518	86.06
301.748	81.06
301.979	101.06
302.209	89.06
302.439	89.06
302.669	86.06
302.9	96.06
303.13	71.06
303.36	90.06
303.59	84.06
303.82	92.06
304.051	90.06
304.281	80.06
304.511	98.06
304.741	87.06
304.971	75.06
305.201	96.06
305.431	90.06
305.661	77.06
305.891	75.06
306.121	99.06
306.352	79.06
306.582	88.06
306.812	89.06
307.042	73.06
307.272	82.06
307.502	72.06
307.731	92.06
307.961	90.06
308.191	79.06
308.421	86.06
308.651	78.06
308.881	88.06
309.111	89.06
309.341	89.06
309.571	101.06
309.8	92.06
310.03	88.06
310.26	91.06
310.49	90.06
310.72	88.06
310.949	96.06
311.179	93.06
311.409	85.06
311.639	82.06
311.868	73.06
312.098	79.06
312.328	87.06
312.557	90.06
312.787	84.06
313.017	81.06
313.246	76.06
313.476	90.06
313.706	83.06
313.935	87.06
314.165	91.06
314.394	81.06
314.624	75.06
314.853	95.06
315.083	95.06
315.312	76.06
315.542	84.06
315.771	89.06
316.001	94.06
316.23	79.06
316.46	81.06
316.689	90.06
316.919	89.06
317.148	97.06
317.377	84.06
317.607	90.06
317.836	73.06
318.065	78.06
318.295	76.06
318.524	88.06
318.753	80.06
318.983	83.06
319.212	92.06
319.441	74.06
319.67	92.06
319.9	90.06
320.129	92.06
320.358	77.06
320.587	80.06
320.816	74.06
321.046	82.06
321.275	86.06
321.504	79.06
321.733	92.06
321.962	85.06
322.191	91.06
322.42	70.06
322.649	78.06
322.878	92.06
323.108	88.06
323.337	83.06
323.566	88.06
323.795	87.06
324.024	87.06
324.253	98.06
324.482	88.06
324.71	84.06
324.939	100.06
325.168	98.06
325.397	88.06
325.626	81.06
325.855	75.06
326.084	77.06
326.313	90.06
326.542	85.06
326.77	78.06
326.999	86.06
327.228	79.06
327.457	78.06
327.686	89.06
327.914	79.06
328.143	96.06
328.372	96.06
328.6	87.06
328.829	76.06
329.058	91.06
329.287	73.06
329.515	81.06
329.744	81.06
329.972	76.06
330.201	88.06
330.43	72.06
330.658	90.06
330.887	90.06
331.115	79.06
331.344	82.06
331.572	100.06
331.801	94.06
332.03	90.06
332.258	88.06
332.486	84.06
332.715	87.06
332.943	77.06
333.172	80.06
333.4	80.06
333.629	100.06
333.857	84.06
334.085	84.06
334.314	79.06
334.542	86.06
334.771	76.06
334.999	74.06
335.227	100.06
335.455	96.06
335.684	79.06
335.912	85.06
336.14	74.06
336.369	93.06
336.597	85.06
336.825	91.06
337.053	77.06
337.281	98.06
337.51	79.06
337.738	81.06
337.966	85.06
338.194	93.06
338.422	74.06
338.65	92.06
338.878	98.06
339.106	92.06
339.334	88.06
339.562	81.06
339.79	82.06
340.018	73.06
340.246	72.06
340.474	86.06
340.702	92.06
340.93	90.06
341.158	87.06
341.386	96.06
341.614	88.06
341.842	93.06
342.07	90.06
342.298	85.06
342.526	84.06
342.754	84.06
342.981	83.06
343.209	103.06
343.437	105.06
343.665	81.06
343.893	88.06
344.12	102.06
344.348	92.06
344.576	85.06
344.804	82.06
345.031	79.06
345.259	86.06
345.487	86.06
345.714	84.06
345.942	88.06
346.17	85.06
346.397	103.06
346.625	87.06
346.853	90.06
347.08	86.06
347.308	92.06
347.535	92.06
347.763	82.06
347.99	87.06
348.218	86.06
348.445	92.06
348.673	81.06
348.9	86.06
349.128	93.06
349.355	90.06
349.583	90.06
349.81	89.06
350.037	81.06
350.265	102.06
350.492	93.06
350.72	82.06
350.947	87.06
351.174	101.06
351.402	72.06
351.629	86.06
351.856	82.06
352.083	84.06
352.311	88.06
352.538	72.06
352.765	87.06
352.992	102.06
353.22	82.06
353.447	73.06
353.674	90.06
353.901	89.06
354.128	87.06
354.355	84.06
354.583	85.06
354.81	96.06
355.037	88.06
355.264	84.06
355.491	84.06
355.718	85.06
355.945	76.06
356.172	88.06
356.399	91.06
356.626	85.06
356.853	86.06
357.08	97.06
357.307	82.06
357.534	83.06
357.761	78.06
357.988	84.06
358.215	89.06
358.441	85.06
358.668	87.06
358.895	77.06
359.122	84.06
359.349	101.06
359.576	89.06
359.802	86.06
360.029	90.06
360.256	82.06
360.483	90.06
360.709	80.06
360.936	93.06
361.163	101.06
361.39	97.06
361.616	78.06
361.843	85.06
362.07	93.06
362.296	91.06
362.523	72.06
362.749	85.06
362.976	98.06
363.203	93.06
363.429	93.06
363.656	88.06
363.882	83.06
364.109	74.06
364.335	81.06
364.562	97.06
364.788	96.06
365.015	102.06
365.241	89.06
365.468	84.06
365.694	83.06
365.92	86.06
366.147	74.06
366.373	95.06
366.599	75.06
366.826	83.06
367.052	75.06
367.278	87.06
367.505	84.06
367.731	90.06
367.957	79.06
368.184	91.06
368.41	90.06
368.636	81.06
368.862	90.06
369.089	87.06
369.315	95.06
369.541	86.06
369.767	92.06
369.993	81.06
370.219	89.06
370.445	87.06
370.672	86.06
370.898	88.06
371.124	77.06
371.35	91.06
371.576	81.06
371.802	76.06
372.028	86.06
372.254	86.06
372.48	80.06
372.706	84.06
372.932	68.06
373.158	88.06
373.384	94.06
373.61	101.06
373.835	102.06
374.061	98.06
374.287	93.06
374.513	85.06
374.739	85.06
374.965	76.06
375.191	92.06
375.416	88.06
375.642	75.06
375.868	91.06
376.094	87.06
376.319	77.06
376.545	86.06
376.771	77.06
376.997	86.06
377.222	86.06
377.448	89.06
377.674	89.06
377.899	95.06
378.125	93.06
378.35	87.06
378.576	89.06
378.802	90.06
379.027	83.06
379.253	78.06
379.478	77.06
379.704	87.06
379.929	87.06
380.155	80.06
380.38	80.06
380.606	84.06
380.831	97.06
381.057	86.06
381.282	89.06
381.507	73.06
381.733	87.06
381.958	88.06
382.184	83.06
382.409	93.06
382.634	90.06
382.86	90.06
383.085	79.06
383.31	78.06
383.535	79.06
383.761	93.06
383.986	95.06
384.211	79.06
384.436	89.06
384.662	86.06
384.887	87.06
385.112	91.06
385.337	97.06
385.562	80.06
385.787	90.06
386.013	88.06
386.238	95.06
386.463	87.06
386.688	96.06
386.913	90.06
387.138	75.06
387.363	106.06
387.588	105.06
387.813	90.06
388.038	86.06
388.263	74.06
388.488	85.06
388.713	96.06
388.938	99.06
389.163	90.06
389.387	83.06
389.612	78.06
389.837	89.06
390.062	84.06
390.287	90.06
390.512	77.06
390.736	80.06
390.961	91.06
391.186	90.06
391.411	91.06
391.636	85.06
391.86	77.06
392.085	74.06
392.31	93.06
392.534	68.06
392.759	106.06
392.984	90.06
393.208	113.06
393.433	108.06
393.658	90.06
393.882	100.06
394.107	86.06
394.331	105.06
394.556	80.06
394.78	83.06
395.005	91.06
395.229	90.06
395.454	84.06
395.678	81.06
395.903	99.06
396.127	80.06
396.352	88.06
396.576	93.06
396.801	108.06
397.025	96.06
397.249	94.06
397.474	93.06
397.698	87.06
397.922	94.06
398.147	77.06
398.371	89.06
398.595	77.06
398.82	80.06
399.044	91.06
399.268	75.06
399.492	90.06
399.717	93.06
399.941	74.06
400.165	69.06
400.389	82.06
400.613	72.06
400.837	88.06
401.062	98.06
401.286	88.06
401.51	80.06
401.734	95.06
401.958	93.06
402.182	89.06
402.406	87.06
402.63	91.06
402.854	77.06
403.078	97.06
403.302	89.06
403.526	95.06
403.75	88.06
403.974	103.06
404.198	90.06
404.422	103.06
404.645	104.06
404.869	100.06
405.093	90.06
405.317	89.06
405.541	81.06
405.765	74.06
405.988	83.06
406.212	88.06
406.436	93.06
406.66	93.06
406.883	93.06
407.107	85.06
407.331	76.06
407.555	100.06
407.778	84.06
408.002	78.06
408.226	80.06
408.449	97.06
408.673	85.06
408.896	82.06
409.12	86.06
409.344	78.06
409.567	92.06
409.791	90.06
410.014	82.06
410.238	93.06
410.461	89.06
410.685	89.06
410.908	81.06
411.132	92.06
411.355	93.06
411.578	87.06
411.802	94.06
412.025	90.06
412.249	83.06
412.472	87.06
412.695	97.06
412.919	93.06
413.142	84.06
413.365	79.06
413.589	80.06
413.812	69.06
414.035	75.06
414.258	72.06
414.482	74.06
414.705	75.06
414.928	85.06
415.151	99.06
415.374	85.06
415.597	63.06
415.821	79.06
416.044	81.06
416.267	84.06
416.49	94.06
416.713	76.06
416.936	76.06
417.159	88.06
417.382	85.06
417.605	67.06
417.828	80.06
418.051	77.06
418.274	88.06
418.497	81.06
418.72	86.06
418.943	96.06
419.166	71.06
419.389	85.06
419.611	88.06
419.834	94.06
420.057	77.06
420.28	78.06
420.503	81.06
420.726	77.06
420.948	90.06
421.171	80.06
421.394	94.06
421.617	91.06
421.839	104.06
422.062	100.06
422.285	101.06
422.507	127.06
422.73	136.06
422.953	142.06
423.175	102.06
423.398	92.06
423.621	85.06
423.843	82.06
424.066	67.06
424.288	82.06
424.511	89.06
424.733	95.06
424.956	92.06
425.178	62.06
425.401	86.06
425.623	81.06
425.846	69.06
426.068	78.06
426.291	79.06
426.513	83.06
426.735	87.06
426.958	102.06
427.18	83.06
427.402	84.06
427.625	95.06
427.847	79.06
428.069	89.06
428.292	89.06
428.514	84.06
428.736	78.06
428.958	90.06
429.181	86.06
429.403	77.06
429.625	82.06
429.847	90.06
430.069	105.06
430.292	97.06
430.514	99.06
430.736	88.06
430.958	126.06
431.18	86.06
431.402	84.06
431.624	91.06
431.846	99.06
432.068	80.06
432.29	78.06
432.512	85.06
432.734	91.06
432.956	90.06
433.178	86.06
433.4	89.06
433.622	72.06
433.844	72.06
434.066	76.06
434.287	74.06
434.509	76.06
434.731	79.06
434.953	75.06
435.175	85.06
435.397	94.06
435.618	92.06
435.84	86.06
436.062	87.06
436.284	93.06
436.505	97.06
436.727	76.06
436.949	83.06
437.17	78.06
437.392	92.06
437.614	87.06
437.835	72.06
438.057	75.06
438.278	87.06
438.5	81.06
438.721	84.06
438.943	83.06
439.165	88.06
439.386	93.06
439.608	91.06
439.829	82.06
440.05	91.06
440.272	75.06
440.493	71.06
440.715	88.06
440.936	87.06
441.158	76.06
441.379	92.06
441.6	75.06
441.822	97.06
442.043	92.06
442.264	100.06
442.486	112.06
442.707	97.06
442.928	85.06
443.149	79.06
443.371	103.06
443.592	130.06
443.813	118.06
444.034	93.06
444.255	82.06
444.476	89.06
444.698	102.06
444.919	80.06
445.14	149.06
445.361	146.06
445.582	128.06
445.803	130.06
446.024	87.06
446.245	79.06
446.466	92.06
446.687	79.06
446.908	76.06
447.129	74.06
447.35	93.06
447.571	93.06
447.792	73.06
448.013	72.06
448.234	86.06
448.455	73.06
448.675	77.06
448.896	103.06
449.117	74.06
449.338	85.06
449.559	90.06
449.779	85.06
450	79.06
450.221	84.06
450.442	79.06
450.662	86.06
450.883	79.06
451.104	91.06
451.324	70.06
451.545	86.06
451.766	86.06
451.986	88.06
452.207	80.06
452.428	92.06
452.648	86.06
452.869	77.06
453.089	90.06
453.31	88.06
453.53	88.06
453.751	85.06
453.971	76.06
454.192	85.06
454.412	76.06
454.633	80.06
454.853	77.06
455.073	85.06
455.294	88.06
455.514	89.06
455.734	80.06
455.955	78.06
456.175	87.06
456.395	88.06
456.616	80.06
456.836	83.06
457.056	84.06
457.276	84.06
457.497	89.06
457.717	91.06
457.937	94.06
458.157	77.06
458.377	97.06
458.598	87.06
458.818	94.06
459.038	96.06
459.258	107.06
459.478	86.06
459.698	83.06
459.918	93.06
460.138	81.06
460.358	83.06
460.578	101.06
460.798	92.06
461.018	96.06
461.238	88.06
461.458	80.06
461.678	94.06
461.898	73.06
462.118	68.06
462.338	81.06
462.558	76.06
462.777	84.06
462.997	92.06
463.217	100.06
463.437	77.06
463.657	74.06
463.876	92.06
464.096	91.06
464.316	81.06
464.536	84.06
464.755	78.06
464.975	86.06
465.195	94.06
465.414	80.06
465.634	83.06
465.854	77.06
466.073	86.06
466.293	84.06
466.512	87.06
466.732	84.06
466.951	84.06
467.171	94.06
467.391	81.06
467.61	88.06
467.829	81.06
468.049	90.06
468.268	71.06
468.488	73.06
468.707	76.06
468.927	81.06
469.146	103.06
469.365	90.06
469.585	94.06
469.804	88.06
470.023	100.06
470.243	75.06
470.462	84.06
470.681	81.06
470.901	82.06
471.12	85.06
471.339	83.06
471.558	83.06
471.777	92.06
471.997	97.06
472.216	85.06
472.435	87.06
472.654	94.06
472.873	85.06
473.092	85.06
473.311	72.06
473.53	72.06
473.749	78.06
473.968	87.06
474.187	94.06
474.406	74.06
474.625	84.06
474.844	76.06
475.063	97.06
475.282	85.06
475.501	87.06
475.72	89.06
475.939	92.06
476.158	71.06
476.377	79.06
476.596	76.06
476.814	85.06
477.033	94.06
477.252	81.06
477.471	86.06
477.69	79.06
477.908	90.06
478.127	100.06
478.346	88.06
478.564	84.06
478.783	65.06
479.002	84.06
479.22	89.06
479.439	77.06
479.658	80.06
479.876	70.06
480.095	69.06
480.313	82.06
480.532	85.06
480.751	77.06
480.969	77.06
481.188	76.06
481.406	97.06
481.624	89.06
481.843	79.06
482.061	92.06
482.28	109.06
482.498	94.06
482.717	80.06
482.935	83.06
483.153	79.06
483.372	88.06
483.59	84.06
483.808	90.06
484.027	81.06
484.245	86.06
484.463	91.06
484.681	82.06
484.9	96.06
485.118	97.06
485.336	79.06
485.554	92.06
485.772	91.06
485.99	94.06
486.209	79.06
486.427	85.06
486.645	86.06
486.863	84.06
487.081	91.06
487.299	93.06
487.517	88.06
487.735	95.06
487.953	96.06
488.171	98.06
488.389	81.06
488.607	85.06
488.825	91.06
489.043	91.06
489.261	83.06
489.479	82.06
489.696	95.06
489.914	87.06
490.132	94.06
490.35	85.06
490.568	81.06
490.786	91.06
491.003	77.06
491.221	86.06
491.439	90.06
491.657	76.06
491.874	85.06
492.092	90.06
492.31	74.06
492.527	79.06
492.745	85.06
492.963	90.06
493.18	89.06
493.398	74.06
493.615	83.06
493.833	84.06
494.05	91.06
494.268	80.06
494.485	91.06
494.703	85.06
494.92	90.06
495.138	85.06
495.355	80.06
495.573	81.06
495.79	91.06
496.008	82.06
496.225	88.06
496.442	87.06
496.66	76.06
496.877	97.06
497.094	98.06
497.312	90.06
497.529	85.06
497.746	102.06
497.963	88.06
498.181	81.06
498.398	89.06
498.615	80.06
498.832	81.06
499.049	88.06
499.267	88.06
499.484	67.06
499.701	83.06
499.918	93.06
500.135	91.06
500.352	87.06
500.569	86.06
500.786	96.06
501.003	91.06
501.22	77.06
501.437	94.06
501.654	81.06
501.871	77.06
502.088	86.06
502.305	94.06
502.522	84.06
502.739	94.06
502.956	86.06
503.172	89.06
503.389	87.06
503.606	71.06
503.823	96.06
504.04	83.06
504.256	104.06
504.473	86.06
504.69	92.06
504.907	84.06
505.123	95.06
505.34	81.06
505.557	76.06
505.773	88.06
505.99	87.06
506.207	88.06
506.423	93.06
506.64	95.06
506.856	97.06
507.073	81.06
507.289	94.06
507.506	77.06
507.722	92.06
507.939	94.06
508.155	78.06
508.372	78.06
508.588	93.06
508.805	89.06
509.021	82.06
509.238	75.06
509.454	104.06
509.67	81.06
509.887	82.06
510.103	93.06
510.319	89.06
510.536	76.06
510.752	96.06
510.968	94.06
511.184	87.06
511.401	91.06
511.617	84.06
511.833	91.06
512.049	98.06
512.265	91.06
512.481	94.06
512.698	77.06
512.914	97.06
513.13	97.06
513.346	98.06
513.562	77.06
513.778	75.06
513.994	83.06
514.21	78.06
514.426	80.06
514.642	86.06
514.858	87.06
515.074	95.06
515.29	86.06
515.506	92.06
515.721	90.06
515.937	83.06
516.153	101.06
516.369	94.06
516.585	85.06
516.801	89.06
517.016	96.06
517.232	69.06
517.448	87.06
517.664	91.06
517.879	80.06
518.095	81.06
518.311	80.06
518.527	103.06
518.742	84.06
518.958	82.06
519.173	82.06
519.389	83.06
