Data from Mixnoheat2_HRD10591_00017.txt Node
Date: Fri Dec 27 14:59:56 EST 2024
User: Yrep
Spectrometer: HR+D1059
Trigger mode: 1
Integration Time (sec): 1.000000E-1
Scans to average: 1
Electric dark correction enabled: true
Nonlinearity correction enabled: false
Boxcar width: 0
XAxis mode: Wavelengths
Number of Pixels in Spectrum: 2048
>>>>>Begin Spectral Data<<<<<
223.165	-16.62
223.4	-16.62
223.635	-16.62
223.869	-14.62
224.104	-11.62
224.338	-15.62
224.573	-19.62
224.808	-4.62
225.042	-11.62
225.277	-7.62
225.511	6.38
225.746	-1.62
225.98	1.38
226.215	15.38
226.449	17.38
226.683	22.38
226.918	20.38
227.152	20.38
227.387	35.38
227.621	26.38
227.856	38.38
228.09	36.38
228.324	49.38
228.559	63.38
228.793	71.38
229.027	61.38
229.262	68.38
229.496	62.38
229.73	72.38
229.964	80.38
230.199	84.38
230.433	77.38
230.667	80.38
230.901	81.38
231.136	81.38
231.37	74.38
231.604	86.38
231.838	78.38
232.072	82.38
232.306	86.38
232.541	86.38
232.775	80.38
233.009	77.38
233.243	91.38
233.477	78.38
233.711	69.38
233.945	79.38
234.179	86.38
234.413	75.38
234.647	90.38
234.881	86.38
235.115	94.38
235.349	87.38
235.583	84.38
235.817	83.38
236.051	75.38
236.285	84.38
236.519	77.38
236.753	78.38
236.987	86.38
237.221	80.38
237.455	84.38
237.689	65.38
237.922	64.38
238.156	74.38
238.39	88.38
238.624	88.38
238.858	86.38
239.091	70.38
239.325	80.38
239.559	86.38
239.793	75.38
240.027	92.38
240.26	79.38
240.494	77.38
240.728	59.38
240.961	71.38
241.195	70.38
241.429	77.38
241.662	82.38
241.896	77.38
242.13	78.38
242.363	86.38
242.597	82.38
242.83	88.38
243.064	84.38
243.298	89.38
243.531	104.38
243.765	84.38
243.998	70.38
244.232	87.38
244.465	64.38
244.699	69.38
244.932	75.38
245.166	82.38
245.399	88.38
245.633	76.38
245.866	94.38
246.099	84.38
246.333	70.38
246.566	81.38
246.8	80.38
247.033	78.38
247.266	83.38
247.5	70.38
247.733	86.38
247.966	77.38
248.2	69.38
248.433	71.38
248.666	80.38
248.899	66.38
249.133	72.38
249.366	93.38
249.599	78.38
249.832	97.38
250.066	78.38
250.299	71.38
250.532	79.38
250.765	81.38
250.998	84.38
251.231	76.38
251.465	81.38
251.698	85.38
251.931	80.38
252.164	72.38
252.397	88.38
252.63	85.38
252.863	91.38
253.096	80.38
253.329	70.38
253.562	77.38
253.795	93.38
254.028	79.38
254.261	79.38
254.494	65.38
254.727	95.38
254.96	86.38
255.193	75.38
255.426	80.38
255.659	81.38
255.892	91.38
256.124	81.38
256.357	94.38
256.59	96.38
256.823	72.38
257.056	74.38
257.289	78.38
257.521	75.38
257.754	74.38
257.987	72.38
258.22	65.38
258.452	69.38
258.685	87.38
258.918	92.38
259.151	71.38
259.383	82.38
259.616	79.38
259.849	86.38
260.081	69.38
260.314	77.38
260.547	80.38
260.779	85.38
261.012	100.38
261.244	86.38
261.477	76.38
261.71	86.38
261.942	79.38
262.175	65.38
262.407	84.38
262.64	84.38
262.872	90.38
263.105	84.38
263.337	77.38
263.57	73.38
263.802	78.38
264.035	90.38
264.267	84.38
264.499	78.38
264.732	82.38
264.964	78.38
265.197	79.38
265.429	80.38
265.661	91.38
265.894	77.38
266.126	91.38
266.358	61.38
266.591	70.38
266.823	75.38
267.055	76.38
267.287	88.38
267.52	87.38
267.752	96.38
267.984	82.38
268.216	82.38
268.448	70.38
268.681	89.38
268.913	84.38
269.145	81.38
269.377	74.38
269.609	75.38
269.841	92.38
270.073	95.38
270.306	73.38
270.538	102.38
270.77	92.38
271.002	92.38
271.234	87.38
271.466	78.38
271.698	76.38
271.93	81.38
272.162	78.38
272.394	84.38
272.626	83.38
272.858	98.38
273.09	80.38
273.322	90.38
273.553	81.38
273.785	74.38
274.017	85.38
274.249	89.38
274.481	78.38
274.713	83.38
274.945	81.38
275.176	76.38
275.408	87.38
275.64	86.38
275.872	97.38
276.104	84.38
276.335	77.38
276.567	78.38
276.799	84.38
277.031	81.38
277.262	85.38
277.494	92.38
277.726	86.38
277.957	83.38
278.189	82.38
278.421	83.38
278.652	82.38
278.884	77.38
279.115	88.38
279.347	96.38
279.579	72.38
279.81	88.38
280.042	80.38
280.273	74.38
280.505	91.38
280.736	80.38
280.968	85.38
281.199	75.38
281.431	78.38
281.662	82.38
281.894	87.38
282.125	91.38
282.356	82.38
282.588	87.38
282.819	81.38
283.051	84.38
283.282	82.38
283.513	90.38
283.745	84.38
283.976	81.38
284.207	79.38
284.439	77.38
284.67	84.38
284.901	89.38
285.132	76.38
285.364	79.38
285.595	90.38
285.826	100.38
286.057	90.38
286.288	81.38
286.52	92.38
286.751	83.38
286.982	87.38
287.213	74.38
287.444	89.38
287.675	98.38
287.906	83.38
288.138	82.38
288.369	82.38
288.6	73.38
288.831	87.38
289.062	83.38
289.293	92.38
289.524	95.38
289.755	74.38
289.986	79.38
290.217	85.38
290.448	70.38
290.679	88.38
290.91	82.38
291.141	83.38
291.371	82.38
291.602	87.38
291.833	68.38
292.064	89.38
292.295	80.38
292.526	72.38
292.757	84.38
292.987	93.38
293.218	88.38
293.449	84.38
293.68	94.38
293.91	84.38
294.141	86.38
294.372	77.38
294.603	88.38
294.833	82.38
295.064	93.38
295.295	75.38
295.525	78.38
295.756	80.38
295.987	88.38
296.217	81.38
296.448	77.38
296.679	84.38
296.909	111.38
297.14	89.38
297.37	93.38
297.601	75.38
297.831	80.38
298.062	89.38
298.292	76.38
298.523	70.38
298.753	74.38
298.984	76.38
299.214	92.38
299.445	100.38
299.675	75.38
299.905	77.38
300.136	86.38
300.366	86.38
300.597	88.38
300.827	91.38
301.057	95.38
301.288	76.38
301.518	90.38
301.748	83.38
301.979	107.38
302.209	101.38
302.439	94.38
302.669	81.38
302.9	79.38
303.13	88.38
303.36	91.38
303.59	77.38
303.82	92.38
304.051	89.38
304.281	84.38
304.511	88.38
304.741	87.38
304.971	81.38
305.201	92.38
305.431	89.38
305.661	86.38
305.891	82.38
306.121	86.38
306.352	90.38
306.582	94.38
306.812	87.38
307.042	94.38
307.272	90.38
307.502	93.38
307.731	94.38
307.961	94.38
308.191	86.38
308.421	78.38
308.651	96.38
308.881	72.38
309.111	96.38
309.341	82.38
309.571	78.38
309.8	77.38
310.03	76.38
310.26	103.38
310.49	88.38
310.72	79.38
310.949	92.38
311.179	86.38
311.409	82.38
311.639	94.38
311.868	82.38
312.098	83.38
312.328	97.38
312.557	93.38
312.787	81.38
313.017	82.38
313.246	80.38
313.476	88.38
313.706	97.38
313.935	81.38
314.165	88.38
314.394	93.38
314.624	81.38
314.853	89.38
315.083	89.38
315.312	97.38
315.542	84.38
315.771	77.38
316.001	74.38
316.23	74.38
316.46	88.38
316.689	77.38
316.919	79.38
317.148	97.38
317.377	84.38
317.607	81.38
317.836	95.38
318.065	79.38
318.295	90.38
318.524	80.38
318.753	91.38
318.983	81.38
319.212	88.38
319.441	91.38
319.67	81.38
319.9	90.38
320.129	75.38
320.358	72.38
320.587	81.38
320.816	80.38
321.046	89.38
321.275	81.38
321.504	76.38
321.733	81.38
321.962	87.38
322.191	96.38
322.42	81.38
322.649	89.38
322.878	93.38
323.108	105.38
323.337	87.38
323.566	93.38
323.795	94.38
324.024	87.38
324.253	78.38
324.482	106.38
324.71	91.38
324.939	87.38
325.168	86.38
325.397	79.38
325.626	84.38
325.855	101.38
326.084	83.38
326.313	82.38
326.542	79.38
326.77	85.38
326.999	112.38
327.228	74.38
327.457	79.38
327.686	94.38
327.914	93.38
328.143	69.38
328.372	84.38
328.6	81.38
328.829	77.38
329.058	78.38
329.287	76.38
329.515	96.38
329.744	102.38
329.972	91.38
330.201	87.38
330.43	92.38
330.658	110.38
330.887	80.38
331.115	90.38
331.344	85.38
331.572	79.38
331.801	85.38
332.03	94.38
332.258	98.38
332.486	103.38
332.715	78.38
332.943	73.38
333.172	85.38
333.4	86.38
333.629	89.38
333.857	80.38
334.085	81.38
334.314	92.38
334.542	85.38
334.771	93.38
334.999	95.38
335.227	83.38
335.455	79.38
335.684	84.38
335.912	86.38
336.14	77.38
336.369	84.38
336.597	86.38
336.825	78.38
337.053	78.38
337.281	69.38
337.51	87.38
337.738	89.38
337.966	85.38
338.194	84.38
338.422	89.38
338.65	85.38
338.878	82.38
339.106	86.38
339.334	73.38
339.562	80.38
339.79	81.38
340.018	79.38
340.246	96.38
340.474	99.38
340.702	80.38
340.93	84.38
341.158	93.38
341.386	84.38
341.614	88.38
341.842	86.38
342.07	89.38
342.298	94.38
342.526	89.38
342.754	90.38
342.981	86.38
343.209	83.38
343.437	72.38
343.665	95.38
343.893	100.38
344.12	84.38
344.348	92.38
344.576	90.38
344.804	72.38
345.031	89.38
345.259	80.38
345.487	83.38
345.714	80.38
345.942	86.38
346.17	65.38
346.397	82.38
346.625	73.38
346.853	85.38
347.08	79.38
347.308	88.38
347.535	82.38
347.763	85.38
347.99	87.38
348.218	77.38
348.445	74.38
348.673	86.38
348.9	95.38
349.128	90.38
349.355	91.38
349.583	78.38
349.81	84.38
350.037	91.38
350.265	84.38
350.492	98.38
350.72	95.38
350.947	93.38
351.174	90.38
351.402	81.38
351.629	77.38
351.856	81.38
352.083	64.38
352.311	91.38
352.538	90.38
352.765	94.38
352.992	102.38
353.22	76.38
353.447	76.38
353.674	88.38
353.901	80.38
354.128	105.38
354.355	86.38
354.583	82.38
354.81	95.38
355.037	78.38
355.264	93.38
355.491	88.38
355.718	88.38
355.945	90.38
356.172	78.38
356.399	90.38
356.626	94.38
356.853	83.38
357.08	84.38
357.307	89.38
357.534	69.38
357.761	73.38
357.988	97.38
358.215	85.38
358.441	102.38
358.668	88.38
358.895	88.38
359.122	83.38
359.349	84.38
359.576	95.38
359.802	97.38
360.029	73.38
360.256	81.38
360.483	85.38
360.709	86.38
360.936	86.38
361.163	83.38
361.39	100.38
361.616	91.38
361.843	92.38
362.07	101.38
362.296	82.38
362.523	98.38
362.749	94.38
362.976	84.38
363.203	88.38
363.429	93.38
363.656	86.38
363.882	66.38
364.109	77.38
364.335	89.38
364.562	94.38
364.788	81.38
365.015	99.38
365.241	80.38
365.468	100.38
365.694	83.38
365.92	103.38
366.147	105.38
366.373	81.38
366.599	95.38
366.826	81.38
367.052	81.38
367.278	83.38
367.505	84.38
367.731	92.38
367.957	83.38
368.184	98.38
368.41	88.38
368.636	89.38
368.862	95.38
369.089	93.38
369.315	82.38
369.541	81.38
369.767	86.38
369.993	90.38
370.219	97.38
370.445	84.38
370.672	97.38
370.898	88.38
371.124	82.38
371.35	76.38
371.576	91.38
371.802	83.38
372.028	81.38
372.254	77.38
372.48	88.38
372.706	85.38
372.932	79.38
373.158	88.38
373.384	95.38
373.61	95.38
373.835	92.38
374.061	86.38
374.287	83.38
374.513	93.38
374.739	96.38
374.965	90.38
375.191	82.38
375.416	88.38
375.642	82.38
375.868	81.38
376.094	94.38
376.319	88.38
376.545	81.38
376.771	79.38
376.997	86.38
377.222	87.38
377.448	97.38
377.674	90.38
377.899	78.38
378.125	80.38
378.35	101.38
378.576	77.38
378.802	89.38
379.027	100.38
379.253	89.38
379.478	79.38
379.704	74.38
379.929	87.38
380.155	88.38
380.38	71.38
380.606	98.38
380.831	86.38
381.057	94.38
381.282	83.38
381.507	87.38
381.733	90.38
381.958	82.38
382.184	85.38
382.409	77.38
382.634	83.38
382.86	70.38
383.085	81.38
383.31	101.38
383.535	111.38
383.761	82.38
383.986	88.38
384.211	93.38
384.436	84.38
384.662	95.38
384.887	91.38
385.112	104.38
385.337	97.38
385.562	90.38
385.787	85.38
386.013	102.38
386.238	81.38
386.463	74.38
386.688	102.38
386.913	85.38
387.138	80.38
387.363	76.38
387.588	76.38
387.813	81.38
388.038	96.38
388.263	79.38
388.488	93.38
388.713	79.38
388.938	70.38
389.163	97.38
389.387	88.38
389.612	93.38
389.837	73.38
390.062	88.38
390.287	87.38
390.512	84.38
390.736	84.38
390.961	94.38
391.186	88.38
391.411	91.38
391.636	86.38
391.86	105.38
392.085	92.38
392.31	89.38
392.534	81.38
392.759	90.38
392.984	93.38
393.208	95.38
393.433	114.38
393.658	107.38
393.882	92.38
394.107	86.38
394.331	90.38
394.556	92.38
394.78	92.38
395.005	88.38
395.229	80.38
395.454	93.38
395.678	90.38
395.903	93.38
396.127	102.38
396.352	105.38
396.576	93.38
396.801	102.38
397.025	87.38
397.249	79.38
397.474	70.38
397.698	78.38
397.922	89.38
398.147	82.38
398.371	84.38
398.595	87.38
398.82	82.38
399.044	91.38
399.268	82.38
399.492	84.38
399.717	85.38
399.941	87.38
400.165	90.38
400.389	85.38
400.613	89.38
400.837	92.38
401.062	74.38
401.286	72.38
401.51	75.38
401.734	85.38
401.958	71.38
402.182	76.38
402.406	94.38
402.63	83.38
402.854	85.38
403.078	84.38
403.302	88.38
403.526	79.38
403.75	93.38
403.974	89.38
404.198	95.38
404.422	92.38
404.645	116.38
404.869	91.38
405.093	85.38
405.317	79.38
405.541	89.38
405.765	85.38
405.988	81.38
406.212	83.38
406.436	90.38
406.66	87.38
406.883	93.38
407.107	101.38
407.331	81.38
407.555	85.38
407.778	90.38
408.002	65.38
408.226	95.38
408.449	102.38
408.673	82.38
408.896	83.38
409.12	95.38
409.344	82.38
409.567	85.38
409.791	84.38
410.014	79.38
410.238	89.38
410.461	74.38
410.685	80.38
410.908	88.38
411.132	73.38
411.355	76.38
411.578	93.38
411.802	85.38
412.025	96.38
412.249	78.38
412.472	72.38
412.695	83.38
412.919	73.38
413.142	92.38
413.365	87.38
413.589	93.38
413.812	75.38
414.035	84.38
414.258	80.38
414.482	80.38
414.705	77.38
414.928	74.38
415.151	80.38
415.374	95.38
415.597	94.38
415.821	81.38
416.044	75.38
416.267	85.38
416.49	74.38
416.713	106.38
416.936	84.38
417.159	73.38
417.382	80.38
417.605	92.38
417.828	84.38
418.051	75.38
418.274	85.38
418.497	87.38
418.72	82.38
418.943	82.38
419.166	85.38
419.389	93.38
419.611	81.38
419.834	88.38
420.057	94.38
420.28	87.38
420.503	80.38
420.726	75.38
420.948	70.38
421.171	79.38
421.394	76.38
421.617	104.38
421.839	74.38
422.062	88.38
422.285	86.38
422.507	106.38
422.73	130.38
422.953	128.38
423.175	107.38
423.398	87.38
423.621	84.38
423.843	92.38
424.066	88.38
424.288	87.38
424.511	92.38
424.733	81.38
424.956	91.38
425.178	84.38
425.401	95.38
425.623	76.38
425.846	73.38
426.068	81.38
426.291	101.38
426.513	96.38
426.735	96.38
426.958	74.38
427.18	86.38
427.402	88.38
427.625	74.38
427.847	90.38
428.069	96.38
428.292	89.38
428.514	92.38
428.736	79.38
428.958	92.38
429.181	87.38
429.403	93.38
429.625	78.38
429.847	101.38
430.069	102.38
430.292	103.38
430.514	88.38
430.736	101.38
430.958	90.38
431.18	94.38
431.402	81.38
431.624	87.38
431.846	97.38
432.068	103.38
432.29	91.38
432.512	81.38
432.734	71.38
432.956	90.38
433.178	94.38
433.4	77.38
433.622	83.38
433.844	82.38
434.066	88.38
434.287	77.38
434.509	88.38
434.731	77.38
434.953	78.38
435.175	74.38
435.397	80.38
435.618	83.38
435.84	84.38
436.062	86.38
436.284	78.38
436.505	86.38
436.727	89.38
436.949	80.38
437.17	81.38
437.392	77.38
437.614	79.38
437.835	78.38
438.057	77.38
438.278	80.38
438.5	88.38
438.721	84.38
438.943	84.38
439.165	77.38
439.386	78.38
439.608	80.38
439.829	83.38
440.05	91.38
440.272	82.38
440.493	89.38
440.715	83.38
440.936	93.38
441.158	80.38
441.379	89.38
441.6	92.38
441.822	85.38
442.043	76.38
442.264	87.38
442.486	80.38
442.707	91.38
442.928	90.38
443.149	92.38
443.371	94.38
443.592	104.38
443.813	96.38
444.034	84.38
444.255	73.38
444.476	99.38
444.698	95.38
444.919	76.38
445.14	145.38
445.361	120.38
445.582	130.38
445.803	101.38
446.024	92.38
446.245	76.38
446.466	88.38
446.687	84.38
446.908	90.38
447.129	83.38
447.35	92.38
447.571	85.38
447.792	92.38
448.013	82.38
448.234	86.38
448.455	77.38
448.675	87.38
448.896	74.38
449.117	78.38
449.338	86.38
449.559	87.38
449.779	80.38
450	78.38
450.221	74.38
450.442	84.38
450.662	97.38
450.883	78.38
451.104	93.38
451.324	80.38
451.545	77.38
451.766	92.38
451.986	95.38
452.207	74.38
452.428	84.38
452.648	81.38
452.869	90.38
453.089	93.38
453.31	88.38
453.53	81.38
453.751	97.38
453.971	87.38
454.192	89.38
454.412	88.38
454.633	91.38
454.853	89.38
455.073	83.38
455.294	91.38
455.514	86.38
455.734	87.38
455.955	79.38
456.175	83.38
456.395	76.38
456.616	95.38
456.836	89.38
457.056	87.38
457.276	89.38
457.497	85.38
457.717	81.38
457.937	92.38
458.157	87.38
458.377	97.38
458.598	86.38
458.818	87.38
459.038	86.38
459.258	70.38
459.478	84.38
459.698	84.38
459.918	92.38
460.138	82.38
460.358	70.38
460.578	95.38
460.798	99.38
461.018	82.38
461.238	89.38
461.458	82.38
461.678	90.38
461.898	90.38
462.118	79.38
462.338	90.38
462.558	75.38
462.777	76.38
462.997	86.38
463.217	78.38
463.437	84.38
463.657	101.38
463.876	79.38
464.096	76.38
464.316	92.38
464.536	79.38
464.755	95.38
464.975	88.38
465.195	87.38
465.414	82.38
465.634	85.38
465.854	84.38
466.073	96.38
466.293	87.38
466.512	97.38
466.732	88.38
466.951	57.38
467.171	76.38
467.391	93.38
467.61	71.38
467.829	91.38
468.049	76.38
468.268	79.38
468.488	97.38
468.707	95.38
468.927	93.38
469.146	86.38
469.365	86.38
469.585	89.38
469.804	83.38
470.023	70.38
470.243	84.38
470.462	92.38
470.681	85.38
470.901	82.38
471.12	77.38
471.339	87.38
471.558	84.38
471.777	76.38
471.997	64.38
472.216	77.38
472.435	88.38
472.654	80.38
472.873	73.38
473.092	70.38
473.311	69.38
473.53	79.38
473.749	76.38
473.968	97.38
474.187	79.38
474.406	75.38
474.625	90.38
474.844	92.38
475.063	67.38
475.282	92.38
475.501	71.38
475.72	91.38
475.939	84.38
476.158	84.38
476.377	79.38
476.596	79.38
476.814	85.38
477.033	86.38
477.252	71.38
477.471	72.38
477.69	77.38
477.908	97.38
478.127	91.38
478.346	77.38
478.564	76.38
478.783	98.38
479.002	79.38
479.22	88.38
479.439	88.38
479.658	76.38
479.876	90.38
480.095	89.38
480.313	72.38
480.532	81.38
480.751	74.38
480.969	79.38
481.188	79.38
481.406	84.38
481.624	81.38
481.843	76.38
482.061	90.38
482.28	97.38
482.498	95.38
482.717	94.38
482.935	88.38
483.153	81.38
483.372	73.38
483.59	65.38
483.808	79.38
484.027	91.38
484.245	80.38
484.463	92.38
484.681	90.38
484.9	81.38
485.118	79.38
485.336	89.38
485.554	86.38
485.772	80.38
485.99	80.38
486.209	92.38
486.427	74.38
486.645	84.38
486.863	85.38
487.081	100.38
487.299	74.38
487.517	84.38
487.735	79.38
487.953	102.38
488.171	84.38
488.389	88.38
488.607	88.38
488.825	87.38
489.043	91.38
489.261	85.38
489.479	104.38
489.696	83.38
489.914	78.38
490.132	73.38
490.35	90.38
490.568	98.38
490.786	88.38
491.003	89.38
491.221	91.38
491.439	77.38
491.657	85.38
491.874	94.38
492.092	91.38
492.31	109.38
492.527	78.38
492.745	97.38
492.963	84.38
493.18	100.38
493.398	73.38
493.615	89.38
493.833	85.38
494.05	89.38
494.268	75.38
494.485	78.38
494.703	84.38
494.92	85.38
495.138	74.38
495.355	72.38
495.573	93.38
495.79	85.38
496.008	89.38
496.225	93.38
496.442	85.38
496.66	80.38
496.877	80.38
497.094	85.38
497.312	91.38
497.529	81.38
497.746	87.38
497.963	82.38
498.181	87.38
498.398	93.38
498.615	74.38
498.832	84.38
499.049	80.38
499.267	86.38
499.484	82.38
499.701	77.38
499.918	85.38
500.135	75.38
500.352	94.38
500.569	74.38
500.786	83.38
501.003	81.38
501.22	88.38
501.437	104.38
501.654	97.38
501.871	87.38
502.088	81.38
502.305	79.38
502.522	88.38
502.739	64.38
502.956	89.38
503.172	70.38
503.389	74.38
503.606	72.38
503.823	86.38
504.04	85.38
504.256	82.38
504.473	87.38
504.69	82.38
504.907	90.38
505.123	84.38
505.34	81.38
505.557	80.38
505.773	90.38
505.99	88.38
506.207	81.38
506.423	73.38
506.64	75.38
506.856	87.38
507.073	81.38
507.289	85.38
507.506	80.38
507.722	74.38
507.939	84.38
508.155	89.38
508.372	93.38
508.588	84.38
508.805	90.38
509.021	83.38
509.238	94.38
509.454	94.38
509.67	93.38
509.887	88.38
510.103	88.38
510.319	91.38
510.536	96.38
510.752	95.38
510.968	90.38
511.184	91.38
511.401	76.38
511.617	94.38
511.833	81.38
512.049	76.38
512.265	82.38
512.481	97.38
512.698	79.38
512.914	75.38
513.13	84.38
513.346	94.38
513.562	82.38
513.778	84.38
513.994	83.38
514.21	107.38
514.426	87.38
514.642	104.38
514.858	74.38
515.074	77.38
515.29	95.38
515.506	91.38
515.721	83.38
515.937	81.38
516.153	81.38
516.369	103.38
516.585	85.38
516.801	80.38
517.016	93.38
517.232	93.38
517.448	102.38
517.664	80.38
517.879	79.38
518.095	84.38
518.311	70.38
518.527	78.38
518.742	89.38
518.958	92.38
519.173	95.38
