Data from Mixnoheat2_HRD10591_00013.txt Node
Date: Fri Dec 27 14:59:52 EST 2024
User: Yrep
Spectrometer: HR+D1059
Trigger mode: 1
Integration Time (sec): 1.000000E-1
Scans to average: 1
Electric dark correction enabled: true
Nonlinearity correction enabled: false
Boxcar width: 0
XAxis mode: Wavelengths
Number of Pixels in Spectrum: 2048
>>>>>Begin Spectral Data<<<<<
223.165	-10.56
223.4	-10.56
223.635	-10.56
223.869	-23.56
224.104	-28.56
224.338	-14.56
224.573	-24.56
224.808	-19.56
225.042	-13.56
225.277	-6.56
225.511	-4.56
225.746	4.44
225.98	13.44
226.215	13.44
226.449	23.44
226.683	24.44
226.918	30.44
227.152	36.44
227.387	29.44
227.621	36.44
227.856	35.44
228.09	45.44
228.324	51.44
228.559	65.44
228.793	46.44
229.027	63.44
229.262	51.44
229.496	62.44
229.73	69.44
229.964	77.44
230.199	81.44
230.433	66.44
230.667	72.44
230.901	75.44
231.136	79.44
231.37	68.44
231.604	77.44
231.838	81.44
232.072	75.44
232.306	76.44
232.541	81.44
232.775	91.44
233.009	95.44
233.243	70.44
233.477	81.44
233.711	89.44
233.945	84.44
234.179	81.44
234.413	66.44
234.647	74.44
234.881	92.44
235.115	76.44
235.349	81.44
235.583	65.44
235.817	85.44
236.051	78.44
236.285	81.44
236.519	83.44
236.753	74.44
236.987	78.44
237.221	79.44
237.455	82.44
237.689	83.44
237.922	71.44
238.156	80.44
238.39	78.44
238.624	73.44
238.858	88.44
239.091	70.44
239.325	91.44
239.559	85.44
239.793	74.44
240.027	90.44
240.26	63.44
240.494	84.44
240.728	56.44
240.961	91.44
241.195	81.44
241.429	73.44
241.662	88.44
241.896	77.44
242.13	75.44
242.363	88.44
242.597	58.44
242.83	78.44
243.064	83.44
243.298	73.44
243.531	68.44
243.765	79.44
243.998	68.44
244.232	73.44
244.465	73.44
244.699	76.44
244.932	70.44
245.166	86.44
245.399	73.44
245.633	85.44
245.866	87.44
246.099	82.44
246.333	82.44
246.566	57.44
246.8	79.44
247.033	76.44
247.266	76.44
247.5	81.44
247.733	83.44
247.966	75.44
248.2	75.44
248.433	84.44
248.666	75.44
248.899	66.44
249.133	78.44
249.366	84.44
249.599	79.44
249.832	67.44
250.066	84.44
250.299	79.44
250.532	82.44
250.765	81.44
250.998	74.44
251.231	91.44
251.465	83.44
251.698	70.44
251.931	81.44
252.164	61.44
252.397	77.44
252.63	76.44
252.863	82.44
253.096	71.44
253.329	68.44
253.562	79.44
253.795	72.44
254.028	73.44
254.261	69.44
254.494	80.44
254.727	86.44
254.96	93.44
255.193	85.44
255.426	65.44
255.659	81.44
255.892	76.44
256.124	76.44
256.357	91.44
256.59	87.44
256.823	70.44
257.056	83.44
257.289	76.44
257.521	78.44
257.754	70.44
257.987	73.44
258.22	87.44
258.452	88.44
258.685	80.44
258.918	63.44
259.151	99.44
259.383	87.44
259.616	83.44
259.849	81.44
260.081	88.44
260.314	85.44
260.547	73.44
260.779	89.44
261.012	90.44
261.244	93.44
261.477	82.44
261.71	82.44
261.942	84.44
262.175	74.44
262.407	87.44
262.64	94.44
262.872	88.44
263.105	68.44
263.337	82.44
263.57	75.44
263.802	75.44
264.035	82.44
264.267	80.44
264.499	88.44
264.732	80.44
264.964	74.44
265.197	81.44
265.429	84.44
265.661	85.44
265.894	101.44
266.126	86.44
266.358	85.44
266.591	87.44
266.823	77.44
267.055	78.44
267.287	92.44
267.52	96.44
267.752	84.44
267.984	87.44
268.216	94.44
268.448	78.44
268.681	94.44
268.913	89.44
269.145	82.44
269.377	88.44
269.609	79.44
269.841	76.44
270.073	92.44
270.306	85.44
270.538	87.44
270.77	90.44
271.002	93.44
271.234	83.44
271.466	84.44
271.698	71.44
271.93	90.44
272.162	89.44
272.394	81.44
272.626	73.44
272.858	87.44
273.09	90.44
273.322	81.44
273.553	77.44
273.785	89.44
274.017	87.44
274.249	80.44
274.481	87.44
274.713	86.44
274.945	93.44
275.176	72.44
275.408	75.44
275.64	75.44
275.872	85.44
276.104	71.44
276.335	81.44
276.567	80.44
276.799	79.44
277.031	79.44
277.262	86.44
277.494	80.44
277.726	75.44
277.957	69.44
278.189	65.44
278.421	82.44
278.652	90.44
278.884	82.44
279.115	82.44
279.347	85.44
279.579	83.44
279.81	65.44
280.042	91.44
280.273	79.44
280.505	81.44
280.736	85.44
280.968	92.44
281.199	86.44
281.431	83.44
281.662	81.44
281.894	85.44
282.125	68.44
282.356	85.44
282.588	85.44
282.819	95.44
283.051	74.44
283.282	80.44
283.513	84.44
283.745	84.44
283.976	85.44
284.207	92.44
284.439	82.44
284.67	104.44
284.901	88.44
285.132	86.44
285.364	92.44
285.595	85.44
285.826	100.44
286.057	85.44
286.288	80.44
286.52	73.44
286.751	73.44
286.982	80.44
287.213	73.44
287.444	89.44
287.675	81.44
287.906	82.44
288.138	90.44
288.369	75.44
288.6	83.44
288.831	87.44
289.062	80.44
289.293	81.44
289.524	77.44
289.755	90.44
289.986	84.44
290.217	81.44
290.448	88.44
290.679	83.44
290.91	82.44
291.141	84.44
291.371	83.44
291.602	92.44
291.833	76.44
292.064	68.44
292.295	81.44
292.526	96.44
292.757	95.44
292.987	90.44
293.218	89.44
293.449	98.44
293.68	84.44
293.91	78.44
294.141	86.44
294.372	98.44
294.603	84.44
294.833	73.44
295.064	66.44
295.295	79.44
295.525	84.44
295.756	78.44
295.987	75.44
296.217	89.44
296.448	94.44
296.679	74.44
296.909	86.44
297.14	84.44
297.37	91.44
297.601	76.44
297.831	74.44
298.062	75.44
298.292	79.44
298.523	80.44
298.753	78.44
298.984	91.44
299.214	73.44
299.445	82.44
299.675	76.44
299.905	86.44
300.136	85.44
300.366	81.44
300.597	94.44
300.827	70.44
301.057	82.44
301.288	92.44
301.518	76.44
301.748	85.44
301.979	88.44
302.209	95.44
302.439	101.44
302.669	93.44
302.9	96.44
303.13	82.44
303.36	91.44
303.59	102.44
303.82	92.44
304.051	93.44
304.281	74.44
304.511	84.44
304.741	80.44
304.971	93.44
305.201	80.44
305.431	77.44
305.661	87.44
305.891	70.44
306.121	87.44
306.352	71.44
306.582	89.44
306.812	72.44
307.042	67.44
307.272	85.44
307.502	84.44
307.731	81.44
307.961	76.44
308.191	74.44
308.421	84.44
308.651	84.44
308.881	83.44
309.111	78.44
309.341	86.44
309.571	69.44
309.8	84.44
310.03	81.44
310.26	79.44
310.49	91.44
310.72	89.44
310.949	89.44
311.179	76.44
311.409	82.44
311.639	80.44
311.868	83.44
312.098	81.44
312.328	80.44
312.557	87.44
312.787	62.44
313.017	82.44
313.246	93.44
313.476	80.44
313.706	93.44
313.935	78.44
314.165	100.44
314.394	74.44
314.624	78.44
314.853	102.44
315.083	72.44
315.312	74.44
315.542	84.44
315.771	98.44
316.001	83.44
316.23	82.44
316.46	88.44
316.689	100.44
316.919	75.44
317.148	84.44
317.377	96.44
317.607	92.44
317.836	93.44
318.065	103.44
318.295	104.44
318.524	93.44
318.753	81.44
318.983	88.44
319.212	88.44
319.441	79.44
319.67	84.44
319.9	103.44
320.129	82.44
320.358	96.44
320.587	100.44
320.816	85.44
321.046	75.44
321.275	97.44
321.504	87.44
321.733	85.44
321.962	83.44
322.191	82.44
322.42	87.44
322.649	82.44
322.878	79.44
323.108	83.44
323.337	89.44
323.566	72.44
323.795	71.44
324.024	74.44
324.253	73.44
324.482	86.44
324.71	80.44
324.939	80.44
325.168	73.44
325.397	85.44
325.626	76.44
325.855	95.44
326.084	75.44
326.313	77.44
326.542	73.44
326.77	85.44
326.999	90.44
327.228	82.44
327.457	83.44
327.686	82.44
327.914	91.44
328.143	99.44
328.372	82.44
328.6	76.44
328.829	89.44
329.058	92.44
329.287	101.44
329.515	80.44
329.744	95.44
329.972	83.44
330.201	71.44
330.43	80.44
330.658	78.44
330.887	84.44
331.115	85.44
331.344	89.44
331.572	82.44
331.801	97.44
332.03	82.44
332.258	81.44
332.486	86.44
332.715	80.44
332.943	76.44
333.172	88.44
333.4	82.44
333.629	90.44
333.857	83.44
334.085	84.44
334.314	83.44
334.542	83.44
334.771	84.44
334.999	76.44
335.227	78.44
335.455	92.44
335.684	91.44
335.912	91.44
336.14	84.44
336.369	74.44
336.597	79.44
336.825	78.44
337.053	81.44
337.281	78.44
337.51	70.44
337.738	98.44
337.966	84.44
338.194	83.44
338.422	85.44
338.65	85.44
338.878	73.44
339.106	86.44
339.334	81.44
339.562	91.44
339.79	86.44
340.018	80.44
340.246	83.44
340.474	85.44
340.702	80.44
340.93	81.44
341.158	88.44
341.386	77.44
341.614	94.44
341.842	84.44
342.07	74.44
342.298	67.44
342.526	108.44
342.754	89.44
342.981	87.44
343.209	81.44
343.437	93.44
343.665	93.44
343.893	84.44
344.12	81.44
344.348	77.44
344.576	86.44
344.804	74.44
345.031	76.44
345.259	85.44
345.487	84.44
345.714	78.44
345.942	71.44
346.17	70.44
346.397	104.44
346.625	85.44
346.853	74.44
347.08	69.44
347.308	79.44
347.535	78.44
347.763	75.44
347.99	93.44
348.218	81.44
348.445	75.44
348.673	74.44
348.9	79.44
349.128	80.44
349.355	76.44
349.583	86.44
349.81	75.44
350.037	85.44
350.265	76.44
350.492	93.44
350.72	84.44
350.947	92.44
351.174	68.44
351.402	84.44
351.629	82.44
351.856	87.44
352.083	74.44
352.311	91.44
352.538	70.44
352.765	86.44
352.992	93.44
353.22	88.44
353.447	96.44
353.674	74.44
353.901	93.44
354.128	83.44
354.355	74.44
354.583	76.44
354.81	84.44
355.037	81.44
355.264	75.44
355.491	74.44
355.718	88.44
355.945	82.44
356.172	72.44
356.399	78.44
356.626	84.44
356.853	88.44
357.08	94.44
357.307	80.44
357.534	88.44
357.761	90.44
357.988	88.44
358.215	88.44
358.441	86.44
358.668	81.44
358.895	84.44
359.122	79.44
359.349	81.44
359.576	85.44
359.802	76.44
360.029	85.44
360.256	79.44
360.483	76.44
360.709	85.44
360.936	102.44
361.163	92.44
361.39	72.44
361.616	77.44
361.843	79.44
362.07	88.44
362.296	83.44
362.523	73.44
362.749	74.44
362.976	98.44
363.203	85.44
363.429	72.44
363.656	83.44
363.882	86.44
364.109	94.44
364.335	89.44
364.562	90.44
364.788	82.44
365.015	82.44
365.241	91.44
365.468	82.44
365.694	82.44
365.92	87.44
366.147	80.44
366.373	98.44
366.599	87.44
366.826	84.44
367.052	82.44
367.278	100.44
367.505	82.44
367.731	91.44
367.957	96.44
368.184	82.44
368.41	77.44
368.636	72.44
368.862	87.44
369.089	83.44
369.315	66.44
369.541	82.44
369.767	93.44
369.993	76.44
370.219	70.44
370.445	87.44
370.672	106.44
370.898	80.44
371.124	74.44
371.35	61.44
371.576	89.44
371.802	74.44
372.028	76.44
372.254	78.44
372.48	85.44
372.706	76.44
372.932	93.44
373.158	84.44
373.384	88.44
373.61	77.44
373.835	87.44
374.061	84.44
374.287	80.44
374.513	91.44
374.739	70.44
374.965	65.44
375.191	83.44
375.416	82.44
375.642	83.44
375.868	85.44
376.094	77.44
376.319	91.44
376.545	74.44
376.771	80.44
376.997	92.44
377.222	73.44
377.448	78.44
377.674	83.44
377.899	76.44
378.125	77.44
378.35	68.44
378.576	100.44
378.802	83.44
379.027	79.44
379.253	77.44
379.478	68.44
379.704	80.44
379.929	88.44
380.155	83.44
380.38	84.44
380.606	73.44
380.831	83.44
381.057	81.44
381.282	85.44
381.507	85.44
381.733	76.44
381.958	77.44
382.184	86.44
382.409	79.44
382.634	96.44
382.86	88.44
383.085	90.44
383.31	87.44
383.535	81.44
383.761	68.44
383.986	82.44
384.211	87.44
384.436	71.44
384.662	72.44
384.887	73.44
385.112	82.44
385.337	83.44
385.562	83.44
385.787	81.44
386.013	93.44
386.238	78.44
386.463	76.44
386.688	101.44
386.913	75.44
387.138	73.44
387.363	75.44
387.588	81.44
387.813	85.44
388.038	77.44
388.263	84.44
388.488	69.44
388.713	83.44
388.938	77.44
389.163	89.44
389.387	84.44
389.612	76.44
389.837	81.44
390.062	85.44
390.287	86.44
390.512	78.44
390.736	80.44
390.961	81.44
391.186	93.44
391.411	76.44
391.636	77.44
391.86	82.44
392.085	88.44
392.31	88.44
392.534	78.44
392.759	102.44
392.984	76.44
393.208	104.44
393.433	98.44
393.658	89.44
393.882	73.44
394.107	84.44
394.331	79.44
394.556	89.44
394.78	86.44
395.005	85.44
395.229	82.44
395.454	90.44
395.678	96.44
395.903	86.44
396.127	96.44
396.352	96.44
396.576	84.44
396.801	90.44
397.025	91.44
397.249	86.44
397.474	77.44
397.698	85.44
397.922	84.44
398.147	101.44
398.371	74.44
398.595	93.44
398.82	86.44
399.044	73.44
399.268	92.44
399.492	72.44
399.717	78.44
399.941	79.44
400.165	84.44
400.389	83.44
400.613	82.44
400.837	100.44
401.062	77.44
401.286	92.44
401.51	83.44
401.734	84.44
401.958	80.44
402.182	74.44
402.406	74.44
402.63	84.44
402.854	85.44
403.078	84.44
403.302	86.44
403.526	81.44
403.75	92.44
403.974	86.44
404.198	97.44
404.422	98.44
404.645	93.44
404.869	97.44
405.093	94.44
405.317	82.44
405.541	65.44
405.765	73.44
405.988	79.44
406.212	92.44
406.436	87.44
406.66	96.44
406.883	93.44
407.107	91.44
407.331	84.44
407.555	82.44
407.778	84.44
408.002	82.44
408.226	98.44
408.449	75.44
408.673	81.44
408.896	87.44
409.12	99.44
409.344	89.44
409.567	91.44
409.791	83.44
410.014	86.44
410.238	94.44
410.461	84.44
410.685	77.44
410.908	84.44
411.132	97.44
411.355	89.44
411.578	88.44
411.802	82.44
412.025	69.44
412.249	72.44
412.472	77.44
412.695	89.44
412.919	88.44
413.142	85.44
413.365	92.44
413.589	75.44
413.812	88.44
414.035	74.44
414.258	78.44
414.482	75.44
414.705	72.44
414.928	86.44
415.151	87.44
415.374	83.44
415.597	88.44
415.821	79.44
416.044	81.44
416.267	75.44
416.49	97.44
416.713	81.44
416.936	76.44
417.159	83.44
417.382	72.44
417.605	70.44
417.828	71.44
418.051	91.44
418.274	76.44
418.497	88.44
418.72	83.44
418.943	76.44
419.166	104.44
419.389	81.44
419.611	76.44
419.834	66.44
420.057	86.44
420.28	86.44
420.503	78.44
420.726	86.44
420.948	77.44
421.171	83.44
421.394	93.44
421.617	83.44
421.839	76.44
422.062	101.44
422.285	98.44
422.507	109.44
422.73	103.44
422.953	114.44
423.175	100.44
423.398	68.44
423.621	79.44
423.843	81.44
424.066	82.44
424.288	80.44
424.511	78.44
424.733	83.44
424.956	91.44
425.178	84.44
425.401	85.44
425.623	79.44
425.846	88.44
426.068	84.44
426.291	79.44
426.513	83.44
426.735	83.44
426.958	78.44
427.18	78.44
427.402	78.44
427.625	92.44
427.847	86.44
428.069	76.44
428.292	88.44
428.514	86.44
428.736	84.44
428.958	81.44
429.181	85.44
429.403	92.44
429.625	88.44
429.847	91.44
430.069	92.44
430.292	99.44
430.514	99.44
430.736	90.44
430.958	106.44
431.18	80.44
431.402	86.44
431.624	83.44
431.846	106.44
432.068	70.44
432.29	71.44
432.512	88.44
432.734	78.44
432.956	90.44
433.178	96.44
433.4	80.44
433.622	86.44
433.844	101.44
434.066	66.44
434.287	83.44
434.509	69.44
434.731	80.44
434.953	84.44
435.175	89.44
435.397	86.44
435.618	89.44
435.84	80.44
436.062	78.44
436.284	81.44
436.505	85.44
436.727	71.44
436.949	76.44
437.17	67.44
437.392	87.44
437.614	77.44
437.835	87.44
438.057	83.44
438.278	77.44
438.5	80.44
438.721	91.44
438.943	92.44
439.165	84.44
439.386	79.44
439.608	91.44
439.829	74.44
440.05	72.44
440.272	67.44
440.493	82.44
440.715	78.44
440.936	77.44
441.158	78.44
441.379	88.44
441.6	82.44
441.822	80.44
442.043	76.44
442.264	83.44
442.486	87.44
442.707	87.44
442.928	88.44
443.149	83.44
443.371	91.44
443.592	97.44
443.813	91.44
444.034	72.44
444.255	81.44
444.476	73.44
444.698	82.44
444.919	79.44
445.14	156.44
445.361	121.44
445.582	103.44
445.803	91.44
446.024	84.44
446.245	81.44
446.466	103.44
446.687	73.44
446.908	77.44
447.129	79.44
447.35	85.44
447.571	81.44
447.792	73.44
448.013	77.44
448.234	77.44
448.455	87.44
448.675	88.44
448.896	77.44
449.117	84.44
449.338	82.44
449.559	70.44
449.779	88.44
450	83.44
450.221	86.44
450.442	76.44
450.662	85.44
450.883	88.44
451.104	85.44
451.324	79.44
451.545	75.44
451.766	80.44
451.986	73.44
452.207	62.44
452.428	70.44
452.648	80.44
452.869	91.44
453.089	76.44
453.31	77.44
453.53	89.44
453.751	84.44
453.971	87.44
454.192	74.44
454.412	97.44
454.633	75.44
454.853	90.44
455.073	96.44
455.294	76.44
455.514	74.44
455.734	83.44
455.955	81.44
456.175	70.44
456.395	85.44
456.616	92.44
456.836	85.44
457.056	74.44
457.276	80.44
457.497	90.44
457.717	73.44
457.937	79.44
458.157	84.44
458.377	83.44
458.598	77.44
458.818	93.44
459.038	81.44
459.258	78.44
459.478	78.44
459.698	73.44
459.918	96.44
460.138	82.44
460.358	77.44
460.578	67.44
460.798	77.44
461.018	71.44
461.238	84.44
461.458	87.44
461.678	88.44
461.898	88.44
462.118	89.44
462.338	90.44
462.558	75.44
462.777	77.44
462.997	83.44
463.217	88.44
463.437	76.44
463.657	68.44
463.876	63.44
464.096	81.44
464.316	71.44
464.536	89.44
464.755	89.44
464.975	92.44
465.195	77.44
465.414	69.44
465.634	92.44
465.854	84.44
466.073	88.44
466.293	91.44
466.512	76.44
466.732	92.44
466.951	81.44
467.171	93.44
467.391	89.44
467.61	87.44
467.829	87.44
468.049	79.44
468.268	94.44
468.488	69.44
468.707	69.44
468.927	73.44
469.146	76.44
469.365	75.44
469.585	75.44
469.804	76.44
470.023	91.44
470.243	86.44
470.462	91.44
470.681	75.44
470.901	82.44
471.12	83.44
471.339	75.44
471.558	75.44
471.777	96.44
471.997	91.44
472.216	86.44
472.435	86.44
472.654	85.44
472.873	74.44
473.092	84.44
473.311	82.44
473.53	88.44
473.749	89.44
473.968	81.44
474.187	88.44
474.406	82.44
474.625	80.44
474.844	80.44
475.063	84.44
475.282	67.44
475.501	75.44
475.72	87.44
475.939	69.44
476.158	81.44
476.377	82.44
476.596	74.44
476.814	83.44
477.033	82.44
477.252	72.44
477.471	72.44
477.69	88.44
477.908	83.44
478.127	87.44
478.346	84.44
478.564	79.44
478.783	90.44
479.002	80.44
479.22	89.44
479.439	77.44
479.658	72.44
479.876	92.44
480.095	92.44
480.313	84.44
480.532	75.44
480.751	75.44
480.969	81.44
481.188	95.44
481.406	84.44
481.624	86.44
481.843	76.44
482.061	83.44
482.28	93.44
482.498	81.44
482.717	80.44
482.935	81.44
483.153	75.44
483.372	82.44
483.59	84.44
483.808	83.44
484.027	88.44
484.245	101.44
484.463	91.44
484.681	100.44
484.9	85.44
485.118	83.44
485.336	82.44
485.554	69.44
485.772	87.44
485.99	84.44
486.209	88.44
486.427	72.44
486.645	74.44
486.863	85.44
487.081	83.44
487.299	101.44
487.517	82.44
487.735	74.44
487.953	89.44
488.171	93.44
488.389	91.44
488.607	80.44
488.825	80.44
489.043	80.44
489.261	83.44
489.479	72.44
489.696	82.44
489.914	79.44
490.132	90.44
490.35	89.44
490.568	83.44
490.786	93.44
491.003	98.44
491.221	80.44
491.439	77.44
491.657	80.44
491.874	74.44
492.092	68.44
492.31	80.44
492.527	88.44
492.745	91.44
492.963	74.44
493.18	78.44
493.398	90.44
493.615	82.44
493.833	84.44
494.05	87.44
494.268	89.44
494.485	79.44
494.703	100.44
494.92	88.44
495.138	87.44
495.355	74.44
495.573	90.44
495.79	86.44
496.008	105.44
496.225	84.44
496.442	86.44
496.66	69.44
496.877	93.44
497.094	92.44
497.312	87.44
497.529	91.44
497.746	84.44
497.963	87.44
498.181	82.44
498.398	83.44
498.615	80.44
498.832	89.44
499.049	82.44
499.267	93.44
499.484	82.44
499.701	87.44
499.918	81.44
500.135	89.44
500.352	83.44
500.569	70.44
500.786	83.44
501.003	85.44
501.22	75.44
501.437	75.44
501.654	82.44
501.871	82.44
502.088	64.44
502.305	96.44
502.522	76.44
502.739	88.44
502.956	85.44
503.172	77.44
503.389	70.44
503.606	81.44
503.823	76.44
504.04	82.44
504.256	104.44
504.473	88.44
504.69	83.44
504.907	98.44
505.123	76.44
505.34	84.44
505.557	83.44
505.773	102.44
505.99	96.44
506.207	89.44
506.423	80.44
506.64	88.44
506.856	85.44
507.073	79.44
507.289	69.44
507.506	96.44
507.722	87.44
507.939	89.44
508.155	77.44
508.372	72.44
508.588	88.44
508.805	78.44
509.021	83.44
509.238	72.44
509.454	77.44
509.67	66.44
509.887	85.44
510.103	89.44
510.319	87.44
510.536	83.44
510.752	89.44
510.968	87.44
511.184	85.44
511.401	88.44
511.617	86.44
511.833	98.44
512.049	67.44
512.265	88.44
512.481	79.44
512.698	80.44
512.914	84.44
513.13	95.44
513.346	84.44
513.562	90.44
513.778	86.44
513.994	92.44
514.21	80.44
514.426	80.44
514.642	85.44
514.858	72.44
515.074	75.44
515.29	87.44
515.506	96.44
515.721	76.44
515.937	79.44
516.153	87.44
516.369	104.44
516.585	89.44
516.801	85.44
517.016	92.44
517.232	79.44
517.448	74.44
517.664	67.44
517.879	83.44
518.095	86.44
518.311	82.44
518.527	84.44
518.742	86.44
518.958	100.44
519.173	85.44
519.389	81.44
519.605	105.44
