Data from Mixnoheat2_HRD10591_00009.txt Node
Date: Fri Dec 27 14:59:48 EST 2024
User: Yrep
Spectrometer: HR+D1059
Trigger mode: 1
Integration Time (sec): 1.000000E-1
Scans to average: 1
Electric dark correction enabled: true
Nonlinearity correction enabled: false
Boxcar width: 0
XAxis mode: Wavelengths
Number of Pixels in Spectrum: 2048
>>>>>Begin Spectral Data<<<<<
223.165	-6.25
223.4	-6.25
223.635	-6.25
223.869	-3.25
224.104	-32.25
224.338	-6.25
224.573	-1.25
224.808	-24.25
225.042	-5.25
225.277	-3.25
225.511	-2.25
225.746	0.75
225.98	0.75
226.215	3.75
226.449	18.75
226.683	27.75
226.918	12.75
227.152	19.75
227.387	17.75
227.621	44.75
227.856	45.75
228.09	44.75
228.324	40.75
228.559	37.75
228.793	64.75
229.027	69.75
229.262	70.75
229.496	71.75
229.73	72.75
229.964	71.75
230.199	68.75
230.433	60.75
230.667	77.75
230.901	85.75
231.136	73.75
231.37	77.75
231.604	72.75
231.838	69.75
232.072	81.75
232.306	86.75
232.541	76.75
232.775	89.75
233.009	77.75
233.243	85.75
233.477	67.75
233.711	81.75
233.945	87.75
234.179	72.75
234.413	81.75
234.647	85.75
234.881	79.75
235.115	79.75
235.349	76.75
235.583	91.75
235.817	69.75
236.051	87.75
236.285	68.75
236.519	91.75
236.753	67.75
236.987	74.75
237.221	93.75
237.455	80.75
237.689	75.75
237.922	80.75
238.156	73.75
238.39	74.75
238.624	86.75
238.858	79.75
239.091	77.75
239.325	83.75
239.559	88.75
239.793	84.75
240.027	61.75
240.26	80.75
240.494	83.75
240.728	52.75
240.961	79.75
241.195	67.75
241.429	85.75
241.662	82.75
241.896	79.75
242.13	84.75
242.363	69.75
242.597	73.75
242.83	67.75
243.064	58.75
243.298	79.75
243.531	74.75
243.765	70.75
243.998	64.75
244.232	78.75
244.465	71.75
244.699	67.75
244.932	81.75
245.166	85.75
245.399	73.75
245.633	76.75
245.866	78.75
246.099	77.75
246.333	89.75
246.566	77.75
246.8	75.75
247.033	76.75
247.266	73.75
247.5	75.75
247.733	79.75
247.966	77.75
248.2	73.75
248.433	77.75
248.666	75.75
248.899	90.75
249.133	73.75
249.366	64.75
249.599	77.75
249.832	82.75
250.066	102.75
250.299	81.75
250.532	83.75
250.765	87.75
250.998	80.75
251.231	77.75
251.465	85.75
251.698	76.75
251.931	81.75
252.164	85.75
252.397	88.75
252.63	72.75
252.863	87.75
253.096	80.75
253.329	99.75
253.562	80.75
253.795	93.75
254.028	84.75
254.261	87.75
254.494	87.75
254.727	74.75
254.96	69.75
255.193	84.75
255.426	69.75
255.659	77.75
255.892	79.75
256.124	77.75
256.357	98.75
256.59	77.75
256.823	77.75
257.056	78.75
257.289	86.75
257.521	78.75
257.754	84.75
257.987	81.75
258.22	87.75
258.452	85.75
258.685	70.75
258.918	77.75
259.151	88.75
259.383	68.75
259.616	78.75
259.849	93.75
260.081	80.75
260.314	82.75
260.547	71.75
260.779	83.75
261.012	89.75
261.244	72.75
261.477	90.75
261.71	78.75
261.942	79.75
262.175	84.75
262.407	90.75
262.64	86.75
262.872	79.75
263.105	71.75
263.337	80.75
263.57	72.75
263.802	85.75
264.035	88.75
264.267	75.75
264.499	93.75
264.732	87.75
264.964	74.75
265.197	66.75
265.429	86.75
265.661	87.75
265.894	82.75
266.126	90.75
266.358	75.75
266.591	85.75
266.823	74.75
267.055	86.75
267.287	74.75
267.52	81.75
267.752	77.75
267.984	78.75
268.216	81.75
268.448	75.75
268.681	89.75
268.913	87.75
269.145	75.75
269.377	72.75
269.609	77.75
269.841	79.75
270.073	74.75
270.306	81.75
270.538	69.75
270.77	78.75
271.002	77.75
271.234	86.75
271.466	88.75
271.698	68.75
271.93	83.75
272.162	85.75
272.394	88.75
272.626	77.75
272.858	83.75
273.09	86.75
273.322	69.75
273.553	61.75
273.785	66.75
274.017	92.75
274.249	81.75
274.481	76.75
274.713	93.75
274.945	90.75
275.176	79.75
275.408	84.75
275.64	68.75
275.872	75.75
276.104	91.75
276.335	74.75
276.567	83.75
276.799	86.75
277.031	85.75
277.262	89.75
277.494	84.75
277.726	72.75
277.957	84.75
278.189	81.75
278.421	85.75
278.652	89.75
278.884	91.75
279.115	88.75
279.347	79.75
279.579	97.75
279.81	97.75
280.042	85.75
280.273	75.75
280.505	91.75
280.736	94.75
280.968	78.75
281.199	87.75
281.431	87.75
281.662	81.75
281.894	77.75
282.125	86.75
282.356	79.75
282.588	87.75
282.819	93.75
283.051	87.75
283.282	84.75
283.513	78.75
283.745	88.75
283.976	77.75
284.207	82.75
284.439	85.75
284.67	79.75
284.901	74.75
285.132	80.75
285.364	98.75
285.595	77.75
285.826	92.75
286.057	88.75
286.288	86.75
286.52	78.75
286.751	88.75
286.982	88.75
287.213	85.75
287.444	88.75
287.675	83.75
287.906	85.75
288.138	79.75
288.369	91.75
288.6	90.75
288.831	93.75
289.062	77.75
289.293	87.75
289.524	78.75
289.755	76.75
289.986	79.75
290.217	84.75
290.448	78.75
290.679	90.75
290.91	86.75
291.141	83.75
291.371	86.75
291.602	82.75
291.833	79.75
292.064	82.75
292.295	76.75
292.526	74.75
292.757	89.75
292.987	87.75
293.218	80.75
293.449	85.75
293.68	91.75
293.91	78.75
294.141	91.75
294.372	84.75
294.603	84.75
294.833	84.75
295.064	99.75
295.295	84.75
295.525	88.75
295.756	94.75
295.987	72.75
296.217	75.75
296.448	85.75
296.679	90.75
296.909	81.75
297.14	84.75
297.37	86.75
297.601	82.75
297.831	86.75
298.062	88.75
298.292	84.75
298.523	87.75
298.753	83.75
298.984	89.75
299.214	77.75
299.445	88.75
299.675	88.75
299.905	78.75
300.136	75.75
300.366	78.75
300.597	81.75
300.827	93.75
301.057	91.75
301.288	87.75
301.518	103.75
301.748	76.75
301.979	110.75
302.209	75.75
302.439	79.75
302.669	92.75
302.9	91.75
303.13	76.75
303.36	93.75
303.59	82.75
303.82	90.75
304.051	90.75
304.281	74.75
304.511	94.75
304.741	91.75
304.971	81.75
305.201	91.75
305.431	85.75
305.661	70.75
305.891	82.75
306.121	87.75
306.352	73.75
306.582	67.75
306.812	112.75
307.042	81.75
307.272	80.75
307.502	72.75
307.731	97.75
307.961	93.75
308.191	81.75
308.421	80.75
308.651	84.75
308.881	73.75
309.111	97.75
309.341	77.75
309.571	78.75
309.8	84.75
310.03	98.75
310.26	86.75
310.49	87.75
310.72	81.75
310.949	74.75
311.179	86.75
311.409	77.75
311.639	75.75
311.868	74.75
312.098	87.75
312.328	81.75
312.557	79.75
312.787	75.75
313.017	73.75
313.246	84.75
313.476	78.75
313.706	91.75
313.935	97.75
314.165	98.75
314.394	71.75
314.624	92.75
314.853	87.75
315.083	79.75
315.312	87.75
315.542	75.75
315.771	86.75
316.001	87.75
316.23	89.75
316.46	79.75
316.689	83.75
316.919	71.75
317.148	86.75
317.377	90.75
317.607	81.75
317.836	85.75
318.065	94.75
318.295	79.75
318.524	94.75
318.753	86.75
318.983	76.75
319.212	67.75
319.441	94.75
319.67	75.75
319.9	77.75
320.129	85.75
320.358	93.75
320.587	69.75
320.816	81.75
321.046	65.75
321.275	89.75
321.504	99.75
321.733	85.75
321.962	71.75
322.191	70.75
322.42	84.75
322.649	90.75
322.878	91.75
323.108	80.75
323.337	82.75
323.566	83.75
323.795	73.75
324.024	79.75
324.253	100.75
324.482	91.75
324.71	97.75
324.939	77.75
325.168	101.75
325.397	81.75
325.626	96.75
325.855	83.75
326.084	87.75
326.313	67.75
326.542	84.75
326.77	77.75
326.999	87.75
327.228	90.75
327.457	79.75
327.686	99.75
327.914	87.75
328.143	77.75
328.372	81.75
328.6	84.75
328.829	92.75
329.058	102.75
329.287	77.75
329.515	63.75
329.744	88.75
329.972	74.75
330.201	95.75
330.43	74.75
330.658	85.75
330.887	103.75
331.115	91.75
331.344	81.75
331.572	89.75
331.801	77.75
332.03	84.75
332.258	87.75
332.486	83.75
332.715	82.75
332.943	70.75
333.172	81.75
333.4	77.75
333.629	86.75
333.857	91.75
334.085	88.75
334.314	91.75
334.542	92.75
334.771	85.75
334.999	105.75
335.227	92.75
335.455	76.75
335.684	93.75
335.912	89.75
336.14	86.75
336.369	81.75
336.597	70.75
336.825	84.75
337.053	88.75
337.281	97.75
337.51	82.75
337.738	77.75
337.966	89.75
338.194	89.75
338.422	94.75
338.65	88.75
338.878	88.75
339.106	85.75
339.334	99.75
339.562	92.75
339.79	106.75
340.018	78.75
340.246	76.75
340.474	81.75
340.702	101.75
340.93	74.75
341.158	78.75
341.386	85.75
341.614	75.75
341.842	92.75
342.07	86.75
342.298	99.75
342.526	92.75
342.754	73.75
342.981	87.75
343.209	90.75
343.437	100.75
343.665	80.75
343.893	76.75
344.12	87.75
344.348	93.75
344.576	93.75
344.804	84.75
345.031	81.75
345.259	88.75
345.487	81.75
345.714	99.75
345.942	94.75
346.17	86.75
346.397	82.75
346.625	93.75
346.853	97.75
347.08	82.75
347.308	88.75
347.535	84.75
347.763	94.75
347.99	92.75
348.218	77.75
348.445	87.75
348.673	73.75
348.9	97.75
349.128	86.75
349.355	87.75
349.583	65.75
349.81	75.75
350.037	89.75
350.265	82.75
350.492	79.75
350.72	83.75
350.947	83.75
351.174	111.75
351.402	72.75
351.629	85.75
351.856	93.75
352.083	89.75
352.311	81.75
352.538	90.75
352.765	86.75
352.992	107.75
353.22	83.75
353.447	85.75
353.674	80.75
353.901	85.75
354.128	86.75
354.355	76.75
354.583	85.75
354.81	77.75
355.037	89.75
355.264	83.75
355.491	88.75
355.718	85.75
355.945	81.75
356.172	80.75
356.399	86.75
356.626	92.75
356.853	72.75
357.08	84.75
357.307	90.75
357.534	73.75
357.761	85.75
357.988	88.75
358.215	86.75
358.441	88.75
358.668	91.75
358.895	84.75
359.122	85.75
359.349	88.75
359.576	93.75
359.802	100.75
360.029	97.75
360.256	79.75
360.483	90.75
360.709	72.75
360.936	85.75
361.163	83.75
361.39	83.75
361.616	93.75
361.843	78.75
362.07	88.75
362.296	81.75
362.523	70.75
362.749	83.75
362.976	75.75
363.203	86.75
363.429	88.75
363.656	85.75
363.882	84.75
364.109	100.75
364.335	90.75
364.562	78.75
364.788	76.75
365.015	98.75
365.241	86.75
365.468	82.75
365.694	75.75
365.92	82.75
366.147	71.75
366.373	81.75
366.599	94.75
366.826	90.75
367.052	98.75
367.278	97.75
367.505	94.75
367.731	92.75
367.957	81.75
368.184	87.75
368.41	87.75
368.636	89.75
368.862	81.75
369.089	90.75
369.315	88.75
369.541	91.75
369.767	98.75
369.993	89.75
370.219	80.75
370.445	64.75
370.672	82.75
370.898	91.75
371.124	87.75
371.35	82.75
371.576	78.75
371.802	78.75
372.028	73.75
372.254	83.75
372.48	87.75
372.706	73.75
372.932	78.75
373.158	78.75
373.384	94.75
373.61	92.75
373.835	86.75
374.061	74.75
374.287	88.75
374.513	85.75
374.739	79.75
374.965	91.75
375.191	86.75
375.416	89.75
375.642	87.75
375.868	83.75
376.094	78.75
376.319	83.75
376.545	63.75
376.771	66.75
376.997	99.75
377.222	103.75
377.448	75.75
377.674	86.75
377.899	73.75
378.125	69.75
378.35	81.75
378.576	94.75
378.802	92.75
379.027	81.75
379.253	72.75
379.478	87.75
379.704	81.75
379.929	89.75
380.155	77.75
380.38	84.75
380.606	77.75
380.831	84.75
381.057	92.75
381.282	94.75
381.507	93.75
381.733	78.75
381.958	83.75
382.184	88.75
382.409	95.75
382.634	85.75
382.86	98.75
383.085	83.75
383.31	78.75
383.535	82.75
383.761	95.75
383.986	100.75
384.211	88.75
384.436	85.75
384.662	96.75
384.887	81.75
385.112	89.75
385.337	95.75
385.562	84.75
385.787	77.75
386.013	79.75
386.238	80.75
386.463	87.75
386.688	90.75
386.913	71.75
387.138	77.75
387.363	74.75
387.588	89.75
387.813	82.75
388.038	76.75
388.263	101.75
388.488	86.75
388.713	82.75
388.938	73.75
389.163	87.75
389.387	81.75
389.612	99.75
389.837	82.75
390.062	87.75
390.287	98.75
390.512	86.75
390.736	70.75
390.961	81.75
391.186	69.75
391.411	92.75
391.636	86.75
391.86	75.75
392.085	86.75
392.31	77.75
392.534	86.75
392.759	101.75
392.984	93.75
393.208	103.75
393.433	103.75
393.658	105.75
393.882	99.75
394.107	78.75
394.331	83.75
394.556	87.75
394.78	76.75
395.005	86.75
395.229	87.75
395.454	73.75
395.678	85.75
395.903	83.75
396.127	97.75
396.352	94.75
396.576	106.75
396.801	109.75
397.025	108.75
397.249	81.75
397.474	90.75
397.698	66.75
397.922	102.75
398.147	89.75
398.371	97.75
398.595	75.75
398.82	87.75
399.044	77.75
399.268	90.75
399.492	100.75
399.717	87.75
399.941	102.75
400.165	80.75
400.389	81.75
400.613	91.75
400.837	71.75
401.062	83.75
401.286	81.75
401.51	80.75
401.734	71.75
401.958	85.75
402.182	88.75
402.406	93.75
402.63	81.75
402.854	68.75
403.078	82.75
403.302	88.75
403.526	80.75
403.75	89.75
403.974	84.75
404.198	88.75
404.422	105.75
404.645	107.75
404.869	102.75
405.093	81.75
405.317	95.75
405.541	89.75
405.765	97.75
405.988	103.75
406.212	79.75
406.436	87.75
406.66	76.75
406.883	71.75
407.107	70.75
407.331	100.75
407.555	83.75
407.778	85.75
408.002	91.75
408.226	89.75
408.449	86.75
408.673	70.75
408.896	95.75
409.12	79.75
409.344	74.75
409.567	73.75
409.791	98.75
410.014	90.75
410.238	90.75
410.461	83.75
410.685	81.75
410.908	77.75
411.132	94.75
411.355	84.75
411.578	78.75
411.802	78.75
412.025	86.75
412.249	81.75
412.472	98.75
412.695	99.75
412.919	84.75
413.142	84.75
413.365	80.75
413.589	80.75
413.812	82.75
414.035	95.75
414.258	84.75
414.482	69.75
414.705	69.75
414.928	76.75
415.151	86.75
415.374	88.75
415.597	77.75
415.821	74.75
416.044	93.75
416.267	82.75
416.49	68.75
416.713	79.75
416.936	79.75
417.159	82.75
417.382	83.75
417.605	85.75
417.828	89.75
418.051	83.75
418.274	78.75
418.497	77.75
418.72	78.75
418.943	86.75
419.166	85.75
419.389	67.75
419.611	78.75
419.834	90.75
420.057	83.75
420.28	81.75
420.503	93.75
420.726	69.75
420.948	86.75
421.171	82.75
421.394	87.75
421.617	83.75
421.839	89.75
422.062	107.75
422.285	101.75
422.507	108.75
422.73	131.75
422.953	116.75
423.175	97.75
423.398	99.75
423.621	89.75
423.843	81.75
424.066	92.75
424.288	94.75
424.511	97.75
424.733	89.75
424.956	87.75
425.178	75.75
425.401	73.75
425.623	72.75
425.846	77.75
426.068	85.75
426.291	81.75
426.513	82.75
426.735	86.75
426.958	88.75
427.18	84.75
427.402	77.75
427.625	94.75
427.847	90.75
428.069	87.75
428.292	77.75
428.514	92.75
428.736	95.75
428.958	93.75
429.181	96.75
429.403	93.75
429.625	77.75
429.847	107.75
430.069	92.75
430.292	98.75
430.514	90.75
430.736	85.75
430.958	91.75
431.18	97.75
431.402	81.75
431.624	70.75
431.846	99.75
432.068	93.75
432.29	82.75
432.512	81.75
432.734	85.75
432.956	90.75
433.178	94.75
433.4	79.75
433.622	76.75
433.844	81.75
434.066	88.75
434.287	91.75
434.509	78.75
434.731	93.75
434.953	95.75
435.175	97.75
435.397	85.75
435.618	71.75
435.84	87.75
436.062	79.75
436.284	87.75
436.505	79.75
436.727	74.75
436.949	83.75
437.17	79.75
437.392	82.75
437.614	75.75
437.835	79.75
438.057	83.75
438.278	88.75
438.5	78.75
438.721	83.75
438.943	85.75
439.165	82.75
439.386	74.75
439.608	86.75
439.829	78.75
440.05	80.75
440.272	94.75
440.493	71.75
440.715	82.75
440.936	78.75
441.158	93.75
441.379	92.75
441.6	84.75
441.822	72.75
442.043	92.75
442.264	86.75
442.486	82.75
442.707	95.75
442.928	93.75
443.149	81.75
443.371	93.75
443.592	112.75
443.813	102.75
444.034	89.75
444.255	84.75
444.476	78.75
444.698	81.75
444.919	84.75
445.14	153.75
445.361	131.75
445.582	143.75
445.803	106.75
446.024	93.75
446.245	92.75
446.466	84.75
446.687	82.75
446.908	85.75
447.129	81.75
447.35	72.75
447.571	62.75
447.792	75.75
448.013	83.75
448.234	73.75
448.455	80.75
448.675	92.75
448.896	71.75
449.117	71.75
449.338	98.75
449.559	82.75
449.779	74.75
450	79.75
450.221	85.75
450.442	79.75
450.662	83.75
450.883	82.75
451.104	86.75
451.324	77.75
451.545	80.75
451.766	71.75
451.986	91.75
452.207	73.75
452.428	93.75
452.648	91.75
452.869	81.75
453.089	82.75
453.31	81.75
453.53	87.75
453.751	88.75
453.971	77.75
454.192	86.75
454.412	86.75
454.633	84.75
454.853	68.75
455.073	92.75
455.294	92.75
455.514	93.75
455.734	89.75
455.955	82.75
456.175	76.75
456.395	90.75
456.616	91.75
456.836	73.75
457.056	83.75
457.276	73.75
457.497	77.75
457.717	90.75
457.937	75.75
458.157	77.75
458.377	87.75
458.598	75.75
458.818	85.75
459.038	82.75
459.258	83.75
459.478	86.75
459.698	81.75
459.918	103.75
460.138	84.75
460.358	90.75
460.578	93.75
460.798	91.75
461.018	106.75
461.238	86.75
461.458	87.75
461.678	82.75
461.898	91.75
462.118	92.75
462.338	89.75
462.558	92.75
462.777	76.75
462.997	91.75
463.217	67.75
463.437	82.75
463.657	85.75
463.876	77.75
464.096	86.75
464.316	82.75
464.536	65.75
464.755	98.75
464.975	74.75
465.195	92.75
465.414	90.75
465.634	83.75
465.854	70.75
466.073	86.75
466.293	82.75
466.512	79.75
466.732	93.75
466.951	80.75
467.171	73.75
467.391	78.75
467.61	71.75
467.829	85.75
468.049	76.75
468.268	83.75
468.488	79.75
468.707	77.75
468.927	87.75
469.146	90.75
469.365	83.75
469.585	85.75
469.804	77.75
470.023	87.75
470.243	72.75
470.462	85.75
470.681	78.75
470.901	75.75
471.12	89.75
471.339	82.75
471.558	72.75
471.777	92.75
471.997	89.75
472.216	84.75
472.435	85.75
472.654	70.75
472.873	99.75
473.092	91.75
473.311	85.75
473.53	71.75
473.749	86.75
473.968	89.75
474.187	69.75
474.406	76.75
474.625	99.75
474.844	84.75
475.063	88.75
475.282	86.75
475.501	84.75
475.72	81.75
475.939	70.75
476.158	85.75
476.377	83.75
476.596	83.75
476.814	84.75
477.033	81.75
477.252	85.75
477.471	82.75
477.69	83.75
477.908	76.75
478.127	86.75
478.346	77.75
478.564	94.75
478.783	86.75
479.002	86.75
479.22	91.75
479.439	74.75
479.658	77.75
479.876	76.75
480.095	78.75
480.313	83.75
480.532	88.75
480.751	87.75
480.969	78.75
481.188	95.75
481.406	80.75
481.624	103.75
481.843	92.75
482.061	89.75
482.28	85.75
482.498	93.75
482.717	94.75
482.935	72.75
483.153	89.75
483.372	86.75
483.59	86.75
483.808	83.75
484.027	83.75
484.245	76.75
484.463	85.75
484.681	91.75
484.9	76.75
485.118	84.75
485.336	90.75
485.554	95.75
485.772	87.75
485.99	68.75
486.209	83.75
486.427	100.75
486.645	85.75
486.863	83.75
487.081	91.75
487.299	83.75
487.517	94.75
487.735	97.75
487.953	84.75
488.171	81.75
488.389	84.75
488.607	70.75
488.825	85.75
489.043	85.75
489.261	87.75
489.479	84.75
489.696	84.75
489.914	77.75
490.132	86.75
490.35	88.75
490.568	92.75
490.786	90.75
491.003	83.75
491.221	81.75
491.439	80.75
491.657	85.75
491.874	86.75
492.092	86.75
492.31	90.75
492.527	75.75
492.745	77.75
492.963	86.75
493.18	79.75
493.398	70.75
493.615	81.75
493.833	79.75
494.05	96.75
494.268	105.75
494.485	73.75
494.703	81.75
494.92	79.75
495.138	82.75
495.355	89.75
495.573	86.75
495.79	92.75
496.008	102.75
496.225	83.75
496.442	75.75
496.66	91.75
496.877	86.75
497.094	91.75
497.312	77.75
497.529	87.75
497.746	91.75
497.963	90.75
498.181	71.75
498.398	79.75
498.615	91.75
498.832	81.75
499.049	94.75
499.267	92.75
499.484	82.75
499.701	90.75
499.918	92.75
500.135	94.75
500.352	67.75
500.569	91.75
500.786	80.75
501.003	80.75
501.22	86.75
501.437	89.75
501.654	91.75
501.871	83.75
502.088	75.75
502.305	92.75
502.522	85.75
502.739	84.75
502.956	97.75
503.172	88.75
503.389	91.75
503.606	101.75
503.823	100.75
504.04	92.75
504.256	96.75
504.473	89.75
504.69	88.75
504.907	92.75
505.123	99.75
505.34	73.75
505.557	92.75
505.773	99.75
505.99	79.75
506.207	79.75
506.423	98.75
506.64	86.75
506.856	80.75
507.073	80.75
507.289	81.75
507.506	93.75
507.722	95.75
507.939	85.75
508.155	79.75
508.372	78.75
508.588	87.75
508.805	85.75
509.021	80.75
509.238	84.75
509.454	85.75
509.67	91.75
509.887	90.75
510.103	93.75
510.319	90.75
510.536	92.75
510.752	90.75
510.968	86.75
511.184	71.75
511.401	85.75
511.617	96.75
511.833	106.75
512.049	93.75
512.265	82.75
512.481	94.75
512.698	97.75
512.914	82.75
513.13	78.75
513.346	75.75
513.562	92.75
513.778	93.75
513.994	98.75
514.21	92.75
514.426	98.75
514.642	85.75
514.858	81.75
515.074	90.75
515.29	76.75
515.506	92.75
515.721	86.75
515.937	85.75
516.153	70.75
516.369	100.75
516.585	78.75
516.801	95.75
517.016	93.75
517.232	79.75
517.448	84.75
517.664	83.75
517.879	78.75
518.095	79.75
518.311	82.75
518.527	94.75
518.742	82.75
518.958	83.75
519.173	89.75
519.389	80.75
519.605	72.75
