Data from Mixnoheat2_HRD10591_00020.txt Node
Date: Fri Dec 27 14:59:59 EST 2024
User: Yrep
Spectrometer: HR+D1059
Trigger mode: 1
Integration Time (sec): 1.000000E-1
Scans to average: 1
Electric dark correction enabled: true
Nonlinearity correction enabled: false
Boxcar width: 0
XAxis mode: Wavelengths
Number of Pixels in Spectrum: 2048
>>>>>Begin Spectral Data<<<<<
223.165	-23.38
223.4	-23.38
223.635	-23.38
223.869	-19.38
224.104	-13.38
224.338	-13.38
224.573	4.62
224.808	-21.38
225.042	-10.38
225.277	-5.38
225.511	-7.38
225.746	-0.38
225.98	7.62
226.215	13.62
226.449	6.62
226.683	26.62
226.918	20.62
227.152	34.62
227.387	30.62
227.621	40.62
227.856	43.62
228.09	43.62
228.324	43.62
228.559	60.62
228.793	63.62
229.027	56.62
229.262	59.62
229.496	60.62
229.73	71.62
229.964	73.62
230.199	72.62
230.433	65.62
230.667	80.62
230.901	81.62
231.136	70.62
231.37	81.62
231.604	85.62
231.838	83.62
232.072	84.62
232.306	74.62
232.541	74.62
232.775	71.62
233.009	70.62
233.243	82.62
233.477	76.62
233.711	78.62
233.945	80.62
234.179	79.62
234.413	97.62
234.647	77.62
234.881	83.62
235.115	82.62
235.349	92.62
235.583	85.62
235.817	72.62
236.051	75.62
236.285	78.62
236.519	70.62
236.753	77.62
236.987	72.62
237.221	83.62
237.455	72.62
237.689	68.62
237.922	74.62
238.156	75.62
238.39	67.62
238.624	70.62
238.858	70.62
239.091	78.62
239.325	64.62
239.559	82.62
239.793	78.62
240.027	88.62
240.26	75.62
240.494	76.62
240.728	73.62
240.961	84.62
241.195	80.62
241.429	79.62
241.662	82.62
241.896	84.62
242.13	79.62
242.363	71.62
242.597	87.62
242.83	72.62
243.064	75.62
243.298	80.62
243.531	72.62
243.765	69.62
243.998	84.62
244.232	96.62
244.465	77.62
244.699	86.62
244.932	66.62
245.166	82.62
245.399	83.62
245.633	82.62
245.866	72.62
246.099	88.62
246.333	79.62
246.566	82.62
246.8	83.62
247.033	75.62
247.266	82.62
247.5	83.62
247.733	66.62
247.966	65.62
248.2	67.62
248.433	68.62
248.666	81.62
248.899	70.62
249.133	62.62
249.366	79.62
249.599	76.62
249.832	78.62
250.066	85.62
250.299	84.62
250.532	92.62
250.765	68.62
250.998	85.62
251.231	87.62
251.465	94.62
251.698	74.62
251.931	82.62
252.164	69.62
252.397	69.62
252.63	74.62
252.863	86.62
253.096	79.62
253.329	74.62
253.562	57.62
253.795	74.62
254.028	87.62
254.261	80.62
254.494	76.62
254.727	65.62
254.96	72.62
255.193	70.62
255.426	90.62
255.659	82.62
255.892	86.62
256.124	83.62
256.357	68.62
256.59	94.62
256.823	76.62
257.056	67.62
257.289	88.62
257.521	81.62
257.754	71.62
257.987	79.62
258.22	85.62
258.452	70.62
258.685	84.62
258.918	81.62
259.151	63.62
259.383	76.62
259.616	70.62
259.849	84.62
260.081	75.62
260.314	92.62
260.547	68.62
260.779	67.62
261.012	84.62
261.244	78.62
261.477	87.62
261.71	69.62
261.942	91.62
262.175	84.62
262.407	78.62
262.64	95.62
262.872	90.62
263.105	75.62
263.337	99.62
263.57	76.62
263.802	82.62
264.035	86.62
264.267	82.62
264.499	90.62
264.732	81.62
264.964	84.62
265.197	84.62
265.429	75.62
265.661	72.62
265.894	88.62
266.126	78.62
266.358	86.62
266.591	87.62
266.823	76.62
267.055	69.62
267.287	75.62
267.52	83.62
267.752	82.62
267.984	82.62
268.216	86.62
268.448	80.62
268.681	89.62
268.913	85.62
269.145	92.62
269.377	86.62
269.609	74.62
269.841	77.62
270.073	86.62
270.306	89.62
270.538	73.62
270.77	62.62
271.002	75.62
271.234	75.62
271.466	67.62
271.698	77.62
271.93	77.62
272.162	89.62
272.394	85.62
272.626	77.62
272.858	91.62
273.09	80.62
273.322	86.62
273.553	77.62
273.785	77.62
274.017	86.62
274.249	89.62
274.481	80.62
274.713	83.62
274.945	79.62
275.176	101.62
275.408	83.62
275.64	95.62
275.872	99.62
276.104	85.62
276.335	72.62
276.567	83.62
276.799	55.62
277.031	82.62
277.262	76.62
277.494	89.62
277.726	78.62
277.957	82.62
278.189	76.62
278.421	88.62
278.652	82.62
278.884	78.62
279.115	84.62
279.347	90.62
279.579	71.62
279.81	84.62
280.042	92.62
280.273	77.62
280.505	84.62
280.736	79.62
280.968	91.62
281.199	100.62
281.431	86.62
281.662	78.62
281.894	91.62
282.125	78.62
282.356	69.62
282.588	85.62
282.819	87.62
283.051	73.62
283.282	80.62
283.513	91.62
283.745	80.62
283.976	92.62
284.207	87.62
284.439	76.62
284.67	80.62
284.901	71.62
285.132	90.62
285.364	72.62
285.595	82.62
285.826	78.62
286.057	97.62
286.288	95.62
286.52	85.62
286.751	81.62
286.982	76.62
287.213	77.62
287.444	79.62
287.675	84.62
287.906	89.62
288.138	87.62
288.369	88.62
288.6	78.62
288.831	94.62
289.062	78.62
289.293	76.62
289.524	87.62
289.755	74.62
289.986	79.62
290.217	70.62
290.448	64.62
290.679	80.62
290.91	83.62
291.141	104.62
291.371	93.62
291.602	87.62
291.833	91.62
292.064	95.62
292.295	83.62
292.526	92.62
292.757	75.62
292.987	74.62
293.218	80.62
293.449	84.62
293.68	93.62
293.91	92.62
294.141	84.62
294.372	83.62
294.603	77.62
294.833	76.62
295.064	91.62
295.295	83.62
295.525	86.62
295.756	78.62
295.987	75.62
296.217	94.62
296.448	89.62
296.679	79.62
296.909	77.62
297.14	89.62
297.37	90.62
297.601	70.62
297.831	86.62
298.062	92.62
298.292	82.62
298.523	88.62
298.753	78.62
298.984	88.62
299.214	92.62
299.445	82.62
299.675	78.62
299.905	86.62
300.136	90.62
300.366	93.62
300.597	87.62
300.827	83.62
301.057	76.62
301.288	78.62
301.518	86.62
301.748	94.62
301.979	98.62
302.209	82.62
302.439	75.62
302.669	73.62
302.9	88.62
303.13	86.62
303.36	83.62
303.59	93.62
303.82	86.62
304.051	86.62
304.281	81.62
304.511	87.62
304.741	91.62
304.971	76.62
305.201	68.62
305.431	83.62
305.661	71.62
305.891	83.62
306.121	88.62
306.352	85.62
306.582	76.62
306.812	85.62
307.042	98.62
307.272	98.62
307.502	92.62
307.731	84.62
307.961	85.62
308.191	92.62
308.421	82.62
308.651	93.62
308.881	80.62
309.111	71.62
309.341	85.62
309.571	84.62
309.8	72.62
310.03	84.62
310.26	85.62
310.49	83.62
310.72	88.62
310.949	93.62
311.179	78.62
311.409	90.62
311.639	85.62
311.868	88.62
312.098	76.62
312.328	82.62
312.557	89.62
312.787	85.62
313.017	86.62
313.246	88.62
313.476	86.62
313.706	82.62
313.935	76.62
314.165	89.62
314.394	64.62
314.624	100.62
314.853	85.62
315.083	87.62
315.312	87.62
315.542	82.62
315.771	76.62
316.001	91.62
316.23	87.62
316.46	91.62
316.689	91.62
316.919	89.62
317.148	94.62
317.377	96.62
317.607	86.62
317.836	103.62
318.065	92.62
318.295	76.62
318.524	88.62
318.753	78.62
318.983	78.62
319.212	79.62
319.441	90.62
319.67	85.62
319.9	85.62
320.129	83.62
320.358	90.62
320.587	90.62
320.816	78.62
321.046	88.62
321.275	92.62
321.504	78.62
321.733	86.62
321.962	88.62
322.191	82.62
322.42	82.62
322.649	89.62
322.878	85.62
323.108	85.62
323.337	88.62
323.566	89.62
323.795	79.62
324.024	100.62
324.253	90.62
324.482	85.62
324.71	82.62
324.939	76.62
325.168	78.62
325.397	77.62
325.626	85.62
325.855	82.62
326.084	88.62
326.313	79.62
326.542	78.62
326.77	87.62
326.999	85.62
327.228	84.62
327.457	80.62
327.686	81.62
327.914	78.62
328.143	88.62
328.372	81.62
328.6	89.62
328.829	82.62
329.058	70.62
329.287	91.62
329.515	89.62
329.744	81.62
329.972	65.62
330.201	94.62
330.43	83.62
330.658	82.62
330.887	72.62
331.115	89.62
331.344	86.62
331.572	80.62
331.801	57.62
332.03	88.62
332.258	86.62
332.486	91.62
332.715	79.62
332.943	84.62
333.172	90.62
333.4	87.62
333.629	90.62
333.857	85.62
334.085	83.62
334.314	72.62
334.542	82.62
334.771	81.62
334.999	100.62
335.227	85.62
335.455	85.62
335.684	80.62
335.912	71.62
336.14	85.62
336.369	75.62
336.597	83.62
336.825	72.62
337.053	76.62
337.281	82.62
337.51	72.62
337.738	84.62
337.966	86.62
338.194	83.62
338.422	80.62
338.65	101.62
338.878	72.62
339.106	84.62
339.334	92.62
339.562	75.62
339.79	68.62
340.018	84.62
340.246	81.62
340.474	76.62
340.702	91.62
340.93	87.62
341.158	78.62
341.386	84.62
341.614	101.62
341.842	95.62
342.07	80.62
342.298	93.62
342.526	80.62
342.754	79.62
342.981	75.62
343.209	94.62
343.437	110.62
343.665	67.62
343.893	85.62
344.12	89.62
344.348	76.62
344.576	72.62
344.804	100.62
345.031	75.62
345.259	75.62
345.487	80.62
345.714	95.62
345.942	84.62
346.17	93.62
346.397	93.62
346.625	82.62
346.853	85.62
347.08	98.62
347.308	96.62
347.535	80.62
347.763	95.62
347.99	104.62
348.218	91.62
348.445	78.62
348.673	87.62
348.9	82.62
349.128	75.62
349.355	76.62
349.583	92.62
349.81	89.62
350.037	82.62
350.265	82.62
350.492	92.62
350.72	82.62
350.947	71.62
351.174	98.62
351.402	92.62
351.629	92.62
351.856	78.62
352.083	84.62
352.311	79.62
352.538	70.62
352.765	83.62
352.992	82.62
353.22	86.62
353.447	89.62
353.674	82.62
353.901	87.62
354.128	90.62
354.355	90.62
354.583	76.62
354.81	89.62
355.037	82.62
355.264	93.62
355.491	86.62
355.718	77.62
355.945	89.62
356.172	83.62
356.399	78.62
356.626	79.62
356.853	78.62
357.08	88.62
357.307	82.62
357.534	78.62
357.761	90.62
357.988	98.62
358.215	87.62
358.441	84.62
358.668	70.62
358.895	83.62
359.122	80.62
359.349	77.62
359.576	69.62
359.802	74.62
360.029	69.62
360.256	82.62
360.483	83.62
360.709	80.62
360.936	78.62
361.163	90.62
361.39	82.62
361.616	78.62
361.843	76.62
362.07	91.62
362.296	86.62
362.523	96.62
362.749	77.62
362.976	86.62
363.203	101.62
363.429	80.62
363.656	85.62
363.882	90.62
364.109	99.62
364.335	85.62
364.562	98.62
364.788	95.62
365.015	90.62
365.241	98.62
365.468	100.62
365.694	81.62
365.92	92.62
366.147	75.62
366.373	70.62
366.599	88.62
366.826	88.62
367.052	71.62
367.278	89.62
367.505	84.62
367.731	95.62
367.957	94.62
368.184	77.62
368.41	81.62
368.636	78.62
368.862	77.62
369.089	74.62
369.315	94.62
369.541	83.62
369.767	103.62
369.993	77.62
370.219	72.62
370.445	87.62
370.672	84.62
370.898	79.62
371.124	76.62
371.35	79.62
371.576	79.62
371.802	87.62
372.028	91.62
372.254	81.62
372.48	78.62
372.706	78.62
372.932	63.62
373.158	93.62
373.384	85.62
373.61	91.62
373.835	79.62
374.061	76.62
374.287	85.62
374.513	111.62
374.739	79.62
374.965	92.62
375.191	70.62
375.416	83.62
375.642	93.62
375.868	91.62
376.094	91.62
376.319	74.62
376.545	83.62
376.771	86.62
376.997	96.62
377.222	72.62
377.448	69.62
377.674	77.62
377.899	82.62
378.125	79.62
378.35	82.62
378.576	83.62
378.802	79.62
379.027	95.62
379.253	70.62
379.478	75.62
379.704	83.62
379.929	72.62
380.155	76.62
380.38	93.62
380.606	83.62
380.831	87.62
381.057	92.62
381.282	79.62
381.507	80.62
381.733	92.62
381.958	76.62
382.184	96.62
382.409	86.62
382.634	104.62
382.86	77.62
383.085	76.62
383.31	82.62
383.535	75.62
383.761	109.62
383.986	86.62
384.211	74.62
384.436	77.62
384.662	87.62
384.887	91.62
385.112	87.62
385.337	79.62
385.562	77.62
385.787	68.62
386.013	79.62
386.238	77.62
386.463	83.62
386.688	89.62
386.913	90.62
387.138	87.62
387.363	68.62
387.588	75.62
387.813	82.62
388.038	94.62
388.263	69.62
388.488	84.62
388.713	87.62
388.938	86.62
389.163	78.62
389.387	86.62
389.612	81.62
389.837	90.62
390.062	78.62
390.287	91.62
390.512	68.62
390.736	78.62
390.961	74.62
391.186	79.62
391.411	68.62
391.636	98.62
391.86	69.62
392.085	77.62
392.31	99.62
392.534	70.62
392.759	87.62
392.984	90.62
393.208	101.62
393.433	116.62
393.658	110.62
393.882	84.62
394.107	95.62
394.331	89.62
394.556	106.62
394.78	82.62
395.005	89.62
395.229	84.62
395.454	91.62
395.678	88.62
395.903	88.62
396.127	84.62
396.352	90.62
396.576	73.62
396.801	98.62
397.025	106.62
397.249	95.62
397.474	96.62
397.698	86.62
397.922	71.62
398.147	88.62
398.371	86.62
398.595	84.62
398.82	82.62
399.044	77.62
399.268	88.62
399.492	96.62
399.717	101.62
399.941	92.62
400.165	90.62
400.389	85.62
400.613	95.62
400.837	81.62
401.062	78.62
401.286	82.62
401.51	88.62
401.734	84.62
401.958	87.62
402.182	82.62
402.406	84.62
402.63	82.62
402.854	75.62
403.078	76.62
403.302	88.62
403.526	91.62
403.75	102.62
403.974	88.62
404.198	98.62
404.422	82.62
404.645	102.62
404.869	89.62
405.093	102.62
405.317	94.62
405.541	77.62
405.765	95.62
405.988	89.62
406.212	84.62
406.436	76.62
406.66	87.62
406.883	79.62
407.107	85.62
407.331	94.62
407.555	78.62
407.778	82.62
408.002	85.62
408.226	90.62
408.449	78.62
408.673	71.62
408.896	83.62
409.12	81.62
409.344	85.62
409.567	71.62
409.791	88.62
410.014	82.62
410.238	78.62
410.461	107.62
410.685	88.62
410.908	98.62
411.132	87.62
411.355	95.62
411.578	81.62
411.802	75.62
412.025	78.62
412.249	75.62
412.472	86.62
412.695	83.62
412.919	86.62
413.142	79.62
413.365	88.62
413.589	95.62
413.812	79.62
414.035	84.62
414.258	90.62
414.482	82.62
414.705	84.62
414.928	88.62
415.151	88.62
415.374	81.62
415.597	87.62
415.821	75.62
416.044	73.62
416.267	93.62
416.49	80.62
416.713	91.62
416.936	88.62
417.159	81.62
417.382	76.62
417.605	74.62
417.828	59.62
418.051	80.62
418.274	84.62
418.497	77.62
418.72	83.62
418.943	91.62
419.166	99.62
419.389	90.62
419.611	83.62
419.834	83.62
420.057	62.62
420.28	72.62
420.503	82.62
420.726	79.62
420.948	87.62
421.171	83.62
421.394	68.62
421.617	79.62
421.839	81.62
422.062	101.62
422.285	101.62
422.507	111.62
422.73	134.62
422.953	133.62
423.175	103.62
423.398	93.62
423.621	104.62
423.843	101.62
424.066	94.62
424.288	84.62
424.511	87.62
424.733	76.62
424.956	88.62
425.178	70.62
425.401	80.62
425.623	72.62
425.846	76.62
426.068	86.62
426.291	85.62
426.513	76.62
426.735	79.62
426.958	80.62
427.18	86.62
427.402	78.62
427.625	83.62
427.847	76.62
428.069	88.62
428.292	81.62
428.514	92.62
428.736	103.62
428.958	98.62
429.181	81.62
429.403	98.62
429.625	80.62
429.847	88.62
430.069	103.62
430.292	120.62
430.514	101.62
430.736	83.62
430.958	90.62
431.18	93.62
431.402	81.62
431.624	87.62
431.846	84.62
432.068	99.62
432.29	91.62
432.512	83.62
432.734	76.62
432.956	90.62
433.178	81.62
433.4	89.62
433.622	87.62
433.844	94.62
434.066	96.62
434.287	83.62
434.509	83.62
434.731	84.62
434.953	72.62
435.175	96.62
435.397	85.62
435.618	79.62
435.84	79.62
436.062	93.62
436.284	89.62
436.505	78.62
436.727	65.62
436.949	83.62
437.17	95.62
437.392	74.62
437.614	76.62
437.835	76.62
438.057	83.62
438.278	82.62
438.5	94.62
438.721	91.62
438.943	77.62
439.165	82.62
439.386	83.62
439.608	71.62
439.829	75.62
440.05	84.62
440.272	80.62
440.493	94.62
440.715	80.62
440.936	91.62
441.158	85.62
441.379	68.62
441.6	72.62
441.822	84.62
442.043	85.62
442.264	88.62
442.486	94.62
442.707	107.62
442.928	93.62
443.149	84.62
443.371	95.62
443.592	126.62
443.813	116.62
444.034	88.62
444.255	82.62
444.476	80.62
444.698	84.62
444.919	98.62
445.14	147.62
445.361	130.62
445.582	138.62
445.803	100.62
446.024	93.62
446.245	84.62
446.466	61.62
446.687	79.62
446.908	82.62
447.129	96.62
447.35	83.62
447.571	92.62
447.792	82.62
448.013	78.62
448.234	80.62
448.455	79.62
448.675	81.62
448.896	79.62
449.117	81.62
449.338	94.62
449.559	84.62
449.779	78.62
450	82.62
450.221	66.62
450.442	91.62
450.662	71.62
450.883	73.62
451.104	78.62
451.324	90.62
451.545	89.62
451.766	67.62
451.986	84.62
452.207	103.62
452.428	80.62
452.648	85.62
452.869	79.62
453.089	98.62
453.31	80.62
453.53	84.62
453.751	79.62
453.971	82.62
454.192	80.62
454.412	86.62
454.633	86.62
454.853	87.62
455.073	81.62
455.294	86.62
455.514	91.62
455.734	86.62
455.955	93.62
456.175	79.62
456.395	69.62
456.616	71.62
456.836	63.62
457.056	81.62
457.276	77.62
457.497	85.62
457.717	90.62
457.937	86.62
458.157	95.62
458.377	87.62
458.598	87.62
458.818	90.62
459.038	79.62
459.258	76.62
459.478	84.62
459.698	83.62
459.918	85.62
460.138	77.62
460.358	80.62
460.578	89.62
460.798	91.62
461.018	88.62
461.238	85.62
461.458	76.62
461.678	68.62
461.898	95.62
462.118	81.62
462.338	85.62
462.558	85.62
462.777	73.62
462.997	98.62
463.217	92.62
463.437	90.62
463.657	73.62
463.876	92.62
464.096	71.62
464.316	66.62
464.536	97.62
464.755	92.62
464.975	83.62
465.195	80.62
465.414	77.62
465.634	75.62
465.854	90.62
466.073	82.62
466.293	75.62
466.512	80.62
466.732	79.62
466.951	64.62
467.171	67.62
467.391	78.62
467.61	79.62
467.829	83.62
468.049	79.62
468.268	90.62
468.488	87.62
468.707	83.62
468.927	93.62
469.146	78.62
469.365	72.62
469.585	81.62
469.804	79.62
470.023	85.62
470.243	73.62
470.462	81.62
470.681	89.62
470.901	85.62
471.12	84.62
471.339	80.62
471.558	83.62
471.777	86.62
471.997	85.62
472.216	93.62
472.435	89.62
472.654	86.62
472.873	80.62
473.092	92.62
473.311	89.62
473.53	78.62
473.749	71.62
473.968	95.62
474.187	81.62
474.406	85.62
474.625	79.62
474.844	84.62
475.063	89.62
475.282	75.62
475.501	83.62
475.72	87.62
475.939	77.62
476.158	85.62
476.377	85.62
476.596	80.62
476.814	67.62
477.033	76.62
477.252	81.62
477.471	91.62
477.69	77.62
477.908	78.62
478.127	79.62
478.346	86.62
478.564	79.62
478.783	78.62
479.002	84.62
479.22	84.62
479.439	83.62
479.658	83.62
479.876	87.62
480.095	86.62
480.313	95.62
480.532	86.62
480.751	89.62
480.969	79.62
481.188	83.62
481.406	80.62
481.624	86.62
481.843	89.62
482.061	70.62
482.28	90.62
482.498	94.62
482.717	84.62
482.935	91.62
483.153	71.62
483.372	89.62
483.59	78.62
483.808	87.62
484.027	94.62
484.245	79.62
484.463	76.62
484.681	78.62
484.9	91.62
485.118	80.62
485.336	72.62
485.554	80.62
485.772	83.62
485.99	84.62
486.209	83.62
486.427	84.62
486.645	91.62
486.863	69.62
487.081	88.62
487.299	87.62
487.517	83.62
487.735	95.62
487.953	103.62
488.171	109.62
488.389	80.62
488.607	82.62
488.825	75.62
489.043	87.62
489.261	89.62
489.479	69.62
489.696	77.62
489.914	85.62
490.132	75.62
490.35	91.62
490.568	91.62
490.786	90.62
491.003	75.62
491.221	78.62
491.439	79.62
491.657	83.62
491.874	84.62
492.092	87.62
492.31	87.62
492.527	95.62
492.745	80.62
492.963	89.62
493.18	81.62
493.398	72.62
493.615	81.62
493.833	97.62
494.05	77.62
494.268	76.62
494.485	88.62
494.703	85.62
494.92	85.62
495.138	85.62
495.355	93.62
495.573	93.62
495.79	91.62
496.008	87.62
496.225	73.62
496.442	78.62
496.66	89.62
496.877	83.62
497.094	82.62
497.312	85.62
497.529	84.62
497.746	83.62
497.963	82.62
498.181	92.62
498.398	79.62
498.615	85.62
498.832	87.62
499.049	92.62
499.267	86.62
499.484	84.62
499.701	75.62
499.918	86.62
500.135	88.62
500.352	78.62
500.569	85.62
500.786	80.62
501.003	91.62
501.22	84.62
501.437	81.62
501.654	73.62
501.871	84.62
502.088	78.62
502.305	81.62
502.522	67.62
502.739	84.62
502.956	75.62
503.172	87.62
503.389	86.62
503.606	76.62
503.823	86.62
504.04	82.62
504.256	85.62
504.473	99.62
504.69	82.62
504.907	96.62
505.123	79.62
505.34	84.62
505.557	87.62
505.773	90.62
505.99	78.62
506.207	93.62
506.423	74.62
506.64	85.62
506.856	80.62
507.073	99.62
507.289	93.62
507.506	80.62
507.722	77.62
507.939	103.62
508.155	87.62
508.372	91.62
508.588	82.62
508.805	92.62
509.021	80.62
509.238	77.62
509.454	86.62
509.67	79.62
509.887	84.62
510.103	76.62
510.319	94.62
510.536	94.62
510.752	94.62
510.968	83.62
511.184	91.62
511.401	88.62
511.617	88.62
511.833	85.62
512.049	85.62
512.265	78.62
512.481	80.62
512.698	91.62
512.914	84.62
513.13	86.62
513.346	90.62
513.562	82.62
513.778	88.62
513.994	75.62
514.21	89.62
514.426	80.62
514.642	76.62
514.858	82.62
515.074	78.62
515.29	95.62
515.506	87.62
515.721	86.62
515.937	90.62
516.153	79.62
516.369	67.62
516.585	78.62
516.801	89.62
517.016	85.62
517.232	91.62
517.448	99.62
517.664	84.62
517.879	80.62
518.095	87.62
518.311	77.62
518.527	84.62
518.742	82.62
518.958	69.62
519.173	113.62
519.389	76.62
519.605	77.62
