Data from Mixnoheat2_HRD10591_00011.txt Node
Date: Fri Dec 27 14:59:50 EST 2024
User: Yrep
Spectrometer: HR+D1059
Trigger mode: 1
Integration Time (sec): 1.000000E-1
Scans to average: 1
Electric dark correction enabled: true
Nonlinearity correction enabled: false
Boxcar width: 0
XAxis mode: Wavelengths
Number of Pixels in Spectrum: 2048
>>>>>Begin Spectral Data<<<<<
223.165	-6.19
223.4	-6.19
223.635	-6.19
223.869	-10.19
224.104	-9.19
224.338	-21.19
224.573	-17.19
224.808	-15.19
225.042	-4.19
225.277	-7.19
225.511	-8.19
225.746	-8.19
225.98	10.81
226.215	5.81
226.449	15.81
226.683	22.81
226.918	18.81
227.152	32.81
227.387	52.81
227.621	35.81
227.856	37.81
228.09	50.81
228.324	45.81
228.559	55.81
228.793	39.81
229.027	51.81
229.262	60.81
229.496	67.81
229.73	64.81
229.964	68.81
230.199	68.81
230.433	75.81
230.667	72.81
230.901	74.81
231.136	67.81
231.37	86.81
231.604	74.81
231.838	75.81
232.072	79.81
232.306	80.81
232.541	64.81
232.775	69.81
233.009	58.81
233.243	90.81
233.477	85.81
233.711	72.81
233.945	72.81
234.179	76.81
234.413	80.81
234.647	75.81
234.881	71.81
235.115	70.81
235.349	59.81
235.583	79.81
235.817	89.81
236.051	83.81
236.285	63.81
236.519	78.81
236.753	56.81
236.987	73.81
237.221	79.81
237.455	74.81
237.689	71.81
237.922	70.81
238.156	73.81
238.39	78.81
238.624	63.81
238.858	74.81
239.091	67.81
239.325	69.81
239.559	60.81
239.793	72.81
240.027	80.81
240.26	70.81
240.494	72.81
240.728	69.81
240.961	84.81
241.195	76.81
241.429	57.81
241.662	75.81
241.896	80.81
242.13	78.81
242.363	61.81
242.597	75.81
242.83	86.81
243.064	84.81
243.298	72.81
243.531	72.81
243.765	68.81
243.998	65.81
244.232	73.81
244.465	69.81
244.699	60.81
244.932	74.81
245.166	68.81
245.399	74.81
245.633	64.81
245.866	61.81
246.099	67.81
246.333	66.81
246.566	69.81
246.8	79.81
247.033	78.81
247.266	57.81
247.5	65.81
247.733	70.81
247.966	71.81
248.2	77.81
248.433	74.81
248.666	80.81
248.899	65.81
249.133	65.81
249.366	82.81
249.599	78.81
249.832	63.81
250.066	79.81
250.299	73.81
250.532	65.81
250.765	78.81
250.998	89.81
251.231	76.81
251.465	66.81
251.698	80.81
251.931	86.81
252.164	85.81
252.397	65.81
252.63	72.81
252.863	65.81
253.096	69.81
253.329	82.81
253.562	82.81
253.795	79.81
254.028	84.81
254.261	77.81
254.494	74.81
254.727	80.81
254.96	73.81
255.193	68.81
255.426	75.81
255.659	75.81
255.892	66.81
256.124	77.81
256.357	60.81
256.59	65.81
256.823	69.81
257.056	73.81
257.289	79.81
257.521	77.81
257.754	67.81
257.987	72.81
258.22	82.81
258.452	70.81
258.685	74.81
258.918	76.81
259.151	76.81
259.383	66.81
259.616	87.81
259.849	79.81
260.081	66.81
260.314	81.81
260.547	80.81
260.779	73.81
261.012	89.81
261.244	78.81
261.477	88.81
261.71	79.81
261.942	70.81
262.175	84.81
262.407	77.81
262.64	69.81
262.872	65.81
263.105	84.81
263.337	70.81
263.57	81.81
263.802	89.81
264.035	80.81
264.267	72.81
264.499	74.81
264.732	69.81
264.964	87.81
265.197	69.81
265.429	85.81
265.661	82.81
265.894	73.81
266.126	84.81
266.358	86.81
266.591	77.81
266.823	80.81
267.055	81.81
267.287	70.81
267.52	68.81
267.752	78.81
267.984	73.81
268.216	73.81
268.448	71.81
268.681	76.81
268.913	80.81
269.145	95.81
269.377	72.81
269.609	79.81
269.841	88.81
270.073	83.81
270.306	66.81
270.538	78.81
270.77	70.81
271.002	84.81
271.234	78.81
271.466	82.81
271.698	76.81
271.93	78.81
272.162	63.81
272.394	87.81
272.626	76.81
272.858	81.81
273.09	66.81
273.322	84.81
273.553	81.81
273.785	73.81
274.017	70.81
274.249	56.81
274.481	78.81
274.713	55.81
274.945	86.81
275.176	81.81
275.408	71.81
275.64	79.81
275.872	75.81
276.104	74.81
276.335	84.81
276.567	80.81
276.799	78.81
277.031	71.81
277.262	79.81
277.494	78.81
277.726	71.81
277.957	78.81
278.189	83.81
278.421	72.81
278.652	74.81
278.884	88.81
279.115	87.81
279.347	76.81
279.579	83.81
279.81	75.81
280.042	80.81
280.273	85.81
280.505	72.81
280.736	85.81
280.968	77.81
281.199	78.81
281.431	76.81
281.662	67.81
281.894	80.81
282.125	86.81
282.356	77.81
282.588	85.81
282.819	84.81
283.051	66.81
283.282	88.81
283.513	85.81
283.745	82.81
283.976	79.81
284.207	75.81
284.439	89.81
284.67	62.81
284.901	73.81
285.132	70.81
285.364	92.81
285.595	76.81
285.826	74.81
286.057	82.81
286.288	83.81
286.52	79.81
286.751	89.81
286.982	86.81
287.213	97.81
287.444	86.81
287.675	84.81
287.906	65.81
288.138	85.81
288.369	86.81
288.6	84.81
288.831	82.81
289.062	80.81
289.293	78.81
289.524	89.81
289.755	79.81
289.986	68.81
290.217	85.81
290.448	78.81
290.679	83.81
290.91	75.81
291.141	70.81
291.371	73.81
291.602	72.81
291.833	88.81
292.064	74.81
292.295	63.81
292.526	92.81
292.757	95.81
292.987	86.81
293.218	74.81
293.449	79.81
293.68	79.81
293.91	87.81
294.141	82.81
294.372	59.81
294.603	70.81
294.833	79.81
295.064	68.81
295.295	70.81
295.525	87.81
295.756	86.81
295.987	82.81
296.217	83.81
296.448	76.81
296.679	82.81
296.909	90.81
297.14	80.81
297.37	80.81
297.601	75.81
297.831	76.81
298.062	84.81
298.292	83.81
298.523	73.81
298.753	76.81
298.984	80.81
299.214	81.81
299.445	84.81
299.675	82.81
299.905	83.81
300.136	94.81
300.366	72.81
300.597	78.81
300.827	86.81
301.057	64.81
301.288	86.81
301.518	81.81
301.748	93.81
301.979	104.81
302.209	87.81
302.439	74.81
302.669	82.81
302.9	88.81
303.13	83.81
303.36	70.81
303.59	70.81
303.82	73.81
304.051	86.81
304.281	83.81
304.511	79.81
304.741	92.81
304.971	86.81
305.201	75.81
305.431	89.81
305.661	83.81
305.891	87.81
306.121	78.81
306.352	70.81
306.582	80.81
306.812	91.81
307.042	76.81
307.272	74.81
307.502	73.81
307.731	70.81
307.961	79.81
308.191	88.81
308.421	81.81
308.651	82.81
308.881	84.81
309.111	84.81
309.341	91.81
309.571	91.81
309.8	70.81
310.03	82.81
310.26	80.81
310.49	78.81
310.72	98.81
310.949	79.81
311.179	80.81
311.409	81.81
311.639	91.81
311.868	75.81
312.098	100.81
312.328	86.81
312.557	62.81
312.787	85.81
313.017	86.81
313.246	75.81
313.476	94.81
313.706	83.81
313.935	85.81
314.165	94.81
314.394	84.81
314.624	71.81
314.853	90.81
315.083	73.81
315.312	82.81
315.542	81.81
315.771	83.81
316.001	88.81
316.23	81.81
316.46	74.81
316.689	85.81
316.919	99.81
317.148	78.81
317.377	81.81
317.607	78.81
317.836	70.81
318.065	89.81
318.295	72.81
318.524	82.81
318.753	79.81
318.983	81.81
319.212	80.81
319.441	81.81
319.67	83.81
319.9	82.81
320.129	83.81
320.358	93.81
320.587	77.81
320.816	78.81
321.046	68.81
321.275	82.81
321.504	83.81
321.733	84.81
321.962	75.81
322.191	84.81
322.42	85.81
322.649	72.81
322.878	95.81
323.108	68.81
323.337	87.81
323.566	71.81
323.795	68.81
324.024	81.81
324.253	77.81
324.482	71.81
324.71	70.81
324.939	88.81
325.168	81.81
325.397	84.81
325.626	90.81
325.855	80.81
326.084	85.81
326.313	82.81
326.542	76.81
326.77	83.81
326.999	78.81
327.228	79.81
327.457	82.81
327.686	75.81
327.914	87.81
328.143	77.81
328.372	77.81
328.6	85.81
328.829	92.81
329.058	66.81
329.287	73.81
329.515	77.81
329.744	71.81
329.972	73.81
330.201	76.81
330.43	90.81
330.658	92.81
330.887	82.81
331.115	90.81
331.344	85.81
331.572	81.81
331.801	85.81
332.03	82.81
332.258	72.81
332.486	73.81
332.715	86.81
332.943	89.81
333.172	92.81
333.4	75.81
333.629	79.81
333.857	54.81
334.085	87.81
334.314	79.81
334.542	75.81
334.771	63.81
334.999	82.81
335.227	70.81
335.455	76.81
335.684	88.81
335.912	74.81
336.14	74.81
336.369	90.81
336.597	84.81
336.825	78.81
337.053	81.81
337.281	78.81
337.51	102.81
337.738	87.81
337.966	78.81
338.194	77.81
338.422	85.81
338.65	87.81
338.878	87.81
339.106	84.81
339.334	78.81
339.562	72.81
339.79	80.81
340.018	86.81
340.246	81.81
340.474	72.81
340.702	69.81
340.93	75.81
341.158	89.81
341.386	73.81
341.614	72.81
341.842	66.81
342.07	75.81
342.298	65.81
342.526	84.81
342.754	78.81
342.981	66.81
343.209	86.81
343.437	104.81
343.665	89.81
343.893	71.81
344.12	83.81
344.348	91.81
344.576	65.81
344.804	84.81
345.031	65.81
345.259	98.81
345.487	76.81
345.714	61.81
345.942	81.81
346.17	81.81
346.397	82.81
346.625	73.81
346.853	64.81
347.08	83.81
347.308	80.81
347.535	80.81
347.763	95.81
347.99	96.81
348.218	85.81
348.445	87.81
348.673	81.81
348.9	85.81
349.128	94.81
349.355	86.81
349.583	86.81
349.81	72.81
350.037	79.81
350.265	87.81
350.492	78.81
350.72	79.81
350.947	83.81
351.174	74.81
351.402	78.81
351.629	70.81
351.856	96.81
352.083	76.81
352.311	82.81
352.538	75.81
352.765	89.81
352.992	87.81
353.22	77.81
353.447	78.81
353.674	83.81
353.901	71.81
354.128	81.81
354.355	87.81
354.583	70.81
354.81	83.81
355.037	88.81
355.264	75.81
355.491	86.81
355.718	77.81
355.945	79.81
356.172	82.81
356.399	87.81
356.626	75.81
356.853	75.81
357.08	75.81
357.307	80.81
357.534	82.81
357.761	76.81
357.988	77.81
358.215	79.81
358.441	70.81
358.668	84.81
358.895	83.81
359.122	75.81
359.349	85.81
359.576	86.81
359.802	73.81
360.029	74.81
360.256	87.81
360.483	79.81
360.709	89.81
360.936	83.81
361.163	72.81
361.39	82.81
361.616	75.81
361.843	81.81
362.07	91.81
362.296	81.81
362.523	81.81
362.749	104.81
362.976	86.81
363.203	80.81
363.429	94.81
363.656	88.81
363.882	88.81
364.109	83.81
364.335	75.81
364.562	86.81
364.788	74.81
365.015	86.81
365.241	90.81
365.468	80.81
365.694	72.81
365.92	77.81
366.147	83.81
366.373	84.81
366.599	83.81
366.826	76.81
367.052	89.81
367.278	78.81
367.505	99.81
367.731	86.81
367.957	81.81
368.184	85.81
368.41	75.81
368.636	77.81
368.862	67.81
369.089	74.81
369.315	75.81
369.541	86.81
369.767	65.81
369.993	93.81
370.219	83.81
370.445	81.81
370.672	65.81
370.898	84.81
371.124	81.81
371.35	67.81
371.576	81.81
371.802	69.81
372.028	74.81
372.254	81.81
372.48	83.81
372.706	87.81
372.932	70.81
373.158	73.81
373.384	79.81
373.61	84.81
373.835	100.81
374.061	84.81
374.287	85.81
374.513	82.81
374.739	68.81
374.965	79.81
375.191	69.81
375.416	75.81
375.642	85.81
375.868	88.81
376.094	95.81
376.319	91.81
376.545	64.81
376.771	73.81
376.997	81.81
377.222	79.81
377.448	79.81
377.674	74.81
377.899	72.81
378.125	77.81
378.35	85.81
378.576	75.81
378.802	69.81
379.027	74.81
379.253	90.81
379.478	75.81
379.704	79.81
379.929	81.81
380.155	91.81
380.38	78.81
380.606	81.81
380.831	71.81
381.057	87.81
381.282	74.81
381.507	81.81
381.733	79.81
381.958	79.81
382.184	76.81
382.409	85.81
382.634	87.81
382.86	70.81
383.085	80.81
383.31	88.81
383.535	76.81
383.761	81.81
383.986	78.81
384.211	79.81
384.436	73.81
384.662	67.81
384.887	70.81
385.112	76.81
385.337	67.81
385.562	82.81
385.787	82.81
386.013	79.81
386.238	74.81
386.463	78.81
386.688	85.81
386.913	83.81
387.138	72.81
387.363	84.81
387.588	78.81
387.813	81.81
388.038	76.81
388.263	73.81
388.488	84.81
388.713	89.81
388.938	84.81
389.163	80.81
389.387	80.81
389.612	78.81
389.837	71.81
390.062	70.81
390.287	78.81
390.512	71.81
390.736	83.81
390.961	79.81
391.186	78.81
391.411	77.81
391.636	78.81
391.86	70.81
392.085	73.81
392.31	83.81
392.534	78.81
392.759	87.81
392.984	99.81
393.208	76.81
393.433	88.81
393.658	103.81
393.882	76.81
394.107	92.81
394.331	83.81
394.556	77.81
394.78	85.81
395.005	77.81
395.229	74.81
395.454	82.81
395.678	87.81
395.903	86.81
396.127	97.81
396.352	94.81
396.576	76.81
396.801	78.81
397.025	107.81
397.249	85.81
397.474	80.81
397.698	81.81
397.922	84.81
398.147	87.81
398.371	73.81
398.595	75.81
398.82	90.81
399.044	79.81
399.268	83.81
399.492	85.81
399.717	77.81
399.941	61.81
400.165	89.81
400.389	89.81
400.613	75.81
400.837	86.81
401.062	76.81
401.286	69.81
401.51	94.81
401.734	77.81
401.958	61.81
402.182	79.81
402.406	79.81
402.63	79.81
402.854	89.81
403.078	87.81
403.302	78.81
403.526	78.81
403.75	94.81
403.974	70.81
404.198	107.81
404.422	95.81
404.645	93.81
404.869	87.81
405.093	83.81
405.317	68.81
405.541	79.81
405.765	77.81
405.988	90.81
406.212	81.81
406.436	81.81
406.66	87.81
406.883	73.81
407.107	70.81
407.331	74.81
407.555	90.81
407.778	74.81
408.002	59.81
408.226	67.81
408.449	85.81
408.673	94.81
408.896	77.81
409.12	82.81
409.344	80.81
409.567	91.81
409.791	78.81
410.014	89.81
410.238	87.81
410.461	79.81
410.685	82.81
410.908	69.81
411.132	72.81
411.355	87.81
411.578	79.81
411.802	78.81
412.025	75.81
412.249	70.81
412.472	71.81
412.695	76.81
412.919	81.81
413.142	71.81
413.365	81.81
413.589	79.81
413.812	99.81
414.035	85.81
414.258	82.81
414.482	75.81
414.705	80.81
414.928	84.81
415.151	70.81
415.374	85.81
415.597	79.81
415.821	71.81
416.044	66.81
416.267	64.81
416.49	70.81
416.713	69.81
416.936	67.81
417.159	83.81
417.382	75.81
417.605	69.81
417.828	76.81
418.051	74.81
418.274	72.81
418.497	56.81
418.72	72.81
418.943	96.81
419.166	84.81
419.389	84.81
419.611	79.81
419.834	83.81
420.057	75.81
420.28	81.81
420.503	78.81
420.726	77.81
420.948	67.81
421.171	79.81
421.394	80.81
421.617	90.81
421.839	81.81
422.062	82.81
422.285	96.81
422.507	105.81
422.73	130.81
422.953	133.81
423.175	100.81
423.398	72.81
423.621	61.81
423.843	86.81
424.066	80.81
424.288	88.81
424.511	84.81
424.733	92.81
424.956	82.81
425.178	79.81
425.401	68.81
425.623	81.81
425.846	80.81
426.068	73.81
426.291	74.81
426.513	71.81
426.735	83.81
426.958	78.81
427.18	84.81
427.402	81.81
427.625	86.81
427.847	68.81
428.069	80.81
428.292	75.81
428.514	82.81
428.736	62.81
428.958	89.81
429.181	82.81
429.403	85.81
429.625	95.81
429.847	72.81
430.069	99.81
430.292	103.81
430.514	83.81
430.736	92.81
430.958	98.81
431.18	84.81
431.402	85.81
431.624	69.81
431.846	84.81
432.068	71.81
432.29	85.81
432.512	82.81
432.734	70.81
432.956	71.81
433.178	75.81
433.4	84.81
433.622	78.81
433.844	76.81
434.066	73.81
434.287	80.81
434.509	73.81
434.731	75.81
434.953	83.81
435.175	76.81
435.397	82.81
435.618	76.81
435.84	76.81
436.062	83.81
436.284	74.81
436.505	71.81
436.727	78.81
436.949	67.81
437.17	79.81
437.392	71.81
437.614	73.81
437.835	80.81
438.057	66.81
438.278	72.81
438.5	78.81
438.721	75.81
438.943	83.81
439.165	84.81
439.386	87.81
439.608	78.81
439.829	88.81
440.05	81.81
440.272	83.81
440.493	71.81
440.715	79.81
440.936	75.81
441.158	94.81
441.379	79.81
441.6	84.81
441.822	71.81
442.043	73.81
442.264	80.81
442.486	94.81
442.707	94.81
442.928	91.81
443.149	74.81
443.371	98.81
443.592	102.81
443.813	95.81
444.034	90.81
444.255	81.81
444.476	80.81
444.698	76.81
444.919	82.81
445.14	145.81
445.361	109.81
445.582	106.81
445.803	94.81
446.024	83.81
446.245	80.81
446.466	79.81
446.687	83.81
446.908	71.81
447.129	93.81
447.35	77.81
447.571	78.81
447.792	84.81
448.013	79.81
448.234	72.81
448.455	74.81
448.675	80.81
448.896	74.81
449.117	84.81
449.338	73.81
449.559	80.81
449.779	73.81
450	72.81
450.221	69.81
450.442	70.81
450.662	56.81
450.883	81.81
451.104	75.81
451.324	79.81
451.545	70.81
451.766	72.81
451.986	80.81
452.207	85.81
452.428	72.81
452.648	86.81
452.869	73.81
453.089	82.81
453.31	69.81
453.53	83.81
453.751	81.81
453.971	82.81
454.192	82.81
454.412	79.81
454.633	67.81
454.853	89.81
455.073	69.81
455.294	77.81
455.514	66.81
455.734	67.81
455.955	72.81
456.175	80.81
456.395	70.81
456.616	68.81
456.836	80.81
457.056	81.81
457.276	80.81
457.497	70.81
457.717	76.81
457.937	81.81
458.157	83.81
458.377	86.81
458.598	83.81
458.818	82.81
459.038	76.81
459.258	71.81
459.478	67.81
459.698	72.81
459.918	77.81
460.138	73.81
460.358	79.81
460.578	98.81
460.798	102.81
461.018	73.81
461.238	88.81
461.458	90.81
461.678	78.81
461.898	80.81
462.118	78.81
462.338	89.81
462.558	91.81
462.777	80.81
462.997	79.81
463.217	68.81
463.437	61.81
463.657	64.81
463.876	75.81
464.096	72.81
464.316	74.81
464.536	73.81
464.755	75.81
464.975	74.81
465.195	80.81
465.414	74.81
465.634	94.81
465.854	83.81
466.073	64.81
466.293	81.81
466.512	77.81
466.732	79.81
466.951	74.81
467.171	80.81
467.391	74.81
467.61	86.81
467.829	77.81
468.049	100.81
468.268	66.81
468.488	77.81
468.707	87.81
468.927	89.81
469.146	81.81
469.365	77.81
469.585	67.81
469.804	71.81
470.023	83.81
470.243	80.81
470.462	92.81
470.681	85.81
470.901	80.81
471.12	75.81
471.339	76.81
471.558	75.81
471.777	83.81
471.997	81.81
472.216	78.81
472.435	66.81
472.654	74.81
472.873	87.81
473.092	89.81
473.311	78.81
473.53	76.81
473.749	75.81
473.968	85.81
474.187	70.81
474.406	75.81
474.625	76.81
474.844	75.81
475.063	80.81
475.282	81.81
475.501	76.81
475.72	85.81
475.939	90.81
476.158	80.81
476.377	79.81
476.596	69.81
476.814	68.81
477.033	67.81
477.252	81.81
477.471	80.81
477.69	83.81
477.908	78.81
478.127	76.81
478.346	94.81
478.564	81.81
478.783	78.81
479.002	83.81
479.22	71.81
479.439	98.81
479.658	72.81
479.876	84.81
480.095	79.81
480.313	89.81
480.532	77.81
480.751	84.81
480.969	84.81
481.188	76.81
481.406	80.81
481.624	91.81
481.843	86.81
482.061	61.81
482.28	68.81
482.498	72.81
482.717	78.81
482.935	85.81
483.153	74.81
483.372	74.81
483.59	73.81
483.808	72.81
484.027	64.81
484.245	90.81
484.463	83.81
484.681	81.81
484.9	88.81
485.118	75.81
485.336	74.81
485.554	86.81
485.772	78.81
485.99	78.81
486.209	76.81
486.427	71.81
486.645	82.81
486.863	85.81
487.081	99.81
487.299	86.81
487.517	88.81
487.735	86.81
487.953	86.81
488.171	76.81
488.389	64.81
488.607	78.81
488.825	67.81
489.043	78.81
489.261	84.81
489.479	82.81
489.696	83.81
489.914	80.81
490.132	76.81
490.35	89.81
490.568	59.81
490.786	84.81
491.003	76.81
491.221	84.81
491.439	74.81
491.657	81.81
491.874	86.81
492.092	85.81
492.31	67.81
492.527	72.81
492.745	87.81
492.963	83.81
493.18	89.81
493.398	77.81
493.615	75.81
493.833	87.81
494.05	70.81
494.268	72.81
494.485	72.81
494.703	78.81
494.92	84.81
495.138	83.81
495.355	83.81
495.573	84.81
495.79	75.81
496.008	79.81
496.225	78.81
496.442	80.81
496.66	90.81
496.877	75.81
497.094	82.81
497.312	76.81
497.529	87.81
497.746	74.81
497.963	86.81
498.181	81.81
498.398	75.81
498.615	86.81
498.832	73.81
499.049	75.81
499.267	86.81
499.484	70.81
499.701	86.81
499.918	94.81
500.135	76.81
500.352	85.81
500.569	84.81
500.786	87.81
501.003	85.81
501.22	71.81
501.437	82.81
501.654	74.81
501.871	86.81
502.088	88.81
502.305	83.81
502.522	82.81
502.739	79.81
502.956	74.81
503.172	87.81
503.389	81.81
503.606	80.81
503.823	78.81
504.04	86.81
504.256	92.81
504.473	90.81
504.69	93.81
504.907	69.81
505.123	91.81
505.34	74.81
505.557	90.81
505.773	88.81
505.99	86.81
506.207	79.81
506.423	68.81
506.64	70.81
506.856	79.81
507.073	68.81
507.289	87.81
507.506	78.81
507.722	86.81
507.939	98.81
508.155	87.81
508.372	76.81
508.588	76.81
508.805	79.81
509.021	80.81
509.238	82.81
509.454	82.81
509.67	79.81
509.887	88.81
510.103	92.81
510.319	76.81
510.536	75.81
510.752	74.81
510.968	81.81
511.184	79.81
511.401	73.81
511.617	78.81
511.833	57.81
512.049	87.81
512.265	72.81
512.481	91.81
512.698	81.81
512.914	69.81
513.13	75.81
513.346	86.81
513.562	81.81
513.778	92.81
513.994	82.81
514.21	87.81
514.426	87.81
514.642	88.81
514.858	83.81
515.074	70.81
515.29	86.81
515.506	78.81
515.721	79.81
515.937	64.81
516.153	82.81
516.369	77.81
516.585	75.81
516.801	71.81
517.016	76.81
517.232	87.81
517.448	88.81
517.664	77.81
517.879	91.81
518.095	76.81
518.311	80.81
518.527	86.81
518.742	74.81
518.958	94.81
519.173	88.81
519.389	88.81
519.605	97.81
519.82	82.81
520.036	82.81
