Data from Mixnoheat2_HRD10591_00018.txt Node
Date: Fri Dec 27 14:59:57 EST 2024
User: Yrep
Spectrometer: HR+D1059
Trigger mode: 1
Integration Time (sec): 1.000000E-1
Scans to average: 1
Electric dark correction enabled: true
Nonlinearity correction enabled: false
Boxcar width: 0
XAxis mode: Wavelengths
Number of Pixels in Spectrum: 2048
>>>>>Begin Spectral Data<<<<<
223.165	-10.88
223.4	-10.88
223.635	-10.88
223.869	-29.88
224.104	-23.88
224.338	-25.88
224.573	-12.88
224.808	-18.88
225.042	-9.88
225.277	13.12
225.511	3.12
225.746	8.12
225.98	1.12
226.215	14.12
226.449	25.12
226.683	17.12
226.918	24.12
227.152	26.12
227.387	33.12
227.621	53.12
227.856	38.12
228.09	41.12
228.324	56.12
228.559	40.12
228.793	60.12
229.027	54.12
229.262	60.12
229.496	70.12
229.73	78.12
229.964	81.12
230.199	69.12
230.433	87.12
230.667	71.12
230.901	84.12
231.136	60.12
231.37	72.12
231.604	79.12
231.838	75.12
232.072	85.12
232.306	93.12
232.541	81.12
232.775	103.12
233.009	87.12
233.243	79.12
233.477	81.12
233.711	77.12
233.945	80.12
234.179	68.12
234.413	99.12
234.647	77.12
234.881	89.12
235.115	75.12
235.349	66.12
235.583	81.12
235.817	88.12
236.051	85.12
236.285	92.12
236.519	81.12
236.753	77.12
236.987	74.12
237.221	74.12
237.455	93.12
237.689	87.12
237.922	96.12
238.156	79.12
238.39	83.12
238.624	74.12
238.858	80.12
239.091	84.12
239.325	73.12
239.559	79.12
239.793	85.12
240.027	83.12
240.26	71.12
240.494	69.12
240.728	80.12
240.961	54.12
241.195	94.12
241.429	86.12
241.662	75.12
241.896	78.12
242.13	76.12
242.363	79.12
242.597	72.12
242.83	95.12
243.064	87.12
243.298	78.12
243.531	70.12
243.765	77.12
243.998	86.12
244.232	86.12
244.465	83.12
244.699	85.12
244.932	73.12
245.166	72.12
245.399	70.12
245.633	83.12
245.866	80.12
246.099	83.12
246.333	76.12
246.566	85.12
246.8	71.12
247.033	76.12
247.266	91.12
247.5	73.12
247.733	78.12
247.966	74.12
248.2	88.12
248.433	85.12
248.666	83.12
248.899	93.12
249.133	87.12
249.366	84.12
249.599	76.12
249.832	97.12
250.066	75.12
250.299	71.12
250.532	82.12
250.765	89.12
250.998	71.12
251.231	91.12
251.465	89.12
251.698	67.12
251.931	65.12
252.164	88.12
252.397	77.12
252.63	76.12
252.863	81.12
253.096	75.12
253.329	90.12
253.562	79.12
253.795	74.12
254.028	79.12
254.261	77.12
254.494	93.12
254.727	92.12
254.96	97.12
255.193	84.12
255.426	82.12
255.659	76.12
255.892	84.12
256.124	86.12
256.357	87.12
256.59	87.12
256.823	90.12
257.056	76.12
257.289	73.12
257.521	101.12
257.754	84.12
257.987	79.12
258.22	93.12
258.452	77.12
258.685	80.12
258.918	87.12
259.151	85.12
259.383	92.12
259.616	67.12
259.849	82.12
260.081	82.12
260.314	88.12
260.547	77.12
260.779	74.12
261.012	82.12
261.244	96.12
261.477	87.12
261.71	86.12
261.942	90.12
262.175	92.12
262.407	73.12
262.64	88.12
262.872	98.12
263.105	76.12
263.337	96.12
263.57	77.12
263.802	80.12
264.035	85.12
264.267	88.12
264.499	79.12
264.732	74.12
264.964	82.12
265.197	90.12
265.429	102.12
265.661	84.12
265.894	81.12
266.126	71.12
266.358	93.12
266.591	90.12
266.823	80.12
267.055	81.12
267.287	77.12
267.52	86.12
267.752	94.12
267.984	86.12
268.216	95.12
268.448	88.12
268.681	94.12
268.913	95.12
269.145	90.12
269.377	93.12
269.609	84.12
269.841	105.12
270.073	81.12
270.306	86.12
270.538	84.12
270.77	80.12
271.002	88.12
271.234	95.12
271.466	102.12
271.698	79.12
271.93	88.12
272.162	94.12
272.394	96.12
272.626	86.12
272.858	72.12
273.09	79.12
273.322	91.12
273.553	84.12
273.785	92.12
274.017	76.12
274.249	87.12
274.481	88.12
274.713	85.12
274.945	97.12
275.176	88.12
275.408	81.12
275.64	99.12
275.872	80.12
276.104	81.12
276.335	79.12
276.567	82.12
276.799	91.12
277.031	84.12
277.262	79.12
277.494	82.12
277.726	84.12
277.957	97.12
278.189	80.12
278.421	79.12
278.652	83.12
278.884	95.12
279.115	83.12
279.347	81.12
279.579	94.12
279.81	83.12
280.042	88.12
280.273	80.12
280.505	85.12
280.736	81.12
280.968	84.12
281.199	88.12
281.431	84.12
281.662	88.12
281.894	87.12
282.125	97.12
282.356	94.12
282.588	101.12
282.819	72.12
283.051	88.12
283.282	101.12
283.513	88.12
283.745	90.12
283.976	75.12
284.207	89.12
284.439	79.12
284.67	86.12
284.901	98.12
285.132	94.12
285.364	88.12
285.595	89.12
285.826	99.12
286.057	80.12
286.288	90.12
286.52	89.12
286.751	95.12
286.982	87.12
287.213	82.12
287.444	89.12
287.675	75.12
287.906	87.12
288.138	88.12
288.369	81.12
288.6	83.12
288.831	94.12
289.062	78.12
289.293	91.12
289.524	84.12
289.755	79.12
289.986	75.12
290.217	86.12
290.448	101.12
290.679	98.12
290.91	83.12
291.141	81.12
291.371	78.12
291.602	83.12
291.833	88.12
292.064	94.12
292.295	91.12
292.526	83.12
292.757	70.12
292.987	90.12
293.218	85.12
293.449	77.12
293.68	76.12
293.91	85.12
294.141	91.12
294.372	96.12
294.603	85.12
294.833	92.12
295.064	89.12
295.295	65.12
295.525	69.12
295.756	85.12
295.987	88.12
296.217	98.12
296.448	85.12
296.679	98.12
296.909	89.12
297.14	94.12
297.37	93.12
297.601	89.12
297.831	79.12
298.062	100.12
298.292	94.12
298.523	84.12
298.753	73.12
298.984	81.12
299.214	97.12
299.445	86.12
299.675	91.12
299.905	81.12
300.136	88.12
300.366	91.12
300.597	76.12
300.827	98.12
301.057	86.12
301.288	90.12
301.518	89.12
301.748	82.12
301.979	107.12
302.209	84.12
302.439	80.12
302.669	89.12
302.9	76.12
303.13	93.12
303.36	76.12
303.59	79.12
303.82	97.12
304.051	78.12
304.281	91.12
304.511	96.12
304.741	96.12
304.971	94.12
305.201	82.12
305.431	91.12
305.661	87.12
305.891	69.12
306.121	93.12
306.352	80.12
306.582	88.12
306.812	90.12
307.042	77.12
307.272	76.12
307.502	77.12
307.731	94.12
307.961	91.12
308.191	92.12
308.421	87.12
308.651	93.12
308.881	94.12
309.111	77.12
309.341	90.12
309.571	93.12
309.8	76.12
310.03	100.12
310.26	79.12
310.49	75.12
310.72	85.12
310.949	86.12
311.179	84.12
311.409	81.12
311.639	89.12
311.868	92.12
312.098	97.12
312.328	80.12
312.557	69.12
312.787	78.12
313.017	93.12
313.246	96.12
313.476	75.12
313.706	82.12
313.935	81.12
314.165	81.12
314.394	76.12
314.624	77.12
314.853	74.12
315.083	92.12
315.312	87.12
315.542	100.12
315.771	87.12
316.001	91.12
316.23	90.12
316.46	93.12
316.689	86.12
316.919	77.12
317.148	86.12
317.377	100.12
317.607	99.12
317.836	105.12
318.065	83.12
318.295	91.12
318.524	75.12
318.753	81.12
318.983	81.12
319.212	75.12
319.441	92.12
319.67	74.12
319.9	80.12
320.129	95.12
320.358	85.12
320.587	90.12
320.816	91.12
321.046	96.12
321.275	85.12
321.504	92.12
321.733	88.12
321.962	85.12
322.191	88.12
322.42	75.12
322.649	91.12
322.878	103.12
323.108	87.12
323.337	89.12
323.566	95.12
323.795	90.12
324.024	90.12
324.253	89.12
324.482	81.12
324.71	75.12
324.939	87.12
325.168	83.12
325.397	78.12
325.626	88.12
325.855	85.12
326.084	88.12
326.313	88.12
326.542	93.12
326.77	75.12
326.999	98.12
327.228	82.12
327.457	82.12
327.686	104.12
327.914	85.12
328.143	87.12
328.372	96.12
328.6	89.12
328.829	80.12
329.058	76.12
329.287	76.12
329.515	87.12
329.744	92.12
329.972	94.12
330.201	82.12
330.43	81.12
330.658	92.12
330.887	93.12
331.115	91.12
331.344	86.12
331.572	98.12
331.801	96.12
332.03	72.12
332.258	77.12
332.486	82.12
332.715	72.12
332.943	88.12
333.172	84.12
333.4	85.12
333.629	77.12
333.857	78.12
334.085	95.12
334.314	105.12
334.542	82.12
334.771	96.12
334.999	91.12
335.227	95.12
335.455	94.12
335.684	93.12
335.912	100.12
336.14	96.12
336.369	76.12
336.597	76.12
336.825	94.12
337.053	96.12
337.281	83.12
337.51	92.12
337.738	90.12
337.966	90.12
338.194	86.12
338.422	89.12
338.65	92.12
338.878	91.12
339.106	84.12
339.334	84.12
339.562	79.12
339.79	74.12
340.018	67.12
340.246	92.12
340.474	83.12
340.702	85.12
340.93	88.12
341.158	85.12
341.386	87.12
341.614	89.12
341.842	83.12
342.07	73.12
342.298	81.12
342.526	81.12
342.754	92.12
342.981	83.12
343.209	82.12
343.437	97.12
343.665	88.12
343.893	93.12
344.12	95.12
344.348	81.12
344.576	89.12
344.804	92.12
345.031	80.12
345.259	85.12
345.487	87.12
345.714	96.12
345.942	96.12
346.17	92.12
346.397	88.12
346.625	78.12
346.853	84.12
347.08	90.12
347.308	85.12
347.535	83.12
347.763	73.12
347.99	94.12
348.218	84.12
348.445	91.12
348.673	87.12
348.9	95.12
349.128	92.12
349.355	91.12
349.583	90.12
349.81	75.12
350.037	88.12
350.265	91.12
350.492	92.12
350.72	78.12
350.947	89.12
351.174	75.12
351.402	80.12
351.629	91.12
351.856	99.12
352.083	85.12
352.311	86.12
352.538	92.12
352.765	84.12
352.992	97.12
353.22	97.12
353.447	79.12
353.674	75.12
353.901	87.12
354.128	86.12
354.355	82.12
354.583	89.12
354.81	87.12
355.037	88.12
355.264	77.12
355.491	93.12
355.718	86.12
355.945	102.12
356.172	82.12
356.399	80.12
356.626	100.12
356.853	80.12
357.08	88.12
357.307	82.12
357.534	78.12
357.761	84.12
357.988	75.12
358.215	102.12
358.441	87.12
358.668	79.12
358.895	91.12
359.122	95.12
359.349	93.12
359.576	81.12
359.802	88.12
360.029	81.12
360.256	89.12
360.483	73.12
360.709	94.12
360.936	82.12
361.163	83.12
361.39	71.12
361.616	82.12
361.843	79.12
362.07	78.12
362.296	85.12
362.523	88.12
362.749	85.12
362.976	87.12
363.203	81.12
363.429	100.12
363.656	88.12
363.882	84.12
364.109	104.12
364.335	96.12
364.562	83.12
364.788	100.12
365.015	89.12
365.241	93.12
365.468	84.12
365.694	78.12
365.92	80.12
366.147	94.12
366.373	81.12
366.599	105.12
366.826	88.12
367.052	82.12
367.278	90.12
367.505	98.12
367.731	110.12
367.957	94.12
368.184	92.12
368.41	77.12
368.636	94.12
368.862	92.12
369.089	68.12
369.315	88.12
369.541	86.12
369.767	86.12
369.993	85.12
370.219	80.12
370.445	90.12
370.672	87.12
370.898	97.12
371.124	80.12
371.35	76.12
371.576	86.12
371.802	81.12
372.028	90.12
372.254	73.12
372.48	81.12
372.706	72.12
372.932	86.12
373.158	90.12
373.384	93.12
373.61	85.12
373.835	82.12
374.061	83.12
374.287	78.12
374.513	96.12
374.739	77.12
374.965	85.12
375.191	89.12
375.416	74.12
375.642	81.12
375.868	88.12
376.094	74.12
376.319	75.12
376.545	93.12
376.771	76.12
376.997	103.12
377.222	82.12
377.448	77.12
377.674	91.12
377.899	89.12
378.125	80.12
378.35	82.12
378.576	83.12
378.802	73.12
379.027	78.12
379.253	77.12
379.478	84.12
379.704	92.12
379.929	83.12
380.155	93.12
380.38	88.12
380.606	95.12
380.831	96.12
381.057	96.12
381.282	90.12
381.507	79.12
381.733	79.12
381.958	93.12
382.184	86.12
382.409	82.12
382.634	97.12
382.86	84.12
383.085	75.12
383.31	90.12
383.535	88.12
383.761	96.12
383.986	85.12
384.211	77.12
384.436	88.12
384.662	79.12
384.887	83.12
385.112	77.12
385.337	87.12
385.562	96.12
385.787	90.12
386.013	80.12
386.238	86.12
386.463	82.12
386.688	87.12
386.913	85.12
387.138	77.12
387.363	105.12
387.588	86.12
387.813	93.12
388.038	92.12
388.263	76.12
388.488	85.12
388.713	86.12
388.938	89.12
389.163	97.12
389.387	89.12
389.612	85.12
389.837	98.12
390.062	87.12
390.287	101.12
390.512	85.12
390.736	78.12
390.961	85.12
391.186	83.12
391.411	94.12
391.636	97.12
391.86	94.12
392.085	87.12
392.31	78.12
392.534	83.12
392.759	82.12
392.984	82.12
393.208	86.12
393.433	81.12
393.658	93.12
393.882	98.12
394.107	81.12
394.331	80.12
394.556	92.12
394.78	90.12
395.005	72.12
395.229	85.12
395.454	78.12
395.678	72.12
395.903	86.12
396.127	93.12
396.352	91.12
396.576	82.12
396.801	93.12
397.025	85.12
397.249	94.12
397.474	88.12
397.698	83.12
397.922	84.12
398.147	85.12
398.371	83.12
398.595	82.12
398.82	75.12
399.044	80.12
399.268	79.12
399.492	76.12
399.717	89.12
399.941	77.12
400.165	98.12
400.389	89.12
400.613	83.12
400.837	91.12
401.062	80.12
401.286	83.12
401.51	92.12
401.734	92.12
401.958	85.12
402.182	89.12
402.406	83.12
402.63	80.12
402.854	89.12
403.078	86.12
403.302	91.12
403.526	93.12
403.75	86.12
403.974	86.12
404.198	94.12
404.422	92.12
404.645	100.12
404.869	87.12
405.093	95.12
405.317	85.12
405.541	77.12
405.765	89.12
405.988	79.12
406.212	81.12
406.436	84.12
406.66	77.12
406.883	82.12
407.107	79.12
407.331	81.12
407.555	91.12
407.778	80.12
408.002	83.12
408.226	100.12
408.449	68.12
408.673	84.12
408.896	82.12
409.12	78.12
409.344	99.12
409.567	98.12
409.791	81.12
410.014	73.12
410.238	83.12
410.461	81.12
410.685	76.12
410.908	90.12
411.132	87.12
411.355	86.12
411.578	96.12
411.802	75.12
412.025	84.12
412.249	94.12
412.472	96.12
412.695	96.12
412.919	89.12
413.142	80.12
413.365	83.12
413.589	87.12
413.812	71.12
414.035	86.12
414.258	100.12
414.482	77.12
414.705	71.12
414.928	70.12
415.151	102.12
415.374	93.12
415.597	70.12
415.821	93.12
416.044	87.12
416.267	88.12
416.49	94.12
416.713	89.12
416.936	80.12
417.159	97.12
417.382	66.12
417.605	71.12
417.828	74.12
418.051	87.12
418.274	79.12
418.497	62.12
418.72	76.12
418.943	78.12
419.166	68.12
419.389	78.12
419.611	66.12
419.834	71.12
420.057	76.12
420.28	100.12
420.503	85.12
420.726	86.12
420.948	84.12
421.171	94.12
421.394	86.12
421.617	96.12
421.839	83.12
422.062	79.12
422.285	97.12
422.507	100.12
422.73	111.12
422.953	98.12
423.175	86.12
423.398	87.12
423.621	64.12
423.843	77.12
424.066	92.12
424.288	74.12
424.511	84.12
424.733	76.12
424.956	91.12
425.178	79.12
425.401	81.12
425.623	79.12
425.846	74.12
426.068	81.12
426.291	88.12
426.513	66.12
426.735	85.12
426.958	87.12
427.18	81.12
427.402	89.12
427.625	91.12
427.847	87.12
428.069	81.12
428.292	85.12
428.514	84.12
428.736	96.12
428.958	75.12
429.181	88.12
429.403	88.12
429.625	88.12
429.847	82.12
430.069	93.12
430.292	112.12
430.514	78.12
430.736	78.12
430.958	85.12
431.18	72.12
431.402	81.12
431.624	86.12
431.846	88.12
432.068	85.12
432.29	94.12
432.512	91.12
432.734	78.12
432.956	73.12
433.178	83.12
433.4	90.12
433.622	72.12
433.844	86.12
434.066	79.12
434.287	76.12
434.509	89.12
434.731	81.12
434.953	92.12
435.175	79.12
435.397	82.12
435.618	72.12
435.84	92.12
436.062	85.12
436.284	80.12
436.505	80.12
436.727	77.12
436.949	87.12
437.17	84.12
437.392	78.12
437.614	87.12
437.835	84.12
438.057	94.12
438.278	87.12
438.5	81.12
438.721	88.12
438.943	97.12
439.165	82.12
439.386	85.12
439.608	77.12
439.829	68.12
440.05	77.12
440.272	74.12
440.493	77.12
440.715	84.12
440.936	78.12
441.158	89.12
441.379	84.12
441.6	67.12
441.822	96.12
442.043	85.12
442.264	104.12
442.486	90.12
442.707	88.12
442.928	84.12
443.149	87.12
443.371	89.12
443.592	88.12
443.813	101.12
444.034	86.12
444.255	86.12
444.476	86.12
444.698	96.12
444.919	97.12
445.14	143.12
445.361	114.12
445.582	95.12
445.803	95.12
446.024	79.12
446.245	93.12
446.466	82.12
446.687	84.12
446.908	85.12
447.129	95.12
447.35	104.12
447.571	93.12
447.792	78.12
448.013	79.12
448.234	74.12
448.455	89.12
448.675	85.12
448.896	100.12
449.117	92.12
449.338	75.12
449.559	73.12
449.779	80.12
450	95.12
450.221	90.12
450.442	86.12
450.662	92.12
450.883	81.12
451.104	95.12
451.324	83.12
451.545	87.12
451.766	76.12
451.986	90.12
452.207	103.12
452.428	76.12
452.648	79.12
452.869	76.12
453.089	102.12
453.31	86.12
453.53	91.12
453.751	75.12
453.971	87.12
454.192	95.12
454.412	84.12
454.633	82.12
454.853	92.12
455.073	77.12
455.294	75.12
455.514	71.12
455.734	81.12
455.955	70.12
456.175	72.12
456.395	81.12
456.616	85.12
456.836	87.12
457.056	82.12
457.276	92.12
457.497	84.12
457.717	96.12
457.937	89.12
458.157	75.12
458.377	85.12
458.598	85.12
458.818	88.12
459.038	73.12
459.258	89.12
459.478	93.12
459.698	74.12
459.918	87.12
460.138	76.12
460.358	93.12
460.578	76.12
460.798	99.12
461.018	82.12
461.238	67.12
461.458	85.12
461.678	82.12
461.898	82.12
462.118	96.12
462.338	80.12
462.558	100.12
462.777	84.12
462.997	80.12
463.217	90.12
463.437	72.12
463.657	82.12
463.876	79.12
464.096	68.12
464.316	77.12
464.536	86.12
464.755	86.12
464.975	76.12
465.195	85.12
465.414	93.12
465.634	90.12
465.854	85.12
466.073	82.12
466.293	85.12
466.512	76.12
466.732	62.12
466.951	81.12
467.171	75.12
467.391	87.12
467.61	68.12
467.829	74.12
468.049	85.12
468.268	79.12
468.488	82.12
468.707	92.12
468.927	75.12
469.146	82.12
469.365	96.12
469.585	88.12
469.804	87.12
470.023	84.12
470.243	84.12
470.462	92.12
470.681	99.12
470.901	91.12
471.12	77.12
471.339	71.12
471.558	85.12
471.777	69.12
471.997	79.12
472.216	85.12
472.435	86.12
472.654	90.12
472.873	87.12
473.092	95.12
473.311	74.12
473.53	78.12
473.749	83.12
473.968	89.12
474.187	84.12
474.406	82.12
474.625	92.12
474.844	82.12
475.063	80.12
475.282	85.12
475.501	103.12
475.72	90.12
475.939	82.12
476.158	90.12
476.377	89.12
476.596	87.12
476.814	91.12
477.033	96.12
477.252	73.12
477.471	90.12
477.69	81.12
477.908	87.12
478.127	87.12
478.346	94.12
478.564	84.12
478.783	77.12
479.002	94.12
479.22	68.12
479.439	82.12
479.658	85.12
479.876	77.12
480.095	81.12
480.313	81.12
480.532	74.12
480.751	88.12
480.969	77.12
481.188	89.12
481.406	87.12
481.624	86.12
481.843	80.12
482.061	84.12
482.28	89.12
482.498	88.12
482.717	86.12
482.935	72.12
483.153	93.12
483.372	92.12
483.59	93.12
483.808	92.12
484.027	84.12
484.245	82.12
484.463	102.12
484.681	95.12
484.9	84.12
485.118	98.12
485.336	84.12
485.554	86.12
485.772	70.12
485.99	76.12
486.209	92.12
486.427	94.12
486.645	87.12
486.863	95.12
487.081	87.12
487.299	82.12
487.517	88.12
487.735	86.12
487.953	83.12
488.171	89.12
488.389	106.12
488.607	86.12
488.825	84.12
489.043	81.12
489.261	98.12
489.479	82.12
489.696	88.12
489.914	89.12
490.132	78.12
490.35	94.12
490.568	77.12
490.786	90.12
491.003	97.12
491.221	79.12
491.439	85.12
491.657	74.12
491.874	98.12
492.092	94.12
492.31	92.12
492.527	91.12
492.745	87.12
492.963	95.12
493.18	95.12
493.398	73.12
493.615	97.12
493.833	73.12
494.05	74.12
494.268	89.12
494.485	89.12
494.703	97.12
494.92	97.12
495.138	93.12
495.355	94.12
495.573	78.12
495.79	85.12
496.008	86.12
496.225	90.12
496.442	89.12
496.66	89.12
496.877	93.12
497.094	100.12
497.312	79.12
497.529	85.12
497.746	87.12
497.963	89.12
498.181	95.12
498.398	85.12
498.615	87.12
498.832	100.12
499.049	91.12
499.267	95.12
499.484	94.12
499.701	91.12
499.918	102.12
500.135	88.12
500.352	85.12
500.569	71.12
500.786	77.12
501.003	84.12
501.22	100.12
501.437	91.12
501.654	95.12
501.871	93.12
502.088	74.12
502.305	93.12
502.522	93.12
502.739	70.12
502.956	82.12
503.172	95.12
503.389	90.12
503.606	87.12
503.823	103.12
504.04	82.12
504.256	104.12
504.473	78.12
504.69	85.12
504.907	104.12
505.123	87.12
505.34	76.12
505.557	100.12
505.773	85.12
505.99	94.12
506.207	84.12
506.423	94.12
506.64	100.12
506.856	86.12
507.073	84.12
507.289	70.12
507.506	84.12
507.722	89.12
507.939	72.12
508.155	100.12
508.372	76.12
508.588	84.12
508.805	97.12
509.021	86.12
509.238	84.12
509.454	87.12
509.67	97.12
509.887	87.12
510.103	81.12
510.319	94.12
510.536	88.12
510.752	76.12
510.968	100.12
511.184	80.12
511.401	80.12
511.617	94.12
511.833	96.12
512.049	84.12
512.265	87.12
512.481	97.12
512.698	83.12
512.914	80.12
513.13	89.12
513.346	92.12
513.562	97.12
513.778	88.12
513.994	83.12
514.21	79.12
514.426	96.12
514.642	81.12
514.858	88.12
515.074	86.12
515.29	99.12
515.506	80.12
515.721	84.12
515.937	103.12
516.153	76.12
516.369	88.12
516.585	78.12
516.801	76.12
517.016	81.12
517.232	83.12
517.448	90.12
517.664	89.12
517.879	84.12
518.095	78.12
518.311	88.12
518.527	85.12
518.742	78.12
518.958	81.12
519.173	85.12
519.389	91.12
