Data from Mixnoheat2_HRD10591_00001.txt Node
Date: Fri Dec 27 14:59:40 EST 2024
User: Yrep
Spectrometer: HR+D1059
Trigger mode: 1
Integration Time (sec): 1.000000E-1
Scans to average: 1
Electric dark correction enabled: true
Nonlinearity correction enabled: false
Boxcar width: 0
XAxis mode: Wavelengths
Number of Pixels in Spectrum: 2048
>>>>>Begin Spectral Data<<<<<
223.165	-13.44
223.4	-13.44
223.635	-13.44
223.869	-20.44
224.104	-15.44
224.338	-9.44
224.573	-11.44
224.808	-19.44
225.042	-6.44
225.277	-8.44
225.511	-4.44
225.746	17.56
225.98	-1.44
226.215	-1.44
226.449	12.56
226.683	23.56
226.918	10.56
227.152	47.56
227.387	30.56
227.621	43.56
227.856	52.56
228.09	42.56
228.324	59.56
228.559	43.56
228.793	60.56
229.027	71.56
229.262	70.56
229.496	75.56
229.73	81.56
229.964	75.56
230.199	72.56
230.433	76.56
230.667	80.56
230.901	69.56
231.136	83.56
231.37	84.56
231.604	89.56
231.838	77.56
232.072	83.56
232.306	73.56
232.541	87.56
232.775	76.56
233.009	78.56
233.243	80.56
233.477	63.56
233.711	87.56
233.945	86.56
234.179	64.56
234.413	63.56
234.647	85.56
234.881	72.56
235.115	87.56
235.349	76.56
235.583	83.56
235.817	71.56
236.051	80.56
236.285	78.56
236.519	81.56
236.753	86.56
236.987	72.56
237.221	88.56
237.455	72.56
237.689	75.56
237.922	75.56
238.156	73.56
238.39	71.56
238.624	78.56
238.858	63.56
239.091	73.56
239.325	74.56
239.559	86.56
239.793	70.56
240.027	83.56
240.26	75.56
240.494	91.56
240.728	86.56
240.961	57.56
241.195	82.56
241.429	79.56
241.662	69.56
241.896	63.56
242.13	77.56
242.363	93.56
242.597	85.56
242.83	71.56
243.064	77.56
243.298	74.56
243.531	76.56
243.765	67.56
243.998	87.56
244.232	79.56
244.465	76.56
244.699	63.56
244.932	66.56
245.166	82.56
245.399	83.56
245.633	76.56
245.866	74.56
246.099	61.56
246.333	86.56
246.566	62.56
246.8	70.56
247.033	71.56
247.266	77.56
247.5	73.56
247.733	95.56
247.966	95.56
248.2	76.56
248.433	88.56
248.666	85.56
248.899	60.56
249.133	70.56
249.366	73.56
249.599	98.56
249.832	84.56
250.066	82.56
250.299	89.56
250.532	79.56
250.765	79.56
250.998	82.56
251.231	72.56
251.465	74.56
251.698	95.56
251.931	79.56
252.164	88.56
252.397	83.56
252.63	91.56
252.863	79.56
253.096	77.56
253.329	81.56
253.562	78.56
253.795	80.56
254.028	72.56
254.261	71.56
254.494	81.56
254.727	72.56
254.96	75.56
255.193	85.56
255.426	77.56
255.659	76.56
255.892	76.56
256.124	71.56
256.357	78.56
256.59	82.56
256.823	87.56
257.056	78.56
257.289	75.56
257.521	85.56
257.754	76.56
257.987	79.56
258.22	84.56
258.452	67.56
258.685	71.56
258.918	83.56
259.151	86.56
259.383	87.56
259.616	79.56
259.849	80.56
260.081	98.56
260.314	90.56
260.547	89.56
260.779	68.56
261.012	89.56
261.244	74.56
261.477	88.56
261.71	84.56
261.942	88.56
262.175	75.56
262.407	87.56
262.64	78.56
262.872	69.56
263.105	83.56
263.337	95.56
263.57	80.56
263.802	75.56
264.035	73.56
264.267	78.56
264.499	80.56
264.732	79.56
264.964	78.56
265.197	85.56
265.429	80.56
265.661	67.56
265.894	78.56
266.126	85.56
266.358	79.56
266.591	86.56
266.823	85.56
267.055	79.56
267.287	73.56
267.52	72.56
267.752	80.56
267.984	90.56
268.216	92.56
268.448	86.56
268.681	79.56
268.913	83.56
269.145	66.56
269.377	73.56
269.609	86.56
269.841	91.56
270.073	84.56
270.306	75.56
270.538	78.56
270.77	88.56
271.002	86.56
271.234	89.56
271.466	61.56
271.698	70.56
271.93	83.56
272.162	103.56
272.394	88.56
272.626	84.56
272.858	90.56
273.09	91.56
273.322	94.56
273.553	88.56
273.785	79.56
274.017	85.56
274.249	87.56
274.481	90.56
274.713	69.56
274.945	89.56
275.176	74.56
275.408	71.56
275.64	67.56
275.872	74.56
276.104	82.56
276.335	83.56
276.567	78.56
276.799	72.56
277.031	68.56
277.262	89.56
277.494	83.56
277.726	86.56
277.957	85.56
278.189	80.56
278.421	92.56
278.652	94.56
278.884	84.56
279.115	91.56
279.347	84.56
279.579	94.56
279.81	78.56
280.042	82.56
280.273	66.56
280.505	83.56
280.736	79.56
280.968	78.56
281.199	85.56
281.431	80.56
281.662	103.56
281.894	93.56
282.125	80.56
282.356	90.56
282.588	86.56
282.819	83.56
283.051	86.56
283.282	84.56
283.513	103.56
283.745	87.56
283.976	82.56
284.207	76.56
284.439	74.56
284.67	78.56
284.901	98.56
285.132	91.56
285.364	90.56
285.595	81.56
285.826	77.56
286.057	71.56
286.288	93.56
286.52	84.56
286.751	86.56
286.982	78.56
287.213	69.56
287.444	89.56
287.675	82.56
287.906	71.56
288.138	78.56
288.369	79.56
288.6	72.56
288.831	87.56
289.062	81.56
289.293	81.56
289.524	83.56
289.755	91.56
289.986	83.56
290.217	95.56
290.448	85.56
290.679	73.56
290.91	80.56
291.141	77.56
291.371	85.56
291.602	95.56
291.833	75.56
292.064	84.56
292.295	94.56
292.526	90.56
292.757	92.56
292.987	89.56
293.218	94.56
293.449	65.56
293.68	86.56
293.91	81.56
294.141	84.56
294.372	96.56
294.603	93.56
294.833	85.56
295.064	86.56
295.295	84.56
295.525	100.56
295.756	94.56
295.987	85.56
296.217	87.56
296.448	91.56
296.679	83.56
296.909	87.56
297.14	97.56
297.37	90.56
297.601	88.56
297.831	94.56
298.062	92.56
298.292	83.56
298.523	87.56
298.753	94.56
298.984	91.56
299.214	103.56
299.445	84.56
299.675	78.56
299.905	83.56
300.136	95.56
300.366	86.56
300.597	88.56
300.827	90.56
301.057	78.56
301.288	84.56
301.518	86.56
301.748	78.56
301.979	112.56
302.209	99.56
302.439	91.56
302.669	94.56
302.9	86.56
303.13	100.56
303.36	91.56
303.59	75.56
303.82	87.56
304.051	84.56
304.281	78.56
304.511	85.56
304.741	81.56
304.971	84.56
305.201	76.56
305.431	83.56
305.661	85.56
305.891	71.56
306.121	93.56
306.352	96.56
306.582	89.56
306.812	74.56
307.042	90.56
307.272	106.56
307.502	90.56
307.731	101.56
307.961	90.56
308.191	84.56
308.421	81.56
308.651	85.56
308.881	78.56
309.111	87.56
309.341	93.56
309.571	88.56
309.8	86.56
310.03	81.56
310.26	83.56
310.49	106.56
310.72	84.56
310.949	74.56
311.179	84.56
311.409	84.56
311.639	89.56
311.868	94.56
312.098	102.56
312.328	82.56
312.557	86.56
312.787	85.56
313.017	84.56
313.246	85.56
313.476	86.56
313.706	84.56
313.935	98.56
314.165	78.56
314.394	82.56
314.624	94.56
314.853	77.56
315.083	93.56
315.312	83.56
315.542	80.56
315.771	86.56
316.001	72.56
316.23	89.56
316.46	84.56
316.689	91.56
316.919	86.56
317.148	84.56
317.377	80.56
317.607	87.56
317.836	94.56
318.065	85.56
318.295	90.56
318.524	99.56
318.753	92.56
318.983	75.56
319.212	89.56
319.441	94.56
319.67	99.56
319.9	88.56
320.129	86.56
320.358	94.56
320.587	80.56
320.816	79.56
321.046	88.56
321.275	86.56
321.504	66.56
321.733	75.56
321.962	86.56
322.191	68.56
322.42	99.56
322.649	85.56
322.878	90.56
323.108	76.56
323.337	94.56
323.566	79.56
323.795	74.56
324.024	84.56
324.253	77.56
324.482	90.56
324.71	81.56
324.939	90.56
325.168	92.56
325.397	71.56
325.626	89.56
325.855	85.56
326.084	81.56
326.313	77.56
326.542	84.56
326.77	91.56
326.999	72.56
327.228	87.56
327.457	78.56
327.686	84.56
327.914	86.56
328.143	82.56
328.372	60.56
328.6	86.56
328.829	87.56
329.058	100.56
329.287	82.56
329.515	83.56
329.744	92.56
329.972	88.56
330.201	93.56
330.43	88.56
330.658	77.56
330.887	82.56
331.115	83.56
331.344	93.56
331.572	74.56
331.801	86.56
332.03	96.56
332.258	85.56
332.486	87.56
332.715	95.56
332.943	83.56
333.172	96.56
333.4	69.56
333.629	94.56
333.857	86.56
334.085	90.56
334.314	84.56
334.542	85.56
334.771	87.56
334.999	83.56
335.227	82.56
335.455	97.56
335.684	87.56
335.912	111.56
336.14	80.56
336.369	78.56
336.597	98.56
336.825	85.56
337.053	82.56
337.281	93.56
337.51	76.56
337.738	87.56
337.966	83.56
338.194	83.56
338.422	86.56
338.65	82.56
338.878	93.56
339.106	79.56
339.334	78.56
339.562	87.56
339.79	91.56
340.018	85.56
340.246	75.56
340.474	85.56
340.702	84.56
340.93	87.56
341.158	97.56
341.386	86.56
341.614	83.56
341.842	95.56
342.07	80.56
342.298	91.56
342.526	72.56
342.754	97.56
342.981	85.56
343.209	93.56
343.437	89.56
343.665	87.56
343.893	79.56
344.12	90.56
344.348	79.56
344.576	82.56
344.804	90.56
345.031	91.56
345.259	77.56
345.487	80.56
345.714	85.56
345.942	99.56
346.17	88.56
346.397	85.56
346.625	95.56
346.853	79.56
347.08	75.56
347.308	90.56
347.535	82.56
347.763	84.56
347.99	78.56
348.218	86.56
348.445	78.56
348.673	76.56
348.9	88.56
349.128	99.56
349.355	88.56
349.583	94.56
349.81	92.56
350.037	86.56
350.265	93.56
350.492	90.56
350.72	90.56
350.947	93.56
351.174	87.56
351.402	74.56
351.629	80.56
351.856	91.56
352.083	82.56
352.311	82.56
352.538	75.56
352.765	86.56
352.992	107.56
353.22	78.56
353.447	85.56
353.674	78.56
353.901	80.56
354.128	90.56
354.355	91.56
354.583	79.56
354.81	83.56
355.037	101.56
355.264	94.56
355.491	86.56
355.718	71.56
355.945	104.56
356.172	100.56
356.399	91.56
356.626	81.56
356.853	81.56
357.08	84.56
357.307	98.56
357.534	80.56
357.761	94.56
357.988	85.56
358.215	89.56
358.441	91.56
358.668	98.56
358.895	88.56
359.122	74.56
359.349	87.56
359.576	91.56
359.802	78.56
360.029	86.56
360.256	90.56
360.483	90.56
360.709	79.56
360.936	101.56
361.163	64.56
361.39	82.56
361.616	84.56
361.843	90.56
362.07	96.56
362.296	102.56
362.523	88.56
362.749	87.56
362.976	83.56
363.203	82.56
363.429	80.56
363.656	86.56
363.882	78.56
364.109	87.56
364.335	86.56
364.562	88.56
364.788	101.56
365.015	92.56
365.241	101.56
365.468	96.56
365.694	79.56
365.92	85.56
366.147	72.56
366.373	69.56
366.599	86.56
366.826	69.56
367.052	82.56
367.278	88.56
367.505	75.56
367.731	90.56
367.957	79.56
368.184	71.56
368.41	82.56
368.636	81.56
368.862	96.56
369.089	87.56
369.315	78.56
369.541	82.56
369.767	87.56
369.993	94.56
370.219	77.56
370.445	78.56
370.672	94.56
370.898	74.56
371.124	90.56
371.35	66.56
371.576	83.56
371.802	80.56
372.028	90.56
372.254	94.56
372.48	90.56
372.706	86.56
372.932	89.56
373.158	84.56
373.384	100.56
373.61	89.56
373.835	87.56
374.061	76.56
374.287	85.56
374.513	99.56
374.739	93.56
374.965	94.56
375.191	86.56
375.416	93.56
375.642	91.56
375.868	94.56
376.094	86.56
376.319	88.56
376.545	86.56
376.771	86.56
376.997	92.56
377.222	77.56
377.448	65.56
377.674	72.56
377.899	87.56
378.125	84.56
378.35	105.56
378.576	78.56
378.802	84.56
379.027	86.56
379.253	87.56
379.478	101.56
379.704	82.56
379.929	84.56
380.155	75.56
380.38	93.56
380.606	81.56
380.831	81.56
381.057	96.56
381.282	94.56
381.507	79.56
381.733	84.56
381.958	81.56
382.184	95.56
382.409	86.56
382.634	72.56
382.86	79.56
383.085	80.56
383.31	92.56
383.535	101.56
383.761	78.56
383.986	89.56
384.211	81.56
384.436	95.56
384.662	95.56
384.887	91.56
385.112	79.56
385.337	91.56
385.562	83.56
385.787	79.56
386.013	79.56
386.238	95.56
386.463	74.56
386.688	88.56
386.913	83.56
387.138	92.56
387.363	79.56
387.588	90.56
387.813	78.56
388.038	82.56
388.263	97.56
388.488	79.56
388.713	91.56
388.938	89.56
389.163	101.56
389.387	90.56
389.612	79.56
389.837	74.56
390.062	82.56
390.287	82.56
390.512	77.56
390.736	80.56
390.961	88.56
391.186	65.56
391.411	82.56
391.636	75.56
391.86	97.56
392.085	81.56
392.31	82.56
392.534	70.56
392.759	77.56
392.984	94.56
393.208	85.56
393.433	107.56
393.658	102.56
393.882	81.56
394.107	95.56
394.331	93.56
394.556	95.56
394.78	91.56
395.005	79.56
395.229	86.56
395.454	75.56
395.678	81.56
395.903	93.56
396.127	95.56
396.352	92.56
396.576	89.56
396.801	103.56
397.025	103.56
397.249	92.56
397.474	102.56
397.698	80.56
397.922	88.56
398.147	82.56
398.371	73.56
398.595	65.56
398.82	77.56
399.044	84.56
399.268	94.56
399.492	81.56
399.717	82.56
399.941	86.56
400.165	84.56
400.389	106.56
400.613	82.56
400.837	90.56
401.062	77.56
401.286	86.56
401.51	77.56
401.734	88.56
401.958	90.56
402.182	81.56
402.406	87.56
402.63	82.56
402.854	92.56
403.078	87.56
403.302	84.56
403.526	91.56
403.75	81.56
403.974	85.56
404.198	73.56
404.422	103.56
404.645	93.56
404.869	104.56
405.093	76.56
405.317	80.56
405.541	75.56
405.765	84.56
405.988	94.56
406.212	91.56
406.436	83.56
406.66	90.56
406.883	82.56
407.107	76.56
407.331	84.56
407.555	92.56
407.778	82.56
408.002	91.56
408.226	86.56
408.449	93.56
408.673	92.56
408.896	91.56
409.12	80.56
409.344	84.56
409.567	87.56
409.791	94.56
410.014	67.56
410.238	68.56
410.461	85.56
410.685	84.56
410.908	84.56
411.132	82.56
411.355	89.56
411.578	89.56
411.802	83.56
412.025	79.56
412.249	94.56
412.472	78.56
412.695	83.56
412.919	94.56
413.142	78.56
413.365	77.56
413.589	92.56
413.812	81.56
414.035	86.56
414.258	83.56
414.482	68.56
414.705	85.56
414.928	87.56
415.151	89.56
415.374	92.56
415.597	84.56
415.821	84.56
416.044	90.56
416.267	78.56
416.49	81.56
416.713	72.56
416.936	75.56
417.159	95.56
417.382	72.56
417.605	81.56
417.828	84.56
418.051	88.56
418.274	94.56
418.497	89.56
418.72	75.56
418.943	77.56
419.166	69.56
419.389	84.56
419.611	98.56
419.834	86.56
420.057	84.56
420.28	75.56
420.503	76.56
420.726	88.56
420.948	95.56
421.171	90.56
421.394	78.56
421.617	90.56
421.839	93.56
422.062	91.56
422.285	103.56
422.507	102.56
422.73	118.56
422.953	117.56
423.175	92.56
423.398	98.56
423.621	84.56
423.843	85.56
424.066	79.56
424.288	84.56
424.511	80.56
424.733	78.56
424.956	88.56
425.178	84.56
425.401	84.56
425.623	80.56
425.846	89.56
426.068	85.56
426.291	88.56
426.513	87.56
426.735	83.56
426.958	90.56
427.18	88.56
427.402	76.56
427.625	86.56
427.847	85.56
428.069	82.56
428.292	94.56
428.514	103.56
428.736	88.56
428.958	85.56
429.181	88.56
429.403	88.56
429.625	82.56
429.847	85.56
430.069	109.56
430.292	106.56
430.514	83.56
430.736	90.56
430.958	98.56
431.18	90.56
431.402	85.56
431.624	87.56
431.846	91.56
432.068	88.56
432.29	96.56
432.512	81.56
432.734	78.56
432.956	85.56
433.178	90.56
433.4	88.56
433.622	68.56
433.844	94.56
434.066	81.56
434.287	77.56
434.509	77.56
434.731	91.56
434.953	93.56
435.175	84.56
435.397	70.56
435.618	90.56
435.84	83.56
436.062	85.56
436.284	86.56
436.505	78.56
436.727	91.56
436.949	77.56
437.17	91.56
437.392	83.56
437.614	83.56
437.835	85.56
438.057	80.56
438.278	87.56
438.5	92.56
438.721	78.56
438.943	83.56
439.165	93.56
439.386	84.56
439.608	74.56
439.829	76.56
440.05	87.56
440.272	74.56
440.493	76.56
440.715	76.56
440.936	99.56
441.158	85.56
441.379	90.56
441.6	81.56
441.822	82.56
442.043	69.56
442.264	87.56
442.486	105.56
442.707	95.56
442.928	82.56
443.149	91.56
443.371	97.56
443.592	110.56
443.813	95.56
444.034	91.56
444.255	99.56
444.476	87.56
444.698	79.56
444.919	86.56
445.14	155.56
445.361	128.56
445.582	108.56
445.803	111.56
446.024	104.56
446.245	96.56
446.466	86.56
446.687	83.56
446.908	83.56
447.129	95.56
447.35	79.56
447.571	91.56
447.792	76.56
448.013	86.56
448.234	77.56
448.455	68.56
448.675	101.56
448.896	81.56
449.117	95.56
449.338	98.56
449.559	82.56
449.779	88.56
450	85.56
450.221	91.56
450.442	90.56
450.662	79.56
450.883	98.56
451.104	75.56
451.324	88.56
451.545	75.56
451.766	82.56
451.986	77.56
452.207	74.56
452.428	89.56
452.648	82.56
452.869	76.56
453.089	85.56
453.31	75.56
453.53	85.56
453.751	82.56
453.971	79.56
454.192	81.56
454.412	86.56
454.633	83.56
454.853	83.56
455.073	84.56
455.294	84.56
455.514	75.56
455.734	88.56
455.955	75.56
456.175	87.56
456.395	87.56
456.616	101.56
456.836	79.56
457.056	84.56
457.276	79.56
457.497	81.56
457.717	86.56
457.937	85.56
458.157	79.56
458.377	73.56
458.598	77.56
458.818	91.56
459.038	91.56
459.258	85.56
459.478	72.56
459.698	75.56
459.918	88.56
460.138	88.56
460.358	77.56
460.578	87.56
460.798	85.56
461.018	93.56
461.238	80.56
461.458	74.56
461.678	74.56
461.898	92.56
462.118	75.56
462.338	79.56
462.558	79.56
462.777	108.56
462.997	76.56
463.217	62.56
463.437	81.56
463.657	67.56
463.876	87.56
464.096	89.56
464.316	79.56
464.536	71.56
464.755	86.56
464.975	78.56
465.195	75.56
465.414	83.56
465.634	80.56
465.854	96.56
466.073	77.56
466.293	87.56
466.512	88.56
466.732	82.56
466.951	91.56
467.171	95.56
467.391	98.56
467.61	94.56
467.829	77.56
468.049	97.56
468.268	89.56
468.488	82.56
468.707	86.56
468.927	84.56
469.146	86.56
469.365	86.56
469.585	69.56
469.804	90.56
470.023	77.56
470.243	79.56
470.462	98.56
470.681	88.56
470.901	72.56
471.12	96.56
471.339	100.56
471.558	88.56
471.777	74.56
471.997	82.56
472.216	82.56
472.435	85.56
472.654	81.56
472.873	86.56
473.092	80.56
473.311	87.56
473.53	79.56
473.749	85.56
473.968	78.56
474.187	72.56
474.406	92.56
474.625	65.56
474.844	78.56
475.063	82.56
475.282	81.56
475.501	75.56
475.72	79.56
475.939	75.56
476.158	89.56
476.377	79.56
476.596	76.56
476.814	84.56
477.033	87.56
477.252	80.56
477.471	69.56
477.69	75.56
477.908	85.56
478.127	92.56
478.346	86.56
478.564	83.56
478.783	91.56
479.002	88.56
479.22	69.56
479.439	76.56
479.658	78.56
479.876	70.56
480.095	83.56
480.313	80.56
480.532	88.56
480.751	90.56
480.969	84.56
481.188	85.56
481.406	84.56
481.624	77.56
481.843	80.56
482.061	81.56
482.28	87.56
482.498	82.56
482.717	89.56
482.935	82.56
483.153	86.56
483.372	104.56
483.59	84.56
483.808	82.56
484.027	91.56
484.245	88.56
484.463	76.56
484.681	89.56
484.9	90.56
485.118	87.56
485.336	94.56
485.554	86.56
485.772	79.56
485.99	94.56
486.209	79.56
486.427	86.56
486.645	81.56
486.863	77.56
487.081	102.56
487.299	91.56
487.517	86.56
487.735	96.56
487.953	103.56
488.171	104.56
488.389	86.56
488.607	89.56
488.825	85.56
489.043	88.56
489.261	98.56
489.479	87.56
489.696	72.56
489.914	86.56
490.132	85.56
490.35	80.56
490.568	61.56
490.786	91.56
491.003	91.56
491.221	91.56
491.439	83.56
491.657	86.56
491.874	78.56
492.092	98.56
492.31	81.56
492.527	79.56
492.745	96.56
492.963	95.56
493.18	98.56
493.398	88.56
493.615	77.56
493.833	79.56
494.05	87.56
494.268	87.56
494.485	92.56
494.703	98.56
494.92	89.56
495.138	75.56
495.355	91.56
495.573	84.56
495.79	70.56
496.008	94.56
496.225	91.56
496.442	82.56
496.66	107.56
496.877	95.56
497.094	87.56
497.312	103.56
497.529	95.56
497.746	85.56
497.963	84.56
498.181	98.56
498.398	91.56
498.615	90.56
498.832	82.56
499.049	84.56
499.267	106.56
499.484	90.56
499.701	88.56
499.918	95.56
500.135	74.56
500.352	84.56
500.569	91.56
500.786	87.56
501.003	86.56
501.22	88.56
501.437	68.56
501.654	75.56
501.871	76.56
502.088	70.56
502.305	87.56
502.522	79.56
502.739	88.56
502.956	79.56
503.172	85.56
503.389	82.56
503.606	70.56
503.823	76.56
504.04	87.56
504.256	102.56
504.473	100.56
504.69	86.56
504.907	89.56
505.123	96.56
505.34	88.56
505.557	89.56
505.773	93.56
505.99	92.56
506.207	91.56
506.423	87.56
506.64	76.56
506.856	87.56
507.073	74.56
507.289	87.56
507.506	91.56
507.722	90.56
507.939	91.56
508.155	91.56
508.372	83.56
508.588	71.56
508.805	83.56
509.021	88.56
509.238	109.56
509.454	86.56
509.67	88.56
509.887	76.56
510.103	85.56
510.319	95.56
510.536	86.56
510.752	69.56
510.968	86.56
511.184	79.56
511.401	73.56
511.617	92.56
511.833	95.56
512.049	87.56
512.265	93.56
512.481	82.56
512.698	78.56
512.914	79.56
513.13	92.56
513.346	79.56
513.562	82.56
513.778	93.56
513.994	85.56
514.21	67.56
514.426	80.56
514.642	90.56
514.858	82.56
515.074	94.56
515.29	91.56
515.506	84.56
515.721	82.56
515.937	86.56
516.153	85.56
516.369	95.56
516.585	79.56
516.801	78.56
517.016	90.56
517.232	88.56
517.448	78.56
517.664	92.56
517.879	90.56
518.095	70.56
518.311	82.56
518.527	100.56
518.742	96.56
518.958	79.56
519.173	84.56
519.389	89.56
