Data from Mixnoheat2_HRD10591_00015.txt Node
Date: Fri Dec 27 14:59:54 EST 2024
User: Yrep
Spectrometer: HR+D1059
Trigger mode: 1
Integration Time (sec): 1.000000E-1
Scans to average: 1
Electric dark correction enabled: true
Nonlinearity correction enabled: false
Boxcar width: 0
XAxis mode: Wavelengths
Number of Pixels in Spectrum: 2048
>>>>>Begin Spectral Data<<<<<
223.165	-7.25
223.4	-7.25
223.635	-7.25
223.869	-27.25
224.104	-23.25
224.338	0.75
224.573	-3.25
224.808	-18.25
225.042	-5.25
225.277	-17.25
225.511	-14.25
225.746	5.75
225.98	7.75
226.215	9.75
226.449	12.75
226.683	23.75
226.918	29.75
227.152	25.75
227.387	40.75
227.621	35.75
227.856	54.75
228.09	50.75
228.324	55.75
228.559	71.75
228.793	60.75
229.027	57.75
229.262	66.75
229.496	66.75
229.73	65.75
229.964	65.75
230.199	74.75
230.433	66.75
230.667	82.75
230.901	87.75
231.136	78.75
231.37	75.75
231.604	76.75
231.838	90.75
232.072	69.75
232.306	96.75
232.541	80.75
232.775	79.75
233.009	71.75
233.243	71.75
233.477	81.75
233.711	77.75
233.945	73.75
234.179	74.75
234.413	85.75
234.647	95.75
234.881	79.75
235.115	92.75
235.349	73.75
235.583	74.75
235.817	62.75
236.051	66.75
236.285	73.75
236.519	86.75
236.753	82.75
236.987	74.75
237.221	74.75
237.455	84.75
237.689	71.75
237.922	81.75
238.156	79.75
238.39	78.75
238.624	70.75
238.858	72.75
239.091	75.75
239.325	71.75
239.559	72.75
239.793	82.75
240.027	76.75
240.26	78.75
240.494	70.75
240.728	68.75
240.961	67.75
241.195	72.75
241.429	76.75
241.662	60.75
241.896	69.75
242.13	67.75
242.363	84.75
242.597	89.75
242.83	73.75
243.064	71.75
243.298	65.75
243.531	62.75
243.765	74.75
243.998	75.75
244.232	74.75
244.465	81.75
244.699	67.75
244.932	78.75
245.166	59.75
245.399	74.75
245.633	79.75
245.866	70.75
246.099	65.75
246.333	75.75
246.566	78.75
246.8	79.75
247.033	92.75
247.266	75.75
247.5	68.75
247.733	70.75
247.966	70.75
248.2	72.75
248.433	71.75
248.666	77.75
248.899	73.75
249.133	75.75
249.366	64.75
249.599	83.75
249.832	85.75
250.066	88.75
250.299	89.75
250.532	68.75
250.765	71.75
250.998	82.75
251.231	79.75
251.465	81.75
251.698	84.75
251.931	82.75
252.164	70.75
252.397	80.75
252.63	76.75
252.863	71.75
253.096	78.75
253.329	67.75
253.562	82.75
253.795	70.75
254.028	73.75
254.261	72.75
254.494	70.75
254.727	84.75
254.96	72.75
255.193	85.75
255.426	66.75
255.659	69.75
255.892	72.75
256.124	70.75
256.357	79.75
256.59	85.75
256.823	80.75
257.056	74.75
257.289	72.75
257.521	70.75
257.754	88.75
257.987	86.75
258.22	85.75
258.452	78.75
258.685	68.75
258.918	72.75
259.151	74.75
259.383	82.75
259.616	68.75
259.849	79.75
260.081	79.75
260.314	76.75
260.547	61.75
260.779	66.75
261.012	65.75
261.244	70.75
261.477	87.75
261.71	81.75
261.942	84.75
262.175	70.75
262.407	86.75
262.64	77.75
262.872	70.75
263.105	75.75
263.337	81.75
263.57	70.75
263.802	89.75
264.035	86.75
264.267	77.75
264.499	73.75
264.732	82.75
264.964	91.75
265.197	70.75
265.429	96.75
265.661	83.75
265.894	77.75
266.126	69.75
266.358	74.75
266.591	89.75
266.823	85.75
267.055	70.75
267.287	88.75
267.52	66.75
267.752	85.75
267.984	75.75
268.216	98.75
268.448	85.75
268.681	94.75
268.913	86.75
269.145	78.75
269.377	75.75
269.609	67.75
269.841	90.75
270.073	72.75
270.306	80.75
270.538	74.75
270.77	78.75
271.002	71.75
271.234	82.75
271.466	84.75
271.698	86.75
271.93	70.75
272.162	84.75
272.394	65.75
272.626	77.75
272.858	88.75
273.09	87.75
273.322	77.75
273.553	69.75
273.785	86.75
274.017	80.75
274.249	79.75
274.481	82.75
274.713	84.75
274.945	78.75
275.176	77.75
275.408	89.75
275.64	68.75
275.872	75.75
276.104	84.75
276.335	97.75
276.567	80.75
276.799	82.75
277.031	76.75
277.262	70.75
277.494	76.75
277.726	77.75
277.957	78.75
278.189	74.75
278.421	79.75
278.652	89.75
278.884	71.75
279.115	76.75
279.347	78.75
279.579	86.75
279.81	85.75
280.042	80.75
280.273	75.75
280.505	74.75
280.736	77.75
280.968	57.75
281.199	81.75
281.431	77.75
281.662	75.75
281.894	78.75
282.125	81.75
282.356	77.75
282.588	73.75
282.819	73.75
283.051	66.75
283.282	76.75
283.513	83.75
283.745	108.75
283.976	83.75
284.207	83.75
284.439	84.75
284.67	76.75
284.901	72.75
285.132	78.75
285.364	75.75
285.595	75.75
285.826	71.75
286.057	90.75
286.288	76.75
286.52	81.75
286.751	67.75
286.982	78.75
287.213	67.75
287.444	75.75
287.675	77.75
287.906	82.75
288.138	86.75
288.369	90.75
288.6	85.75
288.831	88.75
289.062	88.75
289.293	79.75
289.524	78.75
289.755	75.75
289.986	65.75
290.217	99.75
290.448	84.75
290.679	87.75
290.91	83.75
291.141	72.75
291.371	97.75
291.602	91.75
291.833	89.75
292.064	75.75
292.295	82.75
292.526	82.75
292.757	79.75
292.987	84.75
293.218	83.75
293.449	72.75
293.68	83.75
293.91	69.75
294.141	88.75
294.372	92.75
294.603	81.75
294.833	74.75
295.064	87.75
295.295	77.75
295.525	86.75
295.756	68.75
295.987	87.75
296.217	87.75
296.448	71.75
296.679	72.75
296.909	80.75
297.14	87.75
297.37	87.75
297.601	86.75
297.831	83.75
298.062	97.75
298.292	82.75
298.523	92.75
298.753	87.75
298.984	82.75
299.214	81.75
299.445	67.75
299.675	78.75
299.905	95.75
300.136	77.75
300.366	92.75
300.597	78.75
300.827	81.75
301.057	84.75
301.288	88.75
301.518	79.75
301.748	73.75
301.979	101.75
302.209	93.75
302.439	88.75
302.669	82.75
302.9	91.75
303.13	81.75
303.36	82.75
303.59	88.75
303.82	85.75
304.051	84.75
304.281	80.75
304.511	81.75
304.741	73.75
304.971	98.75
305.201	85.75
305.431	87.75
305.661	89.75
305.891	84.75
306.121	80.75
306.352	79.75
306.582	77.75
306.812	91.75
307.042	79.75
307.272	78.75
307.502	83.75
307.731	85.75
307.961	75.75
308.191	75.75
308.421	76.75
308.651	84.75
308.881	78.75
309.111	83.75
309.341	77.75
309.571	90.75
309.8	69.75
310.03	78.75
310.26	70.75
310.49	81.75
310.72	83.75
310.949	93.75
311.179	96.75
311.409	81.75
311.639	96.75
311.868	71.75
312.098	82.75
312.328	68.75
312.557	85.75
312.787	68.75
313.017	93.75
313.246	91.75
313.476	82.75
313.706	78.75
313.935	79.75
314.165	82.75
314.394	85.75
314.624	80.75
314.853	79.75
315.083	86.75
315.312	82.75
315.542	78.75
315.771	87.75
316.001	73.75
316.23	74.75
316.46	78.75
316.689	79.75
316.919	85.75
317.148	95.75
317.377	101.75
317.607	88.75
317.836	94.75
318.065	86.75
318.295	84.75
318.524	89.75
318.753	91.75
318.983	98.75
319.212	95.75
319.441	85.75
319.67	77.75
319.9	96.75
320.129	72.75
320.358	82.75
320.587	87.75
320.816	78.75
321.046	69.75
321.275	81.75
321.504	92.75
321.733	92.75
321.962	81.75
322.191	81.75
322.42	96.75
322.649	100.75
322.878	75.75
323.108	73.75
323.337	83.75
323.566	88.75
323.795	88.75
324.024	80.75
324.253	76.75
324.482	91.75
324.71	85.75
324.939	72.75
325.168	78.75
325.397	84.75
325.626	88.75
325.855	82.75
326.084	80.75
326.313	75.75
326.542	81.75
326.77	74.75
326.999	79.75
327.228	78.75
327.457	73.75
327.686	78.75
327.914	96.75
328.143	80.75
328.372	92.75
328.6	74.75
328.829	75.75
329.058	84.75
329.287	75.75
329.515	77.75
329.744	73.75
329.972	74.75
330.201	69.75
330.43	74.75
330.658	75.75
330.887	82.75
331.115	94.75
331.344	77.75
331.572	79.75
331.801	68.75
332.03	74.75
332.258	87.75
332.486	79.75
332.715	91.75
332.943	73.75
333.172	76.75
333.4	83.75
333.629	79.75
333.857	78.75
334.085	75.75
334.314	86.75
334.542	90.75
334.771	75.75
334.999	89.75
335.227	86.75
335.455	77.75
335.684	78.75
335.912	69.75
336.14	81.75
336.369	91.75
336.597	77.75
336.825	86.75
337.053	86.75
337.281	84.75
337.51	86.75
337.738	85.75
337.966	68.75
338.194	82.75
338.422	81.75
338.65	91.75
338.878	74.75
339.106	88.75
339.334	91.75
339.562	71.75
339.79	68.75
340.018	81.75
340.246	84.75
340.474	79.75
340.702	82.75
340.93	87.75
341.158	83.75
341.386	81.75
341.614	75.75
341.842	89.75
342.07	82.75
342.298	98.75
342.526	80.75
342.754	83.75
342.981	84.75
343.209	84.75
343.437	84.75
343.665	90.75
343.893	89.75
344.12	87.75
344.348	62.75
344.576	67.75
344.804	71.75
345.031	84.75
345.259	87.75
345.487	78.75
345.714	91.75
345.942	76.75
346.17	74.75
346.397	70.75
346.625	70.75
346.853	70.75
347.08	88.75
347.308	89.75
347.535	76.75
347.763	82.75
347.99	87.75
348.218	84.75
348.445	77.75
348.673	77.75
348.9	83.75
349.128	98.75
349.355	82.75
349.583	91.75
349.81	67.75
350.037	73.75
350.265	79.75
350.492	76.75
350.72	72.75
350.947	83.75
351.174	87.75
351.402	78.75
351.629	65.75
351.856	69.75
352.083	74.75
352.311	77.75
352.538	67.75
352.765	75.75
352.992	83.75
353.22	72.75
353.447	81.75
353.674	76.75
353.901	88.75
354.128	83.75
354.355	77.75
354.583	89.75
354.81	82.75
355.037	79.75
355.264	77.75
355.491	74.75
355.718	78.75
355.945	71.75
356.172	85.75
356.399	87.75
356.626	78.75
356.853	62.75
357.08	80.75
357.307	87.75
357.534	85.75
357.761	84.75
357.988	77.75
358.215	86.75
358.441	92.75
358.668	71.75
358.895	85.75
359.122	76.75
359.349	82.75
359.576	80.75
359.802	84.75
360.029	76.75
360.256	91.75
360.483	78.75
360.709	76.75
360.936	78.75
361.163	76.75
361.39	78.75
361.616	78.75
361.843	87.75
362.07	75.75
362.296	88.75
362.523	85.75
362.749	73.75
362.976	60.75
363.203	88.75
363.429	74.75
363.656	76.75
363.882	70.75
364.109	74.75
364.335	85.75
364.562	91.75
364.788	79.75
365.015	83.75
365.241	81.75
365.468	72.75
365.694	83.75
365.92	70.75
366.147	68.75
366.373	94.75
366.599	83.75
366.826	71.75
367.052	68.75
367.278	72.75
367.505	71.75
367.731	89.75
367.957	75.75
368.184	88.75
368.41	86.75
368.636	81.75
368.862	84.75
369.089	78.75
369.315	72.75
369.541	80.75
369.767	86.75
369.993	82.75
370.219	74.75
370.445	69.75
370.672	84.75
370.898	90.75
371.124	74.75
371.35	68.75
371.576	94.75
371.802	71.75
372.028	76.75
372.254	79.75
372.48	82.75
372.706	89.75
372.932	99.75
373.158	74.75
373.384	92.75
373.61	90.75
373.835	82.75
374.061	86.75
374.287	84.75
374.513	94.75
374.739	73.75
374.965	88.75
375.191	81.75
375.416	84.75
375.642	82.75
375.868	81.75
376.094	82.75
376.319	84.75
376.545	79.75
376.771	71.75
376.997	84.75
377.222	75.75
377.448	79.75
377.674	70.75
377.899	76.75
378.125	87.75
378.35	82.75
378.576	77.75
378.802	79.75
379.027	89.75
379.253	77.75
379.478	78.75
379.704	82.75
379.929	80.75
380.155	77.75
380.38	87.75
380.606	86.75
380.831	71.75
381.057	83.75
381.282	87.75
381.507	96.75
381.733	78.75
381.958	78.75
382.184	99.75
382.409	71.75
382.634	84.75
382.86	85.75
383.085	70.75
383.31	88.75
383.535	70.75
383.761	78.75
383.986	86.75
384.211	89.75
384.436	63.75
384.662	81.75
384.887	80.75
385.112	80.75
385.337	74.75
385.562	79.75
385.787	75.75
386.013	79.75
386.238	72.75
386.463	70.75
386.688	85.75
386.913	74.75
387.138	67.75
387.363	73.75
387.588	77.75
387.813	74.75
388.038	97.75
388.263	90.75
388.488	87.75
388.713	75.75
388.938	88.75
389.163	83.75
389.387	77.75
389.612	82.75
389.837	67.75
390.062	78.75
390.287	90.75
390.512	78.75
390.736	86.75
390.961	76.75
391.186	71.75
391.411	89.75
391.636	80.75
391.86	81.75
392.085	75.75
392.31	72.75
392.534	86.75
392.759	80.75
392.984	75.75
393.208	82.75
393.433	94.75
393.658	75.75
393.882	82.75
394.107	79.75
394.331	87.75
394.556	77.75
394.78	74.75
395.005	55.75
395.229	74.75
395.454	77.75
395.678	98.75
395.903	107.75
396.127	89.75
396.352	74.75
396.576	87.75
396.801	77.75
397.025	89.75
397.249	85.75
397.474	89.75
397.698	82.75
397.922	78.75
398.147	90.75
398.371	69.75
398.595	69.75
398.82	82.75
399.044	77.75
399.268	88.75
399.492	80.75
399.717	74.75
399.941	83.75
400.165	78.75
400.389	73.75
400.613	86.75
400.837	86.75
401.062	90.75
401.286	81.75
401.51	84.75
401.734	80.75
401.958	91.75
402.182	81.75
402.406	87.75
402.63	73.75
402.854	96.75
403.078	92.75
403.302	94.75
403.526	82.75
403.75	89.75
403.974	74.75
404.198	98.75
404.422	98.75
404.645	86.75
404.869	86.75
405.093	77.75
405.317	79.75
405.541	73.75
405.765	86.75
405.988	82.75
406.212	72.75
406.436	94.75
406.66	80.75
406.883	94.75
407.107	76.75
407.331	72.75
407.555	86.75
407.778	74.75
408.002	66.75
408.226	80.75
408.449	82.75
408.673	91.75
408.896	99.75
409.12	74.75
409.344	81.75
409.567	76.75
409.791	88.75
410.014	95.75
410.238	79.75
410.461	70.75
410.685	63.75
410.908	69.75
411.132	97.75
411.355	94.75
411.578	82.75
411.802	88.75
412.025	84.75
412.249	84.75
412.472	70.75
412.695	79.75
412.919	80.75
413.142	94.75
413.365	88.75
413.589	84.75
413.812	88.75
414.035	88.75
414.258	79.75
414.482	78.75
414.705	76.75
414.928	81.75
415.151	84.75
415.374	64.75
415.597	89.75
415.821	77.75
416.044	73.75
416.267	90.75
416.49	89.75
416.713	68.75
416.936	83.75
417.159	84.75
417.382	78.75
417.605	75.75
417.828	75.75
418.051	81.75
418.274	76.75
418.497	81.75
418.72	71.75
418.943	90.75
419.166	86.75
419.389	82.75
419.611	89.75
419.834	63.75
420.057	77.75
420.28	91.75
420.503	82.75
420.726	86.75
420.948	75.75
421.171	77.75
421.394	80.75
421.617	81.75
421.839	68.75
422.062	87.75
422.285	82.75
422.507	88.75
422.73	120.75
422.953	108.75
423.175	87.75
423.398	80.75
423.621	82.75
423.843	89.75
424.066	85.75
424.288	78.75
424.511	83.75
424.733	79.75
424.956	72.75
425.178	95.75
425.401	89.75
425.623	78.75
425.846	74.75
426.068	72.75
426.291	76.75
426.513	83.75
426.735	75.75
426.958	70.75
427.18	74.75
427.402	70.75
427.625	63.75
427.847	84.75
428.069	82.75
428.292	84.75
428.514	82.75
428.736	90.75
428.958	82.75
429.181	95.75
429.403	77.75
429.625	72.75
429.847	88.75
430.069	101.75
430.292	80.75
430.514	87.75
430.736	84.75
430.958	79.75
431.18	82.75
431.402	87.75
431.624	87.75
431.846	77.75
432.068	97.75
432.29	85.75
432.512	94.75
432.734	91.75
432.956	86.75
433.178	81.75
433.4	61.75
433.622	87.75
433.844	77.75
434.066	72.75
434.287	59.75
434.509	93.75
434.731	79.75
434.953	83.75
435.175	70.75
435.397	83.75
435.618	87.75
435.84	66.75
436.062	71.75
436.284	80.75
436.505	79.75
436.727	85.75
436.949	71.75
437.17	80.75
437.392	69.75
437.614	85.75
437.835	79.75
438.057	75.75
438.278	71.75
438.5	79.75
438.721	79.75
438.943	72.75
439.165	78.75
439.386	79.75
439.608	86.75
439.829	87.75
440.05	70.75
440.272	82.75
440.493	80.75
440.715	73.75
440.936	94.75
441.158	90.75
441.379	84.75
441.6	88.75
441.822	80.75
442.043	92.75
442.264	79.75
442.486	85.75
442.707	77.75
442.928	81.75
443.149	77.75
443.371	81.75
443.592	78.75
443.813	87.75
444.034	83.75
444.255	77.75
444.476	52.75
444.698	80.75
444.919	80.75
445.14	131.75
445.361	104.75
445.582	110.75
445.803	92.75
446.024	86.75
446.245	93.75
446.466	79.75
446.687	87.75
446.908	75.75
447.129	86.75
447.35	84.75
447.571	76.75
447.792	75.75
448.013	68.75
448.234	87.75
448.455	57.75
448.675	85.75
448.896	73.75
449.117	82.75
449.338	75.75
449.559	82.75
449.779	65.75
450	85.75
450.221	88.75
450.442	90.75
450.662	85.75
450.883	74.75
451.104	87.75
451.324	85.75
451.545	71.75
451.766	80.75
451.986	60.75
452.207	71.75
452.428	77.75
452.648	78.75
452.869	94.75
453.089	70.75
453.31	66.75
453.53	75.75
453.751	92.75
453.971	79.75
454.192	85.75
454.412	88.75
454.633	79.75
454.853	73.75
455.073	89.75
455.294	77.75
455.514	74.75
455.734	85.75
455.955	80.75
456.175	79.75
456.395	74.75
456.616	80.75
456.836	74.75
457.056	82.75
457.276	66.75
457.497	74.75
457.717	78.75
457.937	73.75
458.157	81.75
458.377	85.75
458.598	65.75
458.818	76.75
459.038	71.75
459.258	69.75
459.478	63.75
459.698	82.75
459.918	76.75
460.138	71.75
460.358	75.75
460.578	87.75
460.798	85.75
461.018	97.75
461.238	82.75
461.458	70.75
461.678	69.75
461.898	80.75
462.118	86.75
462.338	81.75
462.558	81.75
462.777	84.75
462.997	82.75
463.217	75.75
463.437	67.75
463.657	84.75
463.876	77.75
464.096	95.75
464.316	90.75
464.536	86.75
464.755	100.75
464.975	83.75
465.195	73.75
465.414	78.75
465.634	96.75
465.854	79.75
466.073	73.75
466.293	68.75
466.512	78.75
466.732	67.75
466.951	89.75
467.171	94.75
467.391	81.75
467.61	56.75
467.829	84.75
468.049	70.75
468.268	80.75
468.488	84.75
468.707	91.75
468.927	81.75
469.146	79.75
469.365	75.75
469.585	74.75
469.804	80.75
470.023	69.75
470.243	68.75
470.462	83.75
470.681	86.75
470.901	65.75
471.12	67.75
471.339	78.75
471.558	77.75
471.777	79.75
471.997	69.75
472.216	83.75
472.435	69.75
472.654	88.75
472.873	71.75
473.092	85.75
473.311	95.75
473.53	91.75
473.749	79.75
473.968	82.75
474.187	78.75
474.406	86.75
474.625	78.75
474.844	72.75
475.063	66.75
475.282	75.75
475.501	75.75
475.72	69.75
475.939	84.75
476.158	78.75
476.377	86.75
476.596	75.75
476.814	74.75
477.033	79.75
477.252	79.75
477.471	85.75
477.69	81.75
477.908	83.75
478.127	72.75
478.346	82.75
478.564	68.75
478.783	74.75
479.002	73.75
479.22	75.75
479.439	80.75
479.658	72.75
479.876	80.75
480.095	74.75
480.313	92.75
480.532	79.75
480.751	72.75
480.969	78.75
481.188	95.75
481.406	74.75
481.624	78.75
481.843	91.75
482.061	79.75
482.28	66.75
482.498	72.75
482.717	81.75
482.935	82.75
483.153	68.75
483.372	80.75
483.59	78.75
483.808	72.75
484.027	77.75
484.245	72.75
484.463	81.75
484.681	86.75
484.9	87.75
485.118	81.75
485.336	76.75
485.554	64.75
485.772	84.75
485.99	84.75
486.209	84.75
486.427	81.75
486.645	85.75
486.863	78.75
487.081	84.75
487.299	82.75
487.517	81.75
487.735	90.75
487.953	104.75
488.171	95.75
488.389	86.75
488.607	66.75
488.825	72.75
489.043	91.75
489.261	85.75
489.479	77.75
489.696	71.75
489.914	89.75
490.132	76.75
490.35	84.75
490.568	67.75
490.786	70.75
491.003	80.75
491.221	89.75
491.439	92.75
491.657	95.75
491.874	86.75
492.092	79.75
492.31	98.75
492.527	100.75
492.745	74.75
492.963	76.75
493.18	83.75
493.398	75.75
493.615	94.75
493.833	86.75
494.05	83.75
494.268	86.75
494.485	88.75
494.703	91.75
494.92	81.75
495.138	88.75
495.355	66.75
495.573	76.75
495.79	81.75
496.008	90.75
496.225	79.75
496.442	89.75
496.66	61.75
496.877	81.75
497.094	84.75
497.312	77.75
497.529	86.75
497.746	74.75
497.963	70.75
498.181	71.75
498.398	92.75
498.615	68.75
498.832	77.75
499.049	99.75
499.267	74.75
499.484	70.75
499.701	83.75
499.918	88.75
500.135	88.75
500.352	89.75
500.569	83.75
500.786	84.75
501.003	82.75
501.22	84.75
501.437	77.75
501.654	76.75
501.871	75.75
502.088	91.75
502.305	79.75
502.522	78.75
502.739	88.75
502.956	76.75
503.172	91.75
503.389	90.75
503.606	64.75
503.823	98.75
504.04	100.75
504.256	90.75
504.473	86.75
504.69	68.75
504.907	94.75
505.123	77.75
505.34	94.75
505.557	86.75
505.773	80.75
505.99	71.75
506.207	74.75
506.423	74.75
506.64	78.75
506.856	80.75
507.073	70.75
507.289	78.75
507.506	91.75
507.722	69.75
507.939	82.75
508.155	79.75
508.372	79.75
508.588	94.75
508.805	82.75
509.021	90.75
509.238	94.75
509.454	79.75
509.67	81.75
509.887	81.75
510.103	74.75
510.319	84.75
510.536	98.75
510.752	77.75
510.968	82.75
511.184	90.75
511.401	78.75
511.617	92.75
511.833	75.75
512.049	74.75
512.265	89.75
512.481	78.75
512.698	79.75
512.914	81.75
513.13	88.75
513.346	83.75
513.562	86.75
513.778	90.75
513.994	75.75
514.21	73.75
514.426	79.75
514.642	80.75
514.858	87.75
515.074	70.75
515.29	78.75
515.506	75.75
515.721	77.75
515.937	96.75
516.153	80.75
516.369	76.75
516.585	85.75
516.801	92.75
517.016	83.75
517.232	61.75
517.448	71.75
517.664	86.75
517.879	78.75
518.095	71.75
518.311	94.75
518.527	96.75
518.742	75.75
518.958	65.75
519.173	82.75
519.389	86.75
519.605	91.75
519.82	78.75
520.036	74.75
