Data from Mixnoheat2_HRD10591_00005.txt Node
Date: Fri Dec 27 14:59:44 EST 2024
User: Yrep
Spectrometer: HR+D1059
Trigger mode: 1
Integration Time (sec): 1.000000E-1
Scans to average: 1
Electric dark correction enabled: true
Nonlinearity correction enabled: false
Boxcar width: 0
XAxis mode: Wavelengths
Number of Pixels in Spectrum: 2048
>>>>>Begin Spectral Data<<<<<
223.165	-13.25
223.4	-13.25
223.635	-13.25
223.869	-23.25
224.104	-8.25
224.338	-26.25
224.573	-8.25
224.808	-17.25
225.042	-12.25
225.277	-5.25
225.511	-0.25
225.746	13.75
225.98	-3.25
226.215	21.75
226.449	13.75
226.683	19.75
226.918	22.75
227.152	25.75
227.387	36.75
227.621	42.75
227.856	46.75
228.09	51.75
228.324	48.75
228.559	69.75
228.793	54.75
229.027	59.75
229.262	70.75
229.496	61.75
229.73	64.75
229.964	82.75
230.199	64.75
230.433	76.75
230.667	61.75
230.901	86.75
231.136	76.75
231.37	67.75
231.604	75.75
231.838	89.75
232.072	84.75
232.306	88.75
232.541	82.75
232.775	82.75
233.009	84.75
233.243	82.75
233.477	79.75
233.711	90.75
233.945	90.75
234.179	84.75
234.413	90.75
234.647	76.75
234.881	96.75
235.115	90.75
235.349	67.75
235.583	83.75
235.817	80.75
236.051	74.75
236.285	70.75
236.519	83.75
236.753	64.75
236.987	94.75
237.221	68.75
237.455	67.75
237.689	71.75
237.922	76.75
238.156	89.75
238.39	76.75
238.624	72.75
238.858	79.75
239.091	88.75
239.325	80.75
239.559	65.75
239.793	70.75
240.027	63.75
240.26	78.75
240.494	86.75
240.728	74.75
240.961	73.75
241.195	75.75
241.429	72.75
241.662	74.75
241.896	77.75
242.13	86.75
242.363	74.75
242.597	78.75
242.83	72.75
243.064	71.75
243.298	73.75
243.531	75.75
243.765	76.75
243.998	78.75
244.232	61.75
244.465	71.75
244.699	81.75
244.932	80.75
245.166	77.75
245.399	84.75
245.633	72.75
245.866	84.75
246.099	66.75
246.333	90.75
246.566	87.75
246.8	72.75
247.033	80.75
247.266	84.75
247.5	74.75
247.733	85.75
247.966	83.75
248.2	75.75
248.433	83.75
248.666	77.75
248.899	75.75
249.133	74.75
249.366	89.75
249.599	75.75
249.832	90.75
250.066	89.75
250.299	90.75
250.532	78.75
250.765	88.75
250.998	68.75
251.231	82.75
251.465	81.75
251.698	83.75
251.931	89.75
252.164	78.75
252.397	86.75
252.63	82.75
252.863	73.75
253.096	68.75
253.329	61.75
253.562	78.75
253.795	76.75
254.028	93.75
254.261	84.75
254.494	78.75
254.727	85.75
254.96	72.75
255.193	79.75
255.426	77.75
255.659	84.75
255.892	79.75
256.124	68.75
256.357	59.75
256.59	74.75
256.823	68.75
257.056	79.75
257.289	84.75
257.521	86.75
257.754	79.75
257.987	84.75
258.22	87.75
258.452	88.75
258.685	69.75
258.918	90.75
259.151	84.75
259.383	90.75
259.616	79.75
259.849	82.75
260.081	81.75
260.314	86.75
260.547	93.75
260.779	74.75
261.012	82.75
261.244	79.75
261.477	86.75
261.71	84.75
261.942	79.75
262.175	79.75
262.407	75.75
262.64	91.75
262.872	78.75
263.105	87.75
263.337	84.75
263.57	79.75
263.802	82.75
264.035	66.75
264.267	87.75
264.499	78.75
264.732	94.75
264.964	89.75
265.197	88.75
265.429	98.75
265.661	99.75
265.894	81.75
266.126	98.75
266.358	86.75
266.591	77.75
266.823	79.75
267.055	93.75
267.287	85.75
267.52	81.75
267.752	89.75
267.984	91.75
268.216	62.75
268.448	82.75
268.681	73.75
268.913	89.75
269.145	79.75
269.377	83.75
269.609	84.75
269.841	81.75
270.073	98.75
270.306	68.75
270.538	78.75
270.77	90.75
271.002	85.75
271.234	77.75
271.466	86.75
271.698	71.75
271.93	80.75
272.162	81.75
272.394	78.75
272.626	92.75
272.858	83.75
273.09	84.75
273.322	85.75
273.553	84.75
273.785	90.75
274.017	69.75
274.249	80.75
274.481	91.75
274.713	84.75
274.945	70.75
275.176	88.75
275.408	88.75
275.64	83.75
275.872	88.75
276.104	87.75
276.335	67.75
276.567	82.75
276.799	87.75
277.031	89.75
277.262	87.75
277.494	83.75
277.726	88.75
277.957	73.75
278.189	61.75
278.421	79.75
278.652	84.75
278.884	88.75
279.115	79.75
279.347	77.75
279.579	68.75
279.81	66.75
280.042	63.75
280.273	81.75
280.505	86.75
280.736	82.75
280.968	88.75
281.199	78.75
281.431	85.75
281.662	91.75
281.894	99.75
282.125	86.75
282.356	92.75
282.588	83.75
282.819	76.75
283.051	86.75
283.282	92.75
283.513	78.75
283.745	79.75
283.976	83.75
284.207	85.75
284.439	82.75
284.67	87.75
284.901	76.75
285.132	92.75
285.364	84.75
285.595	87.75
285.826	76.75
286.057	92.75
286.288	74.75
286.52	90.75
286.751	82.75
286.982	90.75
287.213	74.75
287.444	92.75
287.675	82.75
287.906	83.75
288.138	79.75
288.369	76.75
288.6	88.75
288.831	71.75
289.062	83.75
289.293	86.75
289.524	72.75
289.755	70.75
289.986	76.75
290.217	91.75
290.448	77.75
290.679	93.75
290.91	75.75
291.141	84.75
291.371	83.75
291.602	74.75
291.833	79.75
292.064	78.75
292.295	87.75
292.526	81.75
292.757	75.75
292.987	84.75
293.218	85.75
293.449	93.75
293.68	85.75
293.91	91.75
294.141	87.75
294.372	90.75
294.603	86.75
294.833	86.75
295.064	78.75
295.295	80.75
295.525	84.75
295.756	86.75
295.987	82.75
296.217	83.75
296.448	90.75
296.679	85.75
296.909	81.75
297.14	78.75
297.37	88.75
297.601	70.75
297.831	89.75
298.062	74.75
298.292	76.75
298.523	92.75
298.753	93.75
298.984	74.75
299.214	77.75
299.445	84.75
299.675	80.75
299.905	92.75
300.136	88.75
300.366	75.75
300.597	88.75
300.827	92.75
301.057	85.75
301.288	84.75
301.518	73.75
301.748	88.75
301.979	100.75
302.209	100.75
302.439	94.75
302.669	72.75
302.9	71.75
303.13	92.75
303.36	80.75
303.59	88.75
303.82	85.75
304.051	96.75
304.281	86.75
304.511	79.75
304.741	86.75
304.971	77.75
305.201	94.75
305.431	72.75
305.661	85.75
305.891	83.75
306.121	71.75
306.352	83.75
306.582	82.75
306.812	86.75
307.042	78.75
307.272	79.75
307.502	85.75
307.731	82.75
307.961	82.75
308.191	72.75
308.421	61.75
308.651	85.75
308.881	84.75
309.111	76.75
309.341	90.75
309.571	85.75
309.8	91.75
310.03	94.75
310.26	83.75
310.49	79.75
310.72	82.75
310.949	69.75
311.179	81.75
311.409	86.75
311.639	74.75
311.868	74.75
312.098	78.75
312.328	83.75
312.557	95.75
312.787	90.75
313.017	93.75
313.246	77.75
313.476	95.75
313.706	91.75
313.935	77.75
314.165	72.75
314.394	86.75
314.624	86.75
314.853	78.75
315.083	77.75
315.312	86.75
315.542	83.75
315.771	74.75
316.001	77.75
316.23	84.75
316.46	87.75
316.689	84.75
316.919	87.75
317.148	99.75
317.377	80.75
317.607	90.75
317.836	71.75
318.065	86.75
318.295	90.75
318.524	102.75
318.753	79.75
318.983	91.75
319.212	83.75
319.441	94.75
319.67	83.75
319.9	84.75
320.129	94.75
320.358	87.75
320.587	87.75
320.816	92.75
321.046	96.75
321.275	72.75
321.504	100.75
321.733	84.75
321.962	81.75
322.191	79.75
322.42	78.75
322.649	93.75
322.878	96.75
323.108	99.75
323.337	83.75
323.566	79.75
323.795	82.75
324.024	89.75
324.253	79.75
324.482	68.75
324.71	85.75
324.939	84.75
325.168	88.75
325.397	77.75
325.626	104.75
325.855	89.75
326.084	98.75
326.313	94.75
326.542	86.75
326.77	83.75
326.999	86.75
327.228	72.75
327.457	73.75
327.686	79.75
327.914	79.75
328.143	85.75
328.372	93.75
328.6	69.75
328.829	102.75
329.058	86.75
329.287	105.75
329.515	78.75
329.744	83.75
329.972	79.75
330.201	93.75
330.43	83.75
330.658	80.75
330.887	101.75
331.115	92.75
331.344	82.75
331.572	78.75
331.801	77.75
332.03	81.75
332.258	95.75
332.486	92.75
332.715	86.75
332.943	75.75
333.172	73.75
333.4	90.75
333.629	83.75
333.857	89.75
334.085	76.75
334.314	65.75
334.542	79.75
334.771	82.75
334.999	82.75
335.227	79.75
335.455	90.75
335.684	98.75
335.912	82.75
336.14	86.75
336.369	88.75
336.597	76.75
336.825	83.75
337.053	92.75
337.281	91.75
337.51	85.75
337.738	80.75
337.966	89.75
338.194	78.75
338.422	82.75
338.65	95.75
338.878	108.75
339.106	91.75
339.334	96.75
339.562	86.75
339.79	95.75
340.018	76.75
340.246	75.75
340.474	83.75
340.702	86.75
340.93	77.75
341.158	76.75
341.386	76.75
341.614	75.75
341.842	72.75
342.07	78.75
342.298	83.75
342.526	70.75
342.754	87.75
342.981	90.75
343.209	76.75
343.437	106.75
343.665	75.75
343.893	79.75
344.12	98.75
344.348	70.75
344.576	89.75
344.804	95.75
345.031	82.75
345.259	77.75
345.487	83.75
345.714	86.75
345.942	91.75
346.17	74.75
346.397	75.75
346.625	90.75
346.853	82.75
347.08	82.75
347.308	86.75
347.535	87.75
347.763	94.75
347.99	84.75
348.218	94.75
348.445	78.75
348.673	84.75
348.9	91.75
349.128	84.75
349.355	83.75
349.583	87.75
349.81	88.75
350.037	93.75
350.265	84.75
350.492	82.75
350.72	79.75
350.947	75.75
351.174	79.75
351.402	82.75
351.629	86.75
351.856	83.75
352.083	80.75
352.311	93.75
352.538	91.75
352.765	91.75
352.992	95.75
353.22	92.75
353.447	83.75
353.674	96.75
353.901	85.75
354.128	99.75
354.355	93.75
354.583	70.75
354.81	89.75
355.037	97.75
355.264	98.75
355.491	72.75
355.718	89.75
355.945	85.75
356.172	77.75
356.399	85.75
356.626	86.75
356.853	94.75
357.08	89.75
357.307	83.75
357.534	81.75
357.761	83.75
357.988	91.75
358.215	84.75
358.441	85.75
358.668	86.75
358.895	88.75
359.122	83.75
359.349	88.75
359.576	82.75
359.802	80.75
360.029	84.75
360.256	78.75
360.483	85.75
360.709	62.75
360.936	79.75
361.163	71.75
361.39	80.75
361.616	82.75
361.843	81.75
362.07	80.75
362.296	85.75
362.523	77.75
362.749	86.75
362.976	82.75
363.203	92.75
363.429	93.75
363.656	83.75
363.882	77.75
364.109	89.75
364.335	89.75
364.562	70.75
364.788	91.75
365.015	90.75
365.241	88.75
365.468	81.75
365.694	86.75
365.92	91.75
366.147	99.75
366.373	92.75
366.599	83.75
366.826	82.75
367.052	89.75
367.278	78.75
367.505	93.75
367.731	86.75
367.957	81.75
368.184	93.75
368.41	73.75
368.636	76.75
368.862	78.75
369.089	78.75
369.315	81.75
369.541	85.75
369.767	94.75
369.993	95.75
370.219	72.75
370.445	70.75
370.672	92.75
370.898	95.75
371.124	90.75
371.35	84.75
371.576	73.75
371.802	82.75
372.028	95.75
372.254	84.75
372.48	75.75
372.706	79.75
372.932	88.75
373.158	84.75
373.384	84.75
373.61	93.75
373.835	76.75
374.061	88.75
374.287	86.75
374.513	87.75
374.739	90.75
374.965	86.75
375.191	83.75
375.416	75.75
375.642	63.75
375.868	80.75
376.094	91.75
376.319	79.75
376.545	89.75
376.771	84.75
376.997	85.75
377.222	78.75
377.448	93.75
377.674	63.75
377.899	79.75
378.125	79.75
378.35	92.75
378.576	75.75
378.802	84.75
379.027	95.75
379.253	84.75
379.478	87.75
379.704	88.75
379.929	77.75
380.155	79.75
380.38	74.75
380.606	81.75
380.831	83.75
381.057	84.75
381.282	104.75
381.507	87.75
381.733	99.75
381.958	86.75
382.184	89.75
382.409	90.75
382.634	68.75
382.86	90.75
383.085	86.75
383.31	82.75
383.535	84.75
383.761	84.75
383.986	83.75
384.211	70.75
384.436	80.75
384.662	82.75
384.887	73.75
385.112	93.75
385.337	63.75
385.562	76.75
385.787	90.75
386.013	86.75
386.238	79.75
386.463	83.75
386.688	88.75
386.913	85.75
387.138	86.75
387.363	80.75
387.588	82.75
387.813	99.75
388.038	91.75
388.263	78.75
388.488	76.75
388.713	94.75
388.938	66.75
389.163	83.75
389.387	84.75
389.612	71.75
389.837	77.75
390.062	77.75
390.287	76.75
390.512	86.75
390.736	88.75
390.961	86.75
391.186	79.75
391.411	81.75
391.636	80.75
391.86	79.75
392.085	73.75
392.31	82.75
392.534	78.75
392.759	83.75
392.984	79.75
393.208	82.75
393.433	111.75
393.658	99.75
393.882	84.75
394.107	88.75
394.331	96.75
394.556	91.75
394.78	83.75
395.005	82.75
395.229	90.75
395.454	84.75
395.678	87.75
395.903	79.75
396.127	95.75
396.352	90.75
396.576	88.75
396.801	99.75
397.025	100.75
397.249	91.75
397.474	88.75
397.698	89.75
397.922	94.75
398.147	86.75
398.371	85.75
398.595	100.75
398.82	87.75
399.044	79.75
399.268	82.75
399.492	77.75
399.717	87.75
399.941	74.75
400.165	99.75
400.389	80.75
400.613	94.75
400.837	79.75
401.062	97.75
401.286	81.75
401.51	73.75
401.734	92.75
401.958	90.75
402.182	76.75
402.406	83.75
402.63	83.75
402.854	95.75
403.078	86.75
403.302	100.75
403.526	81.75
403.75	86.75
403.974	92.75
404.198	90.75
404.422	99.75
404.645	98.75
404.869	101.75
405.093	87.75
405.317	83.75
405.541	90.75
405.765	96.75
405.988	79.75
406.212	81.75
406.436	83.75
406.66	94.75
406.883	93.75
407.107	79.75
407.331	82.75
407.555	72.75
407.778	85.75
408.002	82.75
408.226	75.75
408.449	73.75
408.673	67.75
408.896	94.75
409.12	74.75
409.344	85.75
409.567	81.75
409.791	77.75
410.014	79.75
410.238	74.75
410.461	84.75
410.685	83.75
410.908	74.75
411.132	78.75
411.355	87.75
411.578	75.75
411.802	81.75
412.025	79.75
412.249	70.75
412.472	72.75
412.695	96.75
412.919	94.75
413.142	81.75
413.365	95.75
413.589	94.75
413.812	87.75
414.035	86.75
414.258	74.75
414.482	79.75
414.705	84.75
414.928	73.75
415.151	78.75
415.374	82.75
415.597	75.75
415.821	80.75
416.044	91.75
416.267	87.75
416.49	87.75
416.713	75.75
416.936	91.75
417.159	93.75
417.382	69.75
417.605	106.75
417.828	79.75
418.051	82.75
418.274	74.75
418.497	77.75
418.72	86.75
418.943	74.75
419.166	77.75
419.389	91.75
419.611	90.75
419.834	88.75
420.057	93.75
420.28	75.75
420.503	82.75
420.726	73.75
420.948	86.75
421.171	104.75
421.394	69.75
421.617	100.75
421.839	74.75
422.062	85.75
422.285	105.75
422.507	109.75
422.73	125.75
422.953	131.75
423.175	110.75
423.398	82.75
423.621	80.75
423.843	78.75
424.066	79.75
424.288	91.75
424.511	67.75
424.733	68.75
424.956	82.75
425.178	82.75
425.401	86.75
425.623	82.75
425.846	73.75
426.068	84.75
426.291	74.75
426.513	85.75
426.735	58.75
426.958	80.75
427.18	84.75
427.402	87.75
427.625	82.75
427.847	68.75
428.069	83.75
428.292	83.75
428.514	87.75
428.736	86.75
428.958	98.75
429.181	86.75
429.403	79.75
429.625	84.75
429.847	83.75
430.069	92.75
430.292	105.75
430.514	94.75
430.736	87.75
430.958	85.75
431.18	74.75
431.402	93.75
431.624	83.75
431.846	90.75
432.068	88.75
432.29	83.75
432.512	84.75
432.734	89.75
432.956	75.75
433.178	81.75
433.4	81.75
433.622	89.75
433.844	86.75
434.066	83.75
434.287	74.75
434.509	71.75
434.731	79.75
434.953	81.75
435.175	73.75
435.397	86.75
435.618	84.75
435.84	73.75
436.062	87.75
436.284	83.75
436.505	80.75
436.727	90.75
436.949	85.75
437.17	94.75
437.392	86.75
437.614	76.75
437.835	84.75
438.057	87.75
438.278	85.75
438.5	93.75
438.721	85.75
438.943	87.75
439.165	86.75
439.386	85.75
439.608	87.75
439.829	87.75
440.05	97.75
440.272	89.75
440.493	80.75
440.715	76.75
440.936	85.75
441.158	99.75
441.379	72.75
441.6	89.75
441.822	88.75
442.043	91.75
442.264	85.75
442.486	100.75
442.707	106.75
442.928	92.75
443.149	103.75
443.371	107.75
443.592	108.75
443.813	103.75
444.034	81.75
444.255	68.75
444.476	88.75
444.698	79.75
444.919	80.75
445.14	156.75
445.361	129.75
445.582	125.75
445.803	115.75
446.024	89.75
446.245	84.75
446.466	80.75
446.687	80.75
446.908	79.75
447.129	84.75
447.35	89.75
447.571	81.75
447.792	77.75
448.013	72.75
448.234	91.75
448.455	79.75
448.675	86.75
448.896	77.75
449.117	71.75
449.338	78.75
449.559	96.75
449.779	75.75
450	81.75
450.221	82.75
450.442	83.75
450.662	70.75
450.883	71.75
451.104	76.75
451.324	85.75
451.545	90.75
451.766	76.75
451.986	92.75
452.207	84.75
452.428	85.75
452.648	79.75
452.869	82.75
453.089	95.75
453.31	70.75
453.53	82.75
453.751	99.75
453.971	95.75
454.192	86.75
454.412	67.75
454.633	89.75
454.853	87.75
455.073	76.75
455.294	83.75
455.514	83.75
455.734	91.75
455.955	81.75
456.175	85.75
456.395	89.75
456.616	77.75
456.836	75.75
457.056	80.75
457.276	92.75
457.497	78.75
457.717	88.75
457.937	82.75
458.157	77.75
458.377	88.75
458.598	88.75
458.818	102.75
459.038	88.75
459.258	83.75
459.478	95.75
459.698	85.75
459.918	76.75
460.138	62.75
460.358	86.75
460.578	92.75
460.798	92.75
461.018	86.75
461.238	95.75
461.458	91.75
461.678	77.75
461.898	80.75
462.118	91.75
462.338	84.75
462.558	100.75
462.777	92.75
462.997	91.75
463.217	76.75
463.437	69.75
463.657	86.75
463.876	87.75
464.096	85.75
464.316	72.75
464.536	82.75
464.755	82.75
464.975	76.75
465.195	89.75
465.414	77.75
465.634	82.75
465.854	82.75
466.073	72.75
466.293	96.75
466.512	102.75
466.732	79.75
466.951	85.75
467.171	77.75
467.391	91.75
467.61	85.75
467.829	84.75
468.049	75.75
468.268	85.75
468.488	90.75
468.707	74.75
468.927	81.75
469.146	90.75
469.365	88.75
469.585	82.75
469.804	89.75
470.023	72.75
470.243	95.75
470.462	86.75
470.681	93.75
470.901	84.75
471.12	82.75
471.339	84.75
471.558	86.75
471.777	79.75
471.997	72.75
472.216	88.75
472.435	77.75
472.654	78.75
472.873	95.75
473.092	88.75
473.311	76.75
473.53	79.75
473.749	74.75
473.968	85.75
474.187	68.75
474.406	81.75
474.625	87.75
474.844	83.75
475.063	72.75
475.282	83.75
475.501	76.75
475.72	94.75
475.939	90.75
476.158	92.75
476.377	87.75
476.596	81.75
476.814	79.75
477.033	75.75
477.252	76.75
477.471	71.75
477.69	80.75
477.908	72.75
478.127	91.75
478.346	85.75
478.564	91.75
478.783	78.75
479.002	88.75
479.22	70.75
479.439	87.75
479.658	66.75
479.876	68.75
480.095	89.75
480.313	87.75
480.532	89.75
480.751	87.75
480.969	99.75
481.188	78.75
481.406	91.75
481.624	91.75
481.843	96.75
482.061	75.75
482.28	78.75
482.498	85.75
482.717	82.75
482.935	69.75
483.153	83.75
483.372	73.75
483.59	78.75
483.808	72.75
484.027	89.75
484.245	90.75
484.463	76.75
484.681	89.75
484.9	88.75
485.118	96.75
485.336	95.75
485.554	87.75
485.772	90.75
485.99	89.75
486.209	85.75
486.427	85.75
486.645	84.75
486.863	81.75
487.081	79.75
487.299	89.75
487.517	96.75
487.735	91.75
487.953	88.75
488.171	101.75
488.389	82.75
488.607	78.75
488.825	82.75
489.043	96.75
489.261	95.75
489.479	77.75
489.696	70.75
489.914	75.75
490.132	91.75
490.35	78.75
490.568	89.75
490.786	82.75
491.003	70.75
491.221	86.75
491.439	95.75
491.657	73.75
491.874	85.75
492.092	92.75
492.31	90.75
492.527	82.75
492.745	91.75
492.963	87.75
493.18	84.75
493.398	89.75
493.615	71.75
493.833	94.75
494.05	69.75
494.268	92.75
494.485	92.75
494.703	76.75
494.92	90.75
495.138	79.75
495.355	85.75
495.573	79.75
495.79	85.75
496.008	95.75
496.225	84.75
496.442	86.75
496.66	87.75
496.877	78.75
497.094	86.75
497.312	75.75
497.529	83.75
497.746	73.75
497.963	77.75
498.181	78.75
498.398	76.75
498.615	90.75
498.832	101.75
499.049	94.75
499.267	91.75
499.484	85.75
499.701	71.75
499.918	87.75
500.135	96.75
500.352	85.75
500.569	87.75
500.786	100.75
501.003	98.75
501.22	91.75
501.437	77.75
501.654	92.75
501.871	75.75
502.088	80.75
502.305	89.75
502.522	90.75
502.739	86.75
502.956	85.75
503.172	80.75
503.389	96.75
503.606	92.75
503.823	95.75
504.04	80.75
504.256	92.75
504.473	90.75
504.69	86.75
504.907	79.75
505.123	77.75
505.34	76.75
505.557	85.75
505.773	87.75
505.99	93.75
506.207	86.75
506.423	80.75
506.64	78.75
506.856	96.75
507.073	84.75
507.289	92.75
507.506	80.75
507.722	86.75
507.939	95.75
508.155	97.75
508.372	88.75
508.588	92.75
508.805	79.75
509.021	84.75
509.238	77.75
509.454	82.75
509.67	91.75
509.887	79.75
510.103	92.75
510.319	80.75
510.536	88.75
510.752	88.75
510.968	91.75
511.184	79.75
511.401	77.75
511.617	88.75
511.833	85.75
512.049	77.75
512.265	85.75
512.481	74.75
512.698	66.75
512.914	76.75
513.13	90.75
513.346	98.75
513.562	93.75
513.778	85.75
513.994	86.75
514.21	83.75
514.426	95.75
514.642	76.75
514.858	80.75
515.074	100.75
515.29	87.75
515.506	74.75
515.721	83.75
515.937	88.75
516.153	90.75
516.369	78.75
516.585	91.75
516.801	74.75
517.016	75.75
517.232	94.75
517.448	99.75
517.664	82.75
517.879	84.75
518.095	98.75
518.311	72.75
518.527	94.75
518.742	76.75
518.958	86.75
519.173	93.75
519.389	90.75
519.605	83.75
