Data from Mixnoheat2_HRD10591_00004.txt Node
Date: Fri Dec 27 14:59:43 EST 2024
User: Yrep
Spectrometer: HR+D1059
Trigger mode: 1
Integration Time (sec): 1.000000E-1
Scans to average: 1
Electric dark correction enabled: true
Nonlinearity correction enabled: false
Boxcar width: 0
XAxis mode: Wavelengths
Number of Pixels in Spectrum: 2048
>>>>>Begin Spectral Data<<<<<
223.165	-17.19
223.4	-17.19
223.635	-17.19
223.869	-18.19
224.104	-23.19
224.338	-22.19
224.573	-16.19
224.808	-15.19
225.042	-7.19
225.277	-1.19
225.511	-0.19
225.746	-5.19
225.98	12.81
226.215	4.81
226.449	33.81
226.683	13.81
226.918	27.81
227.152	32.81
227.387	39.81
227.621	34.81
227.856	41.81
228.09	46.81
228.324	61.81
228.559	55.81
228.793	62.81
229.027	59.81
229.262	64.81
229.496	66.81
229.73	74.81
229.964	68.81
230.199	79.81
230.433	71.81
230.667	67.81
230.901	79.81
231.136	74.81
231.37	80.81
231.604	78.81
231.838	67.81
232.072	78.81
232.306	71.81
232.541	87.81
232.775	81.81
233.009	100.81
233.243	82.81
233.477	78.81
233.711	72.81
233.945	88.81
234.179	78.81
234.413	87.81
234.647	85.81
234.881	70.81
235.115	69.81
235.349	73.81
235.583	73.81
235.817	73.81
236.051	80.81
236.285	78.81
236.519	83.81
236.753	66.81
236.987	74.81
237.221	79.81
237.455	72.81
237.689	74.81
237.922	75.81
238.156	64.81
238.39	64.81
238.624	67.81
238.858	67.81
239.091	67.81
239.325	70.81
239.559	72.81
239.793	68.81
240.027	69.81
240.26	72.81
240.494	68.81
240.728	70.81
240.961	92.81
241.195	85.81
241.429	74.81
241.662	56.81
241.896	79.81
242.13	70.81
242.363	79.81
242.597	87.81
242.83	64.81
243.064	71.81
243.298	73.81
243.531	71.81
243.765	100.81
243.998	78.81
244.232	64.81
244.465	70.81
244.699	84.81
244.932	83.81
245.166	79.81
245.399	62.81
245.633	83.81
245.866	69.81
246.099	79.81
246.333	74.81
246.566	79.81
246.8	95.81
247.033	63.81
247.266	75.81
247.5	77.81
247.733	60.81
247.966	73.81
248.2	99.81
248.433	72.81
248.666	72.81
248.899	81.81
249.133	81.81
249.366	82.81
249.599	69.81
249.832	77.81
250.066	88.81
250.299	81.81
250.532	61.81
250.765	71.81
250.998	68.81
251.231	69.81
251.465	76.81
251.698	76.81
251.931	79.81
252.164	83.81
252.397	76.81
252.63	78.81
252.863	79.81
253.096	79.81
253.329	82.81
253.562	72.81
253.795	90.81
254.028	75.81
254.261	76.81
254.494	61.81
254.727	77.81
254.96	76.81
255.193	81.81
255.426	72.81
255.659	85.81
255.892	90.81
256.124	88.81
256.357	80.81
256.59	72.81
256.823	81.81
257.056	84.81
257.289	66.81
257.521	78.81
257.754	73.81
257.987	76.81
258.22	80.81
258.452	90.81
258.685	80.81
258.918	72.81
259.151	76.81
259.383	70.81
259.616	73.81
259.849	80.81
260.081	81.81
260.314	78.81
260.547	76.81
260.779	71.81
261.012	82.81
261.244	82.81
261.477	70.81
261.71	90.81
261.942	81.81
262.175	84.81
262.407	80.81
262.64	78.81
262.872	77.81
263.105	89.81
263.337	85.81
263.57	67.81
263.802	81.81
264.035	75.81
264.267	67.81
264.499	79.81
264.732	76.81
264.964	58.81
265.197	78.81
265.429	85.81
265.661	78.81
265.894	81.81
266.126	90.81
266.358	90.81
266.591	79.81
266.823	80.81
267.055	75.81
267.287	79.81
267.52	79.81
267.752	78.81
267.984	86.81
268.216	72.81
268.448	96.81
268.681	83.81
268.913	82.81
269.145	75.81
269.377	90.81
269.609	77.81
269.841	68.81
270.073	83.81
270.306	79.81
270.538	94.81
270.77	88.81
271.002	83.81
271.234	96.81
271.466	94.81
271.698	81.81
271.93	73.81
272.162	86.81
272.394	82.81
272.626	86.81
272.858	68.81
273.09	89.81
273.322	96.81
273.553	75.81
273.785	86.81
274.017	81.81
274.249	68.81
274.481	66.81
274.713	77.81
274.945	81.81
275.176	79.81
275.408	97.81
275.64	79.81
275.872	66.81
276.104	75.81
276.335	86.81
276.567	76.81
276.799	82.81
277.031	55.81
277.262	81.81
277.494	71.81
277.726	71.81
277.957	82.81
278.189	86.81
278.421	74.81
278.652	81.81
278.884	82.81
279.115	74.81
279.347	79.81
279.579	75.81
279.81	77.81
280.042	79.81
280.273	88.81
280.505	69.81
280.736	92.81
280.968	89.81
281.199	67.81
281.431	82.81
281.662	89.81
281.894	71.81
282.125	73.81
282.356	79.81
282.588	79.81
282.819	74.81
283.051	92.81
283.282	78.81
283.513	67.81
283.745	69.81
283.976	83.81
284.207	72.81
284.439	82.81
284.67	76.81
284.901	75.81
285.132	82.81
285.364	94.81
285.595	86.81
285.826	77.81
286.057	87.81
286.288	88.81
286.52	85.81
286.751	90.81
286.982	92.81
287.213	75.81
287.444	86.81
287.675	80.81
287.906	78.81
288.138	66.81
288.369	78.81
288.6	80.81
288.831	89.81
289.062	85.81
289.293	80.81
289.524	84.81
289.755	76.81
289.986	72.81
290.217	82.81
290.448	79.81
290.679	81.81
290.91	84.81
291.141	80.81
291.371	77.81
291.602	70.81
291.833	66.81
292.064	85.81
292.295	70.81
292.526	74.81
292.757	74.81
292.987	86.81
293.218	79.81
293.449	91.81
293.68	87.81
293.91	68.81
294.141	72.81
294.372	79.81
294.603	67.81
294.833	76.81
295.064	76.81
295.295	80.81
295.525	74.81
295.756	70.81
295.987	84.81
296.217	100.81
296.448	75.81
296.679	70.81
296.909	80.81
297.14	72.81
297.37	83.81
297.601	89.81
297.831	85.81
298.062	84.81
298.292	79.81
298.523	81.81
298.753	81.81
298.984	76.81
299.214	66.81
299.445	92.81
299.675	73.81
299.905	79.81
300.136	76.81
300.366	78.81
300.597	86.81
300.827	89.81
301.057	79.81
301.288	80.81
301.518	91.81
301.748	88.81
301.979	106.81
302.209	86.81
302.439	90.81
302.669	90.81
302.9	90.81
303.13	86.81
303.36	75.81
303.59	75.81
303.82	75.81
304.051	80.81
304.281	85.81
304.511	100.81
304.741	60.81
304.971	83.81
305.201	76.81
305.431	62.81
305.661	78.81
305.891	79.81
306.121	82.81
306.352	89.81
306.582	84.81
306.812	75.81
307.042	80.81
307.272	81.81
307.502	71.81
307.731	81.81
307.961	81.81
308.191	75.81
308.421	69.81
308.651	71.81
308.881	84.81
309.111	80.81
309.341	80.81
309.571	85.81
309.8	87.81
310.03	71.81
310.26	79.81
310.49	86.81
310.72	74.81
310.949	80.81
311.179	88.81
311.409	96.81
311.639	86.81
311.868	83.81
312.098	73.81
312.328	83.81
312.557	87.81
312.787	88.81
313.017	75.81
313.246	84.81
313.476	83.81
313.706	82.81
313.935	80.81
314.165	80.81
314.394	83.81
314.624	90.81
314.853	87.81
315.083	90.81
315.312	76.81
315.542	76.81
315.771	92.81
316.001	81.81
316.23	94.81
316.46	82.81
316.689	74.81
316.919	78.81
317.148	79.81
317.377	82.81
317.607	94.81
317.836	90.81
318.065	76.81
318.295	87.81
318.524	87.81
318.753	60.81
318.983	87.81
319.212	83.81
319.441	66.81
319.67	78.81
319.9	80.81
320.129	84.81
320.358	82.81
320.587	91.81
320.816	86.81
321.046	85.81
321.275	75.81
321.504	78.81
321.733	82.81
321.962	83.81
322.191	83.81
322.42	80.81
322.649	87.81
322.878	67.81
323.108	69.81
323.337	96.81
323.566	88.81
323.795	82.81
324.024	86.81
324.253	86.81
324.482	73.81
324.71	94.81
324.939	83.81
325.168	78.81
325.397	80.81
325.626	79.81
325.855	85.81
326.084	77.81
326.313	84.81
326.542	80.81
326.77	76.81
326.999	93.81
327.228	88.81
327.457	90.81
327.686	76.81
327.914	96.81
328.143	88.81
328.372	99.81
328.6	80.81
328.829	85.81
329.058	89.81
329.287	71.81
329.515	86.81
329.744	85.81
329.972	84.81
330.201	68.81
330.43	91.81
330.658	85.81
330.887	71.81
331.115	87.81
331.344	74.81
331.572	79.81
331.801	83.81
332.03	88.81
332.258	85.81
332.486	91.81
332.715	76.81
332.943	89.81
333.172	88.81
333.4	102.81
333.629	87.81
333.857	86.81
334.085	96.81
334.314	85.81
334.542	88.81
334.771	79.81
334.999	82.81
335.227	88.81
335.455	88.81
335.684	94.81
335.912	81.81
336.14	74.81
336.369	76.81
336.597	85.81
336.825	92.81
337.053	84.81
337.281	92.81
337.51	75.81
337.738	91.81
337.966	88.81
338.194	79.81
338.422	94.81
338.65	80.81
338.878	85.81
339.106	88.81
339.334	95.81
339.562	77.81
339.79	68.81
340.018	79.81
340.246	77.81
340.474	87.81
340.702	77.81
340.93	80.81
341.158	73.81
341.386	95.81
341.614	71.81
341.842	90.81
342.07	77.81
342.298	79.81
342.526	89.81
342.754	64.81
342.981	78.81
343.209	62.81
343.437	99.81
343.665	91.81
343.893	89.81
344.12	81.81
344.348	83.81
344.576	69.81
344.804	68.81
345.031	90.81
345.259	89.81
345.487	88.81
345.714	87.81
345.942	82.81
346.17	90.81
346.397	86.81
346.625	70.81
346.853	93.81
347.08	80.81
347.308	84.81
347.535	76.81
347.763	90.81
347.99	103.81
348.218	68.81
348.445	82.81
348.673	83.81
348.9	89.81
349.128	97.81
349.355	87.81
349.583	92.81
349.81	98.81
350.037	87.81
350.265	82.81
350.492	82.81
350.72	89.81
350.947	87.81
351.174	99.81
351.402	90.81
351.629	87.81
351.856	83.81
352.083	81.81
352.311	88.81
352.538	87.81
352.765	79.81
352.992	91.81
353.22	78.81
353.447	77.81
353.674	83.81
353.901	73.81
354.128	73.81
354.355	82.81
354.583	90.81
354.81	80.81
355.037	79.81
355.264	83.81
355.491	86.81
355.718	82.81
355.945	71.81
356.172	77.81
356.399	85.81
356.626	80.81
356.853	86.81
357.08	72.81
357.307	67.81
357.534	70.81
357.761	85.81
357.988	90.81
358.215	98.81
358.441	95.81
358.668	82.81
358.895	84.81
359.122	86.81
359.349	90.81
359.576	83.81
359.802	79.81
360.029	74.81
360.256	78.81
360.483	70.81
360.709	85.81
360.936	86.81
361.163	84.81
361.39	88.81
361.616	86.81
361.843	80.81
362.07	82.81
362.296	88.81
362.523	86.81
362.749	74.81
362.976	84.81
363.203	88.81
363.429	73.81
363.656	73.81
363.882	61.81
364.109	86.81
364.335	106.81
364.562	82.81
364.788	84.81
365.015	92.81
365.241	80.81
365.468	84.81
365.694	84.81
365.92	65.81
366.147	81.81
366.373	79.81
366.599	79.81
366.826	78.81
367.052	85.81
367.278	85.81
367.505	87.81
367.731	88.81
367.957	79.81
368.184	80.81
368.41	80.81
368.636	70.81
368.862	88.81
369.089	90.81
369.315	73.81
369.541	94.81
369.767	86.81
369.993	96.81
370.219	81.81
370.445	78.81
370.672	81.81
370.898	83.81
371.124	68.81
371.35	88.81
371.576	88.81
371.802	75.81
372.028	89.81
372.254	81.81
372.48	86.81
372.706	78.81
372.932	87.81
373.158	94.81
373.384	74.81
373.61	98.81
373.835	87.81
374.061	84.81
374.287	87.81
374.513	83.81
374.739	78.81
374.965	86.81
375.191	87.81
375.416	83.81
375.642	77.81
375.868	94.81
376.094	82.81
376.319	83.81
376.545	75.81
376.771	84.81
376.997	87.81
377.222	82.81
377.448	66.81
377.674	74.81
377.899	85.81
378.125	87.81
378.35	79.81
378.576	76.81
378.802	92.81
379.027	82.81
379.253	76.81
379.478	79.81
379.704	78.81
379.929	71.81
380.155	90.81
380.38	89.81
380.606	83.81
380.831	96.81
381.057	89.81
381.282	71.81
381.507	85.81
381.733	87.81
381.958	89.81
382.184	82.81
382.409	79.81
382.634	82.81
382.86	83.81
383.085	78.81
383.31	83.81
383.535	83.81
383.761	84.81
383.986	86.81
384.211	71.81
384.436	72.81
384.662	81.81
384.887	88.81
385.112	75.81
385.337	87.81
385.562	80.81
385.787	83.81
386.013	84.81
386.238	96.81
386.463	64.81
386.688	100.81
386.913	87.81
387.138	87.81
387.363	93.81
387.588	84.81
387.813	80.81
388.038	72.81
388.263	87.81
388.488	81.81
388.713	82.81
388.938	76.81
389.163	78.81
389.387	96.81
389.612	78.81
389.837	72.81
390.062	83.81
390.287	80.81
390.512	87.81
390.736	78.81
390.961	81.81
391.186	79.81
391.411	76.81
391.636	86.81
391.86	81.81
392.085	74.81
392.31	81.81
392.534	78.81
392.759	102.81
392.984	82.81
393.208	114.81
393.433	122.81
393.658	97.81
393.882	86.81
394.107	83.81
394.331	92.81
394.556	84.81
394.78	86.81
395.005	79.81
395.229	64.81
395.454	71.81
395.678	86.81
395.903	81.81
396.127	93.81
396.352	96.81
396.576	83.81
396.801	104.81
397.025	94.81
397.249	108.81
397.474	89.81
397.698	84.81
397.922	78.81
398.147	80.81
398.371	87.81
398.595	85.81
398.82	87.81
399.044	79.81
399.268	81.81
399.492	68.81
399.717	60.81
399.941	74.81
400.165	75.81
400.389	87.81
400.613	75.81
400.837	69.81
401.062	82.81
401.286	73.81
401.51	80.81
401.734	82.81
401.958	78.81
402.182	78.81
402.406	75.81
402.63	87.81
402.854	61.81
403.078	82.81
403.302	75.81
403.526	77.81
403.75	73.81
403.974	84.81
404.198	87.81
404.422	106.81
404.645	114.81
404.869	104.81
405.093	90.81
405.317	80.81
405.541	86.81
405.765	82.81
405.988	80.81
406.212	79.81
406.436	76.81
406.66	93.81
406.883	78.81
407.107	77.81
407.331	67.81
407.555	73.81
407.778	68.81
408.002	76.81
408.226	63.81
408.449	78.81
408.673	74.81
408.896	87.81
409.12	85.81
409.344	79.81
409.567	92.81
409.791	81.81
410.014	72.81
410.238	95.81
410.461	81.81
410.685	95.81
410.908	80.81
411.132	89.81
411.355	72.81
411.578	80.81
411.802	86.81
412.025	80.81
412.249	95.81
412.472	81.81
412.695	75.81
412.919	80.81
413.142	86.81
413.365	85.81
413.589	85.81
413.812	88.81
414.035	79.81
414.258	76.81
414.482	72.81
414.705	91.81
414.928	100.81
415.151	90.81
415.374	92.81
415.597	82.81
415.821	82.81
416.044	79.81
416.267	82.81
416.49	76.81
416.713	95.81
416.936	83.81
417.159	76.81
417.382	69.81
417.605	69.81
417.828	69.81
418.051	92.81
418.274	85.81
418.497	81.81
418.72	75.81
418.943	58.81
419.166	91.81
419.389	94.81
419.611	81.81
419.834	81.81
420.057	79.81
420.28	79.81
420.503	81.81
420.726	80.81
420.948	72.81
421.171	84.81
421.394	96.81
421.617	70.81
421.839	73.81
422.062	82.81
422.285	100.81
422.507	147.81
422.73	152.81
422.953	138.81
423.175	110.81
423.398	95.81
423.621	96.81
423.843	85.81
424.066	80.81
424.288	79.81
424.511	90.81
424.733	87.81
424.956	83.81
425.178	75.81
425.401	79.81
425.623	71.81
425.846	63.81
426.068	80.81
426.291	76.81
426.513	87.81
426.735	84.81
426.958	89.81
427.18	79.81
427.402	69.81
427.625	69.81
427.847	78.81
428.069	89.81
428.292	95.81
428.514	100.81
428.736	81.81
428.958	94.81
429.181	98.81
429.403	78.81
429.625	78.81
429.847	93.81
430.069	94.81
430.292	101.81
430.514	105.81
430.736	81.81
430.958	96.81
431.18	80.81
431.402	88.81
431.624	85.81
431.846	91.81
432.068	91.81
432.29	99.81
432.512	98.81
432.734	75.81
432.956	88.81
433.178	85.81
433.4	74.81
433.622	102.81
433.844	91.81
434.066	72.81
434.287	84.81
434.509	82.81
434.731	87.81
434.953	83.81
435.175	59.81
435.397	80.81
435.618	84.81
435.84	84.81
436.062	69.81
436.284	87.81
436.505	81.81
436.727	82.81
436.949	66.81
437.17	81.81
437.392	82.81
437.614	78.81
437.835	91.81
438.057	81.81
438.278	83.81
438.5	89.81
438.721	78.81
438.943	84.81
439.165	81.81
439.386	74.81
439.608	75.81
439.829	78.81
440.05	91.81
440.272	70.81
440.493	81.81
440.715	74.81
440.936	74.81
441.158	68.81
441.379	75.81
441.6	78.81
441.822	80.81
442.043	81.81
442.264	93.81
442.486	80.81
442.707	98.81
442.928	86.81
443.149	87.81
443.371	97.81
443.592	112.81
443.813	98.81
444.034	82.81
444.255	76.81
444.476	78.81
444.698	88.81
444.919	75.81
445.14	149.81
445.361	129.81
445.582	146.81
445.803	111.81
446.024	94.81
446.245	80.81
446.466	77.81
446.687	82.81
446.908	86.81
447.129	80.81
447.35	90.81
447.571	66.81
447.792	68.81
448.013	80.81
448.234	74.81
448.455	78.81
448.675	71.81
448.896	76.81
449.117	82.81
449.338	68.81
449.559	83.81
449.779	79.81
450	84.81
450.221	92.81
450.442	88.81
450.662	71.81
450.883	78.81
451.104	80.81
451.324	80.81
451.545	87.81
451.766	72.81
451.986	71.81
452.207	71.81
452.428	83.81
452.648	84.81
452.869	75.81
453.089	79.81
453.31	78.81
453.53	75.81
453.751	83.81
453.971	76.81
454.192	74.81
454.412	77.81
454.633	76.81
454.853	83.81
455.073	82.81
455.294	72.81
455.514	74.81
455.734	85.81
455.955	72.81
456.175	66.81
456.395	71.81
456.616	77.81
456.836	86.81
457.056	85.81
457.276	71.81
457.497	72.81
457.717	84.81
457.937	78.81
458.157	87.81
458.377	88.81
458.598	94.81
458.818	99.81
459.038	79.81
459.258	80.81
459.478	86.81
459.698	69.81
459.918	87.81
460.138	71.81
460.358	65.81
460.578	85.81
460.798	91.81
461.018	90.81
461.238	97.81
461.458	78.81
461.678	75.81
461.898	72.81
462.118	81.81
462.338	80.81
462.558	84.81
462.777	86.81
462.997	85.81
463.217	73.81
463.437	65.81
463.657	86.81
463.876	77.81
464.096	73.81
464.316	75.81
464.536	87.81
464.755	82.81
464.975	73.81
465.195	92.81
465.414	85.81
465.634	86.81
465.854	75.81
466.073	77.81
466.293	68.81
466.512	79.81
466.732	71.81
466.951	84.81
467.171	89.81
467.391	80.81
467.61	81.81
467.829	85.81
468.049	79.81
468.268	86.81
468.488	76.81
468.707	74.81
468.927	76.81
469.146	81.81
469.365	76.81
469.585	78.81
469.804	82.81
470.023	91.81
470.243	72.81
470.462	89.81
470.681	68.81
470.901	87.81
471.12	81.81
471.339	81.81
471.558	86.81
471.777	94.81
471.997	81.81
472.216	77.81
472.435	97.81
472.654	80.81
472.873	75.81
473.092	77.81
473.311	88.81
473.53	87.81
473.749	80.81
473.968	82.81
474.187	87.81
474.406	75.81
474.625	64.81
474.844	78.81
475.063	80.81
475.282	83.81
475.501	67.81
475.72	80.81
475.939	86.81
476.158	67.81
476.377	81.81
476.596	78.81
476.814	87.81
477.033	81.81
477.252	86.81
477.471	95.81
477.69	82.81
477.908	79.81
478.127	87.81
478.346	65.81
478.564	71.81
478.783	81.81
479.002	64.81
479.22	91.81
479.439	72.81
479.658	79.81
479.876	84.81
480.095	90.81
480.313	76.81
480.532	95.81
480.751	87.81
480.969	74.81
481.188	87.81
481.406	88.81
481.624	86.81
481.843	88.81
482.061	81.81
482.28	79.81
482.498	94.81
482.717	82.81
482.935	80.81
483.153	85.81
483.372	85.81
483.59	86.81
483.808	77.81
484.027	85.81
484.245	87.81
484.463	82.81
484.681	79.81
484.9	98.81
485.118	91.81
485.336	74.81
485.554	80.81
485.772	86.81
485.99	89.81
486.209	95.81
486.427	82.81
486.645	86.81
486.863	85.81
487.081	72.81
487.299	80.81
487.517	88.81
487.735	92.81
487.953	83.81
488.171	92.81
488.389	78.81
488.607	71.81
488.825	85.81
489.043	86.81
489.261	74.81
489.479	91.81
489.696	76.81
489.914	83.81
490.132	85.81
490.35	94.81
490.568	72.81
490.786	73.81
491.003	81.81
491.221	78.81
491.439	91.81
491.657	76.81
491.874	86.81
492.092	87.81
492.31	74.81
492.527	76.81
492.745	86.81
492.963	81.81
493.18	87.81
493.398	83.81
493.615	91.81
493.833	77.81
494.05	88.81
494.268	75.81
494.485	86.81
494.703	83.81
494.92	79.81
495.138	85.81
495.355	90.81
495.573	91.81
495.79	78.81
496.008	86.81
496.225	82.81
496.442	91.81
496.66	86.81
496.877	96.81
497.094	92.81
497.312	81.81
497.529	62.81
497.746	78.81
497.963	74.81
498.181	92.81
498.398	75.81
498.615	99.81
498.832	68.81
499.049	81.81
499.267	88.81
499.484	81.81
499.701	83.81
499.918	72.81
500.135	85.81
500.352	89.81
500.569	72.81
500.786	84.81
501.003	87.81
501.22	85.81
501.437	86.81
501.654	85.81
501.871	79.81
502.088	81.81
502.305	79.81
502.522	84.81
502.739	87.81
502.956	86.81
503.172	84.81
503.389	73.81
503.606	88.81
503.823	81.81
504.04	95.81
504.256	80.81
504.473	91.81
504.69	82.81
504.907	73.81
505.123	80.81
505.34	77.81
505.557	82.81
505.773	86.81
505.99	81.81
506.207	88.81
506.423	66.81
506.64	93.81
506.856	82.81
507.073	82.81
507.289	103.81
507.506	81.81
507.722	92.81
507.939	81.81
508.155	79.81
508.372	92.81
508.588	76.81
508.805	89.81
509.021	100.81
509.238	98.81
509.454	77.81
509.67	84.81
509.887	86.81
510.103	66.81
510.319	76.81
510.536	86.81
510.752	79.81
510.968	90.81
511.184	86.81
511.401	65.81
511.617	90.81
511.833	79.81
512.049	81.81
512.265	88.81
512.481	76.81
512.698	85.81
512.914	60.81
513.13	80.81
513.346	76.81
513.562	80.81
513.778	85.81
513.994	88.81
514.21	96.81
514.426	88.81
514.642	87.81
514.858	82.81
515.074	83.81
515.29	86.81
515.506	90.81
515.721	88.81
515.937	84.81
516.153	89.81
516.369	72.81
516.585	90.81
516.801	77.81
517.016	82.81
517.232	70.81
517.448	84.81
517.664	81.81
517.879	95.81
518.095	93.81
518.311	105.81
518.527	88.81
518.742	90.81
518.958	75.81
519.173	100.81
519.389	99.81
519.605	91.81
519.82	84.81
