Data from Mixnoheat2_HRD10591_00019.txt Node
Date: Fri Dec 27 14:59:58 EST 2024
User: Yrep
Spectrometer: HR+D1059
Trigger mode: 1
Integration Time (sec): 1.000000E-1
Scans to average: 1
Electric dark correction enabled: true
Nonlinearity correction enabled: false
Boxcar width: 0
XAxis mode: Wavelengths
Number of Pixels in Spectrum: 2048
>>>>>Begin Spectral Data<<<<<
223.165	-21.06
223.4	-21.06
223.635	-21.06
223.869	-16.06
224.104	-18.06
224.338	-12.06
224.573	-21.06
224.808	-1.06
225.042	-16.06
225.277	-8.06
225.511	-3.06
225.746	5.94
225.98	0.94
226.215	2.94
226.449	24.94
226.683	24.94
226.918	24.94
227.152	31.94
227.387	33.94
227.621	35.94
227.856	50.94
228.09	43.94
228.324	39.94
228.559	54.94
228.793	57.94
229.027	38.94
229.262	58.94
229.496	59.94
229.73	64.94
229.964	68.94
230.199	75.94
230.433	73.94
230.667	88.94
230.901	73.94
231.136	71.94
231.37	76.94
231.604	70.94
231.838	86.94
232.072	65.94
232.306	88.94
232.541	70.94
232.775	85.94
233.009	82.94
233.243	73.94
233.477	76.94
233.711	82.94
233.945	87.94
234.179	80.94
234.413	71.94
234.647	74.94
234.881	70.94
235.115	79.94
235.349	79.94
235.583	83.94
235.817	88.94
236.051	59.94
236.285	77.94
236.519	73.94
236.753	95.94
236.987	82.94
237.221	68.94
237.455	64.94
237.689	77.94
237.922	81.94
238.156	77.94
238.39	77.94
238.624	82.94
238.858	70.94
239.091	57.94
239.325	68.94
239.559	67.94
239.793	76.94
240.027	59.94
240.26	64.94
240.494	74.94
240.728	66.94
240.961	74.94
241.195	77.94
241.429	70.94
241.662	68.94
241.896	81.94
242.13	62.94
242.363	63.94
242.597	79.94
242.83	90.94
243.064	101.94
243.298	84.94
243.531	74.94
243.765	79.94
243.998	68.94
244.232	67.94
244.465	68.94
244.699	74.94
244.932	70.94
245.166	74.94
245.399	82.94
245.633	69.94
245.866	67.94
246.099	68.94
246.333	69.94
246.566	66.94
246.8	62.94
247.033	73.94
247.266	80.94
247.5	72.94
247.733	75.94
247.966	69.94
248.2	74.94
248.433	80.94
248.666	71.94
248.899	80.94
249.133	72.94
249.366	75.94
249.599	68.94
249.832	67.94
250.066	78.94
250.299	79.94
250.532	65.94
250.765	69.94
250.998	74.94
251.231	75.94
251.465	81.94
251.698	85.94
251.931	78.94
252.164	74.94
252.397	71.94
252.63	75.94
252.863	64.94
253.096	72.94
253.329	86.94
253.562	69.94
253.795	67.94
254.028	72.94
254.261	82.94
254.494	64.94
254.727	89.94
254.96	73.94
255.193	80.94
255.426	66.94
255.659	67.94
255.892	87.94
256.124	90.94
256.357	65.94
256.59	80.94
256.823	79.94
257.056	72.94
257.289	81.94
257.521	82.94
257.754	70.94
257.987	81.94
258.22	68.94
258.452	81.94
258.685	74.94
258.918	63.94
259.151	75.94
259.383	75.94
259.616	85.94
259.849	87.94
260.081	79.94
260.314	79.94
260.547	69.94
260.779	74.94
261.012	85.94
261.244	74.94
261.477	82.94
261.71	71.94
261.942	73.94
262.175	70.94
262.407	70.94
262.64	71.94
262.872	63.94
263.105	79.94
263.337	86.94
263.57	88.94
263.802	79.94
264.035	75.94
264.267	84.94
264.499	72.94
264.732	86.94
264.964	76.94
265.197	76.94
265.429	69.94
265.661	77.94
265.894	76.94
266.126	76.94
266.358	53.94
266.591	64.94
266.823	85.94
267.055	73.94
267.287	71.94
267.52	91.94
267.752	77.94
267.984	84.94
268.216	55.94
268.448	88.94
268.681	98.94
268.913	89.94
269.145	82.94
269.377	89.94
269.609	75.94
269.841	76.94
270.073	83.94
270.306	87.94
270.538	79.94
270.77	80.94
271.002	73.94
271.234	71.94
271.466	77.94
271.698	73.94
271.93	84.94
272.162	65.94
272.394	68.94
272.626	68.94
272.858	65.94
273.09	84.94
273.322	77.94
273.553	79.94
273.785	90.94
274.017	77.94
274.249	70.94
274.481	74.94
274.713	84.94
274.945	89.94
275.176	76.94
275.408	82.94
275.64	67.94
275.872	74.94
276.104	81.94
276.335	84.94
276.567	66.94
276.799	72.94
277.031	80.94
277.262	77.94
277.494	97.94
277.726	87.94
277.957	77.94
278.189	87.94
278.421	75.94
278.652	71.94
278.884	81.94
279.115	72.94
279.347	71.94
279.579	93.94
279.81	86.94
280.042	85.94
280.273	90.94
280.505	91.94
280.736	77.94
280.968	73.94
281.199	90.94
281.431	82.94
281.662	89.94
281.894	72.94
282.125	78.94
282.356	78.94
282.588	74.94
282.819	70.94
283.051	76.94
283.282	76.94
283.513	90.94
283.745	74.94
283.976	83.94
284.207	63.94
284.439	79.94
284.67	75.94
284.901	72.94
285.132	90.94
285.364	84.94
285.595	84.94
285.826	73.94
286.057	63.94
286.288	87.94
286.52	83.94
286.751	75.94
286.982	88.94
287.213	75.94
287.444	76.94
287.675	83.94
287.906	89.94
288.138	88.94
288.369	81.94
288.6	62.94
288.831	83.94
289.062	82.94
289.293	84.94
289.524	83.94
289.755	79.94
289.986	80.94
290.217	78.94
290.448	64.94
290.679	79.94
290.91	93.94
291.141	73.94
291.371	89.94
291.602	84.94
291.833	69.94
292.064	79.94
292.295	82.94
292.526	81.94
292.757	88.94
292.987	71.94
293.218	84.94
293.449	78.94
293.68	70.94
293.91	80.94
294.141	80.94
294.372	72.94
294.603	74.94
294.833	77.94
295.064	89.94
295.295	81.94
295.525	81.94
295.756	61.94
295.987	87.94
296.217	87.94
296.448	84.94
296.679	87.94
296.909	74.94
297.14	89.94
297.37	77.94
297.601	81.94
297.831	62.94
298.062	81.94
298.292	82.94
298.523	89.94
298.753	85.94
298.984	74.94
299.214	91.94
299.445	86.94
299.675	74.94
299.905	75.94
300.136	75.94
300.366	59.94
300.597	78.94
300.827	86.94
301.057	74.94
301.288	90.94
301.518	90.94
301.748	81.94
301.979	88.94
302.209	81.94
302.439	95.94
302.669	75.94
302.9	87.94
303.13	69.94
303.36	79.94
303.59	78.94
303.82	90.94
304.051	90.94
304.281	90.94
304.511	84.94
304.741	77.94
304.971	70.94
305.201	74.94
305.431	72.94
305.661	71.94
305.891	68.94
306.121	87.94
306.352	68.94
306.582	73.94
306.812	75.94
307.042	93.94
307.272	85.94
307.502	76.94
307.731	87.94
307.961	94.94
308.191	81.94
308.421	86.94
308.651	87.94
308.881	95.94
309.111	81.94
309.341	92.94
309.571	83.94
309.8	85.94
310.03	87.94
310.26	87.94
310.49	81.94
310.72	73.94
310.949	90.94
311.179	80.94
311.409	90.94
311.639	68.94
311.868	68.94
312.098	97.94
312.328	88.94
312.557	84.94
312.787	82.94
313.017	86.94
313.246	73.94
313.476	83.94
313.706	85.94
313.935	73.94
314.165	67.94
314.394	78.94
314.624	81.94
314.853	84.94
315.083	74.94
315.312	66.94
315.542	69.94
315.771	78.94
316.001	95.94
316.23	78.94
316.46	80.94
316.689	70.94
316.919	80.94
317.148	95.94
317.377	85.94
317.607	73.94
317.836	81.94
318.065	86.94
318.295	86.94
318.524	81.94
318.753	81.94
318.983	73.94
319.212	81.94
319.441	79.94
319.67	87.94
319.9	78.94
320.129	78.94
320.358	82.94
320.587	70.94
320.816	81.94
321.046	89.94
321.275	84.94
321.504	83.94
321.733	93.94
321.962	75.94
322.191	82.94
322.42	90.94
322.649	77.94
322.878	93.94
323.108	101.94
323.337	86.94
323.566	97.94
323.795	73.94
324.024	80.94
324.253	85.94
324.482	77.94
324.71	79.94
324.939	78.94
325.168	81.94
325.397	80.94
325.626	79.94
325.855	87.94
326.084	80.94
326.313	84.94
326.542	99.94
326.77	80.94
326.999	76.94
327.228	77.94
327.457	74.94
327.686	93.94
327.914	87.94
328.143	95.94
328.372	77.94
328.6	74.94
328.829	75.94
329.058	82.94
329.287	79.94
329.515	90.94
329.744	91.94
329.972	77.94
330.201	72.94
330.43	60.94
330.658	78.94
330.887	78.94
331.115	78.94
331.344	91.94
331.572	90.94
331.801	86.94
332.03	79.94
332.258	89.94
332.486	90.94
332.715	84.94
332.943	82.94
333.172	80.94
333.4	75.94
333.629	83.94
333.857	84.94
334.085	85.94
334.314	83.94
334.542	78.94
334.771	66.94
334.999	80.94
335.227	88.94
335.455	75.94
335.684	87.94
335.912	88.94
336.14	93.94
336.369	97.94
336.597	79.94
336.825	78.94
337.053	73.94
337.281	66.94
337.51	80.94
337.738	88.94
337.966	85.94
338.194	77.94
338.422	83.94
338.65	68.94
338.878	87.94
339.106	74.94
339.334	67.94
339.562	92.94
339.79	88.94
340.018	97.94
340.246	71.94
340.474	71.94
340.702	74.94
340.93	72.94
341.158	87.94
341.386	72.94
341.614	67.94
341.842	88.94
342.07	86.94
342.298	87.94
342.526	86.94
342.754	81.94
342.981	89.94
343.209	73.94
343.437	75.94
343.665	86.94
343.893	69.94
344.12	105.94
344.348	86.94
344.576	72.94
344.804	69.94
345.031	77.94
345.259	89.94
345.487	77.94
345.714	81.94
345.942	79.94
346.17	93.94
346.397	70.94
346.625	88.94
346.853	80.94
347.08	84.94
347.308	73.94
347.535	89.94
347.763	74.94
347.99	90.94
348.218	86.94
348.445	80.94
348.673	81.94
348.9	81.94
349.128	96.94
349.355	81.94
349.583	88.94
349.81	77.94
350.037	79.94
350.265	94.94
350.492	79.94
350.72	88.94
350.947	73.94
351.174	84.94
351.402	78.94
351.629	81.94
351.856	71.94
352.083	77.94
352.311	70.94
352.538	94.94
352.765	93.94
352.992	82.94
353.22	84.94
353.447	90.94
353.674	75.94
353.901	77.94
354.128	71.94
354.355	87.94
354.583	67.94
354.81	80.94
355.037	83.94
355.264	76.94
355.491	75.94
355.718	70.94
355.945	71.94
356.172	75.94
356.399	75.94
356.626	75.94
356.853	66.94
357.08	84.94
357.307	90.94
357.534	82.94
357.761	83.94
357.988	90.94
358.215	102.94
358.441	97.94
358.668	75.94
358.895	81.94
359.122	82.94
359.349	67.94
359.576	80.94
359.802	73.94
360.029	91.94
360.256	96.94
360.483	88.94
360.709	88.94
360.936	93.94
361.163	77.94
361.39	81.94
361.616	71.94
361.843	77.94
362.07	79.94
362.296	75.94
362.523	77.94
362.749	90.94
362.976	74.94
363.203	85.94
363.429	90.94
363.656	96.94
363.882	71.94
364.109	81.94
364.335	95.94
364.562	87.94
364.788	89.94
365.015	88.94
365.241	86.94
365.468	89.94
365.694	79.94
365.92	103.94
366.147	93.94
366.373	70.94
366.599	97.94
366.826	71.94
367.052	81.94
367.278	81.94
367.505	88.94
367.731	81.94
367.957	80.94
368.184	72.94
368.41	73.94
368.636	76.94
368.862	70.94
369.089	77.94
369.315	73.94
369.541	81.94
369.767	91.94
369.993	82.94
370.219	61.94
370.445	90.94
370.672	82.94
370.898	73.94
371.124	79.94
371.35	78.94
371.576	101.94
371.802	71.94
372.028	72.94
372.254	84.94
372.48	81.94
372.706	74.94
372.932	77.94
373.158	82.94
373.384	83.94
373.61	90.94
373.835	79.94
374.061	95.94
374.287	79.94
374.513	86.94
374.739	86.94
374.965	98.94
375.191	87.94
375.416	82.94
375.642	71.94
375.868	69.94
376.094	73.94
376.319	84.94
376.545	79.94
376.771	82.94
376.997	93.94
377.222	78.94
377.448	70.94
377.674	87.94
377.899	72.94
378.125	85.94
378.35	67.94
378.576	77.94
378.802	80.94
379.027	72.94
379.253	82.94
379.478	81.94
379.704	85.94
379.929	72.94
380.155	84.94
380.38	78.94
380.606	91.94
380.831	74.94
381.057	81.94
381.282	78.94
381.507	91.94
381.733	88.94
381.958	88.94
382.184	75.94
382.409	70.94
382.634	63.94
382.86	86.94
383.085	82.94
383.31	69.94
383.535	94.94
383.761	82.94
383.986	78.94
384.211	79.94
384.436	69.94
384.662	76.94
384.887	64.94
385.112	68.94
385.337	67.94
385.562	79.94
385.787	79.94
386.013	78.94
386.238	92.94
386.463	79.94
386.688	77.94
386.913	77.94
387.138	85.94
387.363	72.94
387.588	82.94
387.813	82.94
388.038	80.94
388.263	80.94
388.488	78.94
388.713	74.94
388.938	75.94
389.163	67.94
389.387	79.94
389.612	75.94
389.837	79.94
390.062	83.94
390.287	78.94
390.512	80.94
390.736	72.94
390.961	86.94
391.186	71.94
391.411	77.94
391.636	73.94
391.86	78.94
392.085	89.94
392.31	84.94
392.534	89.94
392.759	67.94
392.984	95.94
393.208	95.94
393.433	122.94
393.658	110.94
393.882	95.94
394.107	78.94
394.331	73.94
394.556	87.94
394.78	95.94
395.005	73.94
395.229	74.94
395.454	86.94
395.678	85.94
395.903	89.94
396.127	94.94
396.352	95.94
396.576	103.94
396.801	128.94
397.025	116.94
397.249	95.94
397.474	86.94
397.698	79.94
397.922	84.94
398.147	83.94
398.371	89.94
398.595	74.94
398.82	68.94
399.044	64.94
399.268	75.94
399.492	78.94
399.717	83.94
399.941	76.94
400.165	83.94
400.389	84.94
400.613	89.94
400.837	78.94
401.062	78.94
401.286	75.94
401.51	80.94
401.734	67.94
401.958	77.94
402.182	79.94
402.406	86.94
402.63	77.94
402.854	74.94
403.078	86.94
403.302	78.94
403.526	78.94
403.75	79.94
403.974	73.94
404.198	95.94
404.422	83.94
404.645	104.94
404.869	89.94
405.093	62.94
405.317	81.94
405.541	85.94
405.765	78.94
405.988	83.94
406.212	87.94
406.436	84.94
406.66	87.94
406.883	94.94
407.107	83.94
407.331	70.94
407.555	81.94
407.778	78.94
408.002	72.94
408.226	90.94
408.449	83.94
408.673	85.94
408.896	82.94
409.12	82.94
409.344	81.94
409.567	81.94
409.791	77.94
410.014	79.94
410.238	74.94
410.461	68.94
410.685	85.94
410.908	81.94
411.132	74.94
411.355	83.94
411.578	73.94
411.802	66.94
412.025	79.94
412.249	79.94
412.472	85.94
412.695	82.94
412.919	82.94
413.142	78.94
413.365	78.94
413.589	74.94
413.812	81.94
414.035	87.94
414.258	77.94
414.482	79.94
414.705	78.94
414.928	88.94
415.151	85.94
415.374	86.94
415.597	86.94
415.821	76.94
416.044	92.94
416.267	87.94
416.49	79.94
416.713	76.94
416.936	83.94
417.159	59.94
417.382	77.94
417.605	85.94
417.828	87.94
418.051	74.94
418.274	79.94
418.497	81.94
418.72	73.94
418.943	77.94
419.166	86.94
419.389	87.94
419.611	79.94
419.834	88.94
420.057	68.94
420.28	78.94
420.503	88.94
420.726	73.94
420.948	79.94
421.171	74.94
421.394	75.94
421.617	75.94
421.839	99.94
422.062	98.94
422.285	112.94
422.507	127.94
422.73	146.94
422.953	146.94
423.175	119.94
423.398	93.94
423.621	103.94
423.843	85.94
424.066	68.94
424.288	87.94
424.511	91.94
424.733	74.94
424.956	88.94
425.178	77.94
425.401	77.94
425.623	82.94
425.846	76.94
426.068	76.94
426.291	90.94
426.513	69.94
426.735	77.94
426.958	85.94
427.18	80.94
427.402	81.94
427.625	93.94
427.847	78.94
428.069	76.94
428.292	89.94
428.514	86.94
428.736	95.94
428.958	97.94
429.181	89.94
429.403	81.94
429.625	77.94
429.847	100.94
430.069	116.94
430.292	95.94
430.514	113.94
430.736	100.94
430.958	87.94
431.18	75.94
431.402	68.94
431.624	75.94
431.846	89.94
432.068	101.94
432.29	74.94
432.512	89.94
432.734	79.94
432.956	83.94
433.178	75.94
433.4	79.94
433.622	81.94
433.844	82.94
434.066	94.94
434.287	88.94
434.509	78.94
434.731	79.94
434.953	90.94
435.175	80.94
435.397	87.94
435.618	76.94
435.84	89.94
436.062	79.94
436.284	74.94
436.505	82.94
436.727	77.94
436.949	85.94
437.17	74.94
437.392	80.94
437.614	85.94
437.835	78.94
438.057	84.94
438.278	84.94
438.5	84.94
438.721	73.94
438.943	99.94
439.165	89.94
439.386	59.94
439.608	70.94
439.829	79.94
440.05	76.94
440.272	75.94
440.493	94.94
440.715	85.94
440.936	75.94
441.158	72.94
441.379	77.94
441.6	76.94
441.822	88.94
442.043	70.94
442.264	84.94
442.486	100.94
442.707	95.94
442.928	85.94
443.149	94.94
443.371	101.94
443.592	127.94
443.813	123.94
444.034	70.94
444.255	90.94
444.476	85.94
444.698	91.94
444.919	67.94
445.14	144.94
445.361	138.94
445.582	144.94
445.803	123.94
446.024	78.94
446.245	82.94
446.466	84.94
446.687	80.94
446.908	79.94
447.129	77.94
447.35	60.94
447.571	80.94
447.792	65.94
448.013	80.94
448.234	88.94
448.455	73.94
448.675	65.94
448.896	77.94
449.117	81.94
449.338	89.94
449.559	89.94
449.779	83.94
450	78.94
450.221	69.94
450.442	73.94
450.662	79.94
450.883	76.94
451.104	80.94
451.324	80.94
451.545	89.94
451.766	87.94
451.986	71.94
452.207	66.94
452.428	76.94
452.648	85.94
452.869	81.94
453.089	81.94
453.31	77.94
453.53	87.94
453.751	85.94
453.971	72.94
454.192	82.94
454.412	92.94
454.633	74.94
454.853	67.94
455.073	79.94
455.294	74.94
455.514	79.94
455.734	82.94
455.955	75.94
456.175	94.94
456.395	76.94
456.616	75.94
456.836	76.94
457.056	79.94
457.276	72.94
457.497	80.94
457.717	75.94
457.937	69.94
458.157	86.94
458.377	90.94
458.598	75.94
458.818	88.94
459.038	91.94
459.258	71.94
459.478	85.94
459.698	90.94
459.918	86.94
460.138	76.94
460.358	88.94
460.578	83.94
460.798	84.94
461.018	80.94
461.238	86.94
461.458	87.94
461.678	81.94
461.898	78.94
462.118	69.94
462.338	86.94
462.558	82.94
462.777	73.94
462.997	82.94
463.217	85.94
463.437	86.94
463.657	82.94
463.876	90.94
464.096	94.94
464.316	75.94
464.536	82.94
464.755	84.94
464.975	80.94
465.195	65.94
465.414	83.94
465.634	83.94
465.854	86.94
466.073	77.94
466.293	86.94
466.512	86.94
466.732	63.94
466.951	71.94
467.171	82.94
467.391	82.94
467.61	91.94
467.829	86.94
468.049	75.94
468.268	71.94
468.488	87.94
468.707	73.94
468.927	86.94
469.146	75.94
469.365	73.94
469.585	74.94
469.804	82.94
470.023	81.94
470.243	84.94
470.462	88.94
470.681	90.94
470.901	82.94
471.12	86.94
471.339	79.94
471.558	87.94
471.777	67.94
471.997	72.94
472.216	67.94
472.435	78.94
472.654	79.94
472.873	93.94
473.092	75.94
473.311	89.94
473.53	75.94
473.749	78.94
473.968	94.94
474.187	87.94
474.406	74.94
474.625	90.94
474.844	63.94
475.063	81.94
475.282	95.94
475.501	76.94
475.72	87.94
475.939	71.94
476.158	74.94
476.377	70.94
476.596	87.94
476.814	76.94
477.033	77.94
477.252	80.94
477.471	78.94
477.69	87.94
477.908	94.94
478.127	65.94
478.346	65.94
478.564	88.94
478.783	79.94
479.002	70.94
479.22	83.94
479.439	74.94
479.658	70.94
479.876	88.94
480.095	77.94
480.313	75.94
480.532	88.94
480.751	97.94
480.969	80.94
481.188	85.94
481.406	87.94
481.624	90.94
481.843	78.94
482.061	88.94
482.28	69.94
482.498	76.94
482.717	69.94
482.935	82.94
483.153	81.94
483.372	87.94
483.59	77.94
483.808	80.94
484.027	90.94
484.245	66.94
484.463	84.94
484.681	82.94
484.9	89.94
485.118	95.94
485.336	72.94
485.554	82.94
485.772	75.94
485.99	77.94
486.209	80.94
486.427	76.94
486.645	91.94
486.863	82.94
487.081	88.94
487.299	89.94
487.517	73.94
487.735	84.94
487.953	105.94
488.171	91.94
488.389	76.94
488.607	93.94
488.825	79.94
489.043	77.94
489.261	100.94
489.479	81.94
489.696	82.94
489.914	85.94
490.132	78.94
490.35	87.94
490.568	85.94
490.786	82.94
491.003	85.94
491.221	83.94
491.439	82.94
491.657	75.94
491.874	83.94
492.092	81.94
492.31	83.94
492.527	78.94
492.745	78.94
492.963	91.94
493.18	74.94
493.398	76.94
493.615	77.94
493.833	71.94
494.05	78.94
494.268	90.94
494.485	74.94
494.703	77.94
494.92	85.94
495.138	83.94
495.355	87.94
495.573	84.94
495.79	93.94
496.008	73.94
496.225	93.94
496.442	87.94
496.66	90.94
496.877	77.94
497.094	102.94
497.312	88.94
497.529	89.94
497.746	89.94
497.963	69.94
498.181	78.94
498.398	81.94
498.615	72.94
498.832	71.94
499.049	90.94
499.267	75.94
499.484	76.94
499.701	78.94
499.918	90.94
500.135	79.94
500.352	75.94
500.569	89.94
500.786	88.94
501.003	80.94
501.22	83.94
501.437	70.94
501.654	87.94
501.871	84.94
502.088	78.94
502.305	70.94
502.522	71.94
502.739	79.94
502.956	68.94
503.172	91.94
503.389	85.94
503.606	85.94
503.823	82.94
504.04	84.94
504.256	101.94
504.473	100.94
504.69	88.94
504.907	77.94
505.123	85.94
505.34	88.94
505.557	98.94
505.773	103.94
505.99	93.94
506.207	77.94
506.423	92.94
506.64	76.94
506.856	79.94
507.073	77.94
507.289	75.94
507.506	77.94
507.722	82.94
507.939	82.94
508.155	86.94
508.372	75.94
508.588	84.94
508.805	70.94
509.021	81.94
509.238	79.94
509.454	78.94
509.67	92.94
509.887	76.94
510.103	82.94
510.319	82.94
510.536	81.94
510.752	91.94
510.968	86.94
511.184	82.94
511.401	76.94
511.617	82.94
511.833	94.94
512.049	86.94
512.265	85.94
512.481	73.94
512.698	74.94
512.914	80.94
513.13	96.94
513.346	67.94
513.562	90.94
513.778	88.94
513.994	90.94
514.21	89.94
514.426	81.94
514.642	71.94
514.858	78.94
515.074	85.94
515.29	93.94
515.506	75.94
515.721	81.94
515.937	101.94
516.153	83.94
516.369	73.94
516.585	73.94
516.801	65.94
517.016	82.94
517.232	91.94
517.448	93.94
517.664	74.94
517.879	73.94
518.095	78.94
518.311	88.94
518.527	97.94
518.742	76.94
518.958	103.94
519.173	100.94
519.389	82.94
519.605	73.94
