Data from Mixnoheat2_HRD10591_00006.txt Node
Date: Fri Dec 27 14:59:45 EST 2024
User: Yrep
Spectrometer: HR+D1059
Trigger mode: 1
Integration Time (sec): 1.000000E-1
Scans to average: 1
Electric dark correction enabled: true
Nonlinearity correction enabled: false
Boxcar width: 0
XAxis mode: Wavelengths
Number of Pixels in Spectrum: 2048
>>>>>Begin Spectral Data<<<<<
223.165	-20.62
223.4	-20.62
223.635	-20.62
223.869	-10.62
224.104	-29.62
224.338	4.38
224.573	-21.62
224.808	-10.62
225.042	2.38
225.277	-2.62
225.511	-1.62
225.746	15.38
225.98	6.38
226.215	2.38
226.449	9.38
226.683	14.38
226.918	18.38
227.152	24.38
227.387	36.38
227.621	29.38
227.856	49.38
228.09	42.38
228.324	35.38
228.559	61.38
228.793	51.38
229.027	58.38
229.262	58.38
229.496	78.38
229.73	92.38
229.964	67.38
230.199	64.38
230.433	87.38
230.667	84.38
230.901	59.38
231.136	70.38
231.37	68.38
231.604	73.38
231.838	73.38
232.072	79.38
232.306	74.38
232.541	75.38
232.775	65.38
233.009	70.38
233.243	91.38
233.477	91.38
233.711	72.38
233.945	73.38
234.179	62.38
234.413	73.38
234.647	72.38
234.881	70.38
235.115	81.38
235.349	89.38
235.583	88.38
235.817	76.38
236.051	74.38
236.285	72.38
236.519	82.38
236.753	69.38
236.987	66.38
237.221	75.38
237.455	69.38
237.689	85.38
237.922	72.38
238.156	69.38
238.39	68.38
238.624	85.38
238.858	60.38
239.091	81.38
239.325	75.38
239.559	82.38
239.793	74.38
240.027	86.38
240.26	76.38
240.494	85.38
240.728	81.38
240.961	65.38
241.195	89.38
241.429	61.38
241.662	77.38
241.896	73.38
242.13	59.38
242.363	72.38
242.597	74.38
242.83	84.38
243.064	78.38
243.298	67.38
243.531	73.38
243.765	73.38
243.998	80.38
244.232	62.38
244.465	78.38
244.699	76.38
244.932	66.38
245.166	77.38
245.399	81.38
245.633	72.38
245.866	63.38
246.099	71.38
246.333	52.38
246.566	71.38
246.8	70.38
247.033	77.38
247.266	66.38
247.5	77.38
247.733	85.38
247.966	83.38
248.2	82.38
248.433	75.38
248.666	64.38
248.899	66.38
249.133	75.38
249.366	74.38
249.599	85.38
249.832	83.38
250.066	68.38
250.299	69.38
250.532	78.38
250.765	67.38
250.998	76.38
251.231	73.38
251.465	90.38
251.698	83.38
251.931	82.38
252.164	74.38
252.397	70.38
252.63	89.38
252.863	80.38
253.096	69.38
253.329	73.38
253.562	70.38
253.795	83.38
254.028	66.38
254.261	69.38
254.494	82.38
254.727	87.38
254.96	102.38
255.193	85.38
255.426	77.38
255.659	76.38
255.892	74.38
256.124	75.38
256.357	74.38
256.59	79.38
256.823	81.38
257.056	83.38
257.289	65.38
257.521	75.38
257.754	74.38
257.987	73.38
258.22	94.38
258.452	99.38
258.685	59.38
258.918	61.38
259.151	77.38
259.383	89.38
259.616	90.38
259.849	70.38
260.081	73.38
260.314	82.38
260.547	71.38
260.779	70.38
261.012	81.38
261.244	67.38
261.477	80.38
261.71	88.38
261.942	78.38
262.175	75.38
262.407	70.38
262.64	75.38
262.872	72.38
263.105	62.38
263.337	73.38
263.57	76.38
263.802	87.38
264.035	85.38
264.267	90.38
264.499	92.38
264.732	92.38
264.964	78.38
265.197	73.38
265.429	81.38
265.661	71.38
265.894	74.38
266.126	87.38
266.358	76.38
266.591	81.38
266.823	77.38
267.055	84.38
267.287	87.38
267.52	80.38
267.752	75.38
267.984	90.38
268.216	81.38
268.448	85.38
268.681	78.38
268.913	80.38
269.145	77.38
269.377	67.38
269.609	79.38
269.841	82.38
270.073	72.38
270.306	72.38
270.538	78.38
270.77	82.38
271.002	78.38
271.234	78.38
271.466	88.38
271.698	70.38
271.93	82.38
272.162	88.38
272.394	80.38
272.626	69.38
272.858	74.38
273.09	85.38
273.322	86.38
273.553	58.38
273.785	81.38
274.017	87.38
274.249	88.38
274.481	89.38
274.713	76.38
274.945	72.38
275.176	69.38
275.408	69.38
275.64	76.38
275.872	78.38
276.104	88.38
276.335	74.38
276.567	77.38
276.799	68.38
277.031	76.38
277.262	73.38
277.494	80.38
277.726	79.38
277.957	82.38
278.189	64.38
278.421	86.38
278.652	77.38
278.884	85.38
279.115	77.38
279.347	86.38
279.579	81.38
279.81	81.38
280.042	93.38
280.273	74.38
280.505	88.38
280.736	85.38
280.968	77.38
281.199	83.38
281.431	81.38
281.662	85.38
281.894	83.38
282.125	85.38
282.356	66.38
282.588	87.38
282.819	69.38
283.051	79.38
283.282	92.38
283.513	71.38
283.745	80.38
283.976	89.38
284.207	81.38
284.439	74.38
284.67	85.38
284.901	84.38
285.132	86.38
285.364	78.38
285.595	70.38
285.826	81.38
286.057	100.38
286.288	89.38
286.52	76.38
286.751	75.38
286.982	90.38
287.213	85.38
287.444	75.38
287.675	85.38
287.906	88.38
288.138	91.38
288.369	76.38
288.6	76.38
288.831	79.38
289.062	88.38
289.293	82.38
289.524	77.38
289.755	85.38
289.986	71.38
290.217	80.38
290.448	86.38
290.679	90.38
290.91	92.38
291.141	93.38
291.371	88.38
291.602	83.38
291.833	81.38
292.064	76.38
292.295	82.38
292.526	86.38
292.757	83.38
292.987	88.38
293.218	88.38
293.449	90.38
293.68	72.38
293.91	68.38
294.141	84.38
294.372	81.38
294.603	93.38
294.833	80.38
295.064	94.38
295.295	86.38
295.525	97.38
295.756	84.38
295.987	92.38
296.217	82.38
296.448	87.38
296.679	81.38
296.909	64.38
297.14	89.38
297.37	84.38
297.601	80.38
297.831	74.38
298.062	85.38
298.292	98.38
298.523	76.38
298.753	78.38
298.984	93.38
299.214	94.38
299.445	81.38
299.675	89.38
299.905	81.38
300.136	90.38
300.366	83.38
300.597	80.38
300.827	93.38
301.057	70.38
301.288	80.38
301.518	74.38
301.748	80.38
301.979	103.38
302.209	98.38
302.439	76.38
302.669	83.38
302.9	91.38
303.13	78.38
303.36	67.38
303.59	77.38
303.82	89.38
304.051	110.38
304.281	78.38
304.511	85.38
304.741	80.38
304.971	84.38
305.201	78.38
305.431	91.38
305.661	86.38
305.891	82.38
306.121	76.38
306.352	76.38
306.582	80.38
306.812	88.38
307.042	81.38
307.272	92.38
307.502	74.38
307.731	77.38
307.961	78.38
308.191	80.38
308.421	77.38
308.651	76.38
308.881	96.38
309.111	93.38
309.341	88.38
309.571	80.38
309.8	89.38
310.03	77.38
310.26	83.38
310.49	74.38
310.72	81.38
310.949	85.38
311.179	89.38
311.409	80.38
311.639	78.38
311.868	83.38
312.098	69.38
312.328	89.38
312.557	89.38
312.787	68.38
313.017	85.38
313.246	86.38
313.476	78.38
313.706	74.38
313.935	68.38
314.165	67.38
314.394	88.38
314.624	86.38
314.853	92.38
315.083	83.38
315.312	85.38
315.542	90.38
315.771	89.38
316.001	75.38
316.23	79.38
316.46	68.38
316.689	83.38
316.919	72.38
317.148	92.38
317.377	88.38
317.607	101.38
317.836	90.38
318.065	62.38
318.295	76.38
318.524	81.38
318.753	77.38
318.983	89.38
319.212	91.38
319.441	69.38
319.67	84.38
319.9	84.38
320.129	87.38
320.358	65.38
320.587	84.38
320.816	71.38
321.046	84.38
321.275	75.38
321.504	89.38
321.733	80.38
321.962	83.38
322.191	80.38
322.42	71.38
322.649	79.38
322.878	76.38
323.108	87.38
323.337	69.38
323.566	83.38
323.795	85.38
324.024	98.38
324.253	76.38
324.482	75.38
324.71	65.38
324.939	74.38
325.168	82.38
325.397	76.38
325.626	96.38
325.855	79.38
326.084	90.38
326.313	78.38
326.542	68.38
326.77	71.38
326.999	64.38
327.228	78.38
327.457	74.38
327.686	76.38
327.914	86.38
328.143	82.38
328.372	76.38
328.6	84.38
328.829	84.38
329.058	76.38
329.287	79.38
329.515	83.38
329.744	94.38
329.972	90.38
330.201	73.38
330.43	89.38
330.658	73.38
330.887	72.38
331.115	92.38
331.344	104.38
331.572	79.38
331.801	79.38
332.03	69.38
332.258	73.38
332.486	88.38
332.715	82.38
332.943	89.38
333.172	84.38
333.4	80.38
333.629	89.38
333.857	85.38
334.085	69.38
334.314	90.38
334.542	79.38
334.771	88.38
334.999	83.38
335.227	77.38
335.455	80.38
335.684	96.38
335.912	106.38
336.14	92.38
336.369	92.38
336.597	100.38
336.825	84.38
337.053	87.38
337.281	89.38
337.51	72.38
337.738	90.38
337.966	65.38
338.194	78.38
338.422	96.38
338.65	85.38
338.878	82.38
339.106	78.38
339.334	86.38
339.562	84.38
339.79	79.38
340.018	86.38
340.246	89.38
340.474	85.38
340.702	75.38
340.93	85.38
341.158	89.38
341.386	82.38
341.614	66.38
341.842	80.38
342.07	78.38
342.298	82.38
342.526	76.38
342.754	83.38
342.981	80.38
343.209	81.38
343.437	104.38
343.665	88.38
343.893	95.38
344.12	84.38
344.348	88.38
344.576	66.38
344.804	85.38
345.031	93.38
345.259	82.38
345.487	89.38
345.714	84.38
345.942	85.38
346.17	98.38
346.397	80.38
346.625	76.38
346.853	75.38
347.08	70.38
347.308	77.38
347.535	86.38
347.763	84.38
347.99	99.38
348.218	86.38
348.445	88.38
348.673	85.38
348.9	80.38
349.128	79.38
349.355	70.38
349.583	85.38
349.81	82.38
350.037	87.38
350.265	87.38
350.492	82.38
350.72	89.38
350.947	68.38
351.174	90.38
351.402	74.38
351.629	83.38
351.856	93.38
352.083	86.38
352.311	72.38
352.538	81.38
352.765	85.38
352.992	70.38
353.22	83.38
353.447	73.38
353.674	77.38
353.901	87.38
354.128	88.38
354.355	74.38
354.583	78.38
354.81	84.38
355.037	81.38
355.264	82.38
355.491	86.38
355.718	65.38
355.945	83.38
356.172	84.38
356.399	87.38
356.626	83.38
356.853	74.38
357.08	87.38
357.307	75.38
357.534	82.38
357.761	82.38
357.988	90.38
358.215	78.38
358.441	89.38
358.668	82.38
358.895	79.38
359.122	79.38
359.349	68.38
359.576	87.38
359.802	72.38
360.029	85.38
360.256	83.38
360.483	97.38
360.709	73.38
360.936	106.38
361.163	90.38
361.39	82.38
361.616	89.38
361.843	76.38
362.07	65.38
362.296	71.38
362.523	85.38
362.749	94.38
362.976	86.38
363.203	88.38
363.429	71.38
363.656	94.38
363.882	97.38
364.109	75.38
364.335	92.38
364.562	69.38
364.788	76.38
365.015	84.38
365.241	93.38
365.468	74.38
365.694	70.38
365.92	80.38
366.147	70.38
366.373	94.38
366.599	83.38
366.826	93.38
367.052	84.38
367.278	74.38
367.505	72.38
367.731	90.38
367.957	85.38
368.184	88.38
368.41	89.38
368.636	91.38
368.862	93.38
369.089	82.38
369.315	81.38
369.541	80.38
369.767	87.38
369.993	86.38
370.219	84.38
370.445	90.38
370.672	77.38
370.898	81.38
371.124	76.38
371.35	96.38
371.576	88.38
371.802	81.38
372.028	89.38
372.254	84.38
372.48	81.38
372.706	75.38
372.932	71.38
373.158	70.38
373.384	96.38
373.61	90.38
373.835	83.38
374.061	84.38
374.287	78.38
374.513	83.38
374.739	84.38
374.965	87.38
375.191	58.38
375.416	78.38
375.642	87.38
375.868	79.38
376.094	86.38
376.319	97.38
376.545	70.38
376.771	92.38
376.997	83.38
377.222	84.38
377.448	71.38
377.674	84.38
377.899	78.38
378.125	93.38
378.35	96.38
378.576	68.38
378.802	76.38
379.027	70.38
379.253	85.38
379.478	83.38
379.704	67.38
379.929	75.38
380.155	83.38
380.38	76.38
380.606	74.38
380.831	83.38
381.057	83.38
381.282	96.38
381.507	89.38
381.733	80.38
381.958	81.38
382.184	81.38
382.409	96.38
382.634	85.38
382.86	86.38
383.085	74.38
383.31	91.38
383.535	88.38
383.761	83.38
383.986	81.38
384.211	77.38
384.436	75.38
384.662	69.38
384.887	73.38
385.112	93.38
385.337	90.38
385.562	83.38
385.787	79.38
386.013	88.38
386.238	80.38
386.463	74.38
386.688	73.38
386.913	57.38
387.138	89.38
387.363	89.38
387.588	84.38
387.813	80.38
388.038	73.38
388.263	84.38
388.488	80.38
388.713	75.38
388.938	68.38
389.163	86.38
389.387	86.38
389.612	78.38
389.837	80.38
390.062	87.38
390.287	82.38
390.512	80.38
390.736	70.38
390.961	81.38
391.186	82.38
391.411	82.38
391.636	85.38
391.86	90.38
392.085	83.38
392.31	84.38
392.534	94.38
392.759	82.38
392.984	99.38
393.208	114.38
393.433	106.38
393.658	106.38
393.882	90.38
394.107	74.38
394.331	74.38
394.556	91.38
394.78	96.38
395.005	76.38
395.229	74.38
395.454	74.38
395.678	87.38
395.903	69.38
396.127	88.38
396.352	87.38
396.576	100.38
396.801	106.38
397.025	107.38
397.249	89.38
397.474	86.38
397.698	75.38
397.922	76.38
398.147	78.38
398.371	73.38
398.595	75.38
398.82	84.38
399.044	71.38
399.268	75.38
399.492	85.38
399.717	83.38
399.941	74.38
400.165	66.38
400.389	82.38
400.613	86.38
400.837	95.38
401.062	86.38
401.286	86.38
401.51	88.38
401.734	83.38
401.958	91.38
402.182	78.38
402.406	78.38
402.63	84.38
402.854	82.38
403.078	69.38
403.302	83.38
403.526	78.38
403.75	87.38
403.974	78.38
404.198	105.38
404.422	99.38
404.645	97.38
404.869	108.38
405.093	85.38
405.317	79.38
405.541	81.38
405.765	93.38
405.988	90.38
406.212	82.38
406.436	76.38
406.66	67.38
406.883	76.38
407.107	83.38
407.331	79.38
407.555	71.38
407.778	82.38
408.002	82.38
408.226	86.38
408.449	67.38
408.673	81.38
408.896	91.38
409.12	94.38
409.344	96.38
409.567	96.38
409.791	81.38
410.014	85.38
410.238	70.38
410.461	82.38
410.685	67.38
410.908	78.38
411.132	85.38
411.355	84.38
411.578	85.38
411.802	65.38
412.025	85.38
412.249	84.38
412.472	94.38
412.695	86.38
412.919	98.38
413.142	83.38
413.365	74.38
413.589	76.38
413.812	93.38
414.035	85.38
414.258	77.38
414.482	79.38
414.705	80.38
414.928	73.38
415.151	82.38
415.374	78.38
415.597	88.38
415.821	85.38
416.044	83.38
416.267	87.38
416.49	80.38
416.713	72.38
416.936	73.38
417.159	73.38
417.382	76.38
417.605	76.38
417.828	86.38
418.051	75.38
418.274	88.38
418.497	70.38
418.72	85.38
418.943	85.38
419.166	74.38
419.389	85.38
419.611	85.38
419.834	77.38
420.057	89.38
420.28	96.38
420.503	88.38
420.726	73.38
420.948	80.38
421.171	76.38
421.394	81.38
421.617	77.38
421.839	94.38
422.062	97.38
422.285	98.38
422.507	119.38
422.73	138.38
422.953	132.38
423.175	102.38
423.398	96.38
423.621	87.38
423.843	85.38
424.066	81.38
424.288	85.38
424.511	84.38
424.733	81.38
424.956	59.38
425.178	84.38
425.401	71.38
425.623	86.38
425.846	82.38
426.068	79.38
426.291	71.38
426.513	59.38
426.735	90.38
426.958	78.38
427.18	89.38
427.402	86.38
427.625	71.38
427.847	66.38
428.069	84.38
428.292	80.38
428.514	93.38
428.736	89.38
428.958	86.38
429.181	77.38
429.403	88.38
429.625	82.38
429.847	90.38
430.069	100.38
430.292	96.38
430.514	97.38
430.736	93.38
430.958	93.38
431.18	86.38
431.402	77.38
431.624	88.38
431.846	89.38
432.068	91.38
432.29	97.38
432.512	87.38
432.734	91.38
432.956	95.38
433.178	78.38
433.4	74.38
433.622	94.38
433.844	83.38
434.066	90.38
434.287	80.38
434.509	70.38
434.731	77.38
434.953	74.38
435.175	83.38
435.397	90.38
435.618	84.38
435.84	78.38
436.062	81.38
436.284	80.38
436.505	81.38
436.727	75.38
436.949	79.38
437.17	80.38
437.392	87.38
437.614	84.38
437.835	70.38
438.057	66.38
438.278	82.38
438.5	79.38
438.721	85.38
438.943	97.38
439.165	82.38
439.386	85.38
439.608	75.38
439.829	92.38
440.05	75.38
440.272	78.38
440.493	82.38
440.715	91.38
440.936	89.38
441.158	87.38
441.379	80.38
441.6	89.38
441.822	84.38
442.043	73.38
442.264	80.38
442.486	91.38
442.707	77.38
442.928	82.38
443.149	84.38
443.371	105.38
443.592	110.38
443.813	115.38
444.034	83.38
444.255	96.38
444.476	78.38
444.698	98.38
444.919	81.38
445.14	172.38
445.361	124.38
445.582	122.38
445.803	116.38
446.024	94.38
446.245	81.38
446.466	86.38
446.687	78.38
446.908	59.38
447.129	81.38
447.35	93.38
447.571	73.38
447.792	82.38
448.013	81.38
448.234	65.38
448.455	77.38
448.675	85.38
448.896	69.38
449.117	82.38
449.338	90.38
449.559	70.38
449.779	98.38
450	80.38
450.221	90.38
450.442	84.38
450.662	85.38
450.883	81.38
451.104	93.38
451.324	83.38
451.545	68.38
451.766	77.38
451.986	81.38
452.207	84.38
452.428	82.38
452.648	69.38
452.869	83.38
453.089	69.38
453.31	76.38
453.53	64.38
453.751	80.38
453.971	71.38
454.192	77.38
454.412	68.38
454.633	75.38
454.853	81.38
455.073	81.38
455.294	75.38
455.514	84.38
455.734	80.38
455.955	78.38
456.175	72.38
456.395	70.38
456.616	74.38
456.836	86.38
457.056	85.38
457.276	78.38
457.497	76.38
457.717	89.38
457.937	85.38
458.157	88.38
458.377	83.38
458.598	96.38
458.818	73.38
459.038	88.38
459.258	89.38
459.478	83.38
459.698	85.38
459.918	73.38
460.138	93.38
460.358	85.38
460.578	93.38
460.798	97.38
461.018	93.38
461.238	68.38
461.458	79.38
461.678	73.38
461.898	77.38
462.118	86.38
462.338	77.38
462.558	76.38
462.777	63.38
462.997	83.38
463.217	87.38
463.437	88.38
463.657	83.38
463.876	76.38
464.096	80.38
464.316	87.38
464.536	78.38
464.755	72.38
464.975	64.38
465.195	76.38
465.414	81.38
465.634	89.38
465.854	70.38
466.073	72.38
466.293	67.38
466.512	84.38
466.732	91.38
466.951	84.38
467.171	79.38
467.391	87.38
467.61	71.38
467.829	84.38
468.049	73.38
468.268	89.38
468.488	84.38
468.707	74.38
468.927	83.38
469.146	85.38
469.365	73.38
469.585	67.38
469.804	77.38
470.023	87.38
470.243	81.38
470.462	88.38
470.681	86.38
470.901	77.38
471.12	78.38
471.339	96.38
471.558	77.38
471.777	73.38
471.997	82.38
472.216	71.38
472.435	80.38
472.654	68.38
472.873	91.38
473.092	88.38
473.311	97.38
473.53	88.38
473.749	84.38
473.968	78.38
474.187	100.38
474.406	76.38
474.625	76.38
474.844	80.38
475.063	72.38
475.282	77.38
475.501	89.38
475.72	97.38
475.939	77.38
476.158	76.38
476.377	85.38
476.596	77.38
476.814	76.38
477.033	96.38
477.252	77.38
477.471	84.38
477.69	80.38
477.908	84.38
478.127	87.38
478.346	78.38
478.564	70.38
478.783	63.38
479.002	91.38
479.22	67.38
479.439	78.38
479.658	81.38
479.876	69.38
480.095	76.38
480.313	79.38
480.532	102.38
480.751	62.38
480.969	79.38
481.188	85.38
481.406	84.38
481.624	70.38
481.843	70.38
482.061	86.38
482.28	91.38
482.498	85.38
482.717	74.38
482.935	83.38
483.153	81.38
483.372	82.38
483.59	89.38
483.808	89.38
484.027	84.38
484.245	79.38
484.463	80.38
484.681	79.38
484.9	85.38
485.118	87.38
485.336	83.38
485.554	84.38
485.772	80.38
485.99	74.38
486.209	90.38
486.427	81.38
486.645	66.38
486.863	75.38
487.081	72.38
487.299	92.38
487.517	82.38
487.735	84.38
487.953	86.38
488.171	98.38
488.389	80.38
488.607	75.38
488.825	81.38
489.043	88.38
489.261	85.38
489.479	93.38
489.696	81.38
489.914	77.38
490.132	72.38
490.35	74.38
490.568	76.38
490.786	93.38
491.003	82.38
491.221	66.38
491.439	61.38
491.657	101.38
491.874	70.38
492.092	89.38
492.31	88.38
492.527	85.38
492.745	83.38
492.963	70.38
493.18	75.38
493.398	100.38
493.615	90.38
493.833	74.38
494.05	73.38
494.268	75.38
494.485	90.38
494.703	76.38
494.92	81.38
495.138	89.38
495.355	88.38
495.573	79.38
495.79	75.38
496.008	81.38
496.225	78.38
496.442	77.38
496.66	91.38
496.877	78.38
497.094	78.38
497.312	84.38
497.529	76.38
497.746	63.38
497.963	89.38
498.181	77.38
498.398	90.38
498.615	74.38
498.832	85.38
499.049	82.38
499.267	83.38
499.484	85.38
499.701	78.38
499.918	100.38
500.135	72.38
500.352	88.38
500.569	83.38
500.786	81.38
501.003	80.38
501.22	77.38
501.437	85.38
501.654	69.38
501.871	81.38
502.088	86.38
502.305	82.38
502.522	67.38
502.739	77.38
502.956	91.38
503.172	67.38
503.389	86.38
503.606	88.38
503.823	112.38
504.04	85.38
504.256	93.38
504.473	89.38
504.69	67.38
504.907	101.38
505.123	77.38
505.34	84.38
505.557	82.38
505.773	80.38
505.99	65.38
506.207	81.38
506.423	77.38
506.64	76.38
506.856	74.38
507.073	83.38
507.289	88.38
507.506	72.38
507.722	82.38
507.939	98.38
508.155	76.38
508.372	68.38
508.588	76.38
508.805	93.38
509.021	76.38
509.238	83.38
509.454	82.38
509.67	70.38
509.887	83.38
510.103	81.38
510.319	89.38
510.536	96.38
510.752	78.38
510.968	84.38
511.184	91.38
511.401	77.38
511.617	75.38
511.833	72.38
512.049	87.38
512.265	79.38
512.481	82.38
512.698	73.38
512.914	88.38
513.13	70.38
513.346	74.38
513.562	74.38
513.778	94.38
513.994	92.38
514.21	96.38
514.426	88.38
514.642	82.38
514.858	74.38
515.074	82.38
515.29	90.38
515.506	82.38
515.721	75.38
515.937	70.38
516.153	85.38
516.369	82.38
516.585	76.38
516.801	76.38
517.016	67.38
517.232	81.38
517.448	96.38
517.664	81.38
517.879	79.38
518.095	80.38
518.311	98.38
518.527	86.38
518.742	83.38
518.958	87.38
519.173	97.38
519.389	84.38
519.605	84.38
519.82	83.38
