Data from Mixnoheat2_HRD10591_00012.txt Node
Date: Fri Dec 27 14:59:51 EST 2024
User: Yrep
Spectrometer: HR+D1059
Trigger mode: 1
Integration Time (sec): 1.000000E-1
Scans to average: 1
Electric dark correction enabled: true
Nonlinearity correction enabled: false
Boxcar width: 0
XAxis mode: Wavelengths
Number of Pixels in Spectrum: 2048
>>>>>Begin Spectral Data<<<<<
223.165	-21.06
223.4	-21.06
223.635	-21.06
223.869	-12.06
224.104	-4.06
224.338	-8.06
224.573	-11.06
224.808	-10.06
225.042	-18.06
225.277	-16.06
225.511	-0.06
225.746	10.94
225.98	5.94
226.215	3.94
226.449	11.94
226.683	3.94
226.918	25.94
227.152	37.94
227.387	45.94
227.621	54.94
227.856	48.94
228.09	37.94
228.324	51.94
228.559	56.94
228.793	58.94
229.027	58.94
229.262	75.94
229.496	59.94
229.73	70.94
229.964	83.94
230.199	76.94
230.433	83.94
230.667	85.94
230.901	76.94
231.136	63.94
231.37	87.94
231.604	70.94
231.838	78.94
232.072	69.94
232.306	84.94
232.541	77.94
232.775	69.94
233.009	81.94
233.243	79.94
233.477	86.94
233.711	84.94
233.945	87.94
234.179	92.94
234.413	74.94
234.647	84.94
234.881	93.94
235.115	85.94
235.349	91.94
235.583	101.94
235.817	77.94
236.051	69.94
236.285	74.94
236.519	93.94
236.753	62.94
236.987	77.94
237.221	81.94
237.455	73.94
237.689	88.94
237.922	91.94
238.156	64.94
238.39	82.94
238.624	73.94
238.858	84.94
239.091	82.94
239.325	72.94
239.559	85.94
239.793	82.94
240.027	69.94
240.26	74.94
240.494	81.94
240.728	72.94
240.961	77.94
241.195	78.94
241.429	79.94
241.662	62.94
241.896	72.94
242.13	63.94
242.363	73.94
242.597	79.94
242.83	65.94
243.064	74.94
243.298	79.94
243.531	81.94
243.765	83.94
243.998	74.94
244.232	82.94
244.465	70.94
244.699	76.94
244.932	68.94
245.166	85.94
245.399	74.94
245.633	97.94
245.866	74.94
246.099	85.94
246.333	77.94
246.566	82.94
246.8	63.94
247.033	80.94
247.266	80.94
247.5	73.94
247.733	62.94
247.966	73.94
248.2	80.94
248.433	93.94
248.666	84.94
248.899	64.94
249.133	64.94
249.366	81.94
249.599	77.94
249.832	61.94
250.066	83.94
250.299	81.94
250.532	87.94
250.765	82.94
250.998	79.94
251.231	83.94
251.465	81.94
251.698	78.94
251.931	75.94
252.164	81.94
252.397	88.94
252.63	85.94
252.863	74.94
253.096	94.94
253.329	97.94
253.562	90.94
253.795	81.94
254.028	97.94
254.261	77.94
254.494	75.94
254.727	67.94
254.96	82.94
255.193	77.94
255.426	75.94
255.659	75.94
255.892	73.94
256.124	78.94
256.357	71.94
256.59	82.94
256.823	75.94
257.056	75.94
257.289	90.94
257.521	76.94
257.754	66.94
257.987	68.94
258.22	78.94
258.452	67.94
258.685	81.94
258.918	72.94
259.151	85.94
259.383	84.94
259.616	86.94
259.849	71.94
260.081	74.94
260.314	67.94
260.547	91.94
260.779	93.94
261.012	83.94
261.244	70.94
261.477	81.94
261.71	82.94
261.942	76.94
262.175	93.94
262.407	73.94
262.64	84.94
262.872	86.94
263.105	86.94
263.337	101.94
263.57	83.94
263.802	92.94
264.035	79.94
264.267	82.94
264.499	84.94
264.732	72.94
264.964	90.94
265.197	83.94
265.429	76.94
265.661	77.94
265.894	94.94
266.126	85.94
266.358	77.94
266.591	85.94
266.823	80.94
267.055	79.94
267.287	77.94
267.52	64.94
267.752	72.94
267.984	83.94
268.216	80.94
268.448	78.94
268.681	73.94
268.913	81.94
269.145	82.94
269.377	84.94
269.609	85.94
269.841	89.94
270.073	82.94
270.306	72.94
270.538	78.94
270.77	75.94
271.002	77.94
271.234	86.94
271.466	87.94
271.698	82.94
271.93	73.94
272.162	86.94
272.394	94.94
272.626	71.94
272.858	87.94
273.09	89.94
273.322	90.94
273.553	97.94
273.785	71.94
274.017	97.94
274.249	102.94
274.481	91.94
274.713	78.94
274.945	81.94
275.176	88.94
275.408	84.94
275.64	91.94
275.872	88.94
276.104	95.94
276.335	92.94
276.567	74.94
276.799	67.94
277.031	89.94
277.262	98.94
277.494	91.94
277.726	76.94
277.957	86.94
278.189	75.94
278.421	81.94
278.652	83.94
278.884	89.94
279.115	74.94
279.347	95.94
279.579	90.94
279.81	83.94
280.042	68.94
280.273	81.94
280.505	97.94
280.736	91.94
280.968	74.94
281.199	90.94
281.431	84.94
281.662	93.94
281.894	99.94
282.125	68.94
282.356	81.94
282.588	92.94
282.819	86.94
283.051	87.94
283.282	82.94
283.513	87.94
283.745	92.94
283.976	92.94
284.207	84.94
284.439	79.94
284.67	85.94
284.901	87.94
285.132	85.94
285.364	95.94
285.595	77.94
285.826	83.94
286.057	92.94
286.288	85.94
286.52	97.94
286.751	77.94
286.982	92.94
287.213	88.94
287.444	83.94
287.675	82.94
287.906	80.94
288.138	77.94
288.369	82.94
288.6	85.94
288.831	79.94
289.062	89.94
289.293	79.94
289.524	71.94
289.755	70.94
289.986	78.94
290.217	97.94
290.448	85.94
290.679	78.94
290.91	88.94
291.141	82.94
291.371	87.94
291.602	78.94
291.833	78.94
292.064	72.94
292.295	85.94
292.526	85.94
292.757	75.94
292.987	77.94
293.218	92.94
293.449	82.94
293.68	71.94
293.91	78.94
294.141	100.94
294.372	83.94
294.603	89.94
294.833	87.94
295.064	79.94
295.295	77.94
295.525	95.94
295.756	76.94
295.987	93.94
296.217	84.94
296.448	85.94
296.679	80.94
296.909	86.94
297.14	82.94
297.37	93.94
297.601	73.94
297.831	94.94
298.062	83.94
298.292	87.94
298.523	77.94
298.753	87.94
298.984	72.94
299.214	71.94
299.445	76.94
299.675	82.94
299.905	80.94
300.136	75.94
300.366	87.94
300.597	110.94
300.827	97.94
301.057	93.94
301.288	85.94
301.518	74.94
301.748	84.94
301.979	81.94
302.209	92.94
302.439	82.94
302.669	83.94
302.9	72.94
303.13	87.94
303.36	88.94
303.59	82.94
303.82	91.94
304.051	82.94
304.281	94.94
304.511	83.94
304.741	90.94
304.971	80.94
305.201	88.94
305.431	93.94
305.661	97.94
305.891	88.94
306.121	87.94
306.352	81.94
306.582	91.94
306.812	91.94
307.042	87.94
307.272	83.94
307.502	85.94
307.731	94.94
307.961	89.94
308.191	99.94
308.421	69.94
308.651	93.94
308.881	94.94
309.111	94.94
309.341	77.94
309.571	82.94
309.8	88.94
310.03	91.94
310.26	84.94
310.49	87.94
310.72	81.94
310.949	91.94
311.179	78.94
311.409	88.94
311.639	87.94
311.868	88.94
312.098	92.94
312.328	88.94
312.557	91.94
312.787	71.94
313.017	76.94
313.246	78.94
313.476	78.94
313.706	96.94
313.935	87.94
314.165	78.94
314.394	79.94
314.624	83.94
314.853	83.94
315.083	57.94
315.312	74.94
315.542	73.94
315.771	83.94
316.001	73.94
316.23	87.94
316.46	72.94
316.689	84.94
316.919	66.94
317.148	84.94
317.377	88.94
317.607	79.94
317.836	96.94
318.065	83.94
318.295	77.94
318.524	90.94
318.753	82.94
318.983	71.94
319.212	82.94
319.441	88.94
319.67	75.94
319.9	102.94
320.129	89.94
320.358	81.94
320.587	90.94
320.816	92.94
321.046	95.94
321.275	87.94
321.504	95.94
321.733	103.94
321.962	92.94
322.191	87.94
322.42	82.94
322.649	93.94
322.878	83.94
323.108	78.94
323.337	79.94
323.566	79.94
323.795	79.94
324.024	86.94
324.253	87.94
324.482	82.94
324.71	92.94
324.939	86.94
325.168	93.94
325.397	91.94
325.626	83.94
325.855	76.94
326.084	76.94
326.313	84.94
326.542	93.94
326.77	82.94
326.999	82.94
327.228	89.94
327.457	78.94
327.686	79.94
327.914	84.94
328.143	87.94
328.372	81.94
328.6	72.94
328.829	91.94
329.058	84.94
329.287	82.94
329.515	92.94
329.744	93.94
329.972	70.94
330.201	88.94
330.43	89.94
330.658	73.94
330.887	92.94
331.115	85.94
331.344	85.94
331.572	82.94
331.801	86.94
332.03	97.94
332.258	94.94
332.486	68.94
332.715	92.94
332.943	83.94
333.172	89.94
333.4	69.94
333.629	97.94
333.857	88.94
334.085	89.94
334.314	95.94
334.542	93.94
334.771	82.94
334.999	76.94
335.227	67.94
335.455	83.94
335.684	71.94
335.912	86.94
336.14	84.94
336.369	77.94
336.597	93.94
336.825	99.94
337.053	81.94
337.281	89.94
337.51	81.94
337.738	89.94
337.966	86.94
338.194	87.94
338.422	72.94
338.65	68.94
338.878	88.94
339.106	81.94
339.334	92.94
339.562	93.94
339.79	85.94
340.018	87.94
340.246	86.94
340.474	76.94
340.702	85.94
340.93	81.94
341.158	81.94
341.386	72.94
341.614	72.94
341.842	82.94
342.07	91.94
342.298	85.94
342.526	80.94
342.754	90.94
342.981	78.94
343.209	90.94
343.437	93.94
343.665	75.94
343.893	101.94
344.12	97.94
344.348	76.94
344.576	83.94
344.804	88.94
345.031	80.94
345.259	85.94
345.487	83.94
345.714	85.94
345.942	92.94
346.17	80.94
346.397	81.94
346.625	71.94
346.853	80.94
347.08	82.94
347.308	82.94
347.535	77.94
347.763	75.94
347.99	108.94
348.218	80.94
348.445	81.94
348.673	93.94
348.9	86.94
349.128	67.94
349.355	79.94
349.583	86.94
349.81	75.94
350.037	92.94
350.265	91.94
350.492	93.94
350.72	88.94
350.947	86.94
351.174	83.94
351.402	89.94
351.629	87.94
351.856	71.94
352.083	79.94
352.311	71.94
352.538	74.94
352.765	83.94
352.992	99.94
353.22	85.94
353.447	87.94
353.674	74.94
353.901	86.94
354.128	101.94
354.355	79.94
354.583	85.94
354.81	78.94
355.037	102.94
355.264	84.94
355.491	81.94
355.718	67.94
355.945	91.94
356.172	92.94
356.399	74.94
356.626	89.94
356.853	83.94
357.08	97.94
357.307	74.94
357.534	91.94
357.761	93.94
357.988	85.94
358.215	79.94
358.441	82.94
358.668	79.94
358.895	88.94
359.122	78.94
359.349	88.94
359.576	78.94
359.802	104.94
360.029	94.94
360.256	77.94
360.483	89.94
360.709	87.94
360.936	92.94
361.163	76.94
361.39	81.94
361.616	83.94
361.843	85.94
362.07	86.94
362.296	82.94
362.523	85.94
362.749	91.94
362.976	73.94
363.203	83.94
363.429	82.94
363.656	89.94
363.882	85.94
364.109	89.94
364.335	88.94
364.562	103.94
364.788	96.94
365.015	82.94
365.241	90.94
365.468	84.94
365.694	81.94
365.92	82.94
366.147	81.94
366.373	75.94
366.599	81.94
366.826	88.94
367.052	88.94
367.278	94.94
367.505	63.94
367.731	82.94
367.957	76.94
368.184	81.94
368.41	104.94
368.636	91.94
368.862	93.94
369.089	87.94
369.315	88.94
369.541	84.94
369.767	76.94
369.993	93.94
370.219	87.94
370.445	85.94
370.672	74.94
370.898	90.94
371.124	76.94
371.35	87.94
371.576	85.94
371.802	102.94
372.028	82.94
372.254	83.94
372.48	89.94
372.706	90.94
372.932	85.94
373.158	79.94
373.384	82.94
373.61	82.94
373.835	68.94
374.061	65.94
374.287	88.94
374.513	83.94
374.739	77.94
374.965	68.94
375.191	83.94
375.416	71.94
375.642	65.94
375.868	84.94
376.094	73.94
376.319	80.94
376.545	93.94
376.771	79.94
376.997	67.94
377.222	88.94
377.448	61.94
377.674	85.94
377.899	84.94
378.125	71.94
378.35	75.94
378.576	71.94
378.802	73.94
379.027	86.94
379.253	63.94
379.478	81.94
379.704	87.94
379.929	76.94
380.155	66.94
380.38	93.94
380.606	90.94
380.831	89.94
381.057	89.94
381.282	91.94
381.507	101.94
381.733	83.94
381.958	86.94
382.184	88.94
382.409	95.94
382.634	71.94
382.86	77.94
383.085	88.94
383.31	85.94
383.535	91.94
383.761	81.94
383.986	83.94
384.211	82.94
384.436	85.94
384.662	82.94
384.887	89.94
385.112	90.94
385.337	82.94
385.562	82.94
385.787	79.94
386.013	72.94
386.238	72.94
386.463	89.94
386.688	96.94
386.913	71.94
387.138	77.94
387.363	76.94
387.588	93.94
387.813	83.94
388.038	88.94
388.263	77.94
388.488	84.94
388.713	85.94
388.938	81.94
389.163	90.94
389.387	66.94
389.612	95.94
389.837	83.94
390.062	87.94
390.287	79.94
390.512	73.94
390.736	66.94
390.961	80.94
391.186	81.94
391.411	80.94
391.636	93.94
391.86	75.94
392.085	79.94
392.31	89.94
392.534	83.94
392.759	82.94
392.984	92.94
393.208	96.94
393.433	104.94
393.658	84.94
393.882	91.94
394.107	84.94
394.331	82.94
394.556	91.94
394.78	79.94
395.005	78.94
395.229	78.94
395.454	96.94
395.678	78.94
395.903	89.94
396.127	89.94
396.352	80.94
396.576	92.94
396.801	90.94
397.025	95.94
397.249	78.94
397.474	75.94
397.698	84.94
397.922	83.94
398.147	88.94
398.371	80.94
398.595	74.94
398.82	96.94
399.044	87.94
399.268	83.94
399.492	72.94
399.717	86.94
399.941	71.94
400.165	85.94
400.389	81.94
400.613	97.94
400.837	70.94
401.062	73.94
401.286	92.94
401.51	90.94
401.734	76.94
401.958	73.94
402.182	81.94
402.406	84.94
402.63	73.94
402.854	83.94
403.078	91.94
403.302	71.94
403.526	83.94
403.75	73.94
403.974	83.94
404.198	83.94
404.422	102.94
404.645	93.94
404.869	89.94
405.093	87.94
405.317	78.94
405.541	82.94
405.765	74.94
405.988	86.94
406.212	87.94
406.436	69.94
406.66	82.94
406.883	68.94
407.107	83.94
407.331	70.94
407.555	84.94
407.778	92.94
408.002	76.94
408.226	81.94
408.449	83.94
408.673	83.94
408.896	81.94
409.12	79.94
409.344	81.94
409.567	69.94
409.791	74.94
410.014	85.94
410.238	77.94
410.461	91.94
410.685	82.94
410.908	86.94
411.132	97.94
411.355	85.94
411.578	77.94
411.802	83.94
412.025	93.94
412.249	73.94
412.472	82.94
412.695	84.94
412.919	76.94
413.142	86.94
413.365	91.94
413.589	79.94
413.812	77.94
414.035	80.94
414.258	79.94
414.482	77.94
414.705	80.94
414.928	88.94
415.151	74.94
415.374	70.94
415.597	97.94
415.821	76.94
416.044	94.94
416.267	76.94
416.49	86.94
416.713	78.94
416.936	71.94
417.159	71.94
417.382	93.94
417.605	78.94
417.828	78.94
418.051	92.94
418.274	83.94
418.497	89.94
418.72	79.94
418.943	97.94
419.166	103.94
419.389	78.94
419.611	83.94
419.834	84.94
420.057	99.94
420.28	81.94
420.503	88.94
420.726	78.94
420.948	74.94
421.171	79.94
421.394	85.94
421.617	90.94
421.839	79.94
422.062	94.94
422.285	98.94
422.507	101.94
422.73	116.94
422.953	101.94
423.175	90.94
423.398	69.94
423.621	93.94
423.843	91.94
424.066	87.94
424.288	71.94
424.511	69.94
424.733	82.94
424.956	97.94
425.178	77.94
425.401	81.94
425.623	76.94
425.846	71.94
426.068	87.94
426.291	79.94
426.513	83.94
426.735	83.94
426.958	76.94
427.18	86.94
427.402	87.94
427.625	100.94
427.847	72.94
428.069	78.94
428.292	98.94
428.514	84.94
428.736	89.94
428.958	85.94
429.181	82.94
429.403	93.94
429.625	84.94
429.847	82.94
430.069	107.94
430.292	93.94
430.514	93.94
430.736	96.94
430.958	88.94
431.18	89.94
431.402	83.94
431.624	76.94
431.846	79.94
432.068	86.94
432.29	90.94
432.512	92.94
432.734	95.94
432.956	74.94
433.178	91.94
433.4	80.94
433.622	80.94
433.844	84.94
434.066	76.94
434.287	72.94
434.509	73.94
434.731	78.94
434.953	92.94
435.175	71.94
435.397	79.94
435.618	83.94
435.84	71.94
436.062	94.94
436.284	84.94
436.505	79.94
436.727	100.94
436.949	82.94
437.17	84.94
437.392	76.94
437.614	69.94
437.835	84.94
438.057	86.94
438.278	83.94
438.5	81.94
438.721	72.94
438.943	82.94
439.165	78.94
439.386	84.94
439.608	77.94
439.829	88.94
440.05	90.94
440.272	80.94
440.493	78.94
440.715	73.94
440.936	81.94
441.158	65.94
441.379	74.94
441.6	70.94
441.822	87.94
442.043	72.94
442.264	96.94
442.486	98.94
442.707	93.94
442.928	81.94
443.149	85.94
443.371	104.94
443.592	90.94
443.813	95.94
444.034	90.94
444.255	85.94
444.476	79.94
444.698	86.94
444.919	78.94
445.14	145.94
445.361	117.94
445.582	124.94
445.803	98.94
446.024	81.94
446.245	71.94
446.466	78.94
446.687	76.94
446.908	98.94
447.129	85.94
447.35	89.94
447.571	88.94
447.792	86.94
448.013	82.94
448.234	83.94
448.455	87.94
448.675	87.94
448.896	81.94
449.117	78.94
449.338	82.94
449.559	76.94
449.779	79.94
450	78.94
450.221	82.94
450.442	86.94
450.662	79.94
450.883	79.94
451.104	93.94
451.324	91.94
451.545	85.94
451.766	74.94
451.986	70.94
452.207	77.94
452.428	59.94
452.648	81.94
452.869	79.94
453.089	81.94
453.31	83.94
453.53	72.94
453.751	90.94
453.971	84.94
454.192	102.94
454.412	90.94
454.633	83.94
454.853	86.94
455.073	92.94
455.294	78.94
455.514	83.94
455.734	77.94
455.955	92.94
456.175	76.94
456.395	97.94
456.616	86.94
456.836	80.94
457.056	89.94
457.276	82.94
457.497	59.94
457.717	86.94
457.937	82.94
458.157	84.94
458.377	73.94
458.598	77.94
458.818	87.94
459.038	84.94
459.258	82.94
459.478	85.94
459.698	81.94
459.918	77.94
460.138	90.94
460.358	81.94
460.578	78.94
460.798	73.94
461.018	98.94
461.238	79.94
461.458	75.94
461.678	93.94
461.898	87.94
462.118	71.94
462.338	92.94
462.558	79.94
462.777	90.94
462.997	78.94
463.217	97.94
463.437	78.94
463.657	79.94
463.876	81.94
464.096	98.94
464.316	85.94
464.536	90.94
464.755	86.94
464.975	85.94
465.195	86.94
465.414	92.94
465.634	89.94
465.854	74.94
466.073	100.94
466.293	87.94
466.512	84.94
466.732	79.94
466.951	94.94
467.171	86.94
467.391	86.94
467.61	81.94
467.829	77.94
468.049	71.94
468.268	98.94
468.488	83.94
468.707	86.94
468.927	73.94
469.146	81.94
469.365	81.94
469.585	83.94
469.804	87.94
470.023	82.94
470.243	84.94
470.462	87.94
470.681	90.94
470.901	84.94
471.12	79.94
471.339	82.94
471.558	71.94
471.777	85.94
471.997	86.94
472.216	92.94
472.435	89.94
472.654	94.94
472.873	84.94
473.092	91.94
473.311	84.94
473.53	86.94
473.749	92.94
473.968	88.94
474.187	89.94
474.406	84.94
474.625	80.94
474.844	85.94
475.063	89.94
475.282	107.94
475.501	78.94
475.72	84.94
475.939	83.94
476.158	77.94
476.377	86.94
476.596	81.94
476.814	89.94
477.033	88.94
477.252	83.94
477.471	74.94
477.69	85.94
477.908	68.94
478.127	85.94
478.346	97.94
478.564	85.94
478.783	78.94
479.002	86.94
479.22	81.94
479.439	73.94
479.658	81.94
479.876	83.94
480.095	82.94
480.313	82.94
480.532	85.94
480.751	95.94
480.969	85.94
481.188	86.94
481.406	88.94
481.624	81.94
481.843	75.94
482.061	81.94
482.28	85.94
482.498	89.94
482.717	92.94
482.935	82.94
483.153	91.94
483.372	79.94
483.59	87.94
483.808	81.94
484.027	78.94
484.245	83.94
484.463	79.94
484.681	92.94
484.9	82.94
485.118	88.94
485.336	85.94
485.554	70.94
485.772	68.94
485.99	93.94
486.209	72.94
486.427	82.94
486.645	93.94
486.863	90.94
487.081	88.94
487.299	92.94
487.517	98.94
487.735	91.94
487.953	85.94
488.171	83.94
488.389	78.94
488.607	91.94
488.825	72.94
489.043	76.94
489.261	89.94
489.479	83.94
489.696	62.94
489.914	101.94
490.132	80.94
490.35	72.94
490.568	77.94
490.786	74.94
491.003	84.94
491.221	77.94
491.439	76.94
491.657	85.94
491.874	90.94
492.092	84.94
492.31	78.94
492.527	69.94
492.745	72.94
492.963	92.94
493.18	106.94
493.398	83.94
493.615	88.94
493.833	87.94
494.05	79.94
494.268	79.94
494.485	82.94
494.703	83.94
494.92	84.94
495.138	88.94
495.355	85.94
495.573	78.94
495.79	80.94
496.008	103.94
496.225	95.94
496.442	78.94
496.66	72.94
496.877	92.94
497.094	87.94
497.312	85.94
497.529	78.94
497.746	78.94
497.963	68.94
498.181	73.94
498.398	71.94
498.615	86.94
498.832	73.94
499.049	86.94
499.267	94.94
499.484	86.94
499.701	83.94
499.918	89.94
500.135	86.94
500.352	82.94
500.569	78.94
500.786	97.94
501.003	87.94
501.22	85.94
501.437	87.94
501.654	87.94
501.871	95.94
502.088	79.94
502.305	88.94
502.522	89.94
502.739	87.94
502.956	85.94
503.172	87.94
503.389	85.94
503.606	86.94
503.823	90.94
504.04	82.94
504.256	93.94
504.473	78.94
504.69	81.94
504.907	75.94
505.123	93.94
505.34	93.94
505.557	87.94
505.773	102.94
505.99	84.94
506.207	78.94
506.423	78.94
506.64	86.94
506.856	77.94
507.073	71.94
507.289	93.94
507.506	73.94
507.722	91.94
507.939	94.94
508.155	81.94
508.372	81.94
508.588	85.94
508.805	86.94
509.021	74.94
509.238	84.94
509.454	85.94
509.67	74.94
509.887	79.94
510.103	77.94
510.319	83.94
510.536	90.94
510.752	82.94
510.968	62.94
511.184	85.94
511.401	83.94
511.617	103.94
511.833	101.94
512.049	79.94
512.265	72.94
512.481	80.94
512.698	77.94
512.914	78.94
513.13	78.94
513.346	81.94
513.562	77.94
513.778	83.94
513.994	94.94
514.21	86.94
514.426	82.94
514.642	86.94
514.858	83.94
515.074	83.94
515.29	92.94
515.506	76.94
515.721	90.94
515.937	91.94
516.153	91.94
516.369	81.94
516.585	100.94
516.801	94.94
517.016	79.94
517.232	78.94
517.448	82.94
517.664	77.94
517.879	82.94
518.095	91.94
518.311	102.94
518.527	81.94
518.742	90.94
518.958	87.94
519.173	88.94
519.389	85.94
519.605	85.94
