Data from Mixnoheat2_HRD10591_00016.txt Node
Date: Fri Dec 27 14:59:55 EST 2024
User: Yrep
Spectrometer: HR+D1059
Trigger mode: 1
Integration Time (sec): 1.000000E-1
Scans to average: 1
Electric dark correction enabled: true
Nonlinearity correction enabled: false
Boxcar width: 0
XAxis mode: Wavelengths
Number of Pixels in Spectrum: 2048
>>>>>Begin Spectral Data<<<<<
223.165	-3.19
223.4	-3.19
223.635	-3.19
223.869	-11.19
224.104	-29.19
224.338	-16.19
224.573	-4.19
224.808	-20.19
225.042	-8.19
225.277	-5.19
225.511	-11.19
225.746	-7.19
225.98	26.81
226.215	18.81
226.449	13.81
226.683	13.81
226.918	16.81
227.152	25.81
227.387	33.81
227.621	36.81
227.856	50.81
228.09	48.81
228.324	34.81
228.559	46.81
228.793	54.81
229.027	72.81
229.262	73.81
229.496	67.81
229.73	72.81
229.964	78.81
230.199	67.81
230.433	63.81
230.667	74.81
230.901	76.81
231.136	84.81
231.37	75.81
231.604	72.81
231.838	91.81
232.072	84.81
232.306	77.81
232.541	78.81
232.775	73.81
233.009	71.81
233.243	83.81
233.477	88.81
233.711	79.81
233.945	87.81
234.179	78.81
234.413	81.81
234.647	80.81
234.881	74.81
235.115	79.81
235.349	76.81
235.583	74.81
235.817	90.81
236.051	86.81
236.285	85.81
236.519	67.81
236.753	71.81
236.987	66.81
237.221	75.81
237.455	79.81
237.689	86.81
237.922	77.81
238.156	85.81
238.39	65.81
238.624	79.81
238.858	81.81
239.091	74.81
239.325	72.81
239.559	74.81
239.793	78.81
240.027	71.81
240.26	83.81
240.494	60.81
240.728	69.81
240.961	78.81
241.195	92.81
241.429	64.81
241.662	81.81
241.896	74.81
242.13	73.81
242.363	75.81
242.597	68.81
242.83	72.81
243.064	85.81
243.298	61.81
243.531	81.81
243.765	90.81
243.998	73.81
244.232	78.81
244.465	78.81
244.699	86.81
244.932	80.81
245.166	84.81
245.399	71.81
245.633	63.81
245.866	82.81
246.099	89.81
246.333	85.81
246.566	70.81
246.8	76.81
247.033	78.81
247.266	57.81
247.5	77.81
247.733	87.81
247.966	92.81
248.2	65.81
248.433	70.81
248.666	71.81
248.899	69.81
249.133	79.81
249.366	83.81
249.599	77.81
249.832	74.81
250.066	79.81
250.299	75.81
250.532	78.81
250.765	65.81
250.998	79.81
251.231	69.81
251.465	81.81
251.698	88.81
251.931	71.81
252.164	70.81
252.397	71.81
252.63	79.81
252.863	83.81
253.096	77.81
253.329	93.81
253.562	84.81
253.795	80.81
254.028	86.81
254.261	84.81
254.494	78.81
254.727	81.81
254.96	77.81
255.193	98.81
255.426	83.81
255.659	79.81
255.892	85.81
256.124	72.81
256.357	77.81
256.59	80.81
256.823	69.81
257.056	76.81
257.289	93.81
257.521	82.81
257.754	87.81
257.987	86.81
258.22	80.81
258.452	87.81
258.685	73.81
258.918	69.81
259.151	86.81
259.383	96.81
259.616	78.81
259.849	83.81
260.081	85.81
260.314	78.81
260.547	76.81
260.779	75.81
261.012	84.81
261.244	89.81
261.477	71.81
261.71	72.81
261.942	99.81
262.175	63.81
262.407	71.81
262.64	76.81
262.872	85.81
263.105	81.81
263.337	79.81
263.57	83.81
263.802	85.81
264.035	76.81
264.267	91.81
264.499	79.81
264.732	87.81
264.964	67.81
265.197	76.81
265.429	79.81
265.661	84.81
265.894	64.81
266.126	87.81
266.358	90.81
266.591	79.81
266.823	73.81
267.055	90.81
267.287	74.81
267.52	72.81
267.752	70.81
267.984	74.81
268.216	71.81
268.448	79.81
268.681	62.81
268.913	74.81
269.145	74.81
269.377	83.81
269.609	69.81
269.841	75.81
270.073	74.81
270.306	88.81
270.538	79.81
270.77	86.81
271.002	82.81
271.234	82.81
271.466	73.81
271.698	72.81
271.93	70.81
272.162	82.81
272.394	75.81
272.626	75.81
272.858	81.81
273.09	84.81
273.322	87.81
273.553	86.81
273.785	73.81
274.017	78.81
274.249	69.81
274.481	77.81
274.713	83.81
274.945	99.81
275.176	72.81
275.408	76.81
275.64	84.81
275.872	80.81
276.104	95.81
276.335	84.81
276.567	84.81
276.799	75.81
277.031	76.81
277.262	69.81
277.494	82.81
277.726	65.81
277.957	79.81
278.189	93.81
278.421	79.81
278.652	76.81
278.884	78.81
279.115	80.81
279.347	80.81
279.579	83.81
279.81	82.81
280.042	83.81
280.273	79.81
280.505	74.81
280.736	77.81
280.968	75.81
281.199	95.81
281.431	75.81
281.662	75.81
281.894	79.81
282.125	90.81
282.356	90.81
282.588	76.81
282.819	84.81
283.051	77.81
283.282	85.81
283.513	86.81
283.745	81.81
283.976	76.81
284.207	89.81
284.439	84.81
284.67	91.81
284.901	85.81
285.132	76.81
285.364	61.81
285.595	87.81
285.826	77.81
286.057	93.81
286.288	68.81
286.52	84.81
286.751	75.81
286.982	90.81
287.213	64.81
287.444	90.81
287.675	90.81
287.906	75.81
288.138	87.81
288.369	93.81
288.6	86.81
288.831	76.81
289.062	87.81
289.293	86.81
289.524	90.81
289.755	85.81
289.986	86.81
290.217	81.81
290.448	85.81
290.679	83.81
290.91	88.81
291.141	94.81
291.371	79.81
291.602	80.81
291.833	83.81
292.064	77.81
292.295	74.81
292.526	80.81
292.757	91.81
292.987	85.81
293.218	82.81
293.449	76.81
293.68	82.81
293.91	73.81
294.141	98.81
294.372	89.81
294.603	82.81
294.833	82.81
295.064	68.81
295.295	82.81
295.525	75.81
295.756	92.81
295.987	89.81
296.217	88.81
296.448	92.81
296.679	88.81
296.909	81.81
297.14	82.81
297.37	81.81
297.601	75.81
297.831	83.81
298.062	86.81
298.292	91.81
298.523	96.81
298.753	88.81
298.984	80.81
299.214	89.81
299.445	88.81
299.675	86.81
299.905	83.81
300.136	85.81
300.366	82.81
300.597	87.81
300.827	78.81
301.057	89.81
301.288	80.81
301.518	85.81
301.748	63.81
301.979	104.81
302.209	90.81
302.439	89.81
302.669	81.81
302.9	64.81
303.13	82.81
303.36	76.81
303.59	92.81
303.82	94.81
304.051	78.81
304.281	86.81
304.511	85.81
304.741	76.81
304.971	85.81
305.201	94.81
305.431	79.81
305.661	80.81
305.891	91.81
306.121	84.81
306.352	78.81
306.582	84.81
306.812	95.81
307.042	79.81
307.272	89.81
307.502	85.81
307.731	80.81
307.961	88.81
308.191	82.81
308.421	94.81
308.651	76.81
308.881	78.81
309.111	84.81
309.341	90.81
309.571	89.81
309.8	93.81
310.03	89.81
310.26	74.81
310.49	78.81
310.72	69.81
310.949	77.81
311.179	94.81
311.409	97.81
311.639	92.81
311.868	82.81
312.098	78.81
312.328	80.81
312.557	94.81
312.787	87.81
313.017	76.81
313.246	88.81
313.476	82.81
313.706	88.81
313.935	84.81
314.165	87.81
314.394	86.81
314.624	83.81
314.853	91.81
315.083	78.81
315.312	85.81
315.542	77.81
315.771	85.81
316.001	78.81
316.23	74.81
316.46	88.81
316.689	70.81
316.919	88.81
317.148	92.81
317.377	91.81
317.607	82.81
317.836	75.81
318.065	85.81
318.295	61.81
318.524	84.81
318.753	88.81
318.983	83.81
319.212	92.81
319.441	98.81
319.67	84.81
319.9	89.81
320.129	90.81
320.358	82.81
320.587	76.81
320.816	83.81
321.046	103.81
321.275	89.81
321.504	84.81
321.733	76.81
321.962	85.81
322.191	87.81
322.42	80.81
322.649	98.81
322.878	78.81
323.108	98.81
323.337	76.81
323.566	81.81
323.795	91.81
324.024	73.81
324.253	79.81
324.482	78.81
324.71	83.81
324.939	83.81
325.168	81.81
325.397	89.81
325.626	79.81
325.855	86.81
326.084	81.81
326.313	94.81
326.542	85.81
326.77	87.81
326.999	76.81
327.228	69.81
327.457	82.81
327.686	82.81
327.914	86.81
328.143	90.81
328.372	62.81
328.6	82.81
328.829	82.81
329.058	82.81
329.287	76.81
329.515	81.81
329.744	89.81
329.972	98.81
330.201	87.81
330.43	78.81
330.658	78.81
330.887	80.81
331.115	102.81
331.344	94.81
331.572	98.81
331.801	95.81
332.03	76.81
332.258	87.81
332.486	95.81
332.715	94.81
332.943	77.81
333.172	82.81
333.4	79.81
333.629	85.81
333.857	81.81
334.085	76.81
334.314	83.81
334.542	77.81
334.771	66.81
334.999	86.81
335.227	83.81
335.455	76.81
335.684	87.81
335.912	92.81
336.14	90.81
336.369	86.81
336.597	73.81
336.825	101.81
337.053	76.81
337.281	90.81
337.51	85.81
337.738	88.81
337.966	80.81
338.194	78.81
338.422	82.81
338.65	93.81
338.878	86.81
339.106	73.81
339.334	98.81
339.562	89.81
339.79	89.81
340.018	93.81
340.246	84.81
340.474	67.81
340.702	84.81
340.93	86.81
341.158	90.81
341.386	83.81
341.614	65.81
341.842	80.81
342.07	85.81
342.298	73.81
342.526	75.81
342.754	82.81
342.981	77.81
343.209	69.81
343.437	96.81
343.665	81.81
343.893	83.81
344.12	88.81
344.348	84.81
344.576	89.81
344.804	85.81
345.031	88.81
345.259	84.81
345.487	87.81
345.714	98.81
345.942	83.81
346.17	73.81
346.397	95.81
346.625	81.81
346.853	72.81
347.08	91.81
347.308	86.81
347.535	82.81
347.763	79.81
347.99	91.81
348.218	84.81
348.445	88.81
348.673	78.81
348.9	70.81
349.128	91.81
349.355	89.81
349.583	80.81
349.81	80.81
350.037	93.81
350.265	98.81
350.492	84.81
350.72	76.81
350.947	80.81
351.174	74.81
351.402	69.81
351.629	93.81
351.856	90.81
352.083	83.81
352.311	89.81
352.538	94.81
352.765	91.81
352.992	100.81
353.22	82.81
353.447	82.81
353.674	69.81
353.901	104.81
354.128	78.81
354.355	83.81
354.583	102.81
354.81	88.81
355.037	77.81
355.264	83.81
355.491	83.81
355.718	84.81
355.945	84.81
356.172	85.81
356.399	85.81
356.626	88.81
356.853	73.81
357.08	87.81
357.307	91.81
357.534	70.81
357.761	93.81
357.988	77.81
358.215	83.81
358.441	96.81
358.668	77.81
358.895	68.81
359.122	84.81
359.349	89.81
359.576	79.81
359.802	88.81
360.029	87.81
360.256	79.81
360.483	65.81
360.709	84.81
360.936	84.81
361.163	88.81
361.39	81.81
361.616	76.81
361.843	73.81
362.07	72.81
362.296	80.81
362.523	76.81
362.749	87.81
362.976	77.81
363.203	86.81
363.429	95.81
363.656	85.81
363.882	80.81
364.109	86.81
364.335	77.81
364.562	78.81
364.788	83.81
365.015	87.81
365.241	87.81
365.468	83.81
365.694	76.81
365.92	88.81
366.147	83.81
366.373	88.81
366.599	79.81
366.826	80.81
367.052	69.81
367.278	80.81
367.505	83.81
367.731	90.81
367.957	77.81
368.184	68.81
368.41	88.81
368.636	93.81
368.862	83.81
369.089	98.81
369.315	94.81
369.541	86.81
369.767	91.81
369.993	81.81
370.219	92.81
370.445	70.81
370.672	87.81
370.898	85.81
371.124	97.81
371.35	62.81
371.576	100.81
371.802	94.81
372.028	79.81
372.254	82.81
372.48	90.81
372.706	75.81
372.932	82.81
373.158	84.81
373.384	84.81
373.61	73.81
373.835	87.81
374.061	67.81
374.287	83.81
374.513	89.81
374.739	81.81
374.965	72.81
375.191	77.81
375.416	68.81
375.642	85.81
375.868	82.81
376.094	92.81
376.319	85.81
376.545	82.81
376.771	86.81
376.997	86.81
377.222	90.81
377.448	69.81
377.674	74.81
377.899	86.81
378.125	77.81
378.35	70.81
378.576	74.81
378.802	85.81
379.027	96.81
379.253	90.81
379.478	88.81
379.704	84.81
379.929	87.81
380.155	72.81
380.38	76.81
380.606	77.81
380.831	92.81
381.057	79.81
381.282	85.81
381.507	89.81
381.733	90.81
381.958	85.81
382.184	88.81
382.409	77.81
382.634	87.81
382.86	90.81
383.085	94.81
383.31	76.81
383.535	94.81
383.761	92.81
383.986	80.81
384.211	84.81
384.436	84.81
384.662	72.81
384.887	86.81
385.112	75.81
385.337	68.81
385.562	95.81
385.787	83.81
386.013	86.81
386.238	82.81
386.463	78.81
386.688	84.81
386.913	77.81
387.138	86.81
387.363	76.81
387.588	86.81
387.813	84.81
388.038	90.81
388.263	93.81
388.488	70.81
388.713	88.81
388.938	87.81
389.163	80.81
389.387	73.81
389.612	71.81
389.837	86.81
390.062	86.81
390.287	87.81
390.512	77.81
390.736	80.81
390.961	74.81
391.186	89.81
391.411	68.81
391.636	82.81
391.86	75.81
392.085	88.81
392.31	73.81
392.534	77.81
392.759	86.81
392.984	91.81
393.208	82.81
393.433	90.81
393.658	77.81
393.882	72.81
394.107	95.81
394.331	98.81
394.556	82.81
394.78	99.81
395.005	79.81
395.229	71.81
395.454	80.81
395.678	93.81
395.903	85.81
396.127	91.81
396.352	88.81
396.576	86.81
396.801	90.81
397.025	72.81
397.249	77.81
397.474	94.81
397.698	70.81
397.922	102.81
398.147	85.81
398.371	79.81
398.595	74.81
398.82	78.81
399.044	64.81
399.268	88.81
399.492	73.81
399.717	83.81
399.941	86.81
400.165	88.81
400.389	95.81
400.613	104.81
400.837	84.81
401.062	97.81
401.286	74.81
401.51	72.81
401.734	85.81
401.958	74.81
402.182	76.81
402.406	78.81
402.63	64.81
402.854	80.81
403.078	95.81
403.302	83.81
403.526	79.81
403.75	83.81
403.974	80.81
404.198	84.81
404.422	89.81
404.645	95.81
404.869	79.81
405.093	89.81
405.317	93.81
405.541	80.81
405.765	90.81
405.988	96.81
406.212	68.81
406.436	82.81
406.66	79.81
406.883	84.81
407.107	76.81
407.331	78.81
407.555	87.81
407.778	94.81
408.002	93.81
408.226	95.81
408.449	79.81
408.673	90.81
408.896	70.81
409.12	79.81
409.344	84.81
409.567	80.81
409.791	84.81
410.014	82.81
410.238	81.81
410.461	80.81
410.685	67.81
410.908	90.81
411.132	86.81
411.355	86.81
411.578	94.81
411.802	77.81
412.025	72.81
412.249	87.81
412.472	78.81
412.695	86.81
412.919	88.81
413.142	83.81
413.365	75.81
413.589	98.81
413.812	75.81
414.035	81.81
414.258	70.81
414.482	68.81
414.705	88.81
414.928	81.81
415.151	84.81
415.374	71.81
415.597	91.81
415.821	82.81
416.044	76.81
416.267	83.81
416.49	70.81
416.713	68.81
416.936	80.81
417.159	72.81
417.382	72.81
417.605	71.81
417.828	75.81
418.051	73.81
418.274	91.81
418.497	77.81
418.72	94.81
418.943	83.81
419.166	85.81
419.389	72.81
419.611	76.81
419.834	101.81
420.057	83.81
420.28	91.81
420.503	88.81
420.726	89.81
420.948	85.81
421.171	82.81
421.394	72.81
421.617	78.81
421.839	73.81
422.062	96.81
422.285	82.81
422.507	106.81
422.73	117.81
422.953	100.81
423.175	81.81
423.398	87.81
423.621	92.81
423.843	76.81
424.066	85.81
424.288	86.81
424.511	72.81
424.733	75.81
424.956	81.81
425.178	74.81
425.401	79.81
425.623	71.81
425.846	78.81
426.068	78.81
426.291	80.81
426.513	77.81
426.735	80.81
426.958	77.81
427.18	85.81
427.402	94.81
427.625	80.81
427.847	78.81
428.069	72.81
428.292	90.81
428.514	87.81
428.736	84.81
428.958	81.81
429.181	88.81
429.403	80.81
429.625	80.81
429.847	104.81
430.069	84.81
430.292	95.81
430.514	95.81
430.736	76.81
430.958	95.81
431.18	84.81
431.402	74.81
431.624	87.81
431.846	80.81
432.068	89.81
432.29	91.81
432.512	88.81
432.734	78.81
432.956	89.81
433.178	98.81
433.4	92.81
433.622	84.81
433.844	87.81
434.066	82.81
434.287	89.81
434.509	79.81
434.731	87.81
434.953	73.81
435.175	100.81
435.397	85.81
435.618	84.81
435.84	94.81
436.062	82.81
436.284	72.81
436.505	80.81
436.727	73.81
436.949	79.81
437.17	78.81
437.392	76.81
437.614	87.81
437.835	83.81
438.057	82.81
438.278	75.81
438.5	78.81
438.721	94.81
438.943	71.81
439.165	72.81
439.386	77.81
439.608	82.81
439.829	73.81
440.05	77.81
440.272	76.81
440.493	71.81
440.715	78.81
440.936	67.81
441.158	88.81
441.379	70.81
441.6	72.81
441.822	81.81
442.043	85.81
442.264	94.81
442.486	89.81
442.707	86.81
442.928	76.81
443.149	80.81
443.371	96.81
443.592	98.81
443.813	87.81
444.034	87.81
444.255	85.81
444.476	81.81
444.698	69.81
444.919	76.81
445.14	142.81
445.361	118.81
445.582	100.81
445.803	94.81
446.024	76.81
446.245	82.81
446.466	73.81
446.687	72.81
446.908	68.81
447.129	65.81
447.35	71.81
447.571	84.81
447.792	84.81
448.013	82.81
448.234	85.81
448.455	87.81
448.675	87.81
448.896	92.81
449.117	80.81
449.338	78.81
449.559	91.81
449.779	81.81
450	81.81
450.221	89.81
450.442	67.81
450.662	92.81
450.883	79.81
451.104	77.81
451.324	89.81
451.545	80.81
451.766	64.81
451.986	98.81
452.207	90.81
452.428	84.81
452.648	76.81
452.869	86.81
453.089	79.81
453.31	66.81
453.53	80.81
453.751	79.81
453.971	79.81
454.192	76.81
454.412	88.81
454.633	98.81
454.853	101.81
455.073	87.81
455.294	69.81
455.514	69.81
455.734	75.81
455.955	76.81
456.175	74.81
456.395	73.81
456.616	85.81
456.836	61.81
457.056	82.81
457.276	74.81
457.497	68.81
457.717	83.81
457.937	84.81
458.157	73.81
458.377	93.81
458.598	93.81
458.818	89.81
459.038	79.81
459.258	82.81
459.478	76.81
459.698	64.81
459.918	80.81
460.138	82.81
460.358	80.81
460.578	89.81
460.798	105.81
461.018	87.81
461.238	66.81
461.458	90.81
461.678	81.81
461.898	89.81
462.118	83.81
462.338	77.81
462.558	75.81
462.777	75.81
462.997	68.81
463.217	80.81
463.437	87.81
463.657	88.81
463.876	78.81
464.096	88.81
464.316	76.81
464.536	73.81
464.755	87.81
464.975	93.81
465.195	91.81
465.414	65.81
465.634	79.81
465.854	77.81
466.073	77.81
466.293	84.81
466.512	93.81
466.732	89.81
466.951	79.81
467.171	77.81
467.391	75.81
467.61	80.81
467.829	78.81
468.049	71.81
468.268	86.81
468.488	73.81
468.707	83.81
468.927	75.81
469.146	90.81
469.365	86.81
469.585	81.81
469.804	87.81
470.023	88.81
470.243	76.81
470.462	92.81
470.681	78.81
470.901	66.81
471.12	79.81
471.339	79.81
471.558	68.81
471.777	75.81
471.997	79.81
472.216	79.81
472.435	85.81
472.654	86.81
472.873	94.81
473.092	81.81
473.311	89.81
473.53	82.81
473.749	90.81
473.968	88.81
474.187	85.81
474.406	67.81
474.625	88.81
474.844	79.81
475.063	83.81
475.282	74.81
475.501	79.81
475.72	97.81
475.939	87.81
476.158	73.81
476.377	80.81
476.596	75.81
476.814	72.81
477.033	87.81
477.252	80.81
477.471	95.81
477.69	96.81
477.908	80.81
478.127	95.81
478.346	75.81
478.564	87.81
478.783	84.81
479.002	79.81
479.22	83.81
479.439	94.81
479.658	92.81
479.876	81.81
480.095	81.81
480.313	74.81
480.532	70.81
480.751	88.81
480.969	85.81
481.188	85.81
481.406	68.81
481.624	90.81
481.843	68.81
482.061	81.81
482.28	78.81
482.498	79.81
482.717	88.81
482.935	78.81
483.153	84.81
483.372	90.81
483.59	84.81
483.808	67.81
484.027	84.81
484.245	99.81
484.463	91.81
484.681	80.81
484.9	76.81
485.118	88.81
485.336	83.81
485.554	85.81
485.772	81.81
485.99	95.81
486.209	92.81
486.427	80.81
486.645	90.81
486.863	78.81
487.081	86.81
487.299	72.81
487.517	93.81
487.735	74.81
487.953	94.81
488.171	102.81
488.389	89.81
488.607	67.81
488.825	76.81
489.043	80.81
489.261	73.81
489.479	86.81
489.696	85.81
489.914	91.81
490.132	71.81
490.35	83.81
490.568	82.81
490.786	81.81
491.003	76.81
491.221	70.81
491.439	81.81
491.657	83.81
491.874	84.81
492.092	89.81
492.31	86.81
492.527	80.81
492.745	79.81
492.963	85.81
493.18	78.81
493.398	88.81
493.615	88.81
493.833	88.81
494.05	86.81
494.268	87.81
494.485	91.81
494.703	92.81
494.92	99.81
495.138	85.81
495.355	89.81
495.573	83.81
495.79	86.81
496.008	94.81
496.225	87.81
496.442	95.81
496.66	89.81
496.877	77.81
497.094	94.81
497.312	74.81
497.529	98.81
497.746	100.81
497.963	93.81
498.181	75.81
498.398	77.81
498.615	91.81
498.832	83.81
499.049	67.81
499.267	81.81
499.484	91.81
499.701	86.81
499.918	95.81
500.135	74.81
500.352	86.81
500.569	80.81
500.786	93.81
501.003	89.81
501.22	85.81
501.437	76.81
501.654	94.81
501.871	86.81
502.088	76.81
502.305	72.81
502.522	91.81
502.739	79.81
502.956	75.81
503.172	79.81
503.389	62.81
503.606	80.81
503.823	78.81
504.04	90.81
504.256	73.81
504.473	92.81
504.69	82.81
504.907	93.81
505.123	87.81
505.34	79.81
505.557	80.81
505.773	84.81
505.99	96.81
506.207	79.81
506.423	85.81
506.64	70.81
506.856	86.81
507.073	74.81
507.289	88.81
507.506	84.81
507.722	91.81
507.939	79.81
508.155	85.81
508.372	90.81
508.588	79.81
508.805	84.81
509.021	72.81
509.238	86.81
509.454	101.81
509.67	92.81
509.887	78.81
510.103	78.81
510.319	85.81
510.536	84.81
510.752	83.81
510.968	89.81
511.184	76.81
511.401	75.81
511.617	73.81
511.833	78.81
512.049	72.81
512.265	86.81
512.481	79.81
512.698	93.81
512.914	82.81
513.13	72.81
513.346	80.81
513.562	93.81
513.778	81.81
513.994	76.81
514.21	86.81
514.426	87.81
514.642	82.81
514.858	74.81
515.074	91.81
515.29	83.81
515.506	87.81
515.721	74.81
515.937	73.81
516.153	76.81
516.369	72.81
516.585	69.81
516.801	80.81
517.016	88.81
517.232	88.81
517.448	87.81
517.664	76.81
517.879	87.81
518.095	82.81
518.311	86.81
518.527	89.81
518.742	89.81
518.958	99.81
519.173	79.81
519.389	98.81
519.605	101.81
519.82	79.81
