Data from Mixnoheat2_HRD10591_00007.txt Node
Date: Fri Dec 27 14:59:46 EST 2024
User: Yrep
Spectrometer: HR+D1059
Trigger mode: 1
Integration Time (sec): 1.000000E-1
Scans to average: 1
Electric dark correction enabled: true
Nonlinearity correction enabled: false
Boxcar width: 0
XAxis mode: Wavelengths
Number of Pixels in Spectrum: 2048
>>>>>Begin Spectral Data<<<<<
223.165	-12.69
223.4	-12.69
223.635	-12.69
223.869	-17.69
224.104	-20.69
224.338	-17.69
224.573	-17.69
224.808	-15.69
225.042	-15.69
225.277	-5.69
225.511	9.31
225.746	0.31
225.98	-4.69
226.215	9.31
226.449	23.31
226.683	26.31
226.918	28.31
227.152	31.31
227.387	34.31
227.621	39.31
227.856	38.31
228.09	51.31
228.324	51.31
228.559	64.31
228.793	55.31
229.027	55.31
229.262	61.31
229.496	69.31
229.73	87.31
229.964	88.31
230.199	80.31
230.433	78.31
230.667	70.31
230.901	82.31
231.136	75.31
231.37	89.31
231.604	84.31
231.838	86.31
232.072	79.31
232.306	87.31
232.541	81.31
232.775	75.31
233.009	82.31
233.243	79.31
233.477	80.31
233.711	84.31
233.945	88.31
234.179	87.31
234.413	86.31
234.647	79.31
234.881	70.31
235.115	79.31
235.349	87.31
235.583	72.31
235.817	78.31
236.051	67.31
236.285	97.31
236.519	86.31
236.753	89.31
236.987	74.31
237.221	70.31
237.455	84.31
237.689	74.31
237.922	77.31
238.156	75.31
238.39	78.31
238.624	84.31
238.858	86.31
239.091	73.31
239.325	66.31
239.559	71.31
239.793	63.31
240.027	84.31
240.26	82.31
240.494	72.31
240.728	76.31
240.961	88.31
241.195	81.31
241.429	88.31
241.662	89.31
241.896	76.31
242.13	74.31
242.363	71.31
242.597	61.31
242.83	81.31
243.064	82.31
243.298	73.31
243.531	62.31
243.765	69.31
243.998	72.31
244.232	73.31
244.465	83.31
244.699	72.31
244.932	70.31
245.166	85.31
245.399	86.31
245.633	81.31
245.866	88.31
246.099	96.31
246.333	85.31
246.566	73.31
246.8	71.31
247.033	69.31
247.266	93.31
247.5	80.31
247.733	80.31
247.966	80.31
248.2	81.31
248.433	79.31
248.666	80.31
248.899	93.31
249.133	80.31
249.366	80.31
249.599	86.31
249.832	75.31
250.066	80.31
250.299	79.31
250.532	72.31
250.765	73.31
250.998	75.31
251.231	72.31
251.465	88.31
251.698	72.31
251.931	62.31
252.164	78.31
252.397	76.31
252.63	77.31
252.863	91.31
253.096	99.31
253.329	69.31
253.562	86.31
253.795	81.31
254.028	87.31
254.261	83.31
254.494	87.31
254.727	65.31
254.96	81.31
255.193	80.31
255.426	77.31
255.659	90.31
255.892	88.31
256.124	71.31
256.357	85.31
256.59	77.31
256.823	85.31
257.056	87.31
257.289	83.31
257.521	84.31
257.754	83.31
257.987	81.31
258.22	89.31
258.452	84.31
258.685	79.31
258.918	77.31
259.151	91.31
259.383	79.31
259.616	81.31
259.849	93.31
260.081	87.31
260.314	89.31
260.547	76.31
260.779	63.31
261.012	72.31
261.244	84.31
261.477	89.31
261.71	94.31
261.942	90.31
262.175	72.31
262.407	87.31
262.64	92.31
262.872	88.31
263.105	83.31
263.337	107.31
263.57	91.31
263.802	88.31
264.035	84.31
264.267	71.31
264.499	79.31
264.732	83.31
264.964	88.31
265.197	102.31
265.429	81.31
265.661	73.31
265.894	94.31
266.126	96.31
266.358	89.31
266.591	81.31
266.823	79.31
267.055	83.31
267.287	75.31
267.52	90.31
267.752	80.31
267.984	80.31
268.216	70.31
268.448	84.31
268.681	84.31
268.913	84.31
269.145	84.31
269.377	80.31
269.609	83.31
269.841	88.31
270.073	75.31
270.306	87.31
270.538	87.31
270.77	88.31
271.002	77.31
271.234	90.31
271.466	83.31
271.698	83.31
271.93	86.31
272.162	90.31
272.394	84.31
272.626	101.31
272.858	67.31
273.09	72.31
273.322	76.31
273.553	84.31
273.785	86.31
274.017	101.31
274.249	70.31
274.481	94.31
274.713	84.31
274.945	87.31
275.176	67.31
275.408	79.31
275.64	93.31
275.872	84.31
276.104	87.31
276.335	85.31
276.567	78.31
276.799	79.31
277.031	87.31
277.262	96.31
277.494	99.31
277.726	72.31
277.957	79.31
278.189	90.31
278.421	89.31
278.652	85.31
278.884	77.31
279.115	89.31
279.347	88.31
279.579	81.31
279.81	93.31
280.042	88.31
280.273	76.31
280.505	86.31
280.736	96.31
280.968	92.31
281.199	92.31
281.431	71.31
281.662	82.31
281.894	84.31
282.125	90.31
282.356	91.31
282.588	66.31
282.819	95.31
283.051	102.31
283.282	81.31
283.513	95.31
283.745	88.31
283.976	82.31
284.207	101.31
284.439	89.31
284.67	99.31
284.901	71.31
285.132	88.31
285.364	95.31
285.595	91.31
285.826	84.31
286.057	77.31
286.288	83.31
286.52	96.31
286.751	87.31
286.982	93.31
287.213	83.31
287.444	92.31
287.675	103.31
287.906	92.31
288.138	67.31
288.369	73.31
288.6	75.31
288.831	70.31
289.062	93.31
289.293	87.31
289.524	86.31
289.755	79.31
289.986	85.31
290.217	78.31
290.448	85.31
290.679	91.31
290.91	73.31
291.141	83.31
291.371	70.31
291.602	88.31
291.833	97.31
292.064	86.31
292.295	92.31
292.526	81.31
292.757	85.31
292.987	89.31
293.218	78.31
293.449	84.31
293.68	82.31
293.91	75.31
294.141	94.31
294.372	103.31
294.603	84.31
294.833	72.31
295.064	92.31
295.295	78.31
295.525	92.31
295.756	87.31
295.987	93.31
296.217	83.31
296.448	79.31
296.679	85.31
296.909	98.31
297.14	94.31
297.37	97.31
297.601	109.31
297.831	91.31
298.062	83.31
298.292	99.31
298.523	92.31
298.753	71.31
298.984	80.31
299.214	89.31
299.445	78.31
299.675	88.31
299.905	73.31
300.136	84.31
300.366	75.31
300.597	86.31
300.827	73.31
301.057	83.31
301.288	79.31
301.518	76.31
301.748	87.31
301.979	98.31
302.209	75.31
302.439	72.31
302.669	75.31
302.9	86.31
303.13	91.31
303.36	111.31
303.59	85.31
303.82	73.31
304.051	94.31
304.281	89.31
304.511	84.31
304.741	92.31
304.971	84.31
305.201	87.31
305.431	84.31
305.661	78.31
305.891	100.31
306.121	76.31
306.352	69.31
306.582	70.31
306.812	90.31
307.042	81.31
307.272	96.31
307.502	75.31
307.731	83.31
307.961	84.31
308.191	88.31
308.421	84.31
308.651	90.31
308.881	77.31
309.111	91.31
309.341	84.31
309.571	108.31
309.8	70.31
310.03	88.31
310.26	82.31
310.49	86.31
310.72	83.31
310.949	89.31
311.179	75.31
311.409	86.31
311.639	77.31
311.868	94.31
312.098	97.31
312.328	92.31
312.557	85.31
312.787	84.31
313.017	79.31
313.246	85.31
313.476	92.31
313.706	101.31
313.935	78.31
314.165	94.31
314.394	90.31
314.624	96.31
314.853	89.31
315.083	90.31
315.312	83.31
315.542	91.31
315.771	84.31
316.001	89.31
316.23	95.31
316.46	101.31
316.689	77.31
316.919	86.31
317.148	80.31
317.377	89.31
317.607	91.31
317.836	83.31
318.065	85.31
318.295	78.31
318.524	83.31
318.753	89.31
318.983	86.31
319.212	89.31
319.441	83.31
319.67	92.31
319.9	75.31
320.129	94.31
320.358	75.31
320.587	85.31
320.816	87.31
321.046	93.31
321.275	102.31
321.504	85.31
321.733	96.31
321.962	79.31
322.191	84.31
322.42	97.31
322.649	85.31
322.878	87.31
323.108	95.31
323.337	75.31
323.566	78.31
323.795	84.31
324.024	85.31
324.253	84.31
324.482	77.31
324.71	89.31
324.939	85.31
325.168	88.31
325.397	86.31
325.626	78.31
325.855	99.31
326.084	78.31
326.313	101.31
326.542	83.31
326.77	88.31
326.999	81.31
327.228	87.31
327.457	89.31
327.686	86.31
327.914	93.31
328.143	90.31
328.372	95.31
328.6	84.31
328.829	89.31
329.058	87.31
329.287	95.31
329.515	89.31
329.744	83.31
329.972	80.31
330.201	79.31
330.43	83.31
330.658	93.31
330.887	90.31
331.115	88.31
331.344	85.31
331.572	84.31
331.801	88.31
332.03	81.31
332.258	82.31
332.486	91.31
332.715	91.31
332.943	75.31
333.172	87.31
333.4	79.31
333.629	96.31
333.857	93.31
334.085	76.31
334.314	85.31
334.542	88.31
334.771	85.31
334.999	85.31
335.227	78.31
335.455	91.31
335.684	86.31
335.912	99.31
336.14	92.31
336.369	79.31
336.597	84.31
336.825	87.31
337.053	75.31
337.281	83.31
337.51	88.31
337.738	85.31
337.966	78.31
338.194	85.31
338.422	82.31
338.65	90.31
338.878	102.31
339.106	89.31
339.334	85.31
339.562	85.31
339.79	96.31
340.018	70.31
340.246	78.31
340.474	86.31
340.702	78.31
340.93	96.31
341.158	87.31
341.386	83.31
341.614	87.31
341.842	69.31
342.07	68.31
342.298	89.31
342.526	84.31
342.754	88.31
342.981	94.31
343.209	79.31
343.437	82.31
343.665	85.31
343.893	94.31
344.12	88.31
344.348	86.31
344.576	92.31
344.804	99.31
345.031	89.31
345.259	90.31
345.487	91.31
345.714	84.31
345.942	103.31
346.17	77.31
346.397	79.31
346.625	97.31
346.853	85.31
347.08	76.31
347.308	88.31
347.535	65.31
347.763	78.31
347.99	89.31
348.218	90.31
348.445	83.31
348.673	87.31
348.9	100.31
349.128	94.31
349.355	88.31
349.583	84.31
349.81	83.31
350.037	92.31
350.265	86.31
350.492	91.31
350.72	96.31
350.947	79.31
351.174	87.31
351.402	81.31
351.629	84.31
351.856	80.31
352.083	84.31
352.311	92.31
352.538	81.31
352.765	85.31
352.992	90.31
353.22	101.31
353.447	96.31
353.674	92.31
353.901	75.31
354.128	93.31
354.355	83.31
354.583	77.31
354.81	99.31
355.037	87.31
355.264	83.31
355.491	83.31
355.718	89.31
355.945	88.31
356.172	85.31
356.399	106.31
356.626	73.31
356.853	89.31
357.08	87.31
357.307	85.31
357.534	81.31
357.761	96.31
357.988	97.31
358.215	99.31
358.441	86.31
358.668	91.31
358.895	78.31
359.122	92.31
359.349	94.31
359.576	87.31
359.802	94.31
360.029	91.31
360.256	94.31
360.483	94.31
360.709	79.31
360.936	96.31
361.163	91.31
361.39	96.31
361.616	83.31
361.843	92.31
362.07	83.31
362.296	85.31
362.523	93.31
362.749	82.31
362.976	89.31
363.203	98.31
363.429	89.31
363.656	92.31
363.882	84.31
364.109	101.31
364.335	107.31
364.562	85.31
364.788	73.31
365.015	108.31
365.241	104.31
365.468	83.31
365.694	92.31
365.92	100.31
366.147	101.31
366.373	91.31
366.599	107.31
366.826	79.31
367.052	78.31
367.278	82.31
367.505	93.31
367.731	88.31
367.957	97.31
368.184	91.31
368.41	89.31
368.636	79.31
368.862	82.31
369.089	85.31
369.315	79.31
369.541	83.31
369.767	82.31
369.993	100.31
370.219	97.31
370.445	95.31
370.672	73.31
370.898	92.31
371.124	81.31
371.35	88.31
371.576	79.31
371.802	87.31
372.028	99.31
372.254	85.31
372.48	88.31
372.706	89.31
372.932	85.31
373.158	93.31
373.384	92.31
373.61	92.31
373.835	89.31
374.061	88.31
374.287	88.31
374.513	98.31
374.739	91.31
374.965	95.31
375.191	94.31
375.416	96.31
375.642	96.31
375.868	79.31
376.094	82.31
376.319	81.31
376.545	83.31
376.771	83.31
376.997	88.31
377.222	82.31
377.448	86.31
377.674	85.31
377.899	107.31
378.125	94.31
378.35	99.31
378.576	71.31
378.802	80.31
379.027	86.31
379.253	95.31
379.478	80.31
379.704	90.31
379.929	84.31
380.155	88.31
380.38	79.31
380.606	75.31
380.831	95.31
381.057	88.31
381.282	91.31
381.507	75.31
381.733	78.31
381.958	81.31
382.184	91.31
382.409	89.31
382.634	93.31
382.86	88.31
383.085	90.31
383.31	89.31
383.535	90.31
383.761	95.31
383.986	71.31
384.211	80.31
384.436	91.31
384.662	71.31
384.887	78.31
385.112	80.31
385.337	92.31
385.562	87.31
385.787	83.31
386.013	86.31
386.238	80.31
386.463	87.31
386.688	91.31
386.913	92.31
387.138	77.31
387.363	88.31
387.588	89.31
387.813	90.31
388.038	85.31
388.263	85.31
388.488	67.31
388.713	93.31
388.938	79.31
389.163	83.31
389.387	78.31
389.612	88.31
389.837	90.31
390.062	78.31
390.287	101.31
390.512	92.31
390.736	79.31
390.961	82.31
391.186	91.31
391.411	96.31
391.636	76.31
391.86	90.31
392.085	86.31
392.31	84.31
392.534	91.31
392.759	94.31
392.984	89.31
393.208	111.31
393.433	118.31
393.658	79.31
393.882	89.31
394.107	107.31
394.331	99.31
394.556	100.31
394.78	95.31
395.005	78.31
395.229	84.31
395.454	90.31
395.678	96.31
395.903	95.31
396.127	108.31
396.352	108.31
396.576	105.31
396.801	105.31
397.025	101.31
397.249	102.31
397.474	87.31
397.698	89.31
397.922	88.31
398.147	80.31
398.371	85.31
398.595	86.31
398.82	86.31
399.044	78.31
399.268	79.31
399.492	81.31
399.717	84.31
399.941	92.31
400.165	92.31
400.389	81.31
400.613	89.31
400.837	92.31
401.062	91.31
401.286	82.31
401.51	94.31
401.734	71.31
401.958	96.31
402.182	90.31
402.406	84.31
402.63	75.31
402.854	93.31
403.078	86.31
403.302	92.31
403.526	89.31
403.75	99.31
403.974	88.31
404.198	81.31
404.422	106.31
404.645	107.31
404.869	101.31
405.093	105.31
405.317	83.31
405.541	76.31
405.765	104.31
405.988	85.31
406.212	73.31
406.436	75.31
406.66	85.31
406.883	86.31
407.107	79.31
407.331	85.31
407.555	80.31
407.778	80.31
408.002	94.31
408.226	95.31
408.449	87.31
408.673	103.31
408.896	89.31
409.12	83.31
409.344	87.31
409.567	75.31
409.791	81.31
410.014	86.31
410.238	85.31
410.461	82.31
410.685	83.31
410.908	80.31
411.132	101.31
411.355	83.31
411.578	70.31
411.802	96.31
412.025	88.31
412.249	96.31
412.472	79.31
412.695	93.31
412.919	82.31
413.142	99.31
413.365	85.31
413.589	85.31
413.812	76.31
414.035	92.31
414.258	84.31
414.482	84.31
414.705	99.31
414.928	93.31
415.151	94.31
415.374	100.31
415.597	93.31
415.821	80.31
416.044	80.31
416.267	90.31
416.49	83.31
416.713	86.31
416.936	89.31
417.159	94.31
417.382	78.31
417.605	86.31
417.828	99.31
418.051	71.31
418.274	77.31
418.497	81.31
418.72	73.31
418.943	65.31
419.166	78.31
419.389	89.31
419.611	82.31
419.834	83.31
420.057	71.31
420.28	87.31
420.503	84.31
420.726	83.31
420.948	75.31
421.171	95.31
421.394	82.31
421.617	97.31
421.839	96.31
422.062	96.31
422.285	105.31
422.507	111.31
422.73	123.31
422.953	139.31
423.175	101.31
423.398	90.31
423.621	93.31
423.843	80.31
424.066	85.31
424.288	103.31
424.511	77.31
424.733	86.31
424.956	92.31
425.178	87.31
425.401	84.31
425.623	81.31
425.846	88.31
426.068	79.31
426.291	98.31
426.513	93.31
426.735	93.31
426.958	81.31
427.18	89.31
427.402	85.31
427.625	77.31
427.847	89.31
428.069	78.31
428.292	95.31
428.514	82.31
428.736	80.31
428.958	106.31
429.181	97.31
429.403	87.31
429.625	86.31
429.847	94.31
430.069	110.31
430.292	107.31
430.514	105.31
430.736	89.31
430.958	91.31
431.18	87.31
431.402	87.31
431.624	77.31
431.846	93.31
432.068	90.31
432.29	84.31
432.512	99.31
432.734	101.31
432.956	69.31
433.178	75.31
433.4	81.31
433.622	105.31
433.844	92.31
434.066	92.31
434.287	75.31
434.509	86.31
434.731	84.31
434.953	92.31
435.175	87.31
435.397	86.31
435.618	81.31
435.84	85.31
436.062	73.31
436.284	91.31
436.505	97.31
436.727	80.31
436.949	73.31
437.17	90.31
437.392	94.31
437.614	99.31
437.835	84.31
438.057	82.31
438.278	91.31
438.5	87.31
438.721	75.31
438.943	89.31
439.165	88.31
439.386	81.31
439.608	94.31
439.829	98.31
440.05	83.31
440.272	91.31
440.493	77.31
440.715	72.31
440.936	100.31
441.158	93.31
441.379	88.31
441.6	78.31
441.822	85.31
442.043	93.31
442.264	87.31
442.486	87.31
442.707	92.31
442.928	92.31
443.149	91.31
443.371	110.31
443.592	121.31
443.813	109.31
444.034	76.31
444.255	90.31
444.476	74.31
444.698	89.31
444.919	77.31
445.14	172.31
445.361	127.31
445.582	141.31
445.803	103.31
446.024	85.31
446.245	78.31
446.466	91.31
446.687	79.31
446.908	89.31
447.129	86.31
447.35	72.31
447.571	87.31
447.792	85.31
448.013	94.31
448.234	71.31
448.455	87.31
448.675	90.31
448.896	84.31
449.117	91.31
449.338	89.31
449.559	85.31
449.779	89.31
450	79.31
450.221	81.31
450.442	95.31
450.662	82.31
450.883	73.31
451.104	95.31
451.324	83.31
451.545	78.31
451.766	88.31
451.986	96.31
452.207	72.31
452.428	76.31
452.648	87.31
452.869	95.31
453.089	80.31
453.31	101.31
453.53	81.31
453.751	82.31
453.971	83.31
454.192	66.31
454.412	92.31
454.633	87.31
454.853	72.31
455.073	98.31
455.294	74.31
455.514	101.31
455.734	83.31
455.955	75.31
456.175	81.31
456.395	79.31
456.616	89.31
456.836	81.31
457.056	69.31
457.276	77.31
457.497	84.31
457.717	82.31
457.937	107.31
458.157	93.31
458.377	78.31
458.598	80.31
458.818	99.31
459.038	97.31
459.258	88.31
459.478	75.31
459.698	83.31
459.918	84.31
460.138	89.31
460.358	88.31
460.578	70.31
460.798	103.31
461.018	96.31
461.238	80.31
461.458	88.31
461.678	84.31
461.898	80.31
462.118	77.31
462.338	81.31
462.558	78.31
462.777	81.31
462.997	95.31
463.217	85.31
463.437	78.31
463.657	85.31
463.876	96.31
464.096	84.31
464.316	83.31
464.536	88.31
464.755	86.31
464.975	91.31
465.195	79.31
465.414	85.31
465.634	93.31
465.854	77.31
466.073	88.31
466.293	87.31
466.512	85.31
466.732	77.31
466.951	84.31
467.171	75.31
467.391	88.31
467.61	77.31
467.829	72.31
468.049	90.31
468.268	99.31
468.488	78.31
468.707	73.31
468.927	89.31
469.146	83.31
469.365	86.31
469.585	71.31
469.804	96.31
470.023	94.31
470.243	85.31
470.462	92.31
470.681	86.31
470.901	85.31
471.12	78.31
471.339	96.31
471.558	79.31
471.777	87.31
471.997	95.31
472.216	85.31
472.435	73.31
472.654	83.31
472.873	93.31
473.092	99.31
473.311	83.31
473.53	85.31
473.749	87.31
473.968	100.31
474.187	99.31
474.406	79.31
474.625	94.31
474.844	92.31
475.063	91.31
475.282	92.31
475.501	87.31
475.72	85.31
475.939	79.31
476.158	90.31
476.377	85.31
476.596	73.31
476.814	77.31
477.033	84.31
477.252	103.31
477.471	87.31
477.69	90.31
477.908	76.31
478.127	85.31
478.346	79.31
478.564	99.31
478.783	85.31
479.002	90.31
479.22	83.31
479.439	89.31
479.658	95.31
479.876	91.31
480.095	87.31
480.313	83.31
480.532	102.31
480.751	87.31
480.969	76.31
481.188	70.31
481.406	84.31
481.624	91.31
481.843	93.31
482.061	81.31
482.28	84.31
482.498	91.31
482.717	87.31
482.935	82.31
483.153	93.31
483.372	86.31
483.59	78.31
483.808	83.31
484.027	99.31
484.245	86.31
484.463	71.31
484.681	89.31
484.9	85.31
485.118	88.31
485.336	89.31
485.554	86.31
485.772	82.31
485.99	100.31
486.209	79.31
486.427	83.31
486.645	89.31
486.863	88.31
487.081	85.31
487.299	80.31
487.517	83.31
487.735	95.31
487.953	84.31
488.171	90.31
488.389	91.31
488.607	87.31
488.825	81.31
489.043	82.31
489.261	78.31
489.479	96.31
489.696	94.31
489.914	95.31
490.132	87.31
490.35	93.31
490.568	96.31
490.786	75.31
491.003	107.31
491.221	98.31
491.439	79.31
491.657	84.31
491.874	75.31
492.092	79.31
492.31	78.31
492.527	101.31
492.745	83.31
492.963	82.31
493.18	93.31
493.398	97.31
493.615	92.31
493.833	86.31
494.05	83.31
494.268	67.31
494.485	89.31
494.703	89.31
494.92	83.31
495.138	84.31
495.355	91.31
495.573	90.31
495.79	91.31
496.008	83.31
496.225	90.31
496.442	91.31
496.66	100.31
496.877	89.31
497.094	86.31
497.312	81.31
497.529	95.31
497.746	92.31
497.963	88.31
498.181	85.31
498.398	85.31
498.615	94.31
498.832	94.31
499.049	89.31
499.267	107.31
499.484	69.31
499.701	93.31
499.918	78.31
500.135	75.31
500.352	93.31
500.569	84.31
500.786	93.31
501.003	87.31
501.22	77.31
501.437	94.31
501.654	82.31
501.871	82.31
502.088	82.31
502.305	91.31
502.522	86.31
502.739	77.31
502.956	90.31
503.172	84.31
503.389	94.31
503.606	82.31
503.823	100.31
504.04	85.31
504.256	94.31
504.473	77.31
504.69	90.31
504.907	107.31
505.123	95.31
505.34	98.31
505.557	91.31
505.773	76.31
505.99	87.31
506.207	99.31
506.423	85.31
506.64	107.31
506.856	85.31
507.073	86.31
507.289	85.31
507.506	99.31
507.722	73.31
507.939	85.31
508.155	95.31
508.372	85.31
508.588	87.31
508.805	87.31
509.021	88.31
509.238	82.31
509.454	83.31
509.67	78.31
509.887	85.31
510.103	83.31
510.319	92.31
510.536	85.31
510.752	72.31
510.968	94.31
511.184	89.31
511.401	86.31
511.617	82.31
511.833	92.31
512.049	79.31
512.265	75.31
512.481	87.31
512.698	91.31
512.914	85.31
513.13	78.31
513.346	78.31
513.562	91.31
513.778	77.31
513.994	87.31
514.21	83.31
514.426	96.31
514.642	96.31
514.858	88.31
515.074	79.31
515.29	94.31
515.506	87.31
515.721	90.31
515.937	95.31
516.153	91.31
516.369	83.31
516.585	88.31
516.801	92.31
517.016	85.31
517.232	89.31
517.448	84.31
517.664	104.31
517.879	97.31
518.095	84.31
518.311	96.31
518.527	68.31
518.742	87.31
518.958	83.31
