Data from SampA_HRD10591_00085.txt Node
Date: Mon Jan 19 11:27:15 EST 2026
User: Yrep
Spectrometer: HR+D1059
Trigger mode: 0
Integration Time (sec): 3.443000E-1
Scans to average: 1
Electric dark correction enabled: true
Nonlinearity correction enabled: false
Boxcar width: 0
XAxis mode: Wavelengths
Number of Pixels in Spectrum: 2048
>>>>>Begin Spectral Data<<<<<
223.165	-22.12
223.4	-22.12
223.635	-22.12
223.869	-28.12
224.104	-32.12
224.338	-14.12
224.573	-18.12
224.808	-13.12
225.042	0.88
225.277	-20.12
225.511	11.88
225.746	13.88
225.98	2.88
226.215	13.88
226.449	17.88
226.683	23.88
226.918	29.88
227.152	32.88
227.387	38.88
227.621	39.88
227.856	47.88
228.09	40.88
228.324	53.88
228.559	65.88
228.793	72.88
229.027	68.88
229.262	74.88
229.496	63.88
229.73	69.88
229.964	74.88
230.199	93.88
230.433	78.88
230.667	97.88
230.901	80.88
231.136	97.88
231.37	89.88
231.604	89.88
231.838	93.88
232.072	91.88
232.306	92.88
232.541	102.88
232.775	90.88
233.009	84.88
233.243	79.88
233.477	87.88
233.711	94.88
233.945	90.88
234.179	81.88
234.413	90.88
234.647	103.88
234.881	87.88
235.115	81.88
235.349	88.88
235.583	85.88
235.817	78.88
236.051	94.88
236.285	76.88
236.519	90.88
236.753	84.88
236.987	74.88
237.221	88.88
237.455	79.88
237.689	76.88
237.922	90.88
238.156	73.88
238.39	80.88
238.624	74.88
238.858	66.88
239.091	88.88
239.325	86.88
239.559	86.88
239.793	86.88
240.027	99.88
240.26	76.88
240.494	81.88
240.728	98.88
240.961	88.88
241.195	77.88
241.429	80.88
241.662	87.88
241.896	71.88
242.13	88.88
242.363	90.88
242.597	95.88
242.83	72.88
243.064	84.88
243.298	83.88
243.531	86.88
243.765	84.88
243.998	89.88
244.232	93.88
244.465	70.88
244.699	82.88
244.932	84.88
245.166	93.88
245.399	81.88
245.633	79.88
245.866	85.88
246.099	93.88
246.333	83.88
246.566	91.88
246.8	76.88
247.033	79.88
247.266	82.88
247.5	95.88
247.733	104.88
247.966	89.88
248.2	82.88
248.433	93.88
248.666	88.88
248.899	101.88
249.133	103.88
249.366	97.88
249.599	93.88
249.832	103.88
250.066	104.88
250.299	94.88
250.532	92.88
250.765	88.88
250.998	85.88
251.231	85.88
251.465	103.88
251.698	108.88
251.931	89.88
252.164	88.88
252.397	94.88
252.63	102.88
252.863	97.88
253.096	93.88
253.329	93.88
253.562	94.88
253.795	99.88
254.028	78.88
254.261	90.88
254.494	86.88
254.727	112.88
254.96	78.88
255.193	85.88
255.426	85.88
255.659	108.88
255.892	102.88
256.124	91.88
256.357	106.88
256.59	104.88
256.823	99.88
257.056	97.88
257.289	102.88
257.521	115.88
257.754	95.88
257.987	102.88
258.22	114.88
258.452	89.88
258.685	107.88
258.918	100.88
259.151	103.88
259.383	102.88
259.616	96.88
259.849	88.88
260.081	85.88
260.314	93.88
260.547	106.88
260.779	99.88
261.012	92.88
261.244	95.88
261.477	106.88
261.71	93.88
261.942	95.88
262.175	101.88
262.407	87.88
262.64	91.88
262.872	112.88
263.105	91.88
263.337	101.88
263.57	98.88
263.802	105.88
264.035	112.88
264.267	96.88
264.499	101.88
264.732	109.88
264.964	100.88
265.197	101.88
265.429	95.88
265.661	104.88
265.894	97.88
266.126	100.88
266.358	116.88
266.591	91.88
266.823	92.88
267.055	106.88
267.287	112.88
267.52	104.88
267.752	94.88
267.984	102.88
268.216	102.88
268.448	106.88
268.681	116.88
268.913	117.88
269.145	111.88
269.377	108.88
269.609	109.88
269.841	113.88
270.073	111.88
270.306	109.88
270.538	116.88
270.77	106.88
271.002	106.88
271.234	105.88
271.466	117.88
271.698	107.88
271.93	113.88
272.162	120.88
272.394	118.88
272.626	120.88
272.858	110.88
273.09	110.88
273.322	114.88
273.553	103.88
273.785	124.88
274.017	94.88
274.249	115.88
274.481	103.88
274.713	118.88
274.945	100.88
275.176	106.88
275.408	120.88
275.64	125.88
275.872	101.88
276.104	109.88
276.335	104.88
276.567	110.88
276.799	109.88
277.031	108.88
277.262	105.88
277.494	120.88
277.726	118.88
277.957	102.88
278.189	107.88
278.421	91.88
278.652	120.88
278.884	110.88
279.115	116.88
279.347	111.88
279.579	118.88
279.81	111.88
280.042	107.88
280.273	122.88
280.505	100.88
280.736	108.88
280.968	112.88
281.199	114.88
281.431	121.88
281.662	121.88
281.894	133.88
282.125	124.88
282.356	126.88
282.588	115.88
282.819	108.88
283.051	93.88
283.282	101.88
283.513	112.88
283.745	125.88
283.976	122.88
284.207	121.88
284.439	116.88
284.67	110.88
284.901	109.88
285.132	97.88
285.364	117.88
285.595	128.88
285.826	126.88
286.057	129.88
286.288	121.88
286.52	120.88
286.751	115.88
286.982	135.88
287.213	118.88
287.444	137.88
287.675	129.88
287.906	116.88
288.138	110.88
288.369	114.88
288.6	118.88
288.831	109.88
289.062	122.88
289.293	110.88
289.524	117.88
289.755	124.88
289.986	111.88
290.217	125.88
290.448	123.88
290.679	118.88
290.91	133.88
291.141	121.88
291.371	114.88
291.602	118.88
291.833	116.88
292.064	138.88
292.295	121.88
292.526	128.88
292.757	109.88
292.987	122.88
293.218	124.88
293.449	122.88
293.68	120.88
293.91	127.88
294.141	125.88
294.372	111.88
294.603	111.88
294.833	123.88
295.064	140.88
295.295	133.88
295.525	134.88
295.756	133.88
295.987	121.88
296.217	122.88
296.448	129.88
296.679	127.88
296.909	132.88
297.14	119.88
297.37	119.88
297.601	129.88
297.831	139.88
298.062	117.88
298.292	140.88
298.523	121.88
298.753	117.88
298.984	124.88
299.214	134.88
299.445	125.88
299.675	124.88
299.905	129.88
300.136	133.88
300.366	122.88
300.597	125.88
300.827	134.88
301.057	131.88
301.288	118.88
301.518	133.88
301.748	129.88
301.979	159.88
302.209	129.88
302.439	114.88
302.669	113.88
302.9	119.88
303.13	125.88
303.36	115.88
303.59	126.88
303.82	138.88
304.051	130.88
304.281	121.88
304.511	133.88
304.741	127.88
304.971	129.88
305.201	124.88
305.431	144.88
305.661	134.88
305.891	144.88
306.121	138.88
306.352	125.88
306.582	114.88
306.812	129.88
307.042	135.88
307.272	138.88
307.502	130.88
307.731	134.88
307.961	123.88
308.191	123.88
308.421	120.88
308.651	142.88
308.881	125.88
309.111	128.88
309.341	122.88
309.571	114.88
309.8	125.88
310.03	132.88
310.26	113.88
310.49	118.88
310.72	138.88
310.949	121.88
311.179	121.88
311.409	132.88
311.639	134.88
311.868	127.88
312.098	114.88
312.328	126.88
312.557	128.88
312.787	127.88
313.017	140.88
313.246	132.88
313.476	125.88
313.706	140.88
313.935	137.88
314.165	139.88
314.394	117.88
314.624	124.88
314.853	133.88
315.083	131.88
315.312	135.88
315.542	115.88
315.771	135.88
316.001	112.88
316.23	132.88
316.46	132.88
316.689	131.88
316.919	118.88
317.148	120.88
317.377	127.88
317.607	123.88
317.836	136.88
318.065	124.88
318.295	126.88
318.524	139.88
318.753	126.88
318.983	124.88
319.212	116.88
319.441	117.88
319.67	116.88
319.9	125.88
320.129	132.88
320.358	142.88
320.587	122.88
320.816	135.88
321.046	138.88
321.275	146.88
321.504	141.88
321.733	142.88
321.962	139.88
322.191	131.88
322.42	129.88
322.649	144.88
322.878	141.88
323.108	148.88
323.337	131.88
323.566	136.88
323.795	126.88
324.024	160.88
324.253	147.88
324.482	141.88
324.71	127.88
324.939	150.88
325.168	136.88
325.397	128.88
325.626	144.88
325.855	129.88
326.084	140.88
326.313	132.88
326.542	137.88
326.77	122.88
326.999	141.88
327.228	121.88
327.457	150.88
327.686	158.88
327.914	136.88
328.143	139.88
328.372	128.88
328.6	133.88
328.829	142.88
329.058	146.88
329.287	137.88
329.515	136.88
329.744	141.88
329.972	135.88
330.201	150.88
330.43	136.88
330.658	137.88
330.887	132.88
331.115	140.88
331.344	153.88
331.572	147.88
331.801	134.88
332.03	125.88
332.258	150.88
332.486	142.88
332.715	154.88
332.943	146.88
333.172	166.88
333.4	157.88
333.629	161.88
333.857	166.88
334.085	173.88
334.314	152.88
334.542	139.88
334.771	157.88
334.999	157.88
335.227	153.88
335.455	148.88
335.684	164.88
335.912	168.88
336.14	138.88
336.369	137.88
336.597	151.88
336.825	161.88
337.053	147.88
337.281	157.88
337.51	147.88
337.738	165.88
337.966	156.88
338.194	137.88
338.422	154.88
338.65	136.88
338.878	157.88
339.106	143.88
339.334	140.88
339.562	143.88
339.79	167.88
340.018	127.88
340.246	119.88
340.474	140.88
340.702	146.88
340.93	143.88
341.158	129.88
341.386	146.88
341.614	143.88
341.842	148.88
342.07	140.88
342.298	133.88
342.526	133.88
342.754	133.88
342.981	158.88
343.209	155.88
343.437	162.88
343.665	156.88
343.893	167.88
344.12	166.88
344.348	147.88
344.576	136.88
344.804	141.88
345.031	134.88
345.259	146.88
345.487	140.88
345.714	138.88
345.942	140.88
346.17	159.88
346.397	126.88
346.625	141.88
346.853	148.88
347.08	146.88
347.308	144.88
347.535	139.88
347.763	139.88
347.99	137.88
348.218	132.88
348.445	144.88
348.673	137.88
348.9	152.88
349.128	143.88
349.355	140.88
349.583	158.88
349.81	153.88
350.037	149.88
350.265	140.88
350.492	121.88
350.72	136.88
350.947	128.88
351.174	130.88
351.402	141.88
351.629	128.88
351.856	126.88
352.083	127.88
352.311	137.88
352.538	141.88
352.765	137.88
352.992	147.88
353.22	130.88
353.447	123.88
353.674	144.88
353.901	142.88
354.128	127.88
354.355	135.88
354.583	143.88
354.81	138.88
355.037	162.88
355.264	137.88
355.491	132.88
355.718	140.88
355.945	126.88
356.172	137.88
356.399	113.88
356.626	129.88
356.853	133.88
357.08	150.88
357.307	147.88
357.534	144.88
357.761	147.88
357.988	144.88
358.215	134.88
358.441	137.88
358.668	142.88
358.895	152.88
359.122	134.88
359.349	127.88
359.576	141.88
359.802	132.88
360.029	129.88
360.256	118.88
360.483	122.88
360.709	136.88
360.936	148.88
361.163	137.88
361.39	137.88
361.616	137.88
361.843	154.88
362.07	133.88
362.296	141.88
362.523	134.88
362.749	134.88
362.976	142.88
363.203	148.88
363.429	146.88
363.656	145.88
363.882	135.88
364.109	126.88
364.335	127.88
364.562	136.88
364.788	144.88
365.015	137.88
365.241	153.88
365.468	141.88
365.694	152.88
365.92	124.88
366.147	124.88
366.373	133.88
366.599	141.88
366.826	140.88
367.052	141.88
367.278	126.88
367.505	137.88
367.731	139.88
367.957	132.88
368.184	138.88
368.41	132.88
368.636	137.88
368.862	146.88
369.089	139.88
369.315	130.88
369.541	145.88
369.767	155.88
369.993	144.88
370.219	139.88
370.445	148.88
370.672	135.88
370.898	154.88
371.124	159.88
371.35	140.88
371.576	160.88
371.802	154.88
372.028	129.88
372.254	154.88
372.48	148.88
372.706	138.88
372.932	159.88
373.158	146.88
373.384	144.88
373.61	157.88
373.835	154.88
374.061	154.88
374.287	138.88
374.513	147.88
374.739	160.88
374.965	153.88
375.191	166.88
375.416	157.88
375.642	128.88
375.868	163.88
376.094	154.88
376.319	150.88
376.545	148.88
376.771	144.88
376.997	152.88
377.222	158.88
377.448	161.88
377.674	154.88
377.899	154.88
378.125	144.88
378.35	139.88
378.576	153.88
378.802	132.88
379.027	150.88
379.253	151.88
379.478	150.88
379.704	152.88
379.929	160.88
380.155	151.88
380.38	153.88
380.606	134.88
380.831	158.88
381.057	138.88
381.282	162.88
381.507	158.88
381.733	155.88
381.958	154.88
382.184	150.88
382.409	166.88
382.634	164.88
382.86	153.88
383.085	168.88
383.31	165.88
383.535	171.88
383.761	166.88
383.986	154.88
384.211	160.88
384.436	160.88
384.662	168.88
384.887	186.88
385.112	172.88
385.337	160.88
385.562	148.88
385.787	166.88
386.013	174.88
386.238	163.88
386.463	169.88
386.688	203.88
386.913	162.88
387.138	161.88
387.363	189.88
387.588	168.88
387.813	156.88
388.038	166.88
388.263	166.88
388.488	160.88
388.713	162.88
388.938	165.88
389.163	177.88
389.387	180.88
389.612	180.88
389.837	188.88
390.062	189.88
390.287	176.88
390.512	170.88
390.736	161.88
390.961	175.88
391.186	168.88
391.411	196.88
391.636	182.88
391.86	180.88
392.085	201.88
392.31	185.88
392.534	199.88
392.759	202.88
392.984	199.88
393.208	177.88
393.433	177.88
393.658	189.88
393.882	188.88
394.107	206.88
394.331	196.88
394.556	174.88
394.78	172.88
395.005	189.88
395.229	191.88
395.454	186.88
395.678	190.88
395.903	216.88
396.127	212.88
396.352	186.88
396.576	198.88
396.801	200.88
397.025	213.88
397.249	189.88
397.474	198.88
397.698	202.88
397.922	215.88
398.147	233.88
398.371	224.88
398.595	221.88
398.82	215.88
399.044	231.88
399.268	253.88
399.492	288.88
399.717	306.88
399.941	290.88
400.165	295.88
400.389	232.88
400.613	230.88
400.837	236.88
401.062	242.88
401.286	232.88
401.51	234.88
401.734	232.88
401.958	236.88
402.182	232.88
402.406	257.88
402.63	237.88
402.854	256.88
403.078	257.88
403.302	270.88
403.526	268.88
403.75	267.88
403.974	278.88
404.198	272.88
404.422	267.88
404.645	280.88
404.869	263.88
405.093	258.88
405.317	273.88
405.541	266.88
405.765	256.88
405.988	262.88
406.212	270.88
406.436	265.88
406.66	288.88
406.883	283.88
407.107	299.88
407.331	300.88
407.555	294.88
407.778	304.88
408.002	301.88
408.226	290.88
408.449	255.88
408.673	294.88
408.896	280.88
409.12	276.88
409.344	293.88
409.567	277.88
409.791	290.88
410.014	282.88
410.238	279.88
410.461	302.88
410.685	295.88
410.908	263.88
411.132	283.88
411.355	279.88
411.578	282.88
411.802	288.88
412.025	276.88
412.249	272.88
412.472	260.88
412.695	290.88
412.919	263.88
413.142	276.88
413.365	275.88
413.589	268.88
413.812	269.88
414.035	272.88
414.258	283.88
414.482	273.88
414.705	269.88
414.928	283.88
415.151	262.88
415.374	276.88
415.597	274.88
415.821	271.88
416.044	280.88
416.267	267.88
416.49	282.88
416.713	283.88
416.936	269.88
417.159	286.88
417.382	280.88
417.605	270.88
417.828	303.88
418.051	278.88
418.274	289.88
418.497	293.88
418.72	299.88
418.943	286.88
419.166	309.88
419.389	316.88
419.611	301.88
419.834	290.88
420.057	297.88
420.28	302.88
420.503	296.88
420.726	273.88
420.948	280.88
421.171	285.88
421.394	305.88
421.617	287.88
421.839	298.88
422.062	284.88
422.285	285.88
422.507	302.88
422.73	284.88
422.953	290.88
423.175	281.88
423.398	300.88
423.621	295.88
423.843	291.88
424.066	303.88
424.288	284.88
424.511	306.88
424.733	296.88
424.956	293.88
425.178	308.88
425.401	305.88
425.623	292.88
425.846	292.88
426.068	289.88
426.291	272.88
426.513	276.88
426.735	261.88
426.958	275.88
427.18	256.88
427.402	258.88
427.625	258.88
427.847	269.88
428.069	277.88
428.292	276.88
428.514	263.88
428.736	253.88
428.958	281.88
429.181	268.88
429.403	273.88
429.625	278.88
429.847	247.88
430.069	264.88
430.292	282.88
430.514	252.88
430.736	270.88
430.958	269.88
431.18	253.88
431.402	239.88
431.624	237.88
431.846	245.88
432.068	223.88
432.29	237.88
432.512	251.88
432.734	252.88
432.956	275.88
433.178	274.88
433.4	271.88
433.622	272.88
433.844	264.88
434.066	246.88
434.287	225.88
434.509	219.88
434.731	255.88
434.953	260.88
435.175	276.88
435.397	266.88
435.618	264.88
435.84	258.88
436.062	257.88
436.284	270.88
436.505	267.88
436.727	286.88
436.949	262.88
437.17	270.88
437.392	245.88
437.614	242.88
437.835	240.88
438.057	224.88
438.278	227.88
438.5	250.88
438.721	268.88
438.943	284.88
439.165	287.88
439.386	275.88
439.608	296.88
439.829	285.88
440.05	276.88
440.272	270.88
440.493	268.88
440.715	261.88
440.936	290.88
441.158	297.88
441.379	295.88
441.6	301.88
441.822	312.88
442.043	303.88
442.264	294.88
442.486	291.88
442.707	274.88
442.928	289.88
443.149	294.88
443.371	320.88
443.592	291.88
443.813	292.88
444.034	294.88
444.255	309.88
444.476	326.88
444.698	332.88
444.919	333.88
445.14	518.88
445.361	385.88
445.582	303.88
445.803	272.88
446.024	294.88
446.245	304.88
446.466	301.88
446.687	284.88
446.908	305.88
447.129	303.88
447.35	278.88
447.571	284.88
447.792	272.88
448.013	273.88
448.234	277.88
448.455	273.88
448.675	253.88
448.896	257.88
449.117	268.88
449.338	270.88
449.559	275.88
449.779	259.88
450	253.88
450.221	248.88
450.442	264.88
450.662	264.88
450.883	264.88
451.104	271.88
451.324	269.88
451.545	256.88
451.766	241.88
451.986	260.88
452.207	251.88
452.428	259.88
452.648	251.88
452.869	253.88
453.089	221.88
453.31	222.88
453.53	231.88
453.751	231.88
453.971	220.88
454.192	228.88
454.412	231.88
454.633	234.88
454.853	235.88
455.073	236.88
455.294	240.88
455.514	242.88
455.734	244.88
455.955	234.88
456.175	213.88
456.395	225.88
456.616	228.88
456.836	228.88
457.056	221.88
457.276	199.88
457.497	227.88
457.717	216.88
457.937	219.88
458.157	214.88
458.377	217.88
458.598	218.88
458.818	206.88
459.038	213.88
459.258	212.88
459.478	217.88
459.698	228.88
459.918	232.88
460.138	239.88
460.358	252.88
460.578	268.88
460.798	270.88
461.018	272.88
461.238	276.88
461.458	261.88
461.678	282.88
461.898	277.88
462.118	278.88
462.338	284.88
462.558	294.88
462.777	282.88
462.997	313.88
463.217	336.88
463.437	314.88
463.657	302.88
463.876	291.88
464.096	291.88
464.316	281.88
464.536	295.88
464.755	308.88
464.975	303.88
465.195	296.88
465.414	250.88
465.634	260.88
465.854	255.88
466.073	249.88
466.293	269.88
466.512	266.88
466.732	252.88
466.951	242.88
467.171	251.88
467.391	258.88
467.61	269.88
467.829	254.88
468.049	248.88
468.268	249.88
468.488	256.88
468.707	256.88
468.927	256.88
469.146	257.88
469.365	265.88
469.585	246.88
469.804	257.88
470.023	274.88
470.243	278.88
470.462	280.88
470.681	269.88
470.901	276.88
471.12	266.88
471.339	278.88
471.558	262.88
471.777	257.88
471.997	265.88
472.216	247.88
472.435	214.88
472.654	219.88
472.873	221.88
473.092	237.88
473.311	246.88
473.53	244.88
473.749	223.88
473.968	263.88
474.187	237.88
474.406	230.88
474.625	229.88
474.844	249.88
475.063	241.88
475.282	242.88
475.501	239.88
475.72	246.88
475.939	240.88
476.158	255.88
476.377	264.88
476.596	245.88
476.814	221.88
477.033	214.88
477.252	226.88
477.471	259.88
477.69	275.88
477.908	290.88
478.127	286.88
478.346	272.88
478.564	269.88
478.783	277.88
479.002	289.88
479.22	281.88
479.439	267.88
479.658	270.88
479.876	254.88
480.095	270.88
480.313	279.88
480.532	300.88
480.751	270.88
480.969	239.88
481.188	233.88
481.406	234.88
481.624	226.88
481.843	224.88
482.061	227.88
482.28	258.88
482.498	231.88
482.717	237.88
482.935	247.88
483.153	270.88
483.372	294.88
483.59	291.88
483.808	273.88
484.027	279.88
484.245	269.88
484.463	261.88
484.681	292.88
484.9	275.88
485.118	277.88
485.336	264.88
485.554	241.88
485.772	244.88
485.99	236.88
486.209	250.88
486.427	258.88
486.645	252.88
486.863	294.88
487.081	268.88
487.299	274.88
487.517	271.88
487.735	320.88
487.953	309.88
488.171	336.88
488.389	316.88
488.607	293.88
488.825	254.88
489.043	274.88
489.261	284.88
489.479	281.88
489.696	286.88
489.914	266.88
490.132	280.88
490.35	308.88
490.568	292.88
490.786	326.88
491.003	316.88
491.221	338.88
491.439	342.88
491.657	354.88
491.874	373.88
492.092	378.88
492.31	385.88
492.527	378.88
492.745	365.88
492.963	344.88
493.18	352.88
493.398	345.88
493.615	358.88
493.833	343.88
494.05	329.88
494.268	325.88
494.485	329.88
494.703	340.88
494.92	328.88
495.138	339.88
495.355	316.88
495.573	315.88
495.79	340.88
496.008	337.88
496.225	333.88
496.442	328.88
496.66	332.88
496.877	317.88
497.094	337.88
497.312	348.88
497.529	329.88
497.746	340.88
497.963	319.88
498.181	322.88
498.398	320.88
498.615	315.88
498.832	335.88
499.049	390.88
499.267	400.88
499.484	425.88
499.701	483.88
499.918	506.88
500.135	578.88
500.352	624.88
500.569	633.88
500.786	630.88
501.003	590.88
501.22	532.88
501.437	469.88
501.654	442.88
501.871	420.88
502.088	377.88
502.305	390.88
502.522	360.88
502.739	345.88
502.956	336.88
503.172	333.88
503.389	294.88
503.606	290.88
503.823	291.88
504.04	297.88
504.256	301.88
504.473	294.88
