Data from SampA_HRD10591_00074.txt Node
Date: Mon Jan 19 11:27:12 EST 2026
User: Yrep
Spectrometer: HR+D1059
Trigger mode: 0
Integration Time (sec): 3.443000E-1
Scans to average: 1
Electric dark correction enabled: true
Nonlinearity correction enabled: false
Boxcar width: 0
XAxis mode: Wavelengths
Number of Pixels in Spectrum: 2048
>>>>>Begin Spectral Data<<<<<
223.165	-21.25
223.4	-21.25
223.635	-21.25
223.869	-28.25
224.104	-28.25
224.338	-25.25
224.573	-12.25
224.808	-4.25
225.042	-8.25
225.277	-9.25
225.511	-10.25
225.746	13.75
225.98	8.75
226.215	20.75
226.449	15.75
226.683	27.75
226.918	21.75
227.152	38.75
227.387	38.75
227.621	37.75
227.856	52.75
228.09	50.75
228.324	44.75
228.559	63.75
228.793	71.75
229.027	54.75
229.262	75.75
229.496	78.75
229.73	76.75
229.964	69.75
230.199	88.75
230.433	86.75
230.667	78.75
230.901	86.75
231.136	82.75
231.37	68.75
231.604	84.75
231.838	84.75
232.072	81.75
232.306	92.75
232.541	108.75
232.775	93.75
233.009	95.75
233.243	79.75
233.477	77.75
233.711	83.75
233.945	83.75
234.179	90.75
234.413	79.75
234.647	87.75
234.881	85.75
235.115	73.75
235.349	88.75
235.583	74.75
235.817	85.75
236.051	85.75
236.285	99.75
236.519	76.75
236.753	85.75
236.987	82.75
237.221	86.75
237.455	82.75
237.689	85.75
237.922	86.75
238.156	78.75
238.39	87.75
238.624	83.75
238.858	82.75
239.091	75.75
239.325	97.75
239.559	75.75
239.793	70.75
240.027	95.75
240.26	90.75
240.494	93.75
240.728	78.75
240.961	77.75
241.195	82.75
241.429	82.75
241.662	89.75
241.896	87.75
242.13	95.75
242.363	83.75
242.597	61.75
242.83	95.75
243.064	92.75
243.298	89.75
243.531	84.75
243.765	95.75
243.998	88.75
244.232	99.75
244.465	88.75
244.699	86.75
244.932	80.75
245.166	95.75
245.399	78.75
245.633	89.75
245.866	106.75
246.099	77.75
246.333	92.75
246.566	98.75
246.8	84.75
247.033	86.75
247.266	92.75
247.5	105.75
247.733	84.75
247.966	94.75
248.2	94.75
248.433	91.75
248.666	78.75
248.899	97.75
249.133	92.75
249.366	101.75
249.599	84.75
249.832	78.75
250.066	101.75
250.299	102.75
250.532	95.75
250.765	98.75
250.998	92.75
251.231	86.75
251.465	94.75
251.698	103.75
251.931	90.75
252.164	87.75
252.397	82.75
252.63	100.75
252.863	92.75
253.096	95.75
253.329	100.75
253.562	101.75
253.795	93.75
254.028	85.75
254.261	98.75
254.494	91.75
254.727	101.75
254.96	92.75
255.193	91.75
255.426	81.75
255.659	90.75
255.892	97.75
256.124	86.75
256.357	96.75
256.59	104.75
256.823	86.75
257.056	87.75
257.289	90.75
257.521	85.75
257.754	96.75
257.987	93.75
258.22	94.75
258.452	101.75
258.685	81.75
258.918	100.75
259.151	108.75
259.383	100.75
259.616	96.75
259.849	119.75
260.081	100.75
260.314	99.75
260.547	105.75
260.779	105.75
261.012	79.75
261.244	96.75
261.477	103.75
261.71	92.75
261.942	114.75
262.175	104.75
262.407	92.75
262.64	111.75
262.872	107.75
263.105	103.75
263.337	107.75
263.57	96.75
263.802	94.75
264.035	101.75
264.267	96.75
264.499	109.75
264.732	108.75
264.964	98.75
265.197	92.75
265.429	100.75
265.661	92.75
265.894	103.75
266.126	108.75
266.358	96.75
266.591	113.75
266.823	104.75
267.055	107.75
267.287	109.75
267.52	99.75
267.752	96.75
267.984	104.75
268.216	94.75
268.448	99.75
268.681	117.75
268.913	112.75
269.145	110.75
269.377	98.75
269.609	101.75
269.841	104.75
270.073	108.75
270.306	110.75
270.538	108.75
270.77	94.75
271.002	98.75
271.234	105.75
271.466	104.75
271.698	94.75
271.93	95.75
272.162	102.75
272.394	113.75
272.626	99.75
272.858	99.75
273.09	102.75
273.322	98.75
273.553	97.75
273.785	103.75
274.017	116.75
274.249	101.75
274.481	105.75
274.713	110.75
274.945	118.75
275.176	108.75
275.408	102.75
275.64	115.75
275.872	83.75
276.104	108.75
276.335	122.75
276.567	98.75
276.799	109.75
277.031	117.75
277.262	100.75
277.494	107.75
277.726	106.75
277.957	103.75
278.189	106.75
278.421	104.75
278.652	110.75
278.884	109.75
279.115	110.75
279.347	107.75
279.579	104.75
279.81	101.75
280.042	104.75
280.273	111.75
280.505	114.75
280.736	125.75
280.968	122.75
281.199	106.75
281.431	99.75
281.662	106.75
281.894	107.75
282.125	100.75
282.356	119.75
282.588	120.75
282.819	114.75
283.051	130.75
283.282	115.75
283.513	111.75
283.745	131.75
283.976	118.75
284.207	113.75
284.439	116.75
284.67	125.75
284.901	119.75
285.132	105.75
285.364	108.75
285.595	120.75
285.826	127.75
286.057	125.75
286.288	109.75
286.52	117.75
286.751	119.75
286.982	117.75
287.213	113.75
287.444	108.75
287.675	114.75
287.906	126.75
288.138	122.75
288.369	127.75
288.6	131.75
288.831	117.75
289.062	141.75
289.293	107.75
289.524	108.75
289.755	124.75
289.986	115.75
290.217	114.75
290.448	110.75
290.679	122.75
290.91	128.75
291.141	121.75
291.371	134.75
291.602	105.75
291.833	115.75
292.064	114.75
292.295	113.75
292.526	130.75
292.757	125.75
292.987	114.75
293.218	97.75
293.449	105.75
293.68	113.75
293.91	116.75
294.141	116.75
294.372	120.75
294.603	120.75
294.833	109.75
295.064	125.75
295.295	127.75
295.525	117.75
295.756	135.75
295.987	119.75
296.217	109.75
296.448	125.75
296.679	138.75
296.909	150.75
297.14	123.75
297.37	130.75
297.601	108.75
297.831	124.75
298.062	117.75
298.292	125.75
298.523	126.75
298.753	124.75
298.984	131.75
299.214	133.75
299.445	125.75
299.675	127.75
299.905	120.75
300.136	132.75
300.366	122.75
300.597	99.75
300.827	129.75
301.057	125.75
301.288	116.75
301.518	118.75
301.748	122.75
301.979	159.75
302.209	150.75
302.439	114.75
302.669	112.75
302.9	116.75
303.13	128.75
303.36	123.75
303.59	126.75
303.82	129.75
304.051	112.75
304.281	127.75
304.511	119.75
304.741	138.75
304.971	132.75
305.201	145.75
305.431	119.75
305.661	143.75
305.891	123.75
306.121	121.75
306.352	130.75
306.582	123.75
306.812	132.75
307.042	130.75
307.272	112.75
307.502	123.75
307.731	137.75
307.961	123.75
308.191	134.75
308.421	131.75
308.651	122.75
308.881	125.75
309.111	122.75
309.341	127.75
309.571	123.75
309.8	132.75
310.03	118.75
310.26	106.75
310.49	134.75
310.72	127.75
310.949	115.75
311.179	134.75
311.409	127.75
311.639	117.75
311.868	125.75
312.098	126.75
312.328	131.75
312.557	112.75
312.787	138.75
313.017	134.75
313.246	132.75
313.476	121.75
313.706	125.75
313.935	125.75
314.165	114.75
314.394	123.75
314.624	123.75
314.853	132.75
315.083	132.75
315.312	133.75
315.542	125.75
315.771	142.75
316.001	140.75
316.23	126.75
316.46	114.75
316.689	121.75
316.919	137.75
317.148	124.75
317.377	130.75
317.607	130.75
317.836	131.75
318.065	138.75
318.295	139.75
318.524	137.75
318.753	119.75
318.983	127.75
319.212	136.75
319.441	121.75
319.67	138.75
319.9	120.75
320.129	119.75
320.358	131.75
320.587	124.75
320.816	137.75
321.046	118.75
321.275	140.75
321.504	135.75
321.733	124.75
321.962	120.75
322.191	133.75
322.42	137.75
322.649	134.75
322.878	131.75
323.108	139.75
323.337	141.75
323.566	124.75
323.795	135.75
324.024	122.75
324.253	120.75
324.482	126.75
324.71	132.75
324.939	144.75
325.168	155.75
325.397	118.75
325.626	108.75
325.855	137.75
326.084	125.75
326.313	141.75
326.542	133.75
326.77	134.75
326.999	143.75
327.228	148.75
327.457	140.75
327.686	124.75
327.914	129.75
328.143	146.75
328.372	135.75
328.6	126.75
328.829	134.75
329.058	139.75
329.287	143.75
329.515	119.75
329.744	120.75
329.972	122.75
330.201	121.75
330.43	113.75
330.658	118.75
330.887	134.75
331.115	136.75
331.344	125.75
331.572	136.75
331.801	139.75
332.03	143.75
332.258	147.75
332.486	144.75
332.715	157.75
332.943	150.75
333.172	159.75
333.4	164.75
333.629	154.75
333.857	155.75
334.085	160.75
334.314	130.75
334.542	161.75
334.771	151.75
334.999	157.75
335.227	131.75
335.455	136.75
335.684	169.75
335.912	132.75
336.14	151.75
336.369	150.75
336.597	138.75
336.825	150.75
337.053	143.75
337.281	154.75
337.51	135.75
337.738	148.75
337.966	127.75
338.194	145.75
338.422	140.75
338.65	136.75
338.878	148.75
339.106	141.75
339.334	144.75
339.562	135.75
339.79	139.75
340.018	131.75
340.246	125.75
340.474	140.75
340.702	132.75
340.93	124.75
341.158	141.75
341.386	140.75
341.614	121.75
341.842	130.75
342.07	134.75
342.298	135.75
342.526	147.75
342.754	146.75
342.981	143.75
343.209	132.75
343.437	167.75
343.665	131.75
343.893	153.75
344.12	151.75
344.348	150.75
344.576	148.75
344.804	140.75
345.031	136.75
345.259	139.75
345.487	146.75
345.714	125.75
345.942	132.75
346.17	138.75
346.397	133.75
346.625	132.75
346.853	134.75
347.08	133.75
347.308	138.75
347.535	150.75
347.763	136.75
347.99	135.75
348.218	143.75
348.445	149.75
348.673	136.75
348.9	137.75
349.128	144.75
349.355	129.75
349.583	135.75
349.81	126.75
350.037	151.75
350.265	130.75
350.492	129.75
350.72	124.75
350.947	145.75
351.174	141.75
351.402	118.75
351.629	139.75
351.856	121.75
352.083	128.75
352.311	138.75
352.538	138.75
352.765	139.75
352.992	151.75
353.22	130.75
353.447	122.75
353.674	124.75
353.901	141.75
354.128	140.75
354.355	117.75
354.583	123.75
354.81	138.75
355.037	152.75
355.264	135.75
355.491	127.75
355.718	141.75
355.945	152.75
356.172	139.75
356.399	146.75
356.626	138.75
356.853	131.75
357.08	131.75
357.307	143.75
357.534	132.75
357.761	130.75
357.988	146.75
358.215	134.75
358.441	125.75
358.668	128.75
358.895	143.75
359.122	135.75
359.349	127.75
359.576	130.75
359.802	130.75
360.029	128.75
360.256	114.75
360.483	118.75
360.709	127.75
360.936	164.75
361.163	132.75
361.39	148.75
361.616	135.75
361.843	137.75
362.07	122.75
362.296	148.75
362.523	155.75
362.749	130.75
362.976	114.75
363.203	150.75
363.429	145.75
363.656	138.75
363.882	121.75
364.109	138.75
364.335	133.75
364.562	146.75
364.788	137.75
365.015	133.75
365.241	116.75
365.468	125.75
365.694	121.75
365.92	142.75
366.147	121.75
366.373	126.75
366.599	140.75
366.826	150.75
367.052	147.75
367.278	148.75
367.505	131.75
367.731	163.75
367.957	133.75
368.184	138.75
368.41	135.75
368.636	130.75
368.862	142.75
369.089	137.75
369.315	139.75
369.541	143.75
369.767	148.75
369.993	126.75
370.219	150.75
370.445	147.75
370.672	155.75
370.898	142.75
371.124	136.75
371.35	142.75
371.576	140.75
371.802	148.75
372.028	136.75
372.254	139.75
372.48	126.75
372.706	140.75
372.932	134.75
373.158	152.75
373.384	155.75
373.61	146.75
373.835	142.75
374.061	152.75
374.287	156.75
374.513	147.75
374.739	141.75
374.965	156.75
375.191	154.75
375.416	150.75
375.642	158.75
375.868	143.75
376.094	175.75
376.319	135.75
376.545	145.75
376.771	147.75
376.997	136.75
377.222	145.75
377.448	162.75
377.674	139.75
377.899	132.75
378.125	157.75
378.35	149.75
378.576	138.75
378.802	139.75
379.027	147.75
379.253	154.75
379.478	133.75
379.704	155.75
379.929	146.75
380.155	143.75
380.38	146.75
380.606	141.75
380.831	138.75
381.057	154.75
381.282	148.75
381.507	146.75
381.733	143.75
381.958	143.75
382.184	143.75
382.409	161.75
382.634	158.75
382.86	166.75
383.085	151.75
383.31	174.75
383.535	163.75
383.761	142.75
383.986	155.75
384.211	149.75
384.436	160.75
384.662	159.75
384.887	171.75
385.112	153.75
385.337	175.75
385.562	168.75
385.787	152.75
386.013	166.75
386.238	169.75
386.463	178.75
386.688	200.75
386.913	160.75
387.138	172.75
387.363	154.75
387.588	165.75
387.813	166.75
388.038	170.75
388.263	163.75
388.488	173.75
388.713	175.75
388.938	178.75
389.163	152.75
389.387	163.75
389.612	158.75
389.837	176.75
390.062	186.75
390.287	185.75
390.512	167.75
390.736	171.75
390.961	165.75
391.186	176.75
391.411	178.75
391.636	184.75
391.86	175.75
392.085	186.75
392.31	182.75
392.534	176.75
392.759	199.75
392.984	175.75
393.208	180.75
393.433	172.75
393.658	194.75
393.882	193.75
394.107	186.75
394.331	194.75
394.556	188.75
394.78	203.75
395.005	192.75
395.229	198.75
395.454	197.75
395.678	197.75
395.903	191.75
396.127	184.75
396.352	191.75
396.576	183.75
396.801	199.75
397.025	191.75
397.249	191.75
397.474	204.75
397.698	200.75
397.922	207.75
398.147	194.75
398.371	206.75
398.595	203.75
398.82	229.75
399.044	235.75
399.268	270.75
399.492	281.75
399.717	301.75
399.941	286.75
400.165	260.75
400.389	240.75
400.613	246.75
400.837	216.75
401.062	220.75
401.286	206.75
401.51	226.75
401.734	221.75
401.958	229.75
402.182	251.75
402.406	242.75
402.63	244.75
402.854	257.75
403.078	267.75
403.302	250.75
403.526	261.75
403.75	266.75
403.974	259.75
404.198	254.75
404.422	284.75
404.645	278.75
404.869	263.75
405.093	265.75
405.317	251.75
405.541	249.75
405.765	258.75
405.988	267.75
406.212	249.75
406.436	255.75
406.66	287.75
406.883	283.75
407.107	266.75
407.331	292.75
407.555	298.75
407.778	279.75
408.002	300.75
408.226	279.75
408.449	276.75
408.673	276.75
408.896	268.75
409.12	265.75
409.344	291.75
409.567	279.75
409.791	292.75
410.014	285.75
410.238	296.75
410.461	278.75
410.685	276.75
410.908	256.75
411.132	268.75
411.355	258.75
411.578	278.75
411.802	263.75
412.025	259.75
412.249	287.75
412.472	274.75
412.695	274.75
412.919	259.75
413.142	278.75
413.365	266.75
413.589	254.75
413.812	255.75
414.035	268.75
414.258	276.75
414.482	263.75
414.705	275.75
414.928	293.75
415.151	266.75
415.374	272.75
415.597	271.75
415.821	270.75
416.044	258.75
416.267	259.75
416.49	263.75
416.713	271.75
416.936	255.75
417.159	263.75
417.382	270.75
417.605	263.75
417.828	284.75
418.051	270.75
418.274	288.75
418.497	268.75
418.72	289.75
418.943	292.75
419.166	298.75
419.389	282.75
419.611	276.75
419.834	283.75
420.057	304.75
420.28	261.75
420.503	276.75
420.726	271.75
420.948	294.75
421.171	277.75
421.394	288.75
421.617	267.75
421.839	264.75
422.062	282.75
422.285	276.75
422.507	292.75
422.73	283.75
422.953	276.75
423.175	284.75
423.398	278.75
423.621	287.75
423.843	277.75
424.066	312.75
424.288	303.75
424.511	289.75
424.733	298.75
424.956	276.75
425.178	279.75
425.401	294.75
425.623	293.75
425.846	278.75
426.068	275.75
426.291	263.75
426.513	267.75
426.735	267.75
426.958	255.75
427.18	248.75
427.402	259.75
427.625	260.75
427.847	263.75
428.069	242.75
428.292	252.75
428.514	239.75
428.736	257.75
428.958	258.75
429.181	247.75
429.403	248.75
429.625	263.75
429.847	270.75
430.069	232.75
430.292	260.75
430.514	258.75
430.736	240.75
430.958	252.75
431.18	243.75
431.402	250.75
431.624	240.75
431.846	222.75
432.068	212.75
432.29	235.75
432.512	238.75
432.734	256.75
432.956	267.75
433.178	250.75
433.4	270.75
433.622	275.75
433.844	252.75
434.066	238.75
434.287	232.75
434.509	214.75
434.731	244.75
434.953	244.75
435.175	270.75
435.397	272.75
435.618	236.75
435.84	244.75
436.062	245.75
436.284	235.75
436.505	249.75
436.727	250.75
436.949	263.75
437.17	262.75
437.392	249.75
437.614	240.75
437.835	217.75
438.057	210.75
438.278	232.75
438.5	228.75
438.721	271.75
438.943	272.75
439.165	259.75
439.386	259.75
439.608	284.75
439.829	270.75
440.05	276.75
440.272	277.75
440.493	272.75
440.715	260.75
440.936	279.75
441.158	304.75
441.379	283.75
441.6	284.75
441.822	279.75
442.043	287.75
442.264	285.75
442.486	272.75
442.707	261.75
442.928	281.75
443.149	286.75
443.371	272.75
443.592	268.75
443.813	285.75
444.034	281.75
444.255	322.75
444.476	327.75
444.698	322.75
444.919	332.75
445.14	560.75
445.361	421.75
445.582	297.75
445.803	284.75
446.024	272.75
446.245	291.75
446.466	284.75
446.687	292.75
446.908	281.75
447.129	278.75
447.35	266.75
447.571	274.75
447.792	265.75
448.013	261.75
448.234	246.75
448.455	260.75
448.675	242.75
448.896	254.75
449.117	248.75
449.338	244.75
449.559	261.75
449.779	233.75
450	243.75
450.221	253.75
450.442	245.75
450.662	242.75
450.883	256.75
451.104	272.75
451.324	253.75
451.545	238.75
451.766	244.75
451.986	239.75
452.207	251.75
452.428	232.75
452.648	235.75
452.869	239.75
453.089	228.75
453.31	205.75
453.53	218.75
453.751	207.75
453.971	212.75
454.192	197.75
454.412	211.75
454.633	224.75
454.853	221.75
455.073	229.75
455.294	246.75
455.514	248.75
455.734	227.75
455.955	229.75
456.175	217.75
456.395	214.75
456.616	212.75
456.836	195.75
457.056	218.75
457.276	210.75
457.497	221.75
457.717	207.75
457.937	222.75
458.157	203.75
458.377	202.75
458.598	214.75
458.818	204.75
459.038	214.75
459.258	210.75
459.478	197.75
459.698	207.75
459.918	213.75
460.138	242.75
460.358	275.75
460.578	262.75
460.798	262.75
461.018	265.75
461.238	266.75
461.458	273.75
461.678	273.75
461.898	268.75
462.118	261.75
462.338	287.75
462.558	280.75
462.777	300.75
462.997	326.75
463.217	339.75
463.437	313.75
463.657	278.75
463.876	286.75
464.096	280.75
464.316	296.75
464.536	291.75
464.755	278.75
464.975	274.75
465.195	264.75
465.414	273.75
465.634	242.75
465.854	255.75
466.073	248.75
466.293	235.75
466.512	248.75
466.732	254.75
466.951	250.75
467.171	254.75
467.391	256.75
467.61	274.75
467.829	260.75
468.049	254.75
468.268	234.75
468.488	241.75
468.707	263.75
468.927	245.75
469.146	242.75
469.365	247.75
469.585	268.75
469.804	266.75
470.023	276.75
470.243	260.75
470.462	260.75
470.681	260.75
470.901	268.75
471.12	271.75
471.339	271.75
471.558	258.75
471.777	267.75
471.997	244.75
472.216	245.75
472.435	234.75
472.654	213.75
472.873	200.75
473.092	221.75
473.311	233.75
473.53	239.75
473.749	230.75
473.968	239.75
474.187	226.75
474.406	224.75
474.625	244.75
474.844	248.75
475.063	248.75
475.282	234.75
475.501	227.75
475.72	245.75
475.939	232.75
476.158	264.75
476.377	254.75
476.596	232.75
476.814	228.75
477.033	229.75
477.252	243.75
477.471	251.75
477.69	260.75
477.908	282.75
478.127	281.75
478.346	284.75
478.564	268.75
478.783	280.75
479.002	275.75
479.22	299.75
479.439	276.75
479.658	266.75
479.876	270.75
480.095	253.75
480.313	269.75
480.532	260.75
480.751	248.75
480.969	249.75
481.188	231.75
481.406	238.75
481.624	231.75
481.843	234.75
482.061	226.75
482.28	236.75
482.498	233.75
482.717	223.75
482.935	262.75
483.153	278.75
483.372	267.75
483.59	270.75
483.808	250.75
484.027	251.75
484.245	262.75
484.463	238.75
484.681	286.75
484.9	265.75
485.118	266.75
485.336	251.75
485.554	254.75
485.772	239.75
485.99	229.75
486.209	246.75
486.427	243.75
486.645	251.75
486.863	282.75
487.081	282.75
487.299	259.75
487.517	278.75
487.735	328.75
487.953	317.75
488.171	314.75
488.389	302.75
488.607	290.75
488.825	248.75
489.043	263.75
489.261	270.75
489.479	286.75
489.696	279.75
489.914	264.75
490.132	276.75
490.35	296.75
490.568	294.75
490.786	312.75
491.003	328.75
491.221	328.75
491.439	314.75
491.657	340.75
491.874	350.75
492.092	365.75
492.31	357.75
492.527	372.75
492.745	336.75
492.963	346.75
493.18	342.75
493.398	351.75
493.615	361.75
493.833	342.75
494.05	297.75
494.268	312.75
494.485	338.75
494.703	316.75
494.92	339.75
495.138	299.75
495.355	326.75
495.573	313.75
495.79	310.75
496.008	327.75
496.225	326.75
496.442	306.75
496.66	315.75
496.877	317.75
497.094	329.75
497.312	319.75
497.529	317.75
497.746	338.75
497.963	302.75
498.181	308.75
498.398	332.75
498.615	334.75
498.832	338.75
499.049	366.75
499.267	394.75
499.484	442.75
499.701	483.75
499.918	502.75
500.135	558.75
500.352	636.75
500.569	640.75
500.786	621.75
501.003	582.75
501.22	536.75
501.437	467.75
501.654	438.75
501.871	421.75
502.088	387.75
502.305	379.75
502.522	350.75
502.739	356.75
502.956	337.75
503.172	311.75
503.389	300.75
503.606	282.75
503.823	294.75
504.04	301.75
504.256	284.75
504.473	302.75
504.69	293.75
