Data from SampA_HRD10591_00026.txt Node
Date: Mon Jan 19 11:26:55 EST 2026
User: Yrep
Spectrometer: HR+D1059
Trigger mode: 0
Integration Time (sec): 3.443000E-1
Scans to average: 1
Electric dark correction enabled: true
Nonlinearity correction enabled: false
Boxcar width: 0
XAxis mode: Wavelengths
Number of Pixels in Spectrum: 2048
>>>>>Begin Spectral Data<<<<<
223.165	-17.69
223.4	-17.69
223.635	-17.69
223.869	-12.69
224.104	-20.69
224.338	-19.69
224.573	-1.69
224.808	-14.69
225.042	-1.69
225.277	-5.69
225.511	-11.69
225.746	-7.69
225.98	12.31
226.215	18.31
226.449	16.31
226.683	17.31
226.918	25.31
227.152	24.31
227.387	43.31
227.621	36.31
227.856	61.31
228.09	55.31
228.324	50.31
228.559	64.31
228.793	76.31
229.027	62.31
229.262	52.31
229.496	77.31
229.73	66.31
229.964	79.31
230.199	88.31
230.433	77.31
230.667	72.31
230.901	87.31
231.136	75.31
231.37	91.31
231.604	81.31
231.838	78.31
232.072	81.31
232.306	88.31
232.541	91.31
232.775	90.31
233.009	80.31
233.243	83.31
233.477	72.31
233.711	78.31
233.945	95.31
234.179	73.31
234.413	81.31
234.647	104.31
234.881	103.31
235.115	77.31
235.349	87.31
235.583	94.31
235.817	86.31
236.051	74.31
236.285	71.31
236.519	77.31
236.753	82.31
236.987	82.31
237.221	66.31
237.455	83.31
237.689	88.31
237.922	80.31
238.156	96.31
238.39	74.31
238.624	78.31
238.858	76.31
239.091	78.31
239.325	83.31
239.559	71.31
239.793	97.31
240.027	86.31
240.26	88.31
240.494	91.31
240.728	97.31
240.961	88.31
241.195	106.31
241.429	80.31
241.662	72.31
241.896	78.31
242.13	77.31
242.363	75.31
242.597	72.31
242.83	85.31
243.064	90.31
243.298	82.31
243.531	80.31
243.765	87.31
243.998	84.31
244.232	89.31
244.465	96.31
244.699	91.31
244.932	76.31
245.166	76.31
245.399	90.31
245.633	84.31
245.866	102.31
246.099	71.31
246.333	91.31
246.566	94.31
246.8	77.31
247.033	65.31
247.266	82.31
247.5	82.31
247.733	98.31
247.966	89.31
248.2	91.31
248.433	95.31
248.666	84.31
248.899	85.31
249.133	94.31
249.366	86.31
249.599	86.31
249.832	73.31
250.066	88.31
250.299	83.31
250.532	104.31
250.765	90.31
250.998	87.31
251.231	83.31
251.465	82.31
251.698	106.31
251.931	78.31
252.164	90.31
252.397	77.31
252.63	95.31
252.863	90.31
253.096	91.31
253.329	84.31
253.562	73.31
253.795	88.31
254.028	95.31
254.261	90.31
254.494	84.31
254.727	101.31
254.96	84.31
255.193	86.31
255.426	95.31
255.659	88.31
255.892	97.31
256.124	75.31
256.357	66.31
256.59	82.31
256.823	88.31
257.056	106.31
257.289	94.31
257.521	105.31
257.754	104.31
257.987	94.31
258.22	97.31
258.452	81.31
258.685	89.31
258.918	87.31
259.151	92.31
259.383	105.31
259.616	91.31
259.849	76.31
260.081	90.31
260.314	93.31
260.547	111.31
260.779	83.31
261.012	81.31
261.244	83.31
261.477	100.31
261.71	97.31
261.942	103.31
262.175	98.31
262.407	96.31
262.64	85.31
262.872	92.31
263.105	87.31
263.337	112.31
263.57	96.31
263.802	91.31
264.035	92.31
264.267	95.31
264.499	104.31
264.732	96.31
264.964	84.31
265.197	95.31
265.429	90.31
265.661	86.31
265.894	91.31
266.126	100.31
266.358	99.31
266.591	97.31
266.823	92.31
267.055	74.31
267.287	101.31
267.52	103.31
267.752	103.31
267.984	95.31
268.216	89.31
268.448	105.31
268.681	104.31
268.913	99.31
269.145	100.31
269.377	100.31
269.609	104.31
269.841	88.31
270.073	97.31
270.306	95.31
270.538	97.31
270.77	107.31
271.002	101.31
271.234	97.31
271.466	120.31
271.698	90.31
271.93	84.31
272.162	100.31
272.394	107.31
272.626	86.31
272.858	95.31
273.09	109.31
273.322	101.31
273.553	100.31
273.785	95.31
274.017	86.31
274.249	100.31
274.481	102.31
274.713	95.31
274.945	94.31
275.176	94.31
275.408	104.31
275.64	106.31
275.872	107.31
276.104	104.31
276.335	96.31
276.567	94.31
276.799	97.31
277.031	103.31
277.262	97.31
277.494	97.31
277.726	100.31
277.957	97.31
278.189	86.31
278.421	92.31
278.652	85.31
278.884	103.31
279.115	80.31
279.347	105.31
279.579	101.31
279.81	90.31
280.042	96.31
280.273	93.31
280.505	91.31
280.736	96.31
280.968	105.31
281.199	98.31
281.431	109.31
281.662	109.31
281.894	114.31
282.125	111.31
282.356	102.31
282.588	108.31
282.819	130.31
283.051	103.31
283.282	111.31
283.513	112.31
283.745	114.31
283.976	96.31
284.207	103.31
284.439	106.31
284.67	102.31
284.901	107.31
285.132	102.31
285.364	101.31
285.595	105.31
285.826	100.31
286.057	96.31
286.288	98.31
286.52	110.31
286.751	97.31
286.982	95.31
287.213	108.31
287.444	100.31
287.675	97.31
287.906	127.31
288.138	102.31
288.369	93.31
288.6	96.31
288.831	105.31
289.062	104.31
289.293	127.31
289.524	109.31
289.755	113.31
289.986	89.31
290.217	106.31
290.448	109.31
290.679	104.31
290.91	98.31
291.141	106.31
291.371	106.31
291.602	119.31
291.833	114.31
292.064	104.31
292.295	87.31
292.526	105.31
292.757	94.31
292.987	111.31
293.218	106.31
293.449	102.31
293.68	111.31
293.91	92.31
294.141	122.31
294.372	100.31
294.603	106.31
294.833	97.31
295.064	104.31
295.295	102.31
295.525	108.31
295.756	119.31
295.987	105.31
296.217	96.31
296.448	107.31
296.679	105.31
296.909	111.31
297.14	107.31
297.37	115.31
297.601	105.31
297.831	100.31
298.062	102.31
298.292	110.31
298.523	119.31
298.753	105.31
298.984	111.31
299.214	101.31
299.445	105.31
299.675	104.31
299.905	123.31
300.136	113.31
300.366	102.31
300.597	108.31
300.827	113.31
301.057	99.31
301.288	111.31
301.518	114.31
301.748	114.31
301.979	137.31
302.209	110.31
302.439	104.31
302.669	99.31
302.9	103.31
303.13	104.31
303.36	107.31
303.59	113.31
303.82	122.31
304.051	113.31
304.281	110.31
304.511	104.31
304.741	106.31
304.971	120.31
305.201	125.31
305.431	118.31
305.661	116.31
305.891	119.31
306.121	103.31
306.352	103.31
306.582	107.31
306.812	118.31
307.042	103.31
307.272	106.31
307.502	98.31
307.731	118.31
307.961	112.31
308.191	109.31
308.421	93.31
308.651	123.31
308.881	110.31
309.111	97.31
309.341	97.31
309.571	117.31
309.8	114.31
310.03	101.31
310.26	96.31
310.49	107.31
310.72	111.31
310.949	99.31
311.179	118.31
311.409	105.31
311.639	107.31
311.868	112.31
312.098	119.31
312.328	122.31
312.557	101.31
312.787	99.31
313.017	101.31
313.246	98.31
313.476	102.31
313.706	104.31
313.935	110.31
314.165	112.31
314.394	98.31
314.624	103.31
314.853	111.31
315.083	95.31
315.312	110.31
315.542	104.31
315.771	100.31
316.001	95.31
316.23	121.31
316.46	98.31
316.689	103.31
316.919	100.31
317.148	110.31
317.377	109.31
317.607	114.31
317.836	113.31
318.065	125.31
318.295	109.31
318.524	106.31
318.753	119.31
318.983	96.31
319.212	118.31
319.441	106.31
319.67	120.31
319.9	91.31
320.129	105.31
320.358	112.31
320.587	97.31
320.816	115.31
321.046	112.31
321.275	115.31
321.504	103.31
321.733	117.31
321.962	114.31
322.191	104.31
322.42	106.31
322.649	104.31
322.878	134.31
323.108	118.31
323.337	119.31
323.566	113.31
323.795	115.31
324.024	124.31
324.253	102.31
324.482	89.31
324.71	102.31
324.939	107.31
325.168	107.31
325.397	101.31
325.626	98.31
325.855	95.31
326.084	105.31
326.313	112.31
326.542	114.31
326.77	115.31
326.999	106.31
327.228	111.31
327.457	107.31
327.686	108.31
327.914	103.31
328.143	109.31
328.372	110.31
328.6	106.31
328.829	121.31
329.058	107.31
329.287	110.31
329.515	107.31
329.744	108.31
329.972	111.31
330.201	122.31
330.43	115.31
330.658	110.31
330.887	97.31
331.115	111.31
331.344	106.31
331.572	108.31
331.801	119.31
332.03	106.31
332.258	114.31
332.486	115.31
332.715	107.31
332.943	100.31
333.172	124.31
333.4	120.31
333.629	127.31
333.857	135.31
334.085	124.31
334.314	110.31
334.542	120.31
334.771	100.31
334.999	133.31
335.227	116.31
335.455	117.31
335.684	126.31
335.912	113.31
336.14	125.31
336.369	109.31
336.597	122.31
336.825	110.31
337.053	119.31
337.281	122.31
337.51	125.31
337.738	120.31
337.966	111.31
338.194	114.31
338.422	113.31
338.65	104.31
338.878	118.31
339.106	116.31
339.334	127.31
339.562	117.31
339.79	106.31
340.018	110.31
340.246	108.31
340.474	112.31
340.702	93.31
340.93	114.31
341.158	113.31
341.386	104.31
341.614	100.31
341.842	123.31
342.07	104.31
342.298	109.31
342.526	97.31
342.754	114.31
342.981	115.31
343.209	126.31
343.437	143.31
343.665	117.31
343.893	122.31
344.12	139.31
344.348	135.31
344.576	113.31
344.804	115.31
345.031	93.31
345.259	103.31
345.487	107.31
345.714	110.31
345.942	102.31
346.17	111.31
346.397	106.31
346.625	123.31
346.853	107.31
347.08	112.31
347.308	121.31
347.535	124.31
347.763	111.31
347.99	118.31
348.218	115.31
348.445	115.31
348.673	114.31
348.9	92.31
349.128	120.31
349.355	121.31
349.583	114.31
349.81	109.31
350.037	100.31
350.265	112.31
350.492	128.31
350.72	118.31
350.947	109.31
351.174	113.31
351.402	109.31
351.629	111.31
351.856	117.31
352.083	112.31
352.311	107.31
352.538	102.31
352.765	104.31
352.992	122.31
353.22	112.31
353.447	113.31
353.674	113.31
353.901	124.31
354.128	119.31
354.355	105.31
354.583	108.31
354.81	112.31
355.037	127.31
355.264	132.31
355.491	124.31
355.718	114.31
355.945	115.31
356.172	118.31
356.399	110.31
356.626	98.31
356.853	114.31
357.08	124.31
357.307	118.31
357.534	106.31
357.761	114.31
357.988	127.31
358.215	116.31
358.441	119.31
358.668	111.31
358.895	125.31
359.122	107.31
359.349	104.31
359.576	99.31
359.802	98.31
360.029	93.31
360.256	125.31
360.483	104.31
360.709	113.31
360.936	105.31
361.163	106.31
361.39	112.31
361.616	119.31
361.843	113.31
362.07	111.31
362.296	117.31
362.523	90.31
362.749	90.31
362.976	118.31
363.203	122.31
363.429	107.31
363.656	102.31
363.882	121.31
364.109	111.31
364.335	101.31
364.562	105.31
364.788	100.31
365.015	105.31
365.241	118.31
365.468	121.31
365.694	106.31
365.92	107.31
366.147	96.31
366.373	103.31
366.599	123.31
366.826	107.31
367.052	124.31
367.278	114.31
367.505	99.31
367.731	123.31
367.957	103.31
368.184	125.31
368.41	106.31
368.636	117.31
368.862	124.31
369.089	114.31
369.315	105.31
369.541	109.31
369.767	129.31
369.993	124.31
370.219	112.31
370.445	118.31
370.672	110.31
370.898	94.31
371.124	119.31
371.35	105.31
371.576	107.31
371.802	103.31
372.028	127.31
372.254	114.31
372.48	117.31
372.706	123.31
372.932	119.31
373.158	133.31
373.384	134.31
373.61	106.31
373.835	119.31
374.061	118.31
374.287	120.31
374.513	108.31
374.739	127.31
374.965	122.31
375.191	107.31
375.416	118.31
375.642	103.31
375.868	135.31
376.094	122.31
376.319	114.31
376.545	111.31
376.771	115.31
376.997	102.31
377.222	113.31
377.448	123.31
377.674	126.31
377.899	116.31
378.125	107.31
378.35	112.31
378.576	118.31
378.802	112.31
379.027	117.31
379.253	119.31
379.478	123.31
379.704	123.31
379.929	103.31
380.155	100.31
380.38	115.31
380.606	118.31
380.831	118.31
381.057	122.31
381.282	120.31
381.507	113.31
381.733	104.31
381.958	109.31
382.184	130.31
382.409	112.31
382.634	120.31
382.86	122.31
383.085	115.31
383.31	120.31
383.535	128.31
383.761	125.31
383.986	118.31
384.211	110.31
384.436	108.31
384.662	101.31
384.887	131.31
385.112	115.31
385.337	112.31
385.562	127.31
385.787	122.31
386.013	129.31
386.238	117.31
386.463	127.31
386.688	155.31
386.913	134.31
387.138	135.31
387.363	117.31
387.588	142.31
387.813	138.31
388.038	134.31
388.263	140.31
388.488	125.31
388.713	119.31
388.938	128.31
389.163	122.31
389.387	120.31
389.612	124.31
389.837	131.31
390.062	128.31
390.287	126.31
390.512	127.31
390.736	127.31
390.961	130.31
391.186	136.31
391.411	141.31
391.636	143.31
391.86	134.31
392.085	134.31
392.31	136.31
392.534	129.31
392.759	154.31
392.984	139.31
393.208	129.31
393.433	141.31
393.658	127.31
393.882	114.31
394.107	132.31
394.331	120.31
394.556	134.31
394.78	144.31
395.005	136.31
395.229	125.31
395.454	145.31
395.678	136.31
395.903	151.31
396.127	151.31
396.352	131.31
396.576	150.31
396.801	136.31
397.025	145.31
397.249	167.31
397.474	162.31
397.698	149.31
397.922	157.31
398.147	155.31
398.371	143.31
398.595	142.31
398.82	141.31
399.044	161.31
399.268	164.31
399.492	199.31
399.717	218.31
399.941	187.31
400.165	169.31
400.389	165.31
400.613	171.31
400.837	159.31
401.062	170.31
401.286	148.31
401.51	147.31
401.734	157.31
401.958	171.31
402.182	161.31
402.406	158.31
402.63	166.31
402.854	151.31
403.078	147.31
403.302	173.31
403.526	172.31
403.75	179.31
403.974	176.31
404.198	172.31
404.422	171.31
404.645	169.31
404.869	186.31
405.093	179.31
405.317	168.31
405.541	167.31
405.765	164.31
405.988	206.31
406.212	175.31
406.436	162.31
406.66	176.31
406.883	175.31
407.107	177.31
407.331	194.31
407.555	183.31
407.778	186.31
408.002	182.31
408.226	183.31
408.449	172.31
408.673	175.31
408.896	179.31
409.12	176.31
409.344	175.31
409.567	176.31
409.791	175.31
410.014	182.31
410.238	198.31
410.461	170.31
410.685	187.31
410.908	189.31
411.132	179.31
411.355	173.31
411.578	180.31
411.802	172.31
412.025	150.31
412.249	157.31
412.472	164.31
412.695	168.31
412.919	171.31
413.142	175.31
413.365	170.31
413.589	171.31
413.812	178.31
414.035	173.31
414.258	174.31
414.482	171.31
414.705	162.31
414.928	171.31
415.151	168.31
415.374	173.31
415.597	169.31
415.821	166.31
416.044	174.31
416.267	167.31
416.49	175.31
416.713	172.31
416.936	187.31
417.159	162.31
417.382	161.31
417.605	173.31
417.828	167.31
418.051	172.31
418.274	196.31
418.497	169.31
418.72	174.31
418.943	192.31
419.166	192.31
419.389	199.31
419.611	191.31
419.834	156.31
420.057	178.31
420.28	167.31
420.503	175.31
420.726	180.31
420.948	172.31
421.171	185.31
421.394	182.31
421.617	174.31
421.839	172.31
422.062	190.31
422.285	175.31
422.507	185.31
422.73	177.31
422.953	171.31
423.175	178.31
423.398	166.31
423.621	179.31
423.843	172.31
424.066	188.31
424.288	191.31
424.511	188.31
424.733	166.31
424.956	178.31
425.178	178.31
425.401	177.31
425.623	178.31
425.846	159.31
426.068	167.31
426.291	186.31
426.513	157.31
426.735	184.31
426.958	185.31
427.18	171.31
427.402	167.31
427.625	167.31
427.847	155.31
428.069	173.31
428.292	162.31
428.514	174.31
428.736	159.31
428.958	168.31
429.181	153.31
429.403	180.31
429.625	175.31
429.847	167.31
430.069	165.31
430.292	167.31
430.514	159.31
430.736	145.31
430.958	160.31
431.18	176.31
431.402	169.31
431.624	169.31
431.846	151.31
432.068	162.31
432.29	156.31
432.512	156.31
432.734	151.31
432.956	167.31
433.178	179.31
433.4	167.31
433.622	176.31
433.844	181.31
434.066	165.31
434.287	162.31
434.509	140.31
434.731	171.31
434.953	182.31
435.175	188.31
435.397	191.31
435.618	161.31
435.84	152.31
436.062	162.31
436.284	168.31
436.505	170.31
436.727	183.31
436.949	166.31
437.17	179.31
437.392	162.31
437.614	151.31
437.835	167.31
438.057	162.31
438.278	152.31
438.5	152.31
438.721	176.31
438.943	168.31
439.165	184.31
439.386	179.31
439.608	176.31
439.829	172.31
440.05	175.31
440.272	175.31
440.493	172.31
440.715	171.31
440.936	182.31
441.158	192.31
441.379	185.31
441.6	179.31
441.822	199.31
442.043	178.31
442.264	187.31
442.486	190.31
442.707	172.31
442.928	173.31
443.149	167.31
443.371	187.31
443.592	172.31
443.813	173.31
444.034	184.31
444.255	202.31
444.476	196.31
444.698	210.31
444.919	214.31
445.14	428.31
445.361	280.31
445.582	195.31
445.803	194.31
446.024	169.31
446.245	191.31
446.466	187.31
446.687	187.31
446.908	186.31
447.129	181.31
447.35	178.31
447.571	176.31
447.792	159.31
448.013	170.31
448.234	168.31
448.455	170.31
448.675	168.31
448.896	179.31
449.117	169.31
449.338	160.31
449.559	170.31
449.779	170.31
450	159.31
450.221	168.31
450.442	145.31
450.662	169.31
450.883	174.31
451.104	172.31
451.324	182.31
451.545	162.31
451.766	171.31
451.986	156.31
452.207	152.31
452.428	155.31
452.648	168.31
452.869	152.31
453.089	148.31
453.31	147.31
453.53	147.31
453.751	142.31
453.971	132.31
454.192	131.31
454.412	137.31
454.633	138.31
454.853	158.31
455.073	158.31
455.294	160.31
455.514	169.31
455.734	143.31
455.955	146.31
456.175	155.31
456.395	136.31
456.616	158.31
456.836	157.31
457.056	147.31
457.276	146.31
457.497	140.31
457.717	151.31
457.937	149.31
458.157	142.31
458.377	153.31
458.598	147.31
458.818	141.31
459.038	142.31
459.258	147.31
459.478	146.31
459.698	156.31
459.918	159.31
460.138	166.31
460.358	188.31
460.578	191.31
460.798	190.31
461.018	173.31
461.238	157.31
461.458	180.31
461.678	173.31
461.898	188.31
462.118	180.31
462.338	176.31
462.558	186.31
462.777	177.31
462.997	182.31
463.217	194.31
463.437	196.31
463.657	187.31
463.876	174.31
464.096	181.31
464.316	177.31
464.536	184.31
464.755	179.31
464.975	190.31
465.195	186.31
465.414	177.31
465.634	180.31
465.854	170.31
466.073	169.31
466.293	161.31
466.512	162.31
466.732	170.31
466.951	164.31
467.171	164.31
467.391	164.31
467.61	185.31
467.829	154.31
468.049	162.31
468.268	166.31
468.488	149.31
468.707	164.31
468.927	157.31
469.146	163.31
469.365	177.31
469.585	170.31
469.804	178.31
470.023	174.31
470.243	186.31
470.462	182.31
470.681	164.31
470.901	176.31
471.12	177.31
471.339	179.31
471.558	163.31
471.777	160.31
471.997	163.31
472.216	162.31
472.435	166.31
472.654	137.31
472.873	157.31
473.092	157.31
473.311	141.31
473.53	155.31
473.749	156.31
473.968	151.31
474.187	146.31
474.406	149.31
474.625	155.31
474.844	170.31
475.063	156.31
475.282	139.31
475.501	159.31
475.72	155.31
475.939	154.31
476.158	159.31
476.377	164.31
476.596	137.31
476.814	153.31
477.033	157.31
477.252	139.31
477.471	163.31
477.69	162.31
477.908	185.31
478.127	180.31
478.346	174.31
478.564	170.31
478.783	174.31
479.002	147.31
479.22	167.31
479.439	188.31
479.658	178.31
479.876	179.31
480.095	172.31
480.313	172.31
480.532	192.31
480.751	176.31
480.969	166.31
481.188	151.31
481.406	157.31
481.624	161.31
481.843	150.31
482.061	154.31
482.28	161.31
482.498	169.31
482.717	151.31
482.935	154.31
483.153	178.31
483.372	175.31
483.59	161.31
483.808	168.31
484.027	172.31
484.245	168.31
484.463	154.31
484.681	187.31
484.9	181.31
485.118	164.31
485.336	162.31
485.554	167.31
485.772	173.31
485.99	166.31
486.209	159.31
486.427	170.31
486.645	178.31
486.863	179.31
487.081	190.31
487.299	187.31
487.517	166.31
487.735	187.31
487.953	190.31
488.171	199.31
488.389	181.31
488.607	171.31
488.825	163.31
489.043	167.31
489.261	190.31
489.479	169.31
489.696	179.31
489.914	180.31
490.132	186.31
490.35	204.31
490.568	185.31
490.786	198.31
491.003	198.31
491.221	206.31
491.439	193.31
491.657	202.31
491.874	219.31
492.092	204.31
492.31	233.31
492.527	212.31
492.745	202.31
492.963	198.31
493.18	200.31
493.398	195.31
493.615	205.31
493.833	210.31
494.05	201.31
494.268	190.31
494.485	168.31
494.703	190.31
494.92	198.31
495.138	206.31
495.355	208.31
495.573	204.31
495.79	199.31
496.008	200.31
496.225	211.31
496.442	178.31
496.66	180.31
496.877	212.31
497.094	198.31
497.312	186.31
497.529	209.31
497.746	214.31
497.963	195.31
498.181	180.31
498.398	204.31
498.615	204.31
498.832	191.31
499.049	218.31
499.267	230.31
499.484	243.31
499.701	289.31
499.918	282.31
500.135	321.31
500.352	355.31
500.569	362.31
500.786	352.31
501.003	326.31
501.22	293.31
501.437	290.31
501.654	252.31
501.871	223.31
502.088	210.31
502.305	218.31
502.522	214.31
502.739	211.31
502.956	195.31
503.172	206.31
503.389	176.31
503.606	171.31
503.823	194.31
504.04	198.31
504.256	198.31
504.473	176.31
504.69	202.31
504.907	214.31
505.123	185.31
505.34	182.31
505.557	169.31
505.773	169.31
