Data from SampA_HRD10591_00005.txt Node
Date: Mon Jan 19 11:26:48 EST 2026
User: Yrep
Spectrometer: HR+D1059
Trigger mode: 0
Integration Time (sec): 3.443000E-1
Scans to average: 1
Electric dark correction enabled: true
Nonlinearity correction enabled: false
Boxcar width: 0
XAxis mode: Wavelengths
Number of Pixels in Spectrum: 2048
>>>>>Begin Spectral Data<<<<<
223.165	-17.25
223.4	-17.25
223.635	-17.25
223.869	-26.25
224.104	-37.25
224.338	-19.25
224.573	-11.25
224.808	-15.25
225.042	-5.25
225.277	-10.25
225.511	-9.25
225.746	16.75
225.98	10.75
226.215	7.75
226.449	24.75
226.683	32.75
226.918	25.75
227.152	32.75
227.387	46.75
227.621	44.75
227.856	53.75
228.09	53.75
228.324	39.75
228.559	59.75
228.793	57.75
229.027	66.75
229.262	71.75
229.496	75.75
229.73	64.75
229.964	98.75
230.199	66.75
230.433	76.75
230.667	88.75
230.901	84.75
231.136	66.75
231.37	78.75
231.604	73.75
231.838	88.75
232.072	85.75
232.306	87.75
232.541	78.75
232.775	78.75
233.009	89.75
233.243	92.75
233.477	88.75
233.711	86.75
233.945	90.75
234.179	82.75
234.413	84.75
234.647	86.75
234.881	78.75
235.115	81.75
235.349	76.75
235.583	90.75
235.817	87.75
236.051	73.75
236.285	95.75
236.519	94.75
236.753	113.75
236.987	90.75
237.221	68.75
237.455	80.75
237.689	86.75
237.922	74.75
238.156	83.75
238.39	79.75
238.624	62.75
238.858	86.75
239.091	92.75
239.325	101.75
239.559	88.75
239.793	70.75
240.027	90.75
240.26	80.75
240.494	89.75
240.728	85.75
240.961	77.75
241.195	98.75
241.429	95.75
241.662	85.75
241.896	91.75
242.13	86.75
242.363	92.75
242.597	83.75
242.83	86.75
243.064	75.75
243.298	90.75
243.531	75.75
243.765	84.75
243.998	89.75
244.232	102.75
244.465	90.75
244.699	74.75
244.932	94.75
245.166	98.75
245.399	94.75
245.633	70.75
245.866	77.75
246.099	88.75
246.333	86.75
246.566	92.75
246.8	79.75
247.033	100.75
247.266	90.75
247.5	84.75
247.733	98.75
247.966	81.75
248.2	85.75
248.433	89.75
248.666	81.75
248.899	101.75
249.133	95.75
249.366	105.75
249.599	94.75
249.832	88.75
250.066	97.75
250.299	76.75
250.532	88.75
250.765	93.75
250.998	93.75
251.231	100.75
251.465	90.75
251.698	96.75
251.931	90.75
252.164	86.75
252.397	97.75
252.63	94.75
252.863	93.75
253.096	104.75
253.329	97.75
253.562	96.75
253.795	100.75
254.028	107.75
254.261	89.75
254.494	94.75
254.727	86.75
254.96	102.75
255.193	96.75
255.426	99.75
255.659	96.75
255.892	97.75
256.124	94.75
256.357	93.75
256.59	93.75
256.823	111.75
257.056	106.75
257.289	100.75
257.521	103.75
257.754	95.75
257.987	91.75
258.22	101.75
258.452	97.75
258.685	102.75
258.918	105.75
259.151	107.75
259.383	92.75
259.616	102.75
259.849	98.75
260.081	104.75
260.314	98.75
260.547	96.75
260.779	92.75
261.012	96.75
261.244	98.75
261.477	112.75
261.71	117.75
261.942	88.75
262.175	89.75
262.407	88.75
262.64	101.75
262.872	116.75
263.105	105.75
263.337	98.75
263.57	93.75
263.802	94.75
264.035	99.75
264.267	97.75
264.499	95.75
264.732	102.75
264.964	112.75
265.197	102.75
265.429	98.75
265.661	86.75
265.894	93.75
266.126	102.75
266.358	102.75
266.591	120.75
266.823	113.75
267.055	102.75
267.287	102.75
267.52	101.75
267.752	107.75
267.984	101.75
268.216	120.75
268.448	113.75
268.681	120.75
268.913	108.75
269.145	127.75
269.377	103.75
269.609	105.75
269.841	105.75
270.073	105.75
270.306	101.75
270.538	108.75
270.77	100.75
271.002	101.75
271.234	101.75
271.466	123.75
271.698	103.75
271.93	104.75
272.162	96.75
272.394	98.75
272.626	99.75
272.858	95.75
273.09	110.75
273.322	113.75
273.553	114.75
273.785	104.75
274.017	108.75
274.249	94.75
274.481	110.75
274.713	107.75
274.945	118.75
275.176	104.75
275.408	103.75
275.64	105.75
275.872	110.75
276.104	102.75
276.335	108.75
276.567	112.75
276.799	109.75
277.031	100.75
277.262	105.75
277.494	103.75
277.726	105.75
277.957	98.75
278.189	110.75
278.421	111.75
278.652	114.75
278.884	114.75
279.115	111.75
279.347	105.75
279.579	123.75
279.81	111.75
280.042	110.75
280.273	104.75
280.505	111.75
280.736	113.75
280.968	111.75
281.199	111.75
281.431	110.75
281.662	115.75
281.894	103.75
282.125	97.75
282.356	112.75
282.588	110.75
282.819	103.75
283.051	106.75
283.282	131.75
283.513	124.75
283.745	119.75
283.976	124.75
284.207	107.75
284.439	117.75
284.67	125.75
284.901	115.75
285.132	110.75
285.364	105.75
285.595	132.75
285.826	132.75
286.057	126.75
286.288	125.75
286.52	113.75
286.751	119.75
286.982	125.75
287.213	119.75
287.444	127.75
287.675	104.75
287.906	138.75
288.138	120.75
288.369	122.75
288.6	108.75
288.831	119.75
289.062	123.75
289.293	113.75
289.524	120.75
289.755	123.75
289.986	123.75
290.217	128.75
290.448	115.75
290.679	125.75
290.91	128.75
291.141	137.75
291.371	130.75
291.602	118.75
291.833	119.75
292.064	126.75
292.295	127.75
292.526	123.75
292.757	121.75
292.987	121.75
293.218	120.75
293.449	118.75
293.68	112.75
293.91	107.75
294.141	126.75
294.372	118.75
294.603	132.75
294.833	122.75
295.064	125.75
295.295	117.75
295.525	127.75
295.756	110.75
295.987	132.75
296.217	115.75
296.448	119.75
296.679	120.75
296.909	118.75
297.14	125.75
297.37	123.75
297.601	112.75
297.831	128.75
298.062	118.75
298.292	118.75
298.523	133.75
298.753	137.75
298.984	124.75
299.214	128.75
299.445	116.75
299.675	125.75
299.905	120.75
300.136	125.75
300.366	109.75
300.597	112.75
300.827	120.75
301.057	128.75
301.288	135.75
301.518	141.75
301.748	141.75
301.979	166.75
302.209	126.75
302.439	127.75
302.669	128.75
302.9	123.75
303.13	117.75
303.36	129.75
303.59	119.75
303.82	126.75
304.051	136.75
304.281	124.75
304.511	140.75
304.741	123.75
304.971	135.75
305.201	142.75
305.431	137.75
305.661	146.75
305.891	132.75
306.121	142.75
306.352	115.75
306.582	124.75
306.812	129.75
307.042	139.75
307.272	142.75
307.502	135.75
307.731	137.75
307.961	114.75
308.191	129.75
308.421	138.75
308.651	129.75
308.881	124.75
309.111	140.75
309.341	124.75
309.571	118.75
309.8	132.75
310.03	132.75
310.26	132.75
310.49	140.75
310.72	134.75
310.949	128.75
311.179	127.75
311.409	139.75
311.639	121.75
311.868	137.75
312.098	143.75
312.328	132.75
312.557	143.75
312.787	132.75
313.017	136.75
313.246	134.75
313.476	137.75
313.706	133.75
313.935	117.75
314.165	118.75
314.394	112.75
314.624	130.75
314.853	143.75
315.083	134.75
315.312	133.75
315.542	131.75
315.771	140.75
316.001	134.75
316.23	149.75
316.46	120.75
316.689	135.75
316.919	134.75
317.148	142.75
317.377	136.75
317.607	133.75
317.836	129.75
318.065	133.75
318.295	137.75
318.524	132.75
318.753	134.75
318.983	128.75
319.212	133.75
319.441	127.75
319.67	134.75
319.9	125.75
320.129	113.75
320.358	139.75
320.587	134.75
320.816	117.75
321.046	134.75
321.275	124.75
321.504	136.75
321.733	127.75
321.962	130.75
322.191	126.75
322.42	134.75
322.649	140.75
322.878	152.75
323.108	134.75
323.337	142.75
323.566	134.75
323.795	126.75
324.024	133.75
324.253	122.75
324.482	135.75
324.71	131.75
324.939	121.75
325.168	122.75
325.397	123.75
325.626	149.75
325.855	134.75
326.084	129.75
326.313	141.75
326.542	134.75
326.77	139.75
326.999	130.75
327.228	126.75
327.457	150.75
327.686	144.75
327.914	146.75
328.143	141.75
328.372	132.75
328.6	146.75
328.829	140.75
329.058	136.75
329.287	136.75
329.515	137.75
329.744	148.75
329.972	142.75
330.201	136.75
330.43	134.75
330.658	134.75
330.887	141.75
331.115	144.75
331.344	134.75
331.572	153.75
331.801	134.75
332.03	131.75
332.258	151.75
332.486	144.75
332.715	143.75
332.943	169.75
333.172	143.75
333.4	163.75
333.629	153.75
333.857	158.75
334.085	148.75
334.314	162.75
334.542	168.75
334.771	168.75
334.999	159.75
335.227	153.75
335.455	160.75
335.684	149.75
335.912	157.75
336.14	153.75
336.369	151.75
336.597	141.75
336.825	156.75
337.053	152.75
337.281	153.75
337.51	144.75
337.738	169.75
337.966	122.75
338.194	142.75
338.422	150.75
338.65	147.75
338.878	136.75
339.106	141.75
339.334	156.75
339.562	148.75
339.79	139.75
340.018	137.75
340.246	137.75
340.474	141.75
340.702	126.75
340.93	145.75
341.158	133.75
341.386	150.75
341.614	135.75
341.842	138.75
342.07	121.75
342.298	128.75
342.526	144.75
342.754	148.75
342.981	140.75
343.209	146.75
343.437	181.75
343.665	159.75
343.893	160.75
344.12	137.75
344.348	157.75
344.576	158.75
344.804	141.75
345.031	137.75
345.259	145.75
345.487	151.75
345.714	138.75
345.942	144.75
346.17	132.75
346.397	130.75
346.625	139.75
346.853	118.75
347.08	127.75
347.308	137.75
347.535	127.75
347.763	135.75
347.99	144.75
348.218	150.75
348.445	140.75
348.673	129.75
348.9	141.75
349.128	139.75
349.355	142.75
349.583	140.75
349.81	160.75
350.037	142.75
350.265	128.75
350.492	127.75
350.72	124.75
350.947	137.75
351.174	125.75
351.402	135.75
351.629	138.75
351.856	147.75
352.083	116.75
352.311	124.75
352.538	133.75
352.765	122.75
352.992	147.75
353.22	153.75
353.447	137.75
353.674	146.75
353.901	153.75
354.128	143.75
354.355	126.75
354.583	138.75
354.81	136.75
355.037	145.75
355.264	126.75
355.491	145.75
355.718	140.75
355.945	142.75
356.172	136.75
356.399	124.75
356.626	135.75
356.853	125.75
357.08	138.75
357.307	137.75
357.534	123.75
357.761	132.75
357.988	130.75
358.215	133.75
358.441	132.75
358.668	135.75
358.895	120.75
359.122	150.75
359.349	124.75
359.576	132.75
359.802	129.75
360.029	142.75
360.256	130.75
360.483	135.75
360.709	151.75
360.936	147.75
361.163	153.75
361.39	129.75
361.616	132.75
361.843	148.75
362.07	141.75
362.296	147.75
362.523	145.75
362.749	142.75
362.976	128.75
363.203	150.75
363.429	128.75
363.656	138.75
363.882	134.75
364.109	149.75
364.335	130.75
364.562	147.75
364.788	142.75
365.015	137.75
365.241	131.75
365.468	155.75
365.694	126.75
365.92	132.75
366.147	144.75
366.373	144.75
366.599	122.75
366.826	128.75
367.052	139.75
367.278	153.75
367.505	138.75
367.731	160.75
367.957	143.75
368.184	129.75
368.41	125.75
368.636	144.75
368.862	152.75
369.089	143.75
369.315	127.75
369.541	153.75
369.767	152.75
369.993	140.75
370.219	134.75
370.445	147.75
370.672	137.75
370.898	153.75
371.124	136.75
371.35	158.75
371.576	155.75
371.802	148.75
372.028	156.75
372.254	130.75
372.48	140.75
372.706	142.75
372.932	143.75
373.158	147.75
373.384	139.75
373.61	151.75
373.835	149.75
374.061	155.75
374.287	157.75
374.513	157.75
374.739	148.75
374.965	128.75
375.191	159.75
375.416	160.75
375.642	158.75
375.868	144.75
376.094	150.75
376.319	157.75
376.545	165.75
376.771	146.75
376.997	146.75
377.222	152.75
377.448	155.75
377.674	152.75
377.899	157.75
378.125	152.75
378.35	141.75
378.576	145.75
378.802	134.75
379.027	125.75
379.253	139.75
379.478	132.75
379.704	144.75
379.929	152.75
380.155	143.75
380.38	138.75
380.606	145.75
380.831	153.75
381.057	174.75
381.282	142.75
381.507	154.75
381.733	157.75
381.958	136.75
382.184	165.75
382.409	153.75
382.634	157.75
382.86	157.75
383.085	172.75
383.31	166.75
383.535	142.75
383.761	155.75
383.986	165.75
384.211	168.75
384.436	175.75
384.662	167.75
384.887	161.75
385.112	164.75
385.337	166.75
385.562	185.75
385.787	173.75
386.013	164.75
386.238	148.75
386.463	163.75
386.688	209.75
386.913	176.75
387.138	170.75
387.363	159.75
387.588	171.75
387.813	180.75
388.038	177.75
388.263	174.75
388.488	165.75
388.713	165.75
388.938	161.75
389.163	150.75
389.387	157.75
389.612	161.75
389.837	159.75
390.062	165.75
390.287	158.75
390.512	167.75
390.736	171.75
390.961	167.75
391.186	188.75
391.411	176.75
391.636	188.75
391.86	183.75
392.085	193.75
392.31	185.75
392.534	181.75
392.759	198.75
392.984	182.75
393.208	188.75
393.433	182.75
393.658	187.75
393.882	200.75
394.107	213.75
394.331	194.75
394.556	186.75
394.78	206.75
395.005	197.75
395.229	188.75
395.454	204.75
395.678	185.75
395.903	185.75
396.127	189.75
396.352	179.75
396.576	178.75
396.801	186.75
397.025	191.75
397.249	210.75
397.474	199.75
397.698	201.75
397.922	208.75
398.147	190.75
398.371	220.75
398.595	210.75
398.82	236.75
399.044	230.75
399.268	267.75
399.492	301.75
399.717	286.75
399.941	264.75
400.165	253.75
400.389	234.75
400.613	230.75
400.837	234.75
401.062	228.75
401.286	219.75
401.51	229.75
401.734	221.75
401.958	242.75
402.182	225.75
402.406	244.75
402.63	245.75
402.854	270.75
403.078	240.75
403.302	261.75
403.526	265.75
403.75	264.75
403.974	237.75
404.198	254.75
404.422	266.75
404.645	266.75
404.869	271.75
405.093	247.75
405.317	243.75
405.541	257.75
405.765	250.75
405.988	245.75
406.212	242.75
406.436	278.75
406.66	262.75
406.883	266.75
407.107	289.75
407.331	293.75
407.555	289.75
407.778	280.75
408.002	284.75
408.226	270.75
408.449	262.75
408.673	266.75
408.896	269.75
409.12	278.75
409.344	271.75
409.567	266.75
409.791	279.75
410.014	284.75
410.238	279.75
410.461	259.75
410.685	253.75
410.908	280.75
411.132	292.75
411.355	255.75
411.578	260.75
411.802	272.75
412.025	260.75
412.249	264.75
412.472	274.75
412.695	248.75
412.919	264.75
413.142	254.75
413.365	275.75
413.589	268.75
413.812	276.75
414.035	252.75
414.258	251.75
414.482	249.75
414.705	261.75
414.928	294.75
415.151	263.75
415.374	255.75
415.597	252.75
415.821	255.75
416.044	264.75
416.267	272.75
416.49	258.75
416.713	260.75
416.936	257.75
417.159	262.75
417.382	278.75
417.605	266.75
417.828	271.75
418.051	259.75
418.274	255.75
418.497	270.75
418.72	296.75
418.943	280.75
419.166	290.75
419.389	310.75
419.611	289.75
419.834	292.75
420.057	268.75
420.28	284.75
420.503	300.75
420.726	279.75
420.948	273.75
421.171	278.75
421.394	269.75
421.617	268.75
421.839	276.75
422.062	275.75
422.285	280.75
422.507	270.75
422.73	277.75
422.953	290.75
423.175	254.75
423.398	286.75
423.621	274.75
423.843	288.75
424.066	281.75
424.288	287.75
424.511	276.75
424.733	278.75
424.956	302.75
425.178	279.75
425.401	282.75
425.623	298.75
425.846	250.75
426.068	268.75
426.291	252.75
426.513	272.75
426.735	267.75
426.958	258.75
427.18	264.75
427.402	261.75
427.625	232.75
427.847	265.75
428.069	251.75
428.292	255.75
428.514	249.75
428.736	270.75
428.958	264.75
429.181	256.75
429.403	252.75
429.625	250.75
429.847	229.75
430.069	260.75
430.292	266.75
430.514	236.75
430.736	257.75
430.958	240.75
431.18	229.75
431.402	258.75
431.624	235.75
431.846	226.75
432.068	238.75
432.29	220.75
432.512	219.75
432.734	247.75
432.956	252.75
433.178	257.75
433.4	261.75
433.622	268.75
433.844	251.75
434.066	276.75
434.287	229.75
434.509	239.75
434.731	241.75
434.953	256.75
435.175	236.75
435.397	260.75
435.618	230.75
435.84	240.75
436.062	237.75
436.284	256.75
436.505	253.75
436.727	247.75
436.949	243.75
437.17	261.75
437.392	249.75
437.614	234.75
437.835	217.75
438.057	214.75
438.278	229.75
438.5	235.75
438.721	253.75
438.943	261.75
439.165	247.75
439.386	254.75
439.608	260.75
439.829	276.75
440.05	273.75
440.272	263.75
440.493	266.75
440.715	264.75
440.936	284.75
441.158	271.75
441.379	263.75
441.6	288.75
441.822	292.75
442.043	257.75
442.264	306.75
442.486	264.75
442.707	287.75
442.928	282.75
443.149	284.75
443.371	269.75
443.592	264.75
443.813	278.75
444.034	280.75
444.255	299.75
444.476	315.75
444.698	316.75
444.919	315.75
445.14	490.75
445.361	388.75
445.582	300.75
445.803	268.75
446.024	252.75
446.245	278.75
446.466	262.75
446.687	282.75
446.908	299.75
447.129	269.75
447.35	255.75
447.571	274.75
447.792	266.75
448.013	261.75
448.234	257.75
448.455	276.75
448.675	221.75
448.896	267.75
449.117	242.75
449.338	253.75
449.559	252.75
449.779	245.75
450	242.75
450.221	249.75
450.442	249.75
450.662	261.75
450.883	237.75
451.104	257.75
451.324	226.75
451.545	258.75
451.766	257.75
451.986	235.75
452.207	224.75
452.428	230.75
452.648	218.75
452.869	222.75
453.089	217.75
453.31	216.75
453.53	228.75
453.751	222.75
453.971	214.75
454.192	224.75
454.412	213.75
454.633	225.75
454.853	249.75
455.073	226.75
455.294	222.75
455.514	237.75
455.734	245.75
455.955	221.75
456.175	221.75
456.395	217.75
456.616	206.75
456.836	212.75
457.056	213.75
457.276	194.75
457.497	217.75
457.717	205.75
457.937	211.75
458.157	214.75
458.377	207.75
458.598	202.75
458.818	199.75
459.038	221.75
459.258	209.75
459.478	217.75
459.698	224.75
459.918	242.75
460.138	241.75
460.358	264.75
460.578	257.75
460.798	260.75
461.018	278.75
461.238	268.75
461.458	266.75
461.678	279.75
461.898	268.75
462.118	263.75
462.338	265.75
462.558	284.75
462.777	276.75
462.997	328.75
463.217	328.75
463.437	318.75
463.657	294.75
463.876	287.75
464.096	286.75
464.316	300.75
464.536	287.75
464.755	296.75
464.975	267.75
465.195	284.75
465.414	257.75
465.634	248.75
465.854	227.75
466.073	246.75
466.293	244.75
466.512	248.75
466.732	250.75
466.951	265.75
467.171	235.75
467.391	238.75
467.61	237.75
467.829	233.75
468.049	238.75
468.268	243.75
468.488	247.75
468.707	251.75
468.927	231.75
469.146	238.75
469.365	255.75
469.585	246.75
469.804	266.75
470.023	263.75
470.243	268.75
470.462	266.75
470.681	268.75
470.901	271.75
471.12	230.75
471.339	254.75
471.558	237.75
471.777	249.75
471.997	249.75
472.216	260.75
472.435	232.75
472.654	218.75
472.873	222.75
473.092	218.75
473.311	221.75
473.53	244.75
473.749	220.75
473.968	230.75
474.187	238.75
474.406	220.75
474.625	236.75
474.844	251.75
475.063	238.75
475.282	229.75
475.501	222.75
475.72	232.75
475.939	218.75
476.158	237.75
476.377	241.75
476.596	225.75
476.814	232.75
477.033	236.75
477.252	228.75
477.471	241.75
477.69	271.75
477.908	267.75
478.127	279.75
478.346	268.75
478.564	283.75
478.783	288.75
479.002	289.75
479.22	270.75
479.439	284.75
479.658	253.75
479.876	264.75
480.095	243.75
480.313	250.75
480.532	276.75
480.751	270.75
480.969	207.75
481.188	224.75
481.406	216.75
481.624	233.75
481.843	223.75
482.061	237.75
482.28	238.75
482.498	244.75
482.717	235.75
482.935	250.75
483.153	263.75
483.372	268.75
483.59	283.75
483.808	259.75
484.027	254.75
484.245	243.75
484.463	267.75
484.681	270.75
484.9	268.75
485.118	273.75
485.336	244.75
485.554	244.75
485.772	238.75
485.99	239.75
486.209	236.75
486.427	251.75
486.645	259.75
486.863	270.75
487.081	265.75
487.299	258.75
487.517	270.75
487.735	304.75
487.953	316.75
488.171	319.75
488.389	290.75
488.607	268.75
488.825	278.75
489.043	257.75
489.261	246.75
489.479	252.75
489.696	272.75
489.914	272.75
490.132	267.75
490.35	282.75
490.568	296.75
490.786	292.75
491.003	302.75
491.221	310.75
491.439	331.75
491.657	315.75
491.874	334.75
492.092	369.75
492.31	364.75
492.527	341.75
492.745	342.75
492.963	342.75
493.18	321.75
493.398	331.75
493.615	353.75
493.833	309.75
494.05	315.75
494.268	318.75
494.485	330.75
494.703	319.75
494.92	294.75
495.138	309.75
495.355	306.75
495.573	320.75
495.79	311.75
496.008	322.75
496.225	318.75
496.442	290.75
496.66	333.75
496.877	304.75
497.094	314.75
497.312	304.75
497.529	309.75
497.746	280.75
497.963	298.75
498.181	296.75
498.398	318.75
498.615	305.75
498.832	324.75
499.049	358.75
499.267	398.75
499.484	400.75
499.701	460.75
499.918	499.75
500.135	566.75
500.352	621.75
500.569	600.75
500.786	604.75
501.003	556.75
501.22	514.75
501.437	484.75
501.654	414.75
501.871	403.75
502.088	368.75
502.305	341.75
502.522	342.75
502.739	330.75
502.956	325.75
503.172	302.75
503.389	289.75
503.606	298.75
503.823	299.75
504.04	297.75
504.256	283.75
504.473	304.75
