Data from SampA_HRD10591_00080.txt Node
Date: Mon Jan 19 11:27:14 EST 2026
User: Yrep
Spectrometer: HR+D1059
Trigger mode: 0
Integration Time (sec): 3.443000E-1
Scans to average: 1
Electric dark correction enabled: true
Nonlinearity correction enabled: false
Boxcar width: 0
XAxis mode: Wavelengths
Number of Pixels in Spectrum: 2048
>>>>>Begin Spectral Data<<<<<
223.165	-19.06
223.4	-19.06
223.635	-19.06
223.869	-18.06
224.104	-25.06
224.338	-9.06
224.573	-28.06
224.808	-10.06
225.042	-15.06
225.277	-7.06
225.511	-8.06
225.746	15.94
225.98	1.94
226.215	7.94
226.449	22.94
226.683	25.94
226.918	27.94
227.152	36.94
227.387	34.94
227.621	21.94
227.856	37.94
228.09	52.94
228.324	43.94
228.559	58.94
228.793	67.94
229.027	73.94
229.262	64.94
229.496	64.94
229.73	71.94
229.964	83.94
230.199	77.94
230.433	87.94
230.667	72.94
230.901	83.94
231.136	96.94
231.37	84.94
231.604	83.94
231.838	90.94
232.072	87.94
232.306	89.94
232.541	81.94
232.775	90.94
233.009	83.94
233.243	80.94
233.477	86.94
233.711	78.94
233.945	91.94
234.179	91.94
234.413	88.94
234.647	93.94
234.881	88.94
235.115	90.94
235.349	73.94
235.583	89.94
235.817	90.94
236.051	83.94
236.285	67.94
236.519	90.94
236.753	91.94
236.987	90.94
237.221	73.94
237.455	85.94
237.689	79.94
237.922	81.94
238.156	75.94
238.39	75.94
238.624	92.94
238.858	85.94
239.091	90.94
239.325	76.94
239.559	72.94
239.793	87.94
240.027	93.94
240.26	88.94
240.494	96.94
240.728	92.94
240.961	79.94
241.195	97.94
241.429	84.94
241.662	72.94
241.896	84.94
242.13	68.94
242.363	74.94
242.597	87.94
242.83	93.94
243.064	80.94
243.298	86.94
243.531	79.94
243.765	77.94
243.998	88.94
244.232	94.94
244.465	87.94
244.699	89.94
244.932	95.94
245.166	81.94
245.399	83.94
245.633	90.94
245.866	84.94
246.099	95.94
246.333	77.94
246.566	91.94
246.8	90.94
247.033	78.94
247.266	88.94
247.5	79.94
247.733	80.94
247.966	98.94
248.2	87.94
248.433	95.94
248.666	90.94
248.899	85.94
249.133	101.94
249.366	101.94
249.599	90.94
249.832	87.94
250.066	111.94
250.299	93.94
250.532	104.94
250.765	93.94
250.998	86.94
251.231	89.94
251.465	87.94
251.698	91.94
251.931	93.94
252.164	94.94
252.397	81.94
252.63	98.94
252.863	91.94
253.096	84.94
253.329	94.94
253.562	81.94
253.795	91.94
254.028	99.94
254.261	95.94
254.494	78.94
254.727	89.94
254.96	80.94
255.193	78.94
255.426	97.94
255.659	85.94
255.892	81.94
256.124	112.94
256.357	105.94
256.59	95.94
256.823	91.94
257.056	100.94
257.289	94.94
257.521	91.94
257.754	87.94
257.987	87.94
258.22	103.94
258.452	100.94
258.685	108.94
258.918	102.94
259.151	99.94
259.383	109.94
259.616	106.94
259.849	98.94
260.081	83.94
260.314	98.94
260.547	92.94
260.779	100.94
261.012	102.94
261.244	75.94
261.477	104.94
261.71	105.94
261.942	92.94
262.175	86.94
262.407	92.94
262.64	96.94
262.872	118.94
263.105	105.94
263.337	96.94
263.57	89.94
263.802	103.94
264.035	106.94
264.267	87.94
264.499	96.94
264.732	90.94
264.964	107.94
265.197	101.94
265.429	106.94
265.661	99.94
265.894	100.94
266.126	112.94
266.358	100.94
266.591	107.94
266.823	94.94
267.055	104.94
267.287	109.94
267.52	97.94
267.752	111.94
267.984	92.94
268.216	115.94
268.448	107.94
268.681	116.94
268.913	99.94
269.145	112.94
269.377	105.94
269.609	97.94
269.841	99.94
270.073	92.94
270.306	99.94
270.538	97.94
270.77	103.94
271.002	111.94
271.234	109.94
271.466	92.94
271.698	104.94
271.93	93.94
272.162	97.94
272.394	108.94
272.626	109.94
272.858	104.94
273.09	108.94
273.322	111.94
273.553	101.94
273.785	104.94
274.017	99.94
274.249	108.94
274.481	102.94
274.713	106.94
274.945	109.94
275.176	100.94
275.408	116.94
275.64	118.94
275.872	119.94
276.104	101.94
276.335	98.94
276.567	110.94
276.799	111.94
277.031	123.94
277.262	119.94
277.494	112.94
277.726	96.94
277.957	133.94
278.189	107.94
278.421	101.94
278.652	121.94
278.884	104.94
279.115	115.94
279.347	110.94
279.579	110.94
279.81	98.94
280.042	87.94
280.273	103.94
280.505	103.94
280.736	110.94
280.968	96.94
281.199	101.94
281.431	113.94
281.662	124.94
281.894	113.94
282.125	111.94
282.356	95.94
282.588	104.94
282.819	115.94
283.051	105.94
283.282	112.94
283.513	126.94
283.745	116.94
283.976	113.94
284.207	105.94
284.439	115.94
284.67	108.94
284.901	111.94
285.132	122.94
285.364	124.94
285.595	129.94
285.826	116.94
286.057	124.94
286.288	111.94
286.52	113.94
286.751	119.94
286.982	116.94
287.213	118.94
287.444	116.94
287.675	125.94
287.906	127.94
288.138	121.94
288.369	115.94
288.6	117.94
288.831	118.94
289.062	121.94
289.293	123.94
289.524	122.94
289.755	120.94
289.986	127.94
290.217	123.94
290.448	114.94
290.679	108.94
290.91	134.94
291.141	117.94
291.371	121.94
291.602	114.94
291.833	115.94
292.064	131.94
292.295	122.94
292.526	95.94
292.757	119.94
292.987	113.94
293.218	113.94
293.449	125.94
293.68	138.94
293.91	113.94
294.141	117.94
294.372	114.94
294.603	129.94
294.833	126.94
295.064	122.94
295.295	125.94
295.525	123.94
295.756	141.94
295.987	122.94
296.217	118.94
296.448	137.94
296.679	118.94
296.909	129.94
297.14	120.94
297.37	135.94
297.601	127.94
297.831	121.94
298.062	117.94
298.292	128.94
298.523	116.94
298.753	126.94
298.984	113.94
299.214	129.94
299.445	142.94
299.675	125.94
299.905	114.94
300.136	135.94
300.366	129.94
300.597	119.94
300.827	133.94
301.057	133.94
301.288	136.94
301.518	136.94
301.748	142.94
301.979	164.94
302.209	137.94
302.439	126.94
302.669	125.94
302.9	119.94
303.13	130.94
303.36	133.94
303.59	118.94
303.82	118.94
304.051	131.94
304.281	124.94
304.511	128.94
304.741	126.94
304.971	128.94
305.201	125.94
305.431	134.94
305.661	126.94
305.891	124.94
306.121	126.94
306.352	115.94
306.582	120.94
306.812	124.94
307.042	127.94
307.272	116.94
307.502	122.94
307.731	133.94
307.961	136.94
308.191	131.94
308.421	132.94
308.651	137.94
308.881	121.94
309.111	125.94
309.341	116.94
309.571	118.94
309.8	116.94
310.03	124.94
310.26	132.94
310.49	121.94
310.72	115.94
310.949	120.94
311.179	116.94
311.409	131.94
311.639	121.94
311.868	149.94
312.098	135.94
312.328	131.94
312.557	133.94
312.787	133.94
313.017	129.94
313.246	154.94
313.476	135.94
313.706	134.94
313.935	122.94
314.165	139.94
314.394	137.94
314.624	132.94
314.853	122.94
315.083	131.94
315.312	119.94
315.542	149.94
315.771	136.94
316.001	146.94
316.23	127.94
316.46	133.94
316.689	121.94
316.919	122.94
317.148	120.94
317.377	127.94
317.607	145.94
317.836	123.94
318.065	133.94
318.295	134.94
318.524	120.94
318.753	118.94
318.983	125.94
319.212	123.94
319.441	138.94
319.67	129.94
319.9	125.94
320.129	131.94
320.358	128.94
320.587	125.94
320.816	135.94
321.046	131.94
321.275	120.94
321.504	149.94
321.733	125.94
321.962	128.94
322.191	133.94
322.42	151.94
322.649	133.94
322.878	142.94
323.108	141.94
323.337	143.94
323.566	143.94
323.795	134.94
324.024	128.94
324.253	117.94
324.482	155.94
324.71	123.94
324.939	124.94
325.168	138.94
325.397	143.94
325.626	127.94
325.855	139.94
326.084	126.94
326.313	147.94
326.542	123.94
326.77	132.94
326.999	116.94
327.228	142.94
327.457	151.94
327.686	125.94
327.914	137.94
328.143	136.94
328.372	143.94
328.6	120.94
328.829	113.94
329.058	140.94
329.287	125.94
329.515	150.94
329.744	151.94
329.972	147.94
330.201	142.94
330.43	138.94
330.658	139.94
330.887	133.94
331.115	138.94
331.344	143.94
331.572	144.94
331.801	132.94
332.03	137.94
332.258	158.94
332.486	152.94
332.715	158.94
332.943	140.94
333.172	158.94
333.4	171.94
333.629	168.94
333.857	157.94
334.085	178.94
334.314	167.94
334.542	157.94
334.771	162.94
334.999	160.94
335.227	158.94
335.455	148.94
335.684	159.94
335.912	161.94
336.14	135.94
336.369	152.94
336.597	157.94
336.825	159.94
337.053	140.94
337.281	150.94
337.51	138.94
337.738	166.94
337.966	143.94
338.194	146.94
338.422	132.94
338.65	154.94
338.878	143.94
339.106	148.94
339.334	151.94
339.562	136.94
339.79	138.94
340.018	137.94
340.246	151.94
340.474	136.94
340.702	149.94
340.93	129.94
341.158	127.94
341.386	141.94
341.614	135.94
341.842	156.94
342.07	143.94
342.298	132.94
342.526	147.94
342.754	131.94
342.981	149.94
343.209	134.94
343.437	172.94
343.665	159.94
343.893	156.94
344.12	147.94
344.348	148.94
344.576	135.94
344.804	128.94
345.031	146.94
345.259	143.94
345.487	143.94
345.714	153.94
345.942	134.94
346.17	137.94
346.397	144.94
346.625	136.94
346.853	135.94
347.08	135.94
347.308	136.94
347.535	137.94
347.763	139.94
347.99	141.94
348.218	142.94
348.445	130.94
348.673	131.94
348.9	142.94
349.128	139.94
349.355	132.94
349.583	129.94
349.81	152.94
350.037	139.94
350.265	149.94
350.492	151.94
350.72	139.94
350.947	125.94
351.174	127.94
351.402	119.94
351.629	131.94
351.856	137.94
352.083	142.94
352.311	136.94
352.538	125.94
352.765	129.94
352.992	145.94
353.22	137.94
353.447	132.94
353.674	141.94
353.901	151.94
354.128	150.94
354.355	148.94
354.583	131.94
354.81	136.94
355.037	141.94
355.264	128.94
355.491	105.94
355.718	133.94
355.945	142.94
356.172	130.94
356.399	145.94
356.626	134.94
356.853	137.94
357.08	129.94
357.307	133.94
357.534	136.94
357.761	147.94
357.988	131.94
358.215	134.94
358.441	138.94
358.668	144.94
358.895	142.94
359.122	138.94
359.349	134.94
359.576	135.94
359.802	139.94
360.029	124.94
360.256	152.94
360.483	142.94
360.709	116.94
360.936	145.94
361.163	146.94
361.39	131.94
361.616	136.94
361.843	125.94
362.07	126.94
362.296	140.94
362.523	138.94
362.749	123.94
362.976	122.94
363.203	158.94
363.429	139.94
363.656	148.94
363.882	133.94
364.109	150.94
364.335	139.94
364.562	138.94
364.788	135.94
365.015	134.94
365.241	130.94
365.468	153.94
365.694	159.94
365.92	137.94
366.147	111.94
366.373	127.94
366.599	147.94
366.826	142.94
367.052	152.94
367.278	136.94
367.505	140.94
367.731	144.94
367.957	125.94
368.184	146.94
368.41	134.94
368.636	146.94
368.862	145.94
369.089	131.94
369.315	137.94
369.541	148.94
369.767	162.94
369.993	150.94
370.219	136.94
370.445	129.94
370.672	144.94
370.898	137.94
371.124	156.94
371.35	147.94
371.576	151.94
371.802	151.94
372.028	166.94
372.254	151.94
372.48	126.94
372.706	155.94
372.932	149.94
373.158	133.94
373.384	152.94
373.61	160.94
373.835	151.94
374.061	154.94
374.287	152.94
374.513	139.94
374.739	149.94
374.965	139.94
375.191	159.94
375.416	131.94
375.642	141.94
375.868	155.94
376.094	158.94
376.319	144.94
376.545	132.94
376.771	157.94
376.997	149.94
377.222	141.94
377.448	145.94
377.674	148.94
377.899	143.94
378.125	144.94
378.35	157.94
378.576	157.94
378.802	148.94
379.027	146.94
379.253	152.94
379.478	139.94
379.704	157.94
379.929	142.94
380.155	125.94
380.38	157.94
380.606	134.94
380.831	171.94
381.057	154.94
381.282	158.94
381.507	162.94
381.733	158.94
381.958	146.94
382.184	146.94
382.409	150.94
382.634	162.94
382.86	163.94
383.085	136.94
383.31	153.94
383.535	155.94
383.761	165.94
383.986	174.94
384.211	165.94
384.436	173.94
384.662	171.94
384.887	178.94
385.112	164.94
385.337	161.94
385.562	157.94
385.787	177.94
386.013	175.94
386.238	184.94
386.463	171.94
386.688	184.94
386.913	174.94
387.138	165.94
387.363	175.94
387.588	174.94
387.813	183.94
388.038	163.94
388.263	171.94
388.488	175.94
388.713	169.94
388.938	161.94
389.163	168.94
389.387	166.94
389.612	172.94
389.837	170.94
390.062	166.94
390.287	174.94
390.512	185.94
390.736	160.94
390.961	157.94
391.186	176.94
391.411	174.94
391.636	188.94
391.86	198.94
392.085	177.94
392.31	186.94
392.534	209.94
392.759	180.94
392.984	189.94
393.208	172.94
393.433	188.94
393.658	190.94
393.882	193.94
394.107	187.94
394.331	186.94
394.556	190.94
394.78	208.94
395.005	193.94
395.229	183.94
395.454	217.94
395.678	196.94
395.903	209.94
396.127	189.94
396.352	200.94
396.576	184.94
396.801	191.94
397.025	197.94
397.249	195.94
397.474	209.94
397.698	205.94
397.922	199.94
398.147	198.94
398.371	191.94
398.595	227.94
398.82	224.94
399.044	232.94
399.268	248.94
399.492	312.94
399.717	299.94
399.941	286.94
400.165	275.94
400.389	235.94
400.613	244.94
400.837	237.94
401.062	232.94
401.286	242.94
401.51	240.94
401.734	222.94
401.958	224.94
402.182	230.94
402.406	241.94
402.63	257.94
402.854	267.94
403.078	255.94
403.302	247.94
403.526	261.94
403.75	287.94
403.974	280.94
404.198	263.94
404.422	249.94
404.645	259.94
404.869	260.94
405.093	269.94
405.317	257.94
405.541	269.94
405.765	253.94
405.988	265.94
406.212	259.94
406.436	259.94
406.66	282.94
406.883	288.94
407.107	283.94
407.331	292.94
407.555	303.94
407.778	271.94
408.002	284.94
408.226	292.94
408.449	283.94
408.673	278.94
408.896	266.94
409.12	273.94
409.344	286.94
409.567	278.94
409.791	294.94
410.014	289.94
410.238	266.94
410.461	285.94
410.685	282.94
410.908	301.94
411.132	296.94
411.355	260.94
411.578	278.94
411.802	264.94
412.025	287.94
412.249	277.94
412.472	256.94
412.695	275.94
412.919	285.94
413.142	251.94
413.365	273.94
413.589	269.94
413.812	265.94
414.035	263.94
414.258	278.94
414.482	254.94
414.705	261.94
414.928	269.94
415.151	266.94
415.374	269.94
415.597	281.94
415.821	268.94
416.044	260.94
416.267	270.94
416.49	273.94
416.713	271.94
416.936	278.94
417.159	272.94
417.382	263.94
417.605	286.94
417.828	292.94
418.051	275.94
418.274	293.94
418.497	284.94
418.72	276.94
418.943	292.94
419.166	299.94
419.389	303.94
419.611	320.94
419.834	307.94
420.057	291.94
420.28	281.94
420.503	277.94
420.726	275.94
420.948	278.94
421.171	288.94
421.394	278.94
421.617	288.94
421.839	289.94
422.062	281.94
422.285	298.94
422.507	279.94
422.73	280.94
422.953	302.94
423.175	287.94
423.398	294.94
423.621	292.94
423.843	301.94
424.066	315.94
424.288	284.94
424.511	299.94
424.733	304.94
424.956	303.94
425.178	290.94
425.401	289.94
425.623	273.94
425.846	282.94
426.068	269.94
426.291	286.94
426.513	265.94
426.735	298.94
426.958	280.94
427.18	269.94
427.402	264.94
427.625	247.94
427.847	261.94
428.069	263.94
428.292	269.94
428.514	279.94
428.736	270.94
428.958	265.94
429.181	271.94
429.403	249.94
429.625	261.94
429.847	265.94
430.069	246.94
430.292	254.94
430.514	263.94
430.736	252.94
430.958	257.94
431.18	249.94
431.402	252.94
431.624	239.94
431.846	222.94
432.068	239.94
432.29	228.94
432.512	247.94
432.734	265.94
432.956	265.94
433.178	292.94
433.4	269.94
433.622	261.94
433.844	270.94
434.066	256.94
434.287	246.94
434.509	228.94
434.731	250.94
434.953	260.94
435.175	289.94
435.397	288.94
435.618	248.94
435.84	242.94
436.062	244.94
436.284	257.94
436.505	279.94
436.727	261.94
436.949	272.94
437.17	257.94
437.392	251.94
437.614	239.94
437.835	238.94
438.057	226.94
438.278	237.94
438.5	246.94
438.721	267.94
438.943	275.94
439.165	255.94
439.386	261.94
439.608	275.94
439.829	274.94
440.05	304.94
440.272	272.94
440.493	267.94
440.715	271.94
440.936	273.94
441.158	296.94
441.379	298.94
441.6	297.94
441.822	320.94
442.043	299.94
442.264	280.94
442.486	269.94
442.707	286.94
442.928	287.94
443.149	295.94
443.371	299.94
443.592	278.94
443.813	297.94
444.034	292.94
444.255	316.94
444.476	311.94
444.698	325.94
444.919	323.94
445.14	495.94
445.361	405.94
445.582	307.94
445.803	293.94
446.024	305.94
446.245	299.94
446.466	307.94
446.687	300.94
446.908	292.94
447.129	284.94
447.35	290.94
447.571	274.94
447.792	264.94
448.013	247.94
448.234	273.94
448.455	257.94
448.675	272.94
448.896	268.94
449.117	267.94
449.338	234.94
449.559	267.94
449.779	270.94
450	260.94
450.221	247.94
450.442	267.94
450.662	260.94
450.883	246.94
451.104	266.94
451.324	246.94
451.545	244.94
451.766	263.94
451.986	254.94
452.207	250.94
452.428	235.94
452.648	239.94
452.869	224.94
453.089	241.94
453.31	215.94
453.53	209.94
453.751	216.94
453.971	222.94
454.192	217.94
454.412	219.94
454.633	230.94
454.853	239.94
455.073	232.94
455.294	247.94
455.514	240.94
455.734	218.94
455.955	223.94
456.175	229.94
456.395	226.94
456.616	219.94
456.836	210.94
457.056	214.94
457.276	199.94
457.497	211.94
457.717	216.94
457.937	217.94
458.157	211.94
458.377	205.94
458.598	215.94
458.818	201.94
459.038	210.94
459.258	211.94
459.478	231.94
459.698	239.94
459.918	237.94
460.138	230.94
460.358	282.94
460.578	271.94
460.798	257.94
461.018	269.94
461.238	275.94
461.458	275.94
461.678	261.94
461.898	269.94
462.118	287.94
462.338	264.94
462.558	287.94
462.777	313.94
462.997	325.94
463.217	324.94
463.437	333.94
463.657	285.94
463.876	297.94
464.096	300.94
464.316	286.94
464.536	289.94
464.755	315.94
464.975	273.94
465.195	269.94
465.414	251.94
465.634	263.94
465.854	260.94
466.073	256.94
466.293	259.94
466.512	247.94
466.732	258.94
466.951	263.94
467.171	266.94
467.391	268.94
467.61	241.94
467.829	246.94
468.049	259.94
468.268	247.94
468.488	270.94
468.707	249.94
468.927	257.94
469.146	246.94
469.365	264.94
469.585	245.94
469.804	263.94
470.023	271.94
470.243	273.94
470.462	288.94
470.681	287.94
470.901	280.94
471.12	273.94
471.339	255.94
471.558	263.94
471.777	251.94
471.997	245.94
472.216	243.94
472.435	236.94
472.654	223.94
472.873	222.94
473.092	253.94
473.311	239.94
473.53	249.94
473.749	235.94
473.968	246.94
474.187	220.94
474.406	219.94
474.625	240.94
474.844	242.94
475.063	253.94
475.282	237.94
475.501	234.94
475.72	236.94
475.939	244.94
476.158	246.94
476.377	263.94
476.596	232.94
476.814	227.94
477.033	230.94
477.252	250.94
477.471	250.94
477.69	273.94
477.908	280.94
478.127	289.94
478.346	286.94
478.564	273.94
478.783	289.94
479.002	297.94
479.22	281.94
479.439	279.94
479.658	263.94
479.876	267.94
480.095	271.94
480.313	268.94
480.532	282.94
480.751	265.94
480.969	237.94
481.188	230.94
481.406	239.94
481.624	232.94
481.843	212.94
482.061	237.94
482.28	242.94
482.498	225.94
482.717	240.94
482.935	260.94
483.153	255.94
483.372	296.94
483.59	276.94
483.808	256.94
484.027	253.94
484.245	265.94
484.463	278.94
484.681	288.94
484.9	257.94
485.118	298.94
485.336	269.94
485.554	254.94
485.772	263.94
485.99	247.94
486.209	229.94
486.427	268.94
486.645	267.94
486.863	263.94
487.081	276.94
487.299	262.94
487.517	286.94
487.735	321.94
487.953	329.94
488.171	318.94
488.389	294.94
488.607	298.94
488.825	282.94
489.043	269.94
489.261	273.94
489.479	282.94
489.696	293.94
489.914	270.94
490.132	259.94
490.35	286.94
490.568	310.94
490.786	316.94
491.003	345.94
491.221	328.94
491.439	345.94
491.657	336.94
491.874	344.94
492.092	377.94
492.31	406.94
492.527	375.94
492.745	376.94
492.963	349.94
493.18	344.94
493.398	332.94
493.615	351.94
493.833	339.94
494.05	327.94
494.268	343.94
494.485	331.94
494.703	336.94
494.92	335.94
495.138	326.94
495.355	346.94
495.573	334.94
495.79	299.94
496.008	323.94
496.225	337.94
496.442	341.94
496.66	328.94
496.877	321.94
497.094	316.94
497.312	324.94
497.529	324.94
497.746	327.94
497.963	325.94
498.181	305.94
498.398	319.94
498.615	352.94
498.832	350.94
499.049	369.94
499.267	416.94
499.484	419.94
499.701	470.94
499.918	509.94
500.135	585.94
500.352	638.94
500.569	631.94
500.786	611.94
501.003	580.94
501.22	510.94
501.437	480.94
501.654	438.94
501.871	412.94
502.088	379.94
502.305	367.94
502.522	343.94
502.739	353.94
502.956	333.94
503.172	324.94
503.389	300.94
503.606	286.94
503.823	304.94
504.04	300.94
504.256	297.94
504.473	315.94
504.69	319.94
504.907	320.94
