Data from SampA_HRD10591_00020.txt Node
Date: Mon Jan 19 11:26:53 EST 2026
User: Yrep
Spectrometer: HR+D1059
Trigger mode: 0
Integration Time (sec): 3.443000E-1
Scans to average: 1
Electric dark correction enabled: true
Nonlinearity correction enabled: false
Boxcar width: 0
XAxis mode: Wavelengths
Number of Pixels in Spectrum: 2048
>>>>>Begin Spectral Data<<<<<
223.165	-14.31
223.4	-14.31
223.635	-14.31
223.869	-21.31
224.104	-33.31
224.338	-24.31
224.573	-19.31
224.808	-19.31
225.042	-4.31
225.277	-9.31
225.511	3.69
225.746	8.69
225.98	11.69
226.215	17.69
226.449	15.69
226.683	16.69
226.918	28.69
227.152	42.69
227.387	14.69
227.621	40.69
227.856	39.69
228.09	42.69
228.324	47.69
228.559	61.69
228.793	59.69
229.027	55.69
229.262	61.69
229.496	61.69
229.73	82.69
229.964	86.69
230.199	74.69
230.433	80.69
230.667	84.69
230.901	81.69
231.136	83.69
231.37	77.69
231.604	77.69
231.838	69.69
232.072	96.69
232.306	92.69
232.541	92.69
232.775	83.69
233.009	91.69
233.243	86.69
233.477	70.69
233.711	90.69
233.945	75.69
234.179	87.69
234.413	88.69
234.647	99.69
234.881	77.69
235.115	82.69
235.349	84.69
235.583	83.69
235.817	94.69
236.051	79.69
236.285	63.69
236.519	80.69
236.753	75.69
236.987	78.69
237.221	79.69
237.455	75.69
237.689	86.69
237.922	90.69
238.156	71.69
238.39	74.69
238.624	80.69
238.858	80.69
239.091	96.69
239.325	83.69
239.559	76.69
239.793	95.69
240.027	105.69
240.26	57.69
240.494	74.69
240.728	91.69
240.961	75.69
241.195	85.69
241.429	86.69
241.662	61.69
241.896	76.69
242.13	84.69
242.363	102.69
242.597	98.69
242.83	75.69
243.064	82.69
243.298	106.69
243.531	93.69
243.765	85.69
243.998	80.69
244.232	95.69
244.465	89.69
244.699	84.69
244.932	100.69
245.166	90.69
245.399	87.69
245.633	86.69
245.866	90.69
246.099	92.69
246.333	84.69
246.566	78.69
246.8	77.69
247.033	85.69
247.266	85.69
247.5	89.69
247.733	87.69
247.966	90.69
248.2	94.69
248.433	96.69
248.666	91.69
248.899	103.69
249.133	84.69
249.366	91.69
249.599	89.69
249.832	82.69
250.066	87.69
250.299	80.69
250.532	94.69
250.765	92.69
250.998	91.69
251.231	92.69
251.465	95.69
251.698	81.69
251.931	87.69
252.164	87.69
252.397	104.69
252.63	93.69
252.863	87.69
253.096	86.69
253.329	87.69
253.562	89.69
253.795	98.69
254.028	103.69
254.261	87.69
254.494	89.69
254.727	95.69
254.96	99.69
255.193	96.69
255.426	94.69
255.659	84.69
255.892	100.69
256.124	90.69
256.357	82.69
256.59	92.69
256.823	94.69
257.056	100.69
257.289	89.69
257.521	101.69
257.754	90.69
257.987	93.69
258.22	92.69
258.452	96.69
258.685	88.69
258.918	99.69
259.151	98.69
259.383	97.69
259.616	99.69
259.849	111.69
260.081	106.69
260.314	104.69
260.547	80.69
260.779	96.69
261.012	114.69
261.244	86.69
261.477	108.69
261.71	110.69
261.942	103.69
262.175	90.69
262.407	96.69
262.64	100.69
262.872	104.69
263.105	97.69
263.337	107.69
263.57	102.69
263.802	86.69
264.035	104.69
264.267	99.69
264.499	102.69
264.732	96.69
264.964	87.69
265.197	103.69
265.429	103.69
265.661	91.69
265.894	102.69
266.126	105.69
266.358	81.69
266.591	109.69
266.823	110.69
267.055	95.69
267.287	78.69
267.52	105.69
267.752	104.69
267.984	94.69
268.216	108.69
268.448	112.69
268.681	104.69
268.913	104.69
269.145	101.69
269.377	116.69
269.609	95.69
269.841	111.69
270.073	110.69
270.306	103.69
270.538	97.69
270.77	115.69
271.002	117.69
271.234	117.69
271.466	104.69
271.698	105.69
271.93	101.69
272.162	110.69
272.394	116.69
272.626	100.69
272.858	91.69
273.09	112.69
273.322	110.69
273.553	112.69
273.785	103.69
274.017	102.69
274.249	98.69
274.481	104.69
274.713	106.69
274.945	96.69
275.176	106.69
275.408	120.69
275.64	117.69
275.872	111.69
276.104	115.69
276.335	111.69
276.567	109.69
276.799	109.69
277.031	104.69
277.262	108.69
277.494	120.69
277.726	101.69
277.957	109.69
278.189	119.69
278.421	105.69
278.652	107.69
278.884	95.69
279.115	123.69
279.347	122.69
279.579	110.69
279.81	112.69
280.042	109.69
280.273	96.69
280.505	107.69
280.736	126.69
280.968	104.69
281.199	101.69
281.431	117.69
281.662	105.69
281.894	109.69
282.125	103.69
282.356	107.69
282.588	117.69
282.819	117.69
283.051	114.69
283.282	111.69
283.513	119.69
283.745	111.69
283.976	132.69
284.207	127.69
284.439	114.69
284.67	117.69
284.901	100.69
285.132	113.69
285.364	119.69
285.595	122.69
285.826	109.69
286.057	115.69
286.288	120.69
286.52	135.69
286.751	108.69
286.982	89.69
287.213	107.69
287.444	108.69
287.675	99.69
287.906	117.69
288.138	110.69
288.369	117.69
288.6	111.69
288.831	114.69
289.062	116.69
289.293	128.69
289.524	116.69
289.755	104.69
289.986	122.69
290.217	114.69
290.448	119.69
290.679	125.69
290.91	111.69
291.141	118.69
291.371	119.69
291.602	121.69
291.833	121.69
292.064	119.69
292.295	106.69
292.526	108.69
292.757	109.69
292.987	115.69
293.218	116.69
293.449	117.69
293.68	119.69
293.91	121.69
294.141	127.69
294.372	130.69
294.603	116.69
294.833	123.69
295.064	119.69
295.295	136.69
295.525	110.69
295.756	118.69
295.987	122.69
296.217	117.69
296.448	122.69
296.679	112.69
296.909	117.69
297.14	119.69
297.37	136.69
297.601	114.69
297.831	112.69
298.062	133.69
298.292	132.69
298.523	131.69
298.753	131.69
298.984	108.69
299.214	126.69
299.445	128.69
299.675	138.69
299.905	123.69
300.136	130.69
300.366	123.69
300.597	130.69
300.827	123.69
301.057	141.69
301.288	120.69
301.518	134.69
301.748	137.69
301.979	169.69
302.209	124.69
302.439	122.69
302.669	121.69
302.9	118.69
303.13	140.69
303.36	130.69
303.59	115.69
303.82	124.69
304.051	130.69
304.281	133.69
304.511	139.69
304.741	131.69
304.971	123.69
305.201	127.69
305.431	124.69
305.661	138.69
305.891	117.69
306.121	137.69
306.352	112.69
306.582	110.69
306.812	118.69
307.042	125.69
307.272	127.69
307.502	132.69
307.731	126.69
307.961	123.69
308.191	112.69
308.421	132.69
308.651	125.69
308.881	139.69
309.111	134.69
309.341	132.69
309.571	133.69
309.8	123.69
310.03	125.69
310.26	123.69
310.49	127.69
310.72	114.69
310.949	109.69
311.179	125.69
311.409	116.69
311.639	119.69
311.868	132.69
312.098	127.69
312.328	139.69
312.557	140.69
312.787	120.69
313.017	143.69
313.246	146.69
313.476	130.69
313.706	131.69
313.935	126.69
314.165	116.69
314.394	120.69
314.624	131.69
314.853	137.69
315.083	127.69
315.312	120.69
315.542	124.69
315.771	117.69
316.001	123.69
316.23	131.69
316.46	133.69
316.689	118.69
316.919	134.69
317.148	126.69
317.377	136.69
317.607	124.69
317.836	132.69
318.065	122.69
318.295	134.69
318.524	136.69
318.753	142.69
318.983	135.69
319.212	144.69
319.441	131.69
319.67	121.69
319.9	125.69
320.129	103.69
320.358	116.69
320.587	125.69
320.816	114.69
321.046	127.69
321.275	144.69
321.504	118.69
321.733	142.69
321.962	130.69
322.191	140.69
322.42	138.69
322.649	130.69
322.878	135.69
323.108	127.69
323.337	127.69
323.566	132.69
323.795	127.69
324.024	121.69
324.253	104.69
324.482	125.69
324.71	108.69
324.939	145.69
325.168	122.69
325.397	133.69
325.626	135.69
325.855	146.69
326.084	124.69
326.313	138.69
326.542	142.69
326.77	139.69
326.999	143.69
327.228	137.69
327.457	119.69
327.686	127.69
327.914	126.69
328.143	135.69
328.372	131.69
328.6	135.69
328.829	135.69
329.058	124.69
329.287	128.69
329.515	132.69
329.744	136.69
329.972	114.69
330.201	122.69
330.43	115.69
330.658	135.69
330.887	142.69
331.115	136.69
331.344	120.69
331.572	127.69
331.801	131.69
332.03	142.69
332.258	137.69
332.486	132.69
332.715	155.69
332.943	135.69
333.172	144.69
333.4	131.69
333.629	163.69
333.857	160.69
334.085	174.69
334.314	176.69
334.542	157.69
334.771	140.69
334.999	134.69
335.227	136.69
335.455	162.69
335.684	155.69
335.912	138.69
336.14	149.69
336.369	131.69
336.597	150.69
336.825	135.69
337.053	133.69
337.281	154.69
337.51	145.69
337.738	162.69
337.966	125.69
338.194	121.69
338.422	146.69
338.65	149.69
338.878	127.69
339.106	144.69
339.334	139.69
339.562	143.69
339.79	141.69
340.018	122.69
340.246	142.69
340.474	146.69
340.702	144.69
340.93	150.69
341.158	131.69
341.386	134.69
341.614	138.69
341.842	127.69
342.07	136.69
342.298	131.69
342.526	133.69
342.754	119.69
342.981	122.69
343.209	128.69
343.437	186.69
343.665	147.69
343.893	151.69
344.12	151.69
344.348	139.69
344.576	134.69
344.804	142.69
345.031	138.69
345.259	144.69
345.487	123.69
345.714	135.69
345.942	126.69
346.17	146.69
346.397	129.69
346.625	128.69
346.853	138.69
347.08	148.69
347.308	151.69
347.535	142.69
347.763	123.69
347.99	138.69
348.218	138.69
348.445	138.69
348.673	132.69
348.9	130.69
349.128	128.69
349.355	142.69
349.583	136.69
349.81	132.69
350.037	118.69
350.265	146.69
350.492	124.69
350.72	118.69
350.947	118.69
351.174	136.69
351.402	120.69
351.629	133.69
351.856	142.69
352.083	138.69
352.311	126.69
352.538	116.69
352.765	139.69
352.992	145.69
353.22	139.69
353.447	132.69
353.674	125.69
353.901	143.69
354.128	132.69
354.355	131.69
354.583	130.69
354.81	136.69
355.037	132.69
355.264	127.69
355.491	140.69
355.718	132.69
355.945	135.69
356.172	140.69
356.399	126.69
356.626	126.69
356.853	148.69
357.08	144.69
357.307	143.69
357.534	130.69
357.761	130.69
357.988	135.69
358.215	131.69
358.441	124.69
358.668	136.69
358.895	150.69
359.122	146.69
359.349	124.69
359.576	137.69
359.802	127.69
360.029	131.69
360.256	127.69
360.483	126.69
360.709	125.69
360.936	153.69
361.163	137.69
361.39	146.69
361.616	133.69
361.843	143.69
362.07	144.69
362.296	128.69
362.523	123.69
362.749	123.69
362.976	129.69
363.203	143.69
363.429	124.69
363.656	142.69
363.882	125.69
364.109	139.69
364.335	128.69
364.562	137.69
364.788	123.69
365.015	132.69
365.241	126.69
365.468	140.69
365.694	153.69
365.92	154.69
366.147	118.69
366.373	137.69
366.599	135.69
366.826	123.69
367.052	140.69
367.278	144.69
367.505	144.69
367.731	151.69
367.957	131.69
368.184	132.69
368.41	132.69
368.636	136.69
368.862	146.69
369.089	120.69
369.315	148.69
369.541	138.69
369.767	149.69
369.993	135.69
370.219	136.69
370.445	135.69
370.672	147.69
370.898	132.69
371.124	143.69
371.35	138.69
371.576	141.69
371.802	149.69
372.028	146.69
372.254	138.69
372.48	129.69
372.706	147.69
372.932	151.69
373.158	143.69
373.384	138.69
373.61	136.69
373.835	160.69
374.061	158.69
374.287	169.69
374.513	147.69
374.739	151.69
374.965	161.69
375.191	144.69
375.416	133.69
375.642	134.69
375.868	143.69
376.094	159.69
376.319	137.69
376.545	135.69
376.771	137.69
376.997	142.69
377.222	157.69
377.448	157.69
377.674	142.69
377.899	140.69
378.125	144.69
378.35	147.69
378.576	132.69
378.802	135.69
379.027	136.69
379.253	154.69
379.478	147.69
379.704	156.69
379.929	139.69
380.155	148.69
380.38	148.69
380.606	154.69
380.831	149.69
381.057	154.69
381.282	141.69
381.507	135.69
381.733	161.69
381.958	144.69
382.184	155.69
382.409	150.69
382.634	146.69
382.86	157.69
383.085	159.69
383.31	156.69
383.535	165.69
383.761	146.69
383.986	155.69
384.211	163.69
384.436	154.69
384.662	166.69
384.887	164.69
385.112	159.69
385.337	162.69
385.562	158.69
385.787	156.69
386.013	159.69
386.238	158.69
386.463	165.69
386.688	196.69
386.913	170.69
387.138	175.69
387.363	168.69
387.588	158.69
387.813	172.69
388.038	179.69
388.263	143.69
388.488	171.69
388.713	164.69
388.938	175.69
389.163	169.69
389.387	140.69
389.612	154.69
389.837	155.69
390.062	174.69
390.287	188.69
390.512	166.69
390.736	161.69
390.961	167.69
391.186	189.69
391.411	166.69
391.636	196.69
391.86	185.69
392.085	182.69
392.31	174.69
392.534	174.69
392.759	173.69
392.984	201.69
393.208	179.69
393.433	168.69
393.658	169.69
393.882	173.69
394.107	189.69
394.331	184.69
394.556	180.69
394.78	195.69
395.005	181.69
395.229	196.69
395.454	182.69
395.678	179.69
395.903	196.69
396.127	200.69
396.352	180.69
396.576	178.69
396.801	183.69
397.025	177.69
397.249	208.69
397.474	215.69
397.698	195.69
397.922	190.69
398.147	191.69
398.371	184.69
398.595	211.69
398.82	221.69
399.044	235.69
399.268	232.69
399.492	295.69
399.717	303.69
399.941	252.69
400.165	268.69
400.389	214.69
400.613	225.69
400.837	245.69
401.062	239.69
401.286	232.69
401.51	216.69
401.734	216.69
401.958	224.69
402.182	225.69
402.406	223.69
402.63	240.69
402.854	241.69
403.078	230.69
403.302	258.69
403.526	267.69
403.75	239.69
403.974	253.69
404.198	267.69
404.422	269.69
404.645	266.69
404.869	246.69
405.093	270.69
405.317	247.69
405.541	257.69
405.765	240.69
405.988	242.69
406.212	261.69
406.436	240.69
406.66	264.69
406.883	255.69
407.107	280.69
407.331	278.69
407.555	307.69
407.778	282.69
408.002	278.69
408.226	271.69
408.449	266.69
408.673	273.69
408.896	272.69
409.12	262.69
409.344	272.69
409.567	289.69
409.791	276.69
410.014	271.69
410.238	270.69
410.461	264.69
410.685	271.69
410.908	263.69
411.132	263.69
411.355	255.69
411.578	265.69
411.802	265.69
412.025	266.69
412.249	258.69
412.472	263.69
412.695	261.69
412.919	242.69
413.142	253.69
413.365	255.69
413.589	250.69
413.812	254.69
414.035	265.69
414.258	260.69
414.482	263.69
414.705	262.69
414.928	279.69
415.151	254.69
415.374	262.69
415.597	250.69
415.821	264.69
416.044	262.69
416.267	251.69
416.49	264.69
416.713	246.69
416.936	249.69
417.159	255.69
417.382	258.69
417.605	271.69
417.828	261.69
418.051	264.69
418.274	267.69
418.497	267.69
418.72	265.69
418.943	277.69
419.166	288.69
419.389	282.69
419.611	271.69
419.834	276.69
420.057	273.69
420.28	271.69
420.503	276.69
420.726	258.69
420.948	262.69
421.171	262.69
421.394	266.69
421.617	274.69
421.839	274.69
422.062	269.69
422.285	254.69
422.507	272.69
422.73	284.69
422.953	263.69
423.175	279.69
423.398	276.69
423.621	284.69
423.843	275.69
424.066	270.69
424.288	264.69
424.511	280.69
424.733	293.69
424.956	275.69
425.178	286.69
425.401	258.69
425.623	267.69
425.846	249.69
426.068	247.69
426.291	250.69
426.513	261.69
426.735	252.69
426.958	233.69
427.18	254.69
427.402	251.69
427.625	231.69
427.847	252.69
428.069	256.69
428.292	243.69
428.514	244.69
428.736	244.69
428.958	239.69
429.181	239.69
429.403	234.69
429.625	233.69
429.847	249.69
430.069	251.69
430.292	262.69
430.514	244.69
430.736	249.69
430.958	252.69
431.18	245.69
431.402	250.69
431.624	239.69
431.846	222.69
432.068	214.69
432.29	220.69
432.512	224.69
432.734	258.69
432.956	244.69
433.178	263.69
433.4	264.69
433.622	258.69
433.844	254.69
434.066	248.69
434.287	225.69
434.509	205.69
434.731	234.69
434.953	252.69
435.175	247.69
435.397	260.69
435.618	236.69
435.84	230.69
436.062	230.69
436.284	240.69
436.505	245.69
436.727	237.69
436.949	248.69
437.17	242.69
437.392	224.69
437.614	237.69
437.835	224.69
438.057	223.69
438.278	230.69
438.5	217.69
438.721	259.69
438.943	253.69
439.165	253.69
439.386	242.69
439.608	261.69
439.829	255.69
440.05	272.69
440.272	269.69
440.493	255.69
440.715	272.69
440.936	270.69
441.158	251.69
441.379	263.69
441.6	278.69
441.822	291.69
442.043	267.69
442.264	274.69
442.486	273.69
442.707	265.69
442.928	283.69
443.149	272.69
443.371	263.69
443.592	278.69
443.813	279.69
444.034	284.69
444.255	283.69
444.476	299.69
444.698	315.69
444.919	315.69
445.14	477.69
445.361	360.69
445.582	282.69
445.803	270.69
446.024	266.69
446.245	291.69
446.466	268.69
446.687	271.69
446.908	276.69
447.129	277.69
447.35	265.69
447.571	271.69
447.792	249.69
448.013	247.69
448.234	247.69
448.455	247.69
448.675	236.69
448.896	242.69
449.117	245.69
449.338	231.69
449.559	235.69
449.779	246.69
450	258.69
450.221	253.69
450.442	247.69
450.662	241.69
450.883	248.69
451.104	263.69
451.324	230.69
451.545	238.69
451.766	229.69
451.986	232.69
452.207	231.69
452.428	238.69
452.648	244.69
452.869	227.69
453.089	237.69
453.31	222.69
453.53	220.69
453.751	210.69
453.971	223.69
454.192	216.69
454.412	199.69
454.633	204.69
454.853	222.69
455.073	214.69
455.294	214.69
455.514	241.69
455.734	212.69
455.955	212.69
456.175	224.69
456.395	214.69
456.616	205.69
456.836	190.69
457.056	195.69
457.276	196.69
457.497	218.69
457.717	208.69
457.937	214.69
458.157	191.69
458.377	196.69
458.598	202.69
458.818	187.69
459.038	186.69
459.258	206.69
459.478	196.69
459.698	222.69
459.918	232.69
460.138	258.69
460.358	260.69
460.578	271.69
460.798	258.69
461.018	258.69
461.238	260.69
461.458	262.69
461.678	254.69
461.898	264.69
462.118	262.69
462.338	265.69
462.558	254.69
462.777	274.69
462.997	294.69
463.217	311.69
463.437	290.69
463.657	300.69
463.876	267.69
464.096	295.69
464.316	277.69
464.536	275.69
464.755	301.69
464.975	267.69
465.195	260.69
465.414	269.69
465.634	234.69
465.854	247.69
466.073	250.69
466.293	222.69
466.512	229.69
466.732	237.69
466.951	252.69
467.171	235.69
467.391	235.69
467.61	244.69
467.829	236.69
468.049	254.69
468.268	228.69
468.488	228.69
468.707	240.69
468.927	241.69
469.146	242.69
469.365	252.69
469.585	256.69
469.804	259.69
470.023	251.69
470.243	249.69
470.462	249.69
470.681	250.69
470.901	266.69
471.12	247.69
471.339	258.69
471.558	247.69
471.777	249.69
471.997	234.69
472.216	223.69
472.435	225.69
472.654	203.69
472.873	200.69
473.092	224.69
473.311	223.69
473.53	211.69
473.749	250.69
473.968	249.69
474.187	234.69
474.406	237.69
474.625	232.69
474.844	228.69
475.063	223.69
475.282	214.69
475.501	229.69
475.72	234.69
475.939	205.69
476.158	219.69
476.377	223.69
476.596	237.69
476.814	234.69
477.033	204.69
477.252	227.69
477.471	238.69
477.69	244.69
477.908	260.69
478.127	262.69
478.346	263.69
478.564	274.69
478.783	264.69
479.002	274.69
479.22	262.69
479.439	271.69
479.658	250.69
479.876	229.69
480.095	254.69
480.313	267.69
480.532	247.69
480.751	232.69
480.969	233.69
481.188	219.69
481.406	235.69
481.624	220.69
481.843	214.69
482.061	215.69
482.28	235.69
482.498	223.69
482.717	231.69
482.935	246.69
483.153	264.69
483.372	260.69
483.59	279.69
483.808	268.69
484.027	252.69
484.245	262.69
484.463	268.69
484.681	286.69
484.9	254.69
485.118	256.69
485.336	247.69
485.554	239.69
485.772	246.69
485.99	233.69
486.209	244.69
486.427	262.69
486.645	262.69
486.863	268.69
487.081	253.69
487.299	247.69
487.517	266.69
487.735	296.69
487.953	325.69
488.171	310.69
488.389	285.69
488.607	269.69
488.825	253.69
489.043	244.69
489.261	237.69
489.479	245.69
489.696	262.69
489.914	258.69
490.132	271.69
490.35	271.69
490.568	295.69
490.786	284.69
491.003	302.69
491.221	307.69
491.439	322.69
491.657	322.69
491.874	323.69
492.092	331.69
492.31	359.69
492.527	362.69
492.745	329.69
492.963	341.69
493.18	327.69
493.398	339.69
493.615	319.69
493.833	314.69
494.05	302.69
494.268	299.69
494.485	311.69
494.703	316.69
494.92	301.69
495.138	313.69
495.355	305.69
495.573	311.69
495.79	296.69
496.008	291.69
496.225	297.69
496.442	296.69
496.66	300.69
496.877	309.69
497.094	315.69
497.312	304.69
497.529	301.69
497.746	320.69
497.963	311.69
498.181	316.69
498.398	327.69
498.615	322.69
498.832	333.69
499.049	340.69
499.267	390.69
499.484	419.69
499.701	439.69
499.918	508.69
500.135	540.69
500.352	627.69
500.569	580.69
500.786	606.69
501.003	541.69
501.22	495.69
501.437	461.69
501.654	410.69
501.871	379.69
502.088	370.69
502.305	340.69
502.522	344.69
502.739	330.69
502.956	306.69
503.172	288.69
503.389	281.69
503.606	284.69
503.823	272.69
504.04	293.69
504.256	269.69
504.473	272.69
504.69	291.69
