Data from SampA_HRD10591_00003.txt Node
Date: Mon Jan 19 11:26:47 EST 2026
User: Yrep
Spectrometer: HR+D1059
Trigger mode: 0
Integration Time (sec): 3.443000E-1
Scans to average: 1
Electric dark correction enabled: true
Nonlinearity correction enabled: false
Boxcar width: 0
XAxis mode: Wavelengths
Number of Pixels in Spectrum: 2048
>>>>>Begin Spectral Data<<<<<
223.165	-17.88
223.4	-17.88
223.635	-17.88
223.869	-24.88
224.104	-28.88
224.338	-20.88
224.573	-21.88
224.808	-19.88
225.042	-19.88
225.277	4.12
225.511	-6.88
225.746	15.12
225.98	12.12
226.215	15.12
226.449	17.12
226.683	28.12
226.918	32.12
227.152	37.12
227.387	54.12
227.621	48.12
227.856	53.12
228.09	46.12
228.324	43.12
228.559	67.12
228.793	53.12
229.027	83.12
229.262	56.12
229.496	70.12
229.73	82.12
229.964	91.12
230.199	85.12
230.433	86.12
230.667	109.12
230.901	82.12
231.136	83.12
231.37	72.12
231.604	90.12
231.838	79.12
232.072	80.12
232.306	87.12
232.541	83.12
232.775	83.12
233.009	81.12
233.243	81.12
233.477	89.12
233.711	90.12
233.945	80.12
234.179	93.12
234.413	95.12
234.647	77.12
234.881	80.12
235.115	87.12
235.349	86.12
235.583	86.12
235.817	81.12
236.051	79.12
236.285	78.12
236.519	81.12
236.753	83.12
236.987	103.12
237.221	88.12
237.455	86.12
237.689	79.12
237.922	86.12
238.156	76.12
238.39	79.12
238.624	75.12
238.858	72.12
239.091	78.12
239.325	77.12
239.559	92.12
239.793	97.12
240.027	102.12
240.26	93.12
240.494	87.12
240.728	89.12
240.961	87.12
241.195	97.12
241.429	84.12
241.662	96.12
241.896	73.12
242.13	91.12
242.363	94.12
242.597	84.12
242.83	100.12
243.064	88.12
243.298	87.12
243.531	99.12
243.765	100.12
243.998	90.12
244.232	103.12
244.465	90.12
244.699	94.12
244.932	95.12
245.166	88.12
245.399	85.12
245.633	94.12
245.866	94.12
246.099	98.12
246.333	102.12
246.566	93.12
246.8	107.12
247.033	92.12
247.266	105.12
247.5	105.12
247.733	85.12
247.966	98.12
248.2	98.12
248.433	92.12
248.666	105.12
248.899	88.12
249.133	93.12
249.366	108.12
249.599	105.12
249.832	81.12
250.066	107.12
250.299	88.12
250.532	88.12
250.765	108.12
250.998	90.12
251.231	80.12
251.465	86.12
251.698	96.12
251.931	107.12
252.164	107.12
252.397	93.12
252.63	110.12
252.863	95.12
253.096	95.12
253.329	85.12
253.562	101.12
253.795	102.12
254.028	94.12
254.261	100.12
254.494	95.12
254.727	100.12
254.96	95.12
255.193	92.12
255.426	98.12
255.659	118.12
255.892	106.12
256.124	81.12
256.357	100.12
256.59	104.12
256.823	98.12
257.056	103.12
257.289	91.12
257.521	104.12
257.754	93.12
257.987	97.12
258.22	118.12
258.452	96.12
258.685	112.12
258.918	109.12
259.151	111.12
259.383	116.12
259.616	110.12
259.849	114.12
260.081	95.12
260.314	105.12
260.547	104.12
260.779	108.12
261.012	115.12
261.244	105.12
261.477	121.12
261.71	109.12
261.942	107.12
262.175	111.12
262.407	102.12
262.64	108.12
262.872	109.12
263.105	104.12
263.337	113.12
263.57	103.12
263.802	112.12
264.035	103.12
264.267	102.12
264.499	102.12
264.732	123.12
264.964	115.12
265.197	98.12
265.429	116.12
265.661	115.12
265.894	109.12
266.126	125.12
266.358	113.12
266.591	101.12
266.823	110.12
267.055	108.12
267.287	122.12
267.52	125.12
267.752	121.12
267.984	113.12
268.216	114.12
268.448	108.12
268.681	117.12
268.913	118.12
269.145	110.12
269.377	109.12
269.609	124.12
269.841	118.12
270.073	102.12
270.306	120.12
270.538	126.12
270.77	101.12
271.002	112.12
271.234	113.12
271.466	124.12
271.698	118.12
271.93	114.12
272.162	130.12
272.394	121.12
272.626	117.12
272.858	111.12
273.09	129.12
273.322	102.12
273.553	119.12
273.785	128.12
274.017	121.12
274.249	124.12
274.481	121.12
274.713	125.12
274.945	125.12
275.176	121.12
275.408	124.12
275.64	112.12
275.872	116.12
276.104	127.12
276.335	127.12
276.567	124.12
276.799	107.12
277.031	100.12
277.262	108.12
277.494	114.12
277.726	123.12
277.957	123.12
278.189	125.12
278.421	114.12
278.652	125.12
278.884	130.12
279.115	110.12
279.347	127.12
279.579	139.12
279.81	116.12
280.042	117.12
280.273	121.12
280.505	122.12
280.736	128.12
280.968	118.12
281.199	123.12
281.431	126.12
281.662	140.12
281.894	143.12
282.125	133.12
282.356	143.12
282.588	129.12
282.819	126.12
283.051	120.12
283.282	119.12
283.513	123.12
283.745	129.12
283.976	120.12
284.207	137.12
284.439	133.12
284.67	134.12
284.901	149.12
285.132	129.12
285.364	127.12
285.595	139.12
285.826	130.12
286.057	133.12
286.288	124.12
286.52	117.12
286.751	146.12
286.982	121.12
287.213	133.12
287.444	127.12
287.675	133.12
287.906	124.12
288.138	156.12
288.369	136.12
288.6	132.12
288.831	132.12
289.062	130.12
289.293	148.12
289.524	117.12
289.755	112.12
289.986	124.12
290.217	146.12
290.448	138.12
290.679	155.12
290.91	140.12
291.141	136.12
291.371	130.12
291.602	145.12
291.833	119.12
292.064	139.12
292.295	148.12
292.526	136.12
292.757	135.12
292.987	153.12
293.218	141.12
293.449	139.12
293.68	134.12
293.91	144.12
294.141	162.12
294.372	117.12
294.603	134.12
294.833	144.12
295.064	128.12
295.295	119.12
295.525	117.12
295.756	154.12
295.987	168.12
296.217	149.12
296.448	133.12
296.679	163.12
296.909	155.12
297.14	153.12
297.37	141.12
297.601	141.12
297.831	159.12
298.062	153.12
298.292	145.12
298.523	160.12
298.753	132.12
298.984	159.12
299.214	153.12
299.445	153.12
299.675	149.12
299.905	148.12
300.136	130.12
300.366	150.12
300.597	163.12
300.827	161.12
301.057	137.12
301.288	144.12
301.518	150.12
301.748	158.12
301.979	170.12
302.209	137.12
302.439	143.12
302.669	144.12
302.9	143.12
303.13	148.12
303.36	142.12
303.59	138.12
303.82	131.12
304.051	148.12
304.281	156.12
304.511	151.12
304.741	153.12
304.971	150.12
305.201	154.12
305.431	147.12
305.661	159.12
305.891	126.12
306.121	156.12
306.352	142.12
306.582	152.12
306.812	150.12
307.042	147.12
307.272	156.12
307.502	159.12
307.731	153.12
307.961	144.12
308.191	139.12
308.421	155.12
308.651	152.12
308.881	174.12
309.111	150.12
309.341	138.12
309.571	152.12
309.8	159.12
310.03	152.12
310.26	156.12
310.49	145.12
310.72	147.12
310.949	150.12
311.179	148.12
311.409	151.12
311.639	152.12
311.868	166.12
312.098	164.12
312.328	146.12
312.557	163.12
312.787	168.12
313.017	176.12
313.246	158.12
313.476	148.12
313.706	149.12
313.935	148.12
314.165	151.12
314.394	144.12
314.624	166.12
314.853	161.12
315.083	159.12
315.312	172.12
315.542	155.12
315.771	140.12
316.001	143.12
316.23	157.12
316.46	139.12
316.689	168.12
316.919	157.12
317.148	169.12
317.377	163.12
317.607	151.12
317.836	139.12
318.065	137.12
318.295	145.12
318.524	154.12
318.753	160.12
318.983	159.12
319.212	159.12
319.441	162.12
319.67	154.12
319.9	154.12
320.129	149.12
320.358	150.12
320.587	159.12
320.816	145.12
321.046	152.12
321.275	164.12
321.504	147.12
321.733	162.12
321.962	140.12
322.191	153.12
322.42	163.12
322.649	161.12
322.878	180.12
323.108	172.12
323.337	156.12
323.566	178.12
323.795	164.12
324.024	159.12
324.253	155.12
324.482	169.12
324.71	161.12
324.939	175.12
325.168	176.12
325.397	151.12
325.626	168.12
325.855	160.12
326.084	149.12
326.313	172.12
326.542	161.12
326.77	174.12
326.999	165.12
327.228	171.12
327.457	162.12
327.686	169.12
327.914	147.12
328.143	162.12
328.372	168.12
328.6	170.12
328.829	154.12
329.058	165.12
329.287	145.12
329.515	170.12
329.744	162.12
329.972	157.12
330.201	170.12
330.43	157.12
330.658	160.12
330.887	179.12
331.115	166.12
331.344	175.12
331.572	172.12
331.801	186.12
332.03	174.12
332.258	185.12
332.486	182.12
332.715	185.12
332.943	190.12
333.172	197.12
333.4	199.12
333.629	202.12
333.857	210.12
334.085	215.12
334.314	186.12
334.542	193.12
334.771	186.12
334.999	210.12
335.227	194.12
335.455	178.12
335.684	189.12
335.912	174.12
336.14	180.12
336.369	174.12
336.597	186.12
336.825	172.12
337.053	177.12
337.281	179.12
337.51	165.12
337.738	178.12
337.966	172.12
338.194	192.12
338.422	168.12
338.65	178.12
338.878	177.12
339.106	172.12
339.334	182.12
339.562	156.12
339.79	173.12
340.018	153.12
340.246	156.12
340.474	158.12
340.702	169.12
340.93	180.12
341.158	157.12
341.386	170.12
341.614	159.12
341.842	167.12
342.07	174.12
342.298	171.12
342.526	174.12
342.754	148.12
342.981	175.12
343.209	168.12
343.437	193.12
343.665	190.12
343.893	194.12
344.12	187.12
344.348	182.12
344.576	176.12
344.804	184.12
345.031	170.12
345.259	182.12
345.487	165.12
345.714	159.12
345.942	168.12
346.17	173.12
346.397	163.12
346.625	159.12
346.853	169.12
347.08	172.12
347.308	173.12
347.535	184.12
347.763	172.12
347.99	161.12
348.218	170.12
348.445	168.12
348.673	162.12
348.9	173.12
349.128	174.12
349.355	169.12
349.583	166.12
349.81	168.12
350.037	163.12
350.265	166.12
350.492	158.12
350.72	162.12
350.947	166.12
351.174	164.12
351.402	162.12
351.629	168.12
351.856	166.12
352.083	152.12
352.311	161.12
352.538	149.12
352.765	171.12
352.992	162.12
353.22	165.12
353.447	167.12
353.674	176.12
353.901	156.12
354.128	161.12
354.355	147.12
354.583	161.12
354.81	172.12
355.037	170.12
355.264	157.12
355.491	168.12
355.718	154.12
355.945	174.12
356.172	164.12
356.399	156.12
356.626	154.12
356.853	166.12
357.08	166.12
357.307	150.12
357.534	172.12
357.761	160.12
357.988	165.12
358.215	184.12
358.441	160.12
358.668	172.12
358.895	158.12
359.122	171.12
359.349	180.12
359.576	159.12
359.802	172.12
360.029	153.12
360.256	142.12
360.483	137.12
360.709	150.12
360.936	178.12
361.163	164.12
361.39	160.12
361.616	175.12
361.843	166.12
362.07	170.12
362.296	147.12
362.523	167.12
362.749	181.12
362.976	164.12
363.203	181.12
363.429	164.12
363.656	180.12
363.882	168.12
364.109	167.12
364.335	174.12
364.562	167.12
364.788	154.12
365.015	162.12
365.241	164.12
365.468	178.12
365.694	153.12
365.92	187.12
366.147	169.12
366.373	156.12
366.599	145.12
366.826	163.12
367.052	172.12
367.278	167.12
367.505	169.12
367.731	174.12
367.957	170.12
368.184	167.12
368.41	173.12
368.636	172.12
368.862	159.12
369.089	168.12
369.315	162.12
369.541	161.12
369.767	172.12
369.993	171.12
370.219	170.12
370.445	171.12
370.672	171.12
370.898	160.12
371.124	175.12
371.35	168.12
371.576	174.12
371.802	163.12
372.028	175.12
372.254	172.12
372.48	180.12
372.706	177.12
372.932	187.12
373.158	166.12
373.384	198.12
373.61	185.12
373.835	174.12
374.061	168.12
374.287	191.12
374.513	186.12
374.739	178.12
374.965	189.12
375.191	193.12
375.416	197.12
375.642	185.12
375.868	178.12
376.094	178.12
376.319	168.12
376.545	171.12
376.771	180.12
376.997	182.12
377.222	181.12
377.448	174.12
377.674	178.12
377.899	168.12
378.125	189.12
378.35	179.12
378.576	160.12
378.802	187.12
379.027	163.12
379.253	184.12
379.478	153.12
379.704	172.12
379.929	170.12
380.155	174.12
380.38	176.12
380.606	171.12
380.831	163.12
381.057	183.12
381.282	178.12
381.507	184.12
381.733	185.12
381.958	175.12
382.184	185.12
382.409	180.12
382.634	184.12
382.86	173.12
383.085	173.12
383.31	185.12
383.535	209.12
383.761	199.12
383.986	196.12
384.211	204.12
384.436	194.12
384.662	206.12
384.887	207.12
385.112	206.12
385.337	203.12
385.562	201.12
385.787	209.12
386.013	209.12
386.238	197.12
386.463	202.12
386.688	231.12
386.913	200.12
387.138	200.12
387.363	194.12
387.588	199.12
387.813	206.12
388.038	195.12
388.263	222.12
388.488	207.12
388.713	201.12
388.938	222.12
389.163	216.12
389.387	208.12
389.612	194.12
389.837	213.12
390.062	201.12
390.287	202.12
390.512	209.12
390.736	205.12
390.961	220.12
391.186	188.12
391.411	218.12
391.636	225.12
391.86	229.12
392.085	232.12
392.31	226.12
392.534	224.12
392.759	228.12
392.984	245.12
393.208	257.12
393.433	269.12
393.658	251.12
393.882	225.12
394.107	230.12
394.331	231.12
394.556	220.12
394.78	232.12
395.005	229.12
395.229	236.12
395.454	223.12
395.678	222.12
395.903	230.12
396.127	246.12
396.352	228.12
396.576	245.12
396.801	237.12
397.025	245.12
397.249	242.12
397.474	255.12
397.698	226.12
397.922	230.12
398.147	251.12
398.371	255.12
398.595	262.12
398.82	274.12
399.044	274.12
399.268	319.12
399.492	339.12
399.717	337.12
399.941	355.12
400.165	321.12
400.389	285.12
400.613	261.12
400.837	281.12
401.062	273.12
401.286	266.12
401.51	260.12
401.734	277.12
401.958	287.12
402.182	283.12
402.406	285.12
402.63	287.12
402.854	287.12
403.078	299.12
403.302	320.12
403.526	327.12
403.75	321.12
403.974	315.12
404.198	305.12
404.422	329.12
404.645	312.12
404.869	320.12
405.093	306.12
405.317	310.12
405.541	321.12
405.765	284.12
405.988	312.12
406.212	310.12
406.436	326.12
406.66	326.12
406.883	336.12
407.107	340.12
407.331	321.12
407.555	368.12
407.778	350.12
408.002	350.12
408.226	336.12
408.449	345.12
408.673	321.12
408.896	344.12
409.12	342.12
409.344	337.12
409.567	309.12
409.791	335.12
410.014	334.12
410.238	322.12
410.461	332.12
410.685	342.12
410.908	326.12
411.132	323.12
411.355	310.12
411.578	301.12
411.802	308.12
412.025	314.12
412.249	318.12
412.472	312.12
412.695	302.12
412.919	307.12
413.142	307.12
413.365	314.12
413.589	329.12
413.812	308.12
414.035	304.12
414.258	310.12
414.482	314.12
414.705	327.12
414.928	326.12
415.151	319.12
415.374	292.12
415.597	309.12
415.821	319.12
416.044	293.12
416.267	310.12
416.49	309.12
416.713	323.12
416.936	312.12
417.159	319.12
417.382	294.12
417.605	312.12
417.828	317.12
418.051	296.12
418.274	313.12
418.497	332.12
418.72	318.12
418.943	327.12
419.166	335.12
419.389	360.12
419.611	344.12
419.834	348.12
420.057	337.12
420.28	329.12
420.503	318.12
420.726	303.12
420.948	325.12
421.171	329.12
421.394	317.12
421.617	327.12
421.839	338.12
422.062	336.12
422.285	328.12
422.507	339.12
422.73	314.12
422.953	333.12
423.175	322.12
423.398	317.12
423.621	341.12
423.843	348.12
424.066	328.12
424.288	338.12
424.511	327.12
424.733	332.12
424.956	337.12
425.178	320.12
425.401	327.12
425.623	326.12
425.846	309.12
426.068	309.12
426.291	305.12
426.513	318.12
426.735	315.12
426.958	298.12
427.18	294.12
427.402	307.12
427.625	275.12
427.847	307.12
428.069	281.12
428.292	313.12
428.514	296.12
428.736	302.12
428.958	289.12
429.181	282.12
429.403	279.12
429.625	290.12
429.847	292.12
430.069	301.12
430.292	303.12
430.514	261.12
430.736	304.12
430.958	290.12
431.18	281.12
431.402	263.12
431.624	273.12
431.846	275.12
432.068	266.12
432.29	272.12
432.512	283.12
432.734	285.12
432.956	312.12
433.178	296.12
433.4	300.12
433.622	307.12
433.844	309.12
434.066	290.12
434.287	286.12
434.509	270.12
434.731	267.12
434.953	314.12
435.175	312.12
435.397	309.12
435.618	291.12
435.84	273.12
436.062	282.12
436.284	288.12
436.505	304.12
436.727	287.12
436.949	293.12
437.17	284.12
437.392	289.12
437.614	292.12
437.835	267.12
438.057	266.12
438.278	276.12
438.5	267.12
438.721	287.12
438.943	311.12
439.165	306.12
439.386	298.12
439.608	281.12
439.829	284.12
440.05	298.12
440.272	306.12
440.493	317.12
440.715	294.12
440.936	313.12
441.158	332.12
441.379	335.12
441.6	329.12
441.822	344.12
442.043	333.12
442.264	321.12
442.486	325.12
442.707	312.12
442.928	329.12
443.149	340.12
443.371	320.12
443.592	306.12
443.813	329.12
444.034	325.12
444.255	340.12
444.476	353.12
444.698	370.12
444.919	364.12
445.14	542.12
445.361	410.12
445.582	346.12
445.803	321.12
446.024	309.12
446.245	307.12
446.466	321.12
446.687	306.12
446.908	299.12
447.129	307.12
447.35	311.12
447.571	299.12
447.792	291.12
448.013	296.12
448.234	295.12
448.455	274.12
448.675	276.12
448.896	281.12
449.117	298.12
449.338	260.12
449.559	284.12
449.779	286.12
450	296.12
450.221	278.12
450.442	285.12
450.662	291.12
450.883	306.12
451.104	282.12
451.324	277.12
451.545	285.12
451.766	273.12
451.986	277.12
452.207	265.12
452.428	255.12
452.648	272.12
452.869	252.12
453.089	255.12
453.31	256.12
453.53	253.12
453.751	241.12
453.971	267.12
454.192	244.12
454.412	243.12
454.633	256.12
454.853	261.12
455.073	251.12
455.294	290.12
455.514	303.12
455.734	269.12
455.955	242.12
456.175	254.12
456.395	250.12
456.616	246.12
456.836	250.12
457.056	240.12
457.276	231.12
457.497	266.12
457.717	244.12
457.937	230.12
458.157	242.12
458.377	247.12
458.598	235.12
458.818	246.12
459.038	253.12
459.258	238.12
459.478	265.12
459.698	264.12
459.918	269.12
460.138	287.12
460.358	298.12
460.578	303.12
460.798	310.12
461.018	299.12
461.238	304.12
461.458	325.12
461.678	326.12
461.898	316.12
462.118	322.12
462.338	326.12
462.558	339.12
462.777	351.12
462.997	368.12
463.217	392.12
463.437	365.12
463.657	354.12
463.876	330.12
464.096	354.12
464.316	336.12
464.536	350.12
464.755	338.12
464.975	332.12
465.195	305.12
465.414	293.12
465.634	286.12
465.854	284.12
466.073	282.12
466.293	289.12
466.512	285.12
466.732	280.12
466.951	292.12
467.171	276.12
467.391	295.12
467.61	288.12
467.829	272.12
468.049	285.12
468.268	276.12
468.488	278.12
468.707	281.12
468.927	291.12
469.146	275.12
469.365	300.12
469.585	276.12
469.804	292.12
470.023	309.12
470.243	302.12
470.462	281.12
470.681	314.12
470.901	286.12
471.12	296.12
471.339	290.12
471.558	287.12
471.777	281.12
471.997	279.12
472.216	281.12
472.435	258.12
472.654	268.12
472.873	268.12
473.092	261.12
473.311	260.12
473.53	265.12
473.749	270.12
473.968	278.12
474.187	267.12
474.406	240.12
474.625	260.12
474.844	258.12
475.063	266.12
475.282	253.12
475.501	262.12
475.72	280.12
475.939	256.12
476.158	273.12
476.377	292.12
476.596	266.12
476.814	277.12
477.033	264.12
477.252	269.12
477.471	296.12
477.69	295.12
477.908	310.12
478.127	328.12
478.346	313.12
478.564	319.12
478.783	311.12
479.002	321.12
479.22	314.12
479.439	319.12
479.658	293.12
479.876	306.12
480.095	279.12
480.313	333.12
480.532	321.12
480.751	303.12
480.969	279.12
481.188	270.12
481.406	262.12
481.624	261.12
481.843	272.12
482.061	262.12
482.28	284.12
482.498	267.12
482.717	271.12
482.935	284.12
483.153	282.12
483.372	312.12
483.59	322.12
483.808	303.12
484.027	274.12
484.245	309.12
484.463	303.12
484.681	326.12
484.9	308.12
485.118	313.12
485.336	287.12
485.554	285.12
485.772	299.12
485.99	289.12
486.209	302.12
486.427	277.12
486.645	310.12
486.863	300.12
487.081	321.12
487.299	302.12
487.517	321.12
487.735	353.12
487.953	338.12
488.171	349.12
488.389	328.12
488.607	327.12
488.825	297.12
489.043	297.12
489.261	310.12
489.479	313.12
489.696	330.12
489.914	318.12
490.132	314.12
490.35	324.12
490.568	318.12
490.786	341.12
491.003	342.12
491.221	334.12
491.439	352.12
491.657	371.12
491.874	363.12
492.092	397.12
492.31	404.12
492.527	382.12
492.745	381.12
492.963	354.12
493.18	386.12
493.398	384.12
493.615	425.12
493.833	375.12
494.05	364.12
494.268	364.12
494.485	352.12
494.703	367.12
494.92	374.12
495.138	368.12
495.355	373.12
495.573	354.12
495.79	355.12
496.008	357.12
496.225	367.12
496.442	355.12
496.66	366.12
496.877	360.12
497.094	384.12
497.312	365.12
497.529	366.12
497.746	365.12
497.963	382.12
498.181	376.12
498.398	373.12
498.615	398.12
498.832	409.12
499.049	453.12
499.267	485.12
499.484	526.12
499.701	570.12
499.918	607.12
500.135	689.12
500.352	749.12
500.569	760.12
500.786	761.12
501.003	718.12
501.22	640.12
501.437	570.12
501.654	508.12
501.871	492.12
502.088	454.12
502.305	416.12
502.522	424.12
502.739	422.12
502.956	412.12
503.172	365.12
503.389	350.12
503.606	353.12
503.823	340.12
504.04	344.12
